,Fp1[1],Fp2[2],F3[3],F4[4],C3[5],C4[6],P3[7],P4[8],O1[9],O2[10],F7[11],F8[12],T3[13],T4[14],T5[15],T6[16],Fz[17],Pz[18],Cz[19],Pg1[20],Pg2[21],EOGR[22],EOOGL[23],EMG[24]
0,8.492063492063492,-154.04761904761904,4.682539682539682,-152.46031746031744,-2.7777777777777777,-141.34920634920636,9.920634920634921,-144.2063492063492,12.619047619047619,-205.79365079365078,-58.01587301587301,-154.52380952380952,7.222222222222221,-152.14285714285714,8.333333333333332,-108.80952380952381,-3.888888888888889,0.23809523809523808,-325.0,-325.0,-325.0,-325.0,-325.0,-7.5396825396825395
1,8.492063492063492,-154.04761904761904,4.682539682539682,-152.46031746031744,-2.7777777777777777,-141.34920634920636,9.920634920634921,-144.2063492063492,12.619047619047619,-205.79365079365078,-58.01587301587301,-154.52380952380952,7.222222222222221,-152.14285714285714,8.333333333333332,-108.80952380952381,-3.888888888888889,0.23809523809523808,-325.0,-325.0,-325.0,-325.0,-325.0,-7.5396825396825395
2,9.126984126984127,-138.8095238095238,3.888888888888889,-139.12698412698413,-1.6666666666666665,-128.8095238095238,5.158730158730158,-124.84126984126983,2.9365079365079363,-127.38095238095238,20.71428571428571,-139.44444444444443,7.063492063492063,-135.63492063492063,-0.3968253968253968,-138.015873015873,-3.888888888888889,0.873015873015873,-325.0,-325.0,-325.0,-325.0,-325.0,-7.5396825396825395
3,9.126984126984127,-138.8095238095238,3.888888888888889,-139.12698412698413,-1.6666666666666665,-128.8095238095238,5.158730158730158,-124.84126984126983,2.9365079365079363,-127.38095238095238,20.71428571428571,-139.44444444444443,7.063492063492063,-135.63492063492063,-0.3968253968253968,-138.015873015873,-3.888888888888889,0.873015873015873,-325.0,-325.0,-325.0,-325.0,-325.0,-7.5396825396825395
4,23.730158730158728,-112.6190476190476,11.19047619047619,-119.12698412698413,-13.095238095238095,-111.19047619047619,-1.984126984126984,-106.74603174603175,-1.0317460317460316,-208.96825396825395,56.74603174603174,-122.6190476190476,6.428571428571428,-115.63492063492063,-4.0476190476190474,-155.79365079365078,-3.253968253968254,0.7142857142857142,-325.0,-325.0,-325.0,-325.0,-325.0,-7.5396825396825395
5,23.730158730158728,-112.6190476190476,11.19047619047619,-119.12698412698413,-13.095238095238095,-111.19047619047619,-1.984126984126984,-106.74603174603175,-1.0317460317460316,-208.96825396825395,56.74603174603174,-122.6190476190476,6.428571428571428,-115.63492063492063,-4.0476190476190474,-155.79365079365078,-3.253968253968254,0.7142857142857142,-325.0,-325.0,-325.0,-325.0,-325.0,-7.5396825396825395
6,34.52380952380952,-68.01587301587301,-1.507936507936508,-95.15873015873015,-19.444444444444443,-80.55555555555556,-8.968253968253968,-71.34920634920634,-1.349206349206349,-251.5079365079365,29.6031746031746,-97.6984126984127,1.8253968253968254,-70.07936507936508,-2.7777777777777777,-133.25396825396825,-3.73015873015873,0.873015873015873,-325.0,-325.0,-325.0,-325.0,-325.0,-7.5396825396825395
7,34.52380952380952,-68.01587301587301,-1.507936507936508,-95.15873015873015,-19.444444444444443,-80.55555555555556,-8.968253968253968,-71.34920634920634,-1.349206349206349,-251.5079365079365,29.6031746031746,-97.6984126984127,1.8253968253968254,-70.07936507936508,-2.7777777777777777,-133.25396825396825,-3.73015873015873,0.873015873015873,-325.0,-325.0,-325.0,-325.0,-325.0,-7.5396825396825395
8,62.14285714285714,-2.3015873015873014,-2.9365079365079363,-44.2063492063492,-10.238095238095237,-31.507936507936506,-13.412698412698411,-11.507936507936508,0.873015873015873,-128.17460317460316,57.53968253968254,-47.38095238095238,8.333333333333332,-5.634920634920634,-0.3968253968253968,-121.19047619047619,-4.0476190476190474,0.873015873015873,-325.0,-325.0,-325.0,-325.0,-325.0,-7.5396825396825395
9,62.14285714285714,-2.3015873015873014,-2.9365079365079363,-44.2063492063492,-10.238095238095237,-31.507936507936506,-13.412698412698411,-11.507936507936508,0.873015873015873,-128.17460317460316,57.53968253968254,-47.38095238095238,8.333333333333332,-5.634920634920634,-0.3968253968253968,-121.19047619047619,-4.0476190476190474,0.873015873015873,-325.0,-325.0,-325.0,-325.0,-325.0,-7.5396825396825395
10,61.507936507936506,69.6031746031746,-1.6666666666666665,28.333333333333332,-2.619047619047619,50.238095238095234,-6.904761904761904,68.96825396825396,7.222222222222221,-60.55555555555555,77.22222222222221,22.777777777777775,9.761904761904761,67.85714285714285,0.07936507936507936,-41.34920634920635,-3.73015873015873,0.3968253968253968,-325.0,-325.0,-325.0,-325.0,-325.0,-321.8253968253968
11,61.507936507936506,69.6031746031746,-1.6666666666666665,28.333333333333332,-2.619047619047619,50.238095238095234,-6.904761904761904,68.96825396825396,7.222222222222221,-60.55555555555555,77.22222222222221,22.777777777777775,9.761904761904761,67.85714285714285,0.07936507936507936,-41.34920634920635,-3.73015873015873,0.3968253968253968,-325.0,-325.0,-325.0,-325.0,-325.0,-321.8253968253968
12,45.15873015873016,92.46031746031746,-12.3015873015873,59.12698412698413,-4.523809523809524,72.77777777777777,-16.26984126984127,100.87301587301587,0.873015873015873,41.82539682539682,115.79365079365078,62.14285714285714,6.904761904761904,113.09523809523809,-7.063492063492063,3.571428571428571,-3.4126984126984126,0.5555555555555556,-325.0,-325.0,-325.0,-325.0,-325.0,-321.8253968253968
13,45.15873015873016,92.46031746031746,-12.3015873015873,59.12698412698413,-4.523809523809524,72.77777777777777,-16.26984126984127,100.87301587301587,0.873015873015873,41.82539682539682,115.79365079365078,62.14285714285714,6.904761904761904,113.09523809523809,-7.063492063492063,3.571428571428571,-3.4126984126984126,0.5555555555555556,-325.0,-325.0,-325.0,-325.0,-325.0,-321.8253968253968
14,30.238095238095237,86.58730158730158,-11.349206349206348,65.79365079365078,-12.3015873015873,84.36507936507937,-17.539682539682538,106.26984126984127,5.158730158730158,22.936507936507937,18.96825396825397,67.53968253968253,5.952380952380952,112.6190476190476,-8.015873015873016,-20.238095238095237,-3.253968253968254,0.3968253968253968,-325.0,-325.0,-325.0,-325.0,-325.0,-321.8253968253968
15,30.238095238095237,86.58730158730158,-11.349206349206348,65.79365079365078,-12.3015873015873,84.36507936507937,-17.539682539682538,106.26984126984127,5.158730158730158,22.936507936507937,18.96825396825397,67.53968253968253,5.952380952380952,112.6190476190476,-8.015873015873016,-20.238095238095237,-3.253968253968254,0.3968253968253968,-325.0,-325.0,-325.0,-325.0,-325.0,-321.8253968253968
16,15.476190476190474,79.6031746031746,-17.063492063492063,53.095238095238095,-15.476190476190474,73.25396825396825,-12.142857142857142,100.71428571428571,7.5396825396825395,84.52380952380952,-52.77777777777777,54.2063492063492,3.4126984126984126,99.12698412698413,-3.888888888888889,-76.26984126984127,-3.571428571428571,0.7142857142857142,-325.0,-325.0,-325.0,-325.0,-325.0,-321.8253968253968
17,15.476190476190474,79.6031746031746,-17.063492063492063,53.095238095238095,-15.476190476190474,73.25396825396825,-12.142857142857142,100.71428571428571,7.5396825396825395,84.52380952380952,-52.77777777777777,54.2063492063492,3.4126984126984126,99.12698412698413,-3.888888888888889,-76.26984126984127,-3.571428571428571,0.7142857142857142,-325.0,-325.0,-325.0,-325.0,-325.0,-321.8253968253968
18,36.42857142857142,86.26984126984127,-11.349206349206348,48.80952380952381,-12.46031746031746,72.93650793650794,-18.80952380952381,88.65079365079364,-2.46031746031746,34.2063492063492,-51.03174603174603,48.01587301587301,1.507936507936508,91.82539682539682,-13.253968253968253,-115.15873015873015,-3.571428571428571,0.23809523809523808,-325.0,-325.0,-325.0,-325.0,-325.0,-321.8253968253968
19,36.42857142857142,86.26984126984127,-11.349206349206348,48.80952380952381,-12.46031746031746,72.93650793650794,-18.80952380952381,88.65079365079364,-2.46031746031746,34.2063492063492,-51.03174603174603,48.01587301587301,1.507936507936508,91.82539682539682,-13.253968253968253,-115.15873015873015,-3.571428571428571,0.23809523809523808,-325.0,-325.0,-325.0,-325.0,-325.0,-321.8253968253968
20,50.55555555555555,80.55555555555556,4.2063492063492065,46.42857142857142,3.888888888888889,68.96825396825396,-12.142857142857142,74.2063492063492,-1.8253968253968254,25.952380952380953,-15.793650793650793,33.73015873015873,7.5396825396825395,72.3015873015873,-10.873015873015872,-122.30158730158729,-2.9365079365079363,0.3968253968253968,-325.0,-325.0,-325.0,-325.0,-325.0,-7.5396825396825395
21,50.55555555555555,80.55555555555556,4.2063492063492065,46.42857142857142,3.888888888888889,68.96825396825396,-12.142857142857142,74.2063492063492,-1.8253968253968254,25.952380952380953,-15.793650793650793,33.73015873015873,7.5396825396825395,72.3015873015873,-10.873015873015872,-122.30158730158729,-2.9365079365079363,0.3968253968253968,-325.0,-325.0,-325.0,-325.0,-325.0,-7.5396825396825395
22,55.95238095238095,69.12698412698413,3.095238095238095,31.349206349206348,11.984126984126984,49.76190476190476,-7.063492063492063,57.38095238095238,6.111111111111111,195.15873015873015,2.46031746031746,19.6031746031746,6.746031746031746,53.57142857142857,-1.6666666666666665,-118.8095238095238,-3.73015873015873,-0.07936507936507936,-325.0,-325.0,-325.0,-325.0,-325.0,-7.5396825396825395
23,55.95238095238095,69.12698412698413,3.095238095238095,31.349206349206348,11.984126984126984,49.76190476190476,-7.063492063492063,57.38095238095238,6.111111111111111,195.15873015873015,2.46031746031746,19.6031746031746,6.746031746031746,53.57142857142857,-1.6666666666666665,-118.8095238095238,-3.73015873015873,-0.07936507936507936,-325.0,-325.0,-325.0,-325.0,-325.0,-7.5396825396825395
24,58.8095238095238,51.03174603174603,-3.73015873015873,-31.349206349206348,10.555555555555555,20.71428571428571,2.46031746031746,37.38095238095238,16.746031746031743,325.0,24.84126984126984,2.619047619047619,9.603174603174603,35.63492063492063,6.587301587301587,-118.96825396825396,-3.253968253968254,-0.07936507936507936,-325.0,-325.0,-325.0,-325.0,-325.0,-7.5396825396825395
25,58.8095238095238,51.03174603174603,-3.73015873015873,-31.349206349206348,10.555555555555555,20.71428571428571,2.46031746031746,37.38095238095238,16.746031746031743,325.0,24.84126984126984,2.619047619047619,9.603174603174603,35.63492063492063,6.587301587301587,-118.96825396825396,-3.253968253968254,-0.07936507936507936,-325.0,-325.0,-325.0,-325.0,-325.0,-7.5396825396825395
26,72.77777777777777,41.507936507936506,16.587301587301585,2.7777777777777777,21.507936507936506,23.730158730158728,7.063492063492063,27.857142857142854,18.333333333333332,325.0,25.79365079365079,-5.7936507936507935,9.761904761904761,20.873015873015873,6.904761904761904,-119.12698412698413,-3.73015873015873,-0.23809523809523808,-325.0,-325.0,-325.0,-325.0,-325.0,-7.5396825396825395
27,72.77777777777777,41.507936507936506,16.587301587301585,2.7777777777777777,21.507936507936506,23.730158730158728,7.063492063492063,27.857142857142854,18.333333333333332,325.0,25.79365079365079,-5.7936507936507935,9.761904761904761,20.873015873015873,6.904761904761904,-119.12698412698413,-3.73015873015873,-0.23809523809523808,-325.0,-325.0,-325.0,-325.0,-325.0,-7.5396825396825395
28,53.73015873015873,33.095238095238095,7.222222222222221,-6.428571428571428,11.507936507936508,5.158730158730158,0.3968253968253968,23.095238095238095,18.015873015873016,325.0,31.03174603174603,-11.825396825396824,2.9365079365079363,4.841269841269841,5.158730158730158,-165.3174603174603,-2.619047619047619,-0.07936507936507936,-325.0,-325.0,-325.0,-325.0,-325.0,-7.5396825396825395
29,53.73015873015873,33.095238095238095,7.222222222222221,-6.428571428571428,11.507936507936508,5.158730158730158,0.3968253968253968,23.095238095238095,18.015873015873016,325.0,31.03174603174603,-11.825396825396824,2.9365079365079363,4.841269841269841,5.158730158730158,-165.3174603174603,-2.619047619047619,-0.07936507936507936,-325.0,-325.0,-325.0,-325.0,-325.0,-7.5396825396825395
30,34.84126984126984,-1.6666666666666665,9.126984126984127,-24.206349206349206,18.80952380952381,-11.031746031746032,3.4126984126984126,-11.507936507936508,11.666666666666666,325.0,65.47619047619047,-28.174603174603174,4.523809523809524,-19.92063492063492,10.396825396825395,-188.96825396825395,-3.253968253968254,-0.5555555555555556,-325.0,-325.0,-325.0,-325.0,-325.0,-321.8253968253968
31,34.84126984126984,-1.6666666666666665,9.126984126984127,-24.206349206349206,18.80952380952381,-11.031746031746032,3.4126984126984126,-11.507936507936508,11.666666666666666,325.0,65.47619047619047,-28.174603174603174,4.523809523809524,-19.92063492063492,10.396825396825395,-188.96825396825395,-3.253968253968254,-0.5555555555555556,-325.0,-325.0,-325.0,-325.0,-325.0,-321.8253968253968
32,15.317460317460316,-19.126984126984127,17.539682539682538,-35.0,20.396825396825395,-19.6031746031746,7.063492063492063,-26.11111111111111,5.7936507936507935,325.0,74.04761904761904,-37.22222222222222,3.571428571428571,-40.55555555555555,11.666666666666666,-193.7301587301587,-3.888888888888889,-0.23809523809523808,-325.0,-325.0,-325.0,-325.0,-325.0,-321.8253968253968
33,15.317460317460316,-19.126984126984127,17.539682539682538,-35.0,20.396825396825395,-19.6031746031746,7.063492063492063,-26.11111111111111,5.7936507936507935,325.0,74.04761904761904,-37.22222222222222,3.571428571428571,-40.55555555555555,11.666666666666666,-193.7301587301587,-3.888888888888889,-0.23809523809523808,-325.0,-325.0,-325.0,-325.0,-325.0,-321.8253968253968
34,-25.317460317460316,-70.87301587301587,1.0317460317460316,-61.34920634920635,10.238095238095237,-41.98412698412698,10.555555555555555,-49.76190476190476,4.365079365079365,325.0,23.730158730158728,-60.71428571428571,1.984126984126984,-72.61904761904762,12.936507936507935,-207.69841269841268,-4.523809523809524,0.5555555555555556,-325.0,-325.0,-325.0,-325.0,-325.0,-321.8253968253968
35,-25.317460317460316,-70.87301587301587,1.0317460317460316,-61.34920634920635,10.238095238095237,-41.98412698412698,10.555555555555555,-49.76190476190476,4.365079365079365,325.0,23.730158730158728,-60.71428571428571,1.984126984126984,-72.61904761904762,12.936507936507935,-207.69841269841268,-4.523809523809524,0.5555555555555556,-325.0,-325.0,-325.0,-325.0,-325.0,-321.8253968253968
36,-52.93650793650794,-94.36507936507935,5.317460317460317,-67.6984126984127,11.666666666666666,-44.2063492063492,6.904761904761904,-69.28571428571428,-9.920634920634921,325.0,49.6031746031746,-65.31746031746032,-1.1904761904761905,-96.1111111111111,2.46031746031746,-223.09523809523807,-3.571428571428571,0.3968253968253968,-325.0,-325.0,-325.0,-325.0,-325.0,-321.8253968253968
37,-52.93650793650794,-94.36507936507935,5.317460317460317,-67.6984126984127,11.666666666666666,-44.2063492063492,6.904761904761904,-69.28571428571428,-9.920634920634921,325.0,49.6031746031746,-65.31746031746032,-1.1904761904761905,-96.1111111111111,2.46031746031746,-223.09523809523807,-3.571428571428571,0.3968253968253968,-325.0,-325.0,-325.0,-325.0,-325.0,-321.8253968253968
38,-73.57142857142857,-96.74603174603175,7.222222222222221,-73.57142857142857,4.365079365079365,-59.76190476190476,7.222222222222221,-84.52380952380952,-7.698412698412698,325.0,62.93650793650793,-69.92063492063491,-5.476190476190476,-105.15873015873015,-1.984126984126984,-212.14285714285714,-3.4126984126984126,0.3968253968253968,-325.0,-325.0,-325.0,-325.0,-325.0,-321.8253968253968
39,-73.57142857142857,-96.74603174603175,7.222222222222221,-73.57142857142857,4.365079365079365,-59.76190476190476,7.222222222222221,-84.52380952380952,-7.698412698412698,325.0,62.93650793650793,-69.92063492063491,-5.476190476190476,-105.15873015873015,-1.984126984126984,-212.14285714285714,-3.4126984126984126,0.3968253968253968,-325.0,-325.0,-325.0,-325.0,-325.0,-321.8253968253968
40,-86.58730158730158,-123.4126984126984,2.142857142857143,-91.5079365079365,10.396825396825395,-70.07936507936508,13.571428571428571,-96.42857142857142,1.0317460317460316,325.0,63.25396825396825,-86.74603174603175,-5.7936507936507935,-116.26984126984127,6.904761904761904,-134.52380952380952,-2.7777777777777777,-0.23809523809523808,-325.0,-325.0,-325.0,-325.0,-325.0,-7.5396825396825395
41,-86.58730158730158,-123.4126984126984,2.142857142857143,-91.5079365079365,10.396825396825395,-70.07936507936508,13.571428571428571,-96.42857142857142,1.0317460317460316,325.0,63.25396825396825,-86.74603174603175,-5.7936507936507935,-116.26984126984127,6.904761904761904,-134.52380952380952,-2.7777777777777777,-0.23809523809523808,-325.0,-325.0,-325.0,-325.0,-325.0,-7.5396825396825395
42,-79.12698412698413,-124.2063492063492,3.888888888888889,-87.38095238095238,16.746031746031743,-79.6031746031746,2.3015873015873014,-107.85714285714285,-21.19047619047619,325.0,94.36507936507935,-89.28571428571428,-3.095238095238095,-123.09523809523809,-2.46031746031746,-58.8095238095238,-3.253968253968254,0.23809523809523808,-325.0,-325.0,-325.0,-325.0,-325.0,-7.5396825396825395
43,-79.12698412698413,-124.2063492063492,3.888888888888889,-87.38095238095238,16.746031746031743,-79.6031746031746,2.3015873015873014,-107.85714285714285,-21.19047619047619,325.0,94.36507936507935,-89.28571428571428,-3.095238095238095,-123.09523809523809,-2.46031746031746,-58.8095238095238,-3.253968253968254,0.23809523809523808,-325.0,-325.0,-325.0,-325.0,-325.0,-7.5396825396825395
44,-88.80952380952381,-110.39682539682539,7.063492063492063,-65.63492063492063,13.412698412698411,-63.095238095238095,11.19047619047619,-78.4920634920635,-17.22222222222222,173.09523809523807,149.9206349206349,-70.55555555555556,-1.1904761904761905,-110.39682539682539,-3.095238095238095,-25.79365079365079,-2.7777777777777777,0.07936507936507936,-325.0,-325.0,-325.0,-325.0,-325.0,-7.5396825396825395
45,-88.80952380952381,-110.39682539682539,7.063492063492063,-65.63492063492063,13.412698412698411,-63.095238095238095,11.19047619047619,-78.4920634920635,-17.22222222222222,173.09523809523807,149.9206349206349,-70.55555555555556,-1.1904761904761905,-110.39682539682539,-3.095238095238095,-25.79365079365079,-2.7777777777777777,0.07936507936507936,-325.0,-325.0,-325.0,-325.0,-325.0,-7.5396825396825395
46,-103.4126984126984,-112.6190476190476,5.952380952380952,-50.238095238095234,19.126984126984127,-54.52380952380952,10.714285714285714,-75.31746031746032,-8.333333333333332,49.285714285714285,141.03174603174602,-61.507936507936506,-1.1904761904761905,-93.73015873015872,-1.507936507936508,6.746031746031746,-3.095238095238095,-0.7142857142857142,-325.0,-325.0,-325.0,-325.0,-325.0,-7.5396825396825395
47,-103.4126984126984,-112.6190476190476,5.952380952380952,-50.238095238095234,19.126984126984127,-54.52380952380952,10.714285714285714,-75.31746031746032,-8.333333333333332,49.285714285714285,141.03174603174602,-61.507936507936506,-1.1904761904761905,-93.73015873015872,-1.507936507936508,6.746031746031746,-3.095238095238095,-0.7142857142857142,-325.0,-325.0,-325.0,-325.0,-325.0,-7.5396825396825395
48,-140.7142857142857,-151.8253968253968,-15.793650793650793,-65.47619047619047,15.317460317460316,-70.39682539682539,14.84126984126984,-78.65079365079364,-2.7777777777777777,176.26984126984127,116.74603174603173,-74.52380952380952,-2.619047619047619,-95.79365079365078,6.428571428571428,38.01587301587301,-3.095238095238095,-0.5555555555555556,-325.0,-325.0,-325.0,-325.0,-325.0,-7.5396825396825395
49,-140.7142857142857,-151.8253968253968,-15.793650793650793,-65.47619047619047,15.317460317460316,-70.39682539682539,14.84126984126984,-78.65079365079364,-2.7777777777777777,176.26984126984127,116.74603174603173,-74.52380952380952,-2.619047619047619,-95.79365079365078,6.428571428571428,38.01587301587301,-3.095238095238095,-0.5555555555555556,-325.0,-325.0,-325.0,-325.0,-325.0,-7.5396825396825395
50,-172.77777777777777,-187.69841269841268,-38.80952380952381,-83.25396825396825,0.7142857142857142,-75.47619047619047,2.46031746031746,-75.79365079365078,-11.507936507936508,119.76190476190476,142.14285714285714,-84.84126984126983,-8.809523809523808,-95.95238095238095,-1.349206349206349,29.6031746031746,-2.3015873015873014,-0.07936507936507936,-325.0,-325.0,-325.0,-325.0,-325.0,-321.8253968253968
51,-172.77777777777777,-187.69841269841268,-38.80952380952381,-83.25396825396825,0.7142857142857142,-75.47619047619047,2.46031746031746,-75.79365079365078,-11.507936507936508,119.76190476190476,142.14285714285714,-84.84126984126983,-8.809523809523808,-95.95238095238095,-1.349206349206349,29.6031746031746,-2.3015873015873014,-0.07936507936507936,-325.0,-325.0,-325.0,-325.0,-325.0,-321.8253968253968
52,-184.36507936507937,-201.34920634920633,-46.42857142857142,-91.34920634920634,-8.174603174603174,-81.82539682539682,-8.809523809523808,-91.34920634920634,-22.46031746031746,110.07936507936508,156.9047619047619,-80.39682539682539,-12.777777777777777,-97.6984126984127,-4.841269841269841,21.349206349206348,-2.7777777777777777,-0.23809523809523808,-325.0,-325.0,-325.0,-325.0,-325.0,-321.8253968253968
53,-184.36507936507937,-201.34920634920633,-46.42857142857142,-91.34920634920634,-8.174603174603174,-81.82539682539682,-8.809523809523808,-91.34920634920634,-22.46031746031746,110.07936507936508,156.9047619047619,-80.39682539682539,-12.777777777777777,-97.6984126984127,-4.841269841269841,21.349206349206348,-2.7777777777777777,-0.23809523809523808,-325.0,-325.0,-325.0,-325.0,-325.0,-321.8253968253968
54,-197.2222222222222,-196.42857142857142,-51.507936507936506,-74.68253968253968,-17.22222222222222,-57.53968253968254,-10.238095238095237,-79.76190476190476,-28.65079365079365,73.57142857142857,168.17460317460316,-58.96825396825397,-15.95238095238095,-84.68253968253968,-12.936507936507935,-7.063492063492063,-2.9365079365079363,0.07936507936507936,-325.0,-325.0,-325.0,-325.0,-325.0,-321.8253968253968
55,-197.2222222222222,-196.42857142857142,-51.507936507936506,-74.68253968253968,-17.22222222222222,-57.53968253968254,-10.238095238095237,-79.76190476190476,-28.65079365079365,73.57142857142857,168.17460317460316,-58.96825396825397,-15.95238095238095,-84.68253968253968,-12.936507936507935,-7.063492063492063,-2.9365079365079363,0.07936507936507936,-325.0,-325.0,-325.0,-325.0,-325.0,-321.8253968253968
56,-168.8095238095238,-169.9206349206349,-35.63492063492063,-64.36507936507937,-5.317460317460317,-41.03174603174603,-2.7777777777777777,-65.31746031746032,-20.555555555555554,62.93650793650793,177.53968253968253,-52.61904761904761,-14.523809523809524,-80.23809523809523,-8.174603174603174,-19.444444444444443,-3.4126984126984126,0.23809523809523808,-325.0,-325.0,-325.0,-325.0,-325.0,-321.8253968253968
57,-168.8095238095238,-169.9206349206349,-35.63492063492063,-64.36507936507937,-5.317460317460317,-41.03174603174603,-2.7777777777777777,-65.31746031746032,-20.555555555555554,62.93650793650793,177.53968253968253,-52.61904761904761,-14.523809523809524,-80.23809523809523,-8.174603174603174,-19.444444444444443,-3.4126984126984126,0.23809523809523808,-325.0,-325.0,-325.0,-325.0,-325.0,-321.8253968253968
58,-125.0,-129.76190476190476,-21.666666666666664,-52.93650793650794,2.3015873015873014,-34.52380952380952,2.142857142857143,-63.41269841269841,-16.11111111111111,49.12698412698413,212.77777777777777,-47.06349206349206,-14.206349206349206,-75.31746031746032,-5.476190476190476,-62.93650793650793,-2.9365079365079363,0.23809523809523808,-325.0,-325.0,-325.0,-325.0,-325.0,-321.8253968253968
59,-125.0,-129.76190476190476,-21.666666666666664,-52.93650793650794,2.3015873015873014,-34.52380952380952,2.142857142857143,-63.41269841269841,-16.11111111111111,49.12698412698413,212.77777777777777,-47.06349206349206,-14.206349206349206,-75.31746031746032,-5.476190476190476,-62.93650793650793,-2.9365079365079363,0.23809523809523808,-325.0,-325.0,-325.0,-325.0,-325.0,-321.8253968253968
60,-70.71428571428571,-73.25396825396825,-0.7142857142857142,-26.11111111111111,12.936507936507935,-14.047619047619047,5.952380952380952,-46.74603174603175,-11.031746031746032,-101.5079365079365,290.23809523809524,-30.71428571428571,-6.904761904761904,-59.44444444444444,-3.73015873015873,-64.04761904761905,-2.9365079365079363,-0.23809523809523808,-325.0,-325.0,-325.0,-325.0,-325.0,-7.5396825396825395
61,-70.71428571428571,-73.25396825396825,-0.7142857142857142,-26.11111111111111,12.936507936507935,-14.047619047619047,5.952380952380952,-46.74603174603175,-11.031746031746032,-101.5079365079365,290.23809523809524,-30.71428571428571,-6.904761904761904,-59.44444444444444,-3.73015873015873,-64.04761904761905,-2.9365079365079363,-0.23809523809523808,-325.0,-325.0,-325.0,-325.0,-325.0,-7.5396825396825395
62,-20.238095238095237,-22.777777777777775,14.047619047619047,-1.349206349206349,28.333333333333332,5.317460317460317,14.365079365079364,-18.174603174603174,3.888888888888889,-155.95238095238093,325.0,-9.920634920634921,-1.349206349206349,-34.2063492063492,2.3015873015873014,-44.84126984126984,-2.7777777777777777,0.23809523809523808,-325.0,-325.0,-325.0,-325.0,-325.0,-7.5396825396825395
63,-20.238095238095237,-22.777777777777775,14.047619047619047,-1.349206349206349,28.333333333333332,5.317460317460317,14.365079365079364,-18.174603174603174,3.888888888888889,-155.95238095238093,325.0,-9.920634920634921,-1.349206349206349,-34.2063492063492,2.3015873015873014,-44.84126984126984,-2.7777777777777777,0.23809523809523808,-325.0,-325.0,-325.0,-325.0,-325.0,-7.5396825396825395
64,7.5396825396825395,19.92063492063492,1.6666666666666665,3.888888888888889,12.619047619047619,5.158730158730158,-1.6666666666666665,-15.793650793650793,-12.619047619047619,-163.4126984126984,325.0,5.952380952380952,-3.095238095238095,-13.095238095238095,-3.4126984126984126,-31.507936507936506,-2.46031746031746,0.7142857142857142,-325.0,-325.0,-325.0,-325.0,-325.0,-7.5396825396825395
65,7.5396825396825395,19.92063492063492,1.6666666666666665,3.888888888888889,12.619047619047619,5.158730158730158,-1.6666666666666665,-15.793650793650793,-12.619047619047619,-163.4126984126984,325.0,5.952380952380952,-3.095238095238095,-13.095238095238095,-3.4126984126984126,-31.507936507936506,-2.46031746031746,0.7142857142857142,-325.0,-325.0,-325.0,-325.0,-325.0,-7.5396825396825395
66,46.269841269841265,46.11111111111111,10.555555555555555,12.3015873015873,-0.07936507936507936,14.682539682539682,3.571428571428571,1.1904761904761905,4.365079365079365,-83.25396825396825,325.0,15.793650793650793,1.1904761904761905,5.476190476190476,1.1904761904761905,-21.03174603174603,-2.3015873015873014,0.07936507936507936,-325.0,-325.0,-325.0,-325.0,-325.0,-7.5396825396825395
67,46.269841269841265,46.11111111111111,10.555555555555555,12.3015873015873,-0.07936507936507936,14.682539682539682,3.571428571428571,1.1904761904761905,4.365079365079365,-83.25396825396825,325.0,15.793650793650793,1.1904761904761905,5.476190476190476,1.1904761904761905,-21.03174603174603,-2.3015873015873014,0.07936507936507936,-325.0,-325.0,-325.0,-325.0,-325.0,-7.5396825396825395
68,73.25396825396825,60.873015873015866,20.396825396825395,7.222222222222221,5.317460317460317,3.253968253968254,13.412698412698411,19.444444444444443,10.714285714285714,-153.73015873015873,325.0,12.3015873015873,6.904761904761904,7.698412698412698,6.26984126984127,20.396825396825395,-2.46031746031746,0.07936507936507936,-325.0,-325.0,-325.0,-325.0,-325.0,-7.5396825396825395
69,73.25396825396825,60.873015873015866,20.396825396825395,7.222222222222221,5.317460317460317,3.253968253968254,13.412698412698411,19.444444444444443,10.714285714285714,-153.73015873015873,325.0,12.3015873015873,6.904761904761904,7.698412698412698,6.26984126984127,20.396825396825395,-2.46031746031746,0.07936507936507936,-325.0,-325.0,-325.0,-325.0,-325.0,-7.5396825396825395
70,86.42857142857143,70.55555555555556,11.666666666666666,8.65079365079365,-10.873015873015872,-3.571428571428571,1.8253968253968254,18.96825396825397,10.396825396825395,-102.77777777777777,325.0,19.126984126984127,7.222222222222221,17.857142857142858,10.079365079365079,50.238095238095234,-3.095238095238095,0.3968253968253968,-325.0,-325.0,-325.0,-325.0,-325.0,-321.8253968253968
71,86.42857142857143,70.55555555555556,11.666666666666666,8.65079365079365,-10.873015873015872,-3.571428571428571,1.8253968253968254,18.96825396825397,10.396825396825395,-102.77777777777777,325.0,19.126984126984127,7.222222222222221,17.857142857142858,10.079365079365079,50.238095238095234,-3.095238095238095,0.3968253968253968,-325.0,-325.0,-325.0,-325.0,-325.0,-321.8253968253968
72,108.17460317460316,89.76190476190476,26.11111111111111,25.634920634920633,-1.984126984126984,12.142857142857142,8.492063492063492,29.285714285714285,13.571428571428571,-121.66666666666666,325.0,28.174603174603174,7.5396825396825395,26.11111111111111,10.555555555555555,86.26984126984127,-2.9365079365079363,0.5555555555555556,-325.0,-325.0,-325.0,-325.0,-325.0,-321.8253968253968
73,108.17460317460316,89.76190476190476,26.11111111111111,25.634920634920633,-1.984126984126984,12.142857142857142,8.492063492063492,29.285714285714285,13.571428571428571,-121.66666666666666,325.0,28.174603174603174,7.5396825396825395,26.11111111111111,10.555555555555555,86.26984126984127,-2.9365079365079363,0.5555555555555556,-325.0,-325.0,-325.0,-325.0,-325.0,-321.8253968253968
74,124.68253968253967,101.98412698412697,31.507936507936506,27.063492063492063,4.841269841269841,21.825396825396822,7.063492063492063,39.6031746031746,12.46031746031746,-223.7301587301587,325.0,41.19047619047619,9.444444444444445,44.047619047619044,8.809523809523808,117.6984126984127,-3.095238095238095,0.7142857142857142,-325.0,-325.0,-325.0,-325.0,-325.0,-321.8253968253968
75,124.68253968253967,101.98412698412697,31.507936507936506,27.063492063492063,4.841269841269841,21.825396825396822,7.063492063492063,39.6031746031746,12.46031746031746,-223.7301587301587,325.0,41.19047619047619,9.444444444444445,44.047619047619044,8.809523809523808,117.6984126984127,-3.095238095238095,0.7142857142857142,-325.0,-325.0,-325.0,-325.0,-325.0,-321.8253968253968
76,117.85714285714285,105.79365079365078,13.571428571428571,34.682539682539684,-4.841269841269841,17.063492063492063,-7.3809523809523805,29.285714285714285,-2.142857142857143,-292.6190476190476,325.0,47.53968253968254,5.476190476190476,48.650793650793645,1.507936507936508,149.9206349206349,-2.619047619047619,1.8253968253968254,-325.0,-325.0,-325.0,-325.0,-325.0,-321.8253968253968
77,117.85714285714285,105.79365079365078,13.571428571428571,34.682539682539684,-4.841269841269841,17.063492063492063,-7.3809523809523805,29.285714285714285,-2.142857142857143,-292.6190476190476,325.0,47.53968253968254,5.476190476190476,48.650793650793645,1.507936507936508,149.9206349206349,-2.619047619047619,1.8253968253968254,-325.0,-325.0,-325.0,-325.0,-325.0,-321.8253968253968
78,127.85714285714285,110.71428571428571,28.174603174603174,46.11111111111111,13.73015873015873,38.65079365079365,1.1904761904761905,51.82539682539682,7.698412698412698,-318.6507936507936,325.0,58.49206349206349,10.555555555555555,58.8095238095238,7.857142857142857,190.3968253968254,-2.7777777777777777,0.873015873015873,-325.0,-325.0,-325.0,-325.0,-325.0,-321.8253968253968
79,127.85714285714285,110.71428571428571,28.174603174603174,46.11111111111111,13.73015873015873,38.65079365079365,1.1904761904761905,51.82539682539682,7.698412698412698,-318.6507936507936,325.0,58.49206349206349,10.555555555555555,58.8095238095238,7.857142857142857,190.3968253968254,-2.7777777777777777,0.873015873015873,-325.0,-325.0,-325.0,-325.0,-325.0,-321.8253968253968
80,114.04761904761904,115.63492063492063,18.333333333333332,55.0,17.698412698412696,43.25396825396825,2.46031746031746,62.77777777777777,1.507936507936508,-325.0,325.0,68.80952380952381,7.857142857142857,68.80952380952381,7.5396825396825395,187.06349206349205,-2.619047619047619,0.3968253968253968,-325.0,-325.0,-325.0,-325.0,-325.0,-7.5396825396825395
81,114.04761904761904,115.63492063492063,18.333333333333332,55.0,17.698412698412696,43.25396825396825,2.46031746031746,62.77777777777777,1.507936507936508,-325.0,325.0,68.80952380952381,7.857142857142857,68.80952380952381,7.5396825396825395,187.06349206349205,-2.619047619047619,0.3968253968253968,-325.0,-325.0,-325.0,-325.0,-325.0,-7.5396825396825395
82,121.82539682539682,132.46031746031744,23.41269841269841,66.42857142857143,20.71428571428571,57.857142857142854,-1.8253968253968254,72.46031746031746,4.523809523809524,-289.76190476190476,325.0,88.01587301587301,10.555555555555555,87.6984126984127,12.619047619047619,178.17460317460316,-2.7777777777777777,0.3968253968253968,-325.0,-325.0,-325.0,-325.0,-325.0,-7.5396825396825395
83,121.82539682539682,132.46031746031744,23.41269841269841,66.42857142857143,20.71428571428571,57.857142857142854,-1.8253968253968254,72.46031746031746,4.523809523809524,-289.76190476190476,325.0,88.01587301587301,10.555555555555555,87.6984126984127,12.619047619047619,178.17460317460316,-2.7777777777777777,0.3968253968253968,-325.0,-325.0,-325.0,-325.0,-325.0,-7.5396825396825395
84,103.57142857142857,119.28571428571428,16.428571428571427,54.52380952380952,20.07936507936508,59.44444444444444,-4.2063492063492065,72.46031746031746,2.7777777777777777,-288.4920634920635,325.0,84.2063492063492,9.603174603174603,83.73015873015872,8.492063492063492,104.52380952380952,-2.9365079365079363,0.3968253968253968,-325.0,-325.0,-325.0,-325.0,-325.0,-7.5396825396825395
85,103.57142857142857,119.28571428571428,16.428571428571427,54.52380952380952,20.07936507936508,59.44444444444444,-4.2063492063492065,72.46031746031746,2.7777777777777777,-288.4920634920635,325.0,84.2063492063492,9.603174603174603,83.73015873015872,8.492063492063492,104.52380952380952,-2.9365079365079363,0.3968253968253968,-325.0,-325.0,-325.0,-325.0,-325.0,-7.5396825396825395
86,91.82539682539682,134.84126984126982,16.26984126984127,82.46031746031746,3.888888888888889,80.71428571428571,-1.349206349206349,95.15873015873015,2.7777777777777777,-176.58730158730157,324.36507936507934,104.84126984126983,4.682539682539682,100.55555555555554,5.7936507936507935,105.47619047619047,-3.253968253968254,0.23809523809523808,-325.0,-325.0,-325.0,-325.0,-325.0,-7.5396825396825395
87,91.82539682539682,134.84126984126982,16.26984126984127,82.46031746031746,3.888888888888889,80.71428571428571,-1.349206349206349,95.15873015873015,2.7777777777777777,-176.58730158730157,324.36507936507934,104.84126984126983,4.682539682539682,100.55555555555554,5.7936507936507935,105.47619047619047,-3.253968253968254,0.23809523809523808,-325.0,-325.0,-325.0,-325.0,-325.0,-7.5396825396825395
88,89.6031746031746,158.96825396825395,17.539682539682538,103.09523809523809,-2.3015873015873014,100.07936507936508,-11.825396825396824,105.63492063492063,-3.888888888888889,-60.238095238095234,313.73015873015873,120.07936507936508,1.0317460317460316,116.9047619047619,-9.444444444444445,146.42857142857142,-3.253968253968254,0.3968253968253968,-325.0,-325.0,-325.0,-325.0,-325.0,-7.5396825396825395
89,89.6031746031746,158.96825396825395,17.539682539682538,103.09523809523809,-2.3015873015873014,100.07936507936508,-11.825396825396824,105.63492063492063,-3.888888888888889,-60.238095238095234,313.73015873015873,120.07936507936508,1.0317460317460316,116.9047619047619,-9.444444444444445,146.42857142857142,-3.253968253968254,0.3968253968253968,-325.0,-325.0,-325.0,-325.0,-325.0,-7.5396825396825395
90,91.34920634920634,158.4920634920635,16.587301587301585,102.30158730158729,9.285714285714285,97.53968253968253,-5.317460317460317,103.25396825396825,0.873015873015873,-57.38095238095238,299.1269841269841,117.85714285714285,4.0476190476190474,118.8095238095238,-3.888888888888889,127.22222222222221,-3.73015873015873,0.07936507936507936,-325.0,-325.0,-325.0,-325.0,-325.0,-321.8253968253968
91,91.34920634920634,158.4920634920635,16.587301587301585,102.30158730158729,9.285714285714285,97.53968253968253,-5.317460317460317,103.25396825396825,0.873015873015873,-57.38095238095238,299.1269841269841,117.85714285714285,4.0476190476190474,118.8095238095238,-3.888888888888889,127.22222222222221,-3.73015873015873,0.07936507936507936,-325.0,-325.0,-325.0,-325.0,-325.0,-321.8253968253968
92,83.09523809523809,152.93650793650792,8.809523809523808,98.33333333333333,2.9365079365079363,103.88888888888889,-3.571428571428571,108.33333333333333,10.079365079365079,-140.07936507936506,285.95238095238096,116.42857142857142,4.523809523809524,124.36507936507935,2.3015873015873014,167.69841269841268,-2.9365079365079363,0.07936507936507936,-325.0,-325.0,-325.0,-325.0,-325.0,-321.8253968253968
93,83.09523809523809,152.93650793650792,8.809523809523808,98.33333333333333,2.9365079365079363,103.88888888888889,-3.571428571428571,108.33333333333333,10.079365079365079,-140.07936507936506,285.95238095238096,116.42857142857142,4.523809523809524,124.36507936507935,2.3015873015873014,167.69841269841268,-2.9365079365079363,0.07936507936507936,-325.0,-325.0,-325.0,-325.0,-325.0,-321.8253968253968
94,77.53968253968253,148.96825396825395,7.3809523809523805,85.0,11.19047619047619,91.82539682539682,-0.5555555555555556,107.22222222222221,14.84126984126984,-161.5079365079365,271.66666666666663,106.74603174603175,5.158730158730158,120.07936507936508,6.904761904761904,179.44444444444443,-2.9365079365079363,0.07936507936507936,-325.0,-325.0,-325.0,-325.0,-325.0,-321.8253968253968
95,77.53968253968253,148.96825396825395,7.3809523809523805,85.0,11.19047619047619,91.82539682539682,-0.5555555555555556,107.22222222222221,14.84126984126984,-161.5079365079365,271.66666666666663,106.74603174603175,5.158730158730158,120.07936507936508,6.904761904761904,179.44444444444443,-2.9365079365079363,0.07936507936507936,-325.0,-325.0,-325.0,-325.0,-325.0,-321.8253968253968
96,76.42857142857143,163.88888888888889,10.555555555555555,109.92063492063491,11.507936507936508,108.49206349206348,-15.0,110.87301587301587,3.73015873015873,-1.1904761904761905,249.60317460317458,117.85714285714285,-1.349206349206349,134.04761904761904,0.873015873015873,140.3968253968254,-2.46031746031746,0.3968253968253968,-325.0,-325.0,-325.0,-325.0,-325.0,-321.8253968253968
97,76.42857142857143,163.88888888888889,10.555555555555555,109.92063492063491,11.507936507936508,108.49206349206348,-15.0,110.87301587301587,3.73015873015873,-1.1904761904761905,249.60317460317458,117.85714285714285,-1.349206349206349,134.04761904761904,0.873015873015873,140.3968253968254,-2.46031746031746,0.3968253968253968,-325.0,-325.0,-325.0,-325.0,-325.0,-321.8253968253968
98,71.66666666666666,168.4920634920635,5.952380952380952,117.38095238095238,22.936507936507937,98.49206349206348,-0.23809523809523808,129.9206349206349,11.349206349206348,95.79365079365078,234.04761904761904,123.57142857142857,-0.3968253968253968,154.2063492063492,6.904761904761904,165.63492063492063,-2.9365079365079363,0.3968253968253968,-325.0,-325.0,-325.0,-325.0,-325.0,-321.8253968253968
99,71.66666666666666,168.4920634920635,5.952380952380952,117.38095238095238,22.936507936507937,98.49206349206348,-0.23809523809523808,129.9206349206349,11.349206349206348,95.79365079365078,234.04761904761904,123.57142857142857,-0.3968253968253968,154.2063492063492,6.904761904761904,165.63492063492063,-2.9365079365079363,0.3968253968253968,-325.0,-325.0,-325.0,-325.0,-325.0,-321.8253968253968
100,66.74603174603175,201.98412698412696,8.015873015873016,155.95238095238093,24.523809523809522,120.87301587301586,-13.888888888888888,157.38095238095238,-1.8253968253968254,137.06349206349205,158.8095238095238,155.3174603174603,-2.619047619047619,190.3968253968254,-0.07936507936507936,190.7142857142857,-3.253968253968254,-0.07936507936507936,-325.0,-325.0,-325.0,-325.0,-325.0,-7.5396825396825395
101,66.74603174603175,201.98412698412696,8.015873015873016,155.95238095238093,24.523809523809522,120.87301587301586,-13.888888888888888,157.38095238095238,-1.8253968253968254,137.06349206349205,158.8095238095238,155.3174603174603,-2.619047619047619,190.3968253968254,-0.07936507936507936,190.7142857142857,-3.253968253968254,-0.07936507936507936,-325.0,-325.0,-325.0,-325.0,-325.0,-7.5396825396825395
102,62.460317460317455,233.4126984126984,7.063492063492063,183.88888888888889,24.523809523809522,146.74603174603175,-4.841269841269841,205.15873015873015,12.777777777777777,106.74603174603175,97.22222222222221,184.2063492063492,3.253968253968254,224.04761904761904,12.3015873015873,233.4126984126984,-3.73015873015873,0.23809523809523808,-325.0,-325.0,-325.0,-325.0,-325.0,-7.5396825396825395
103,62.460317460317455,233.4126984126984,7.063492063492063,183.88888888888889,24.523809523809522,146.74603174603175,-4.841269841269841,205.15873015873015,12.777777777777777,106.74603174603175,97.22222222222221,184.2063492063492,3.253968253968254,224.04761904761904,12.3015873015873,233.4126984126984,-3.73015873015873,0.23809523809523808,-325.0,-325.0,-325.0,-325.0,-325.0,-7.5396825396825395
104,61.666666666666664,230.07936507936506,6.587301587301587,186.58730158730157,23.095238095238095,156.11111111111111,-3.73015873015873,210.55555555555554,12.619047619047619,176.26984126984127,104.04761904761904,186.58730158730157,4.365079365079365,231.34920634920633,9.603174603174603,192.77777777777777,-3.4126984126984126,0.5555555555555556,-325.0,-325.0,-325.0,-325.0,-325.0,-7.5396825396825395
105,61.666666666666664,230.07936507936506,6.587301587301587,186.58730158730157,23.095238095238095,156.11111111111111,-3.73015873015873,210.55555555555554,12.619047619047619,176.26984126984127,104.04761904761904,186.58730158730157,4.365079365079365,231.34920634920633,9.603174603174603,192.77777777777777,-3.4126984126984126,0.5555555555555556,-325.0,-325.0,-325.0,-325.0,-325.0,-7.5396825396825395
106,61.666666666666664,240.3968253968254,8.65079365079365,196.58730158730157,6.111111111111111,163.88888888888889,-4.682539682539682,209.76190476190476,5.634920634920634,-32.93650793650794,72.61904761904762,189.44444444444443,1.8253968253968254,225.63492063492063,4.523809523809524,182.61904761904762,-3.095238095238095,0.5555555555555556,-325.0,-325.0,-325.0,-325.0,-325.0,-7.5396825396825395
107,61.666666666666664,240.3968253968254,8.65079365079365,196.58730158730157,6.111111111111111,163.88888888888889,-4.682539682539682,209.76190476190476,5.634920634920634,-32.93650793650794,72.61904761904762,189.44444444444443,1.8253968253968254,225.63492063492063,4.523809523809524,182.61904761904762,-3.095238095238095,0.5555555555555556,-325.0,-325.0,-325.0,-325.0,-325.0,-7.5396825396825395
108,50.39682539682539,252.93650793650792,9.603174603174603,225.79365079365078,0.3968253968253968,203.09523809523807,-0.3968253968253968,240.87301587301587,15.0,-30.07936507936508,28.015873015873016,208.33333333333331,-4.0476190476190474,243.25396825396825,7.698412698412698,231.03174603174602,-3.4126984126984126,0.07936507936507936,-325.0,-325.0,-325.0,-325.0,-325.0,-7.5396825396825395
109,50.39682539682539,252.93650793650792,9.603174603174603,225.79365079365078,0.3968253968253968,203.09523809523807,-0.3968253968253968,240.87301587301587,15.0,-30.07936507936508,28.015873015873016,208.33333333333331,-4.0476190476190474,243.25396825396825,7.698412698412698,231.03174603174602,-3.4126984126984126,0.07936507936507936,-325.0,-325.0,-325.0,-325.0,-325.0,-7.5396825396825395
110,43.095238095238095,266.90476190476187,2.9365079365079363,243.25396825396825,3.095238095238095,211.03174603174602,-3.095238095238095,243.4126984126984,14.523809523809524,-33.73015873015873,-35.15873015873016,221.5079365079365,-4.523809523809524,253.09523809523807,7.698412698412698,218.4920634920635,-2.7777777777777777,0.5555555555555556,-325.0,-325.0,-325.0,-325.0,-325.0,-321.8253968253968
111,43.095238095238095,266.90476190476187,2.9365079365079363,243.25396825396825,3.095238095238095,211.03174603174602,-3.095238095238095,243.4126984126984,14.523809523809524,-33.73015873015873,-35.15873015873016,221.5079365079365,-4.523809523809524,253.09523809523807,7.698412698412698,218.4920634920635,-2.7777777777777777,0.5555555555555556,-325.0,-325.0,-325.0,-325.0,-325.0,-321.8253968253968
112,41.82539682539682,260.39682539682536,0.23809523809523808,229.12698412698413,10.714285714285714,210.2380952380952,-2.619047619047619,235.0,6.111111111111111,-85.79365079365078,-57.698412698412696,219.76190476190476,-1.6666666666666665,251.66666666666666,7.857142857142857,264.8412698412698,-2.9365079365079363,0.23809523809523808,-325.0,-325.0,-325.0,-325.0,-325.0,-321.8253968253968
113,41.82539682539682,260.39682539682536,0.23809523809523808,229.12698412698413,10.714285714285714,210.2380952380952,-2.619047619047619,235.0,6.111111111111111,-85.79365079365078,-57.698412698412696,219.76190476190476,-1.6666666666666665,251.66666666666666,7.857142857142857,264.8412698412698,-2.9365079365079363,0.23809523809523808,-325.0,-325.0,-325.0,-325.0,-325.0,-321.8253968253968
114,45.63492063492063,247.69841269841268,6.26984126984127,219.44444444444443,22.3015873015873,206.26984126984127,5.952380952380952,226.9047619047619,13.412698412698411,-22.46031746031746,-99.92063492063491,203.25396825396825,-1.6666666666666665,230.7142857142857,11.825396825396824,258.17460317460313,-2.46031746031746,0.5555555555555556,-325.0,-325.0,-325.0,-325.0,-325.0,-321.8253968253968
115,45.63492063492063,247.69841269841268,6.26984126984127,219.44444444444443,22.3015873015873,206.26984126984127,5.952380952380952,226.9047619047619,13.412698412698411,-22.46031746031746,-99.92063492063491,203.25396825396825,-1.6666666666666665,230.7142857142857,11.825396825396824,258.17460317460313,-2.46031746031746,0.5555555555555556,-325.0,-325.0,-325.0,-325.0,-325.0,-321.8253968253968
116,34.047619047619044,235.3174603174603,-1.0317460317460316,215.3174603174603,15.634920634920634,202.77777777777777,-2.142857142857143,220.07936507936506,13.253968253968253,30.71428571428571,-116.58730158730158,197.85714285714283,-5.476190476190476,217.69841269841268,7.222222222222221,278.17460317460313,-2.619047619047619,0.07936507936507936,-325.0,-325.0,-325.0,-325.0,-325.0,-321.8253968253968
117,34.047619047619044,235.3174603174603,-1.0317460317460316,215.3174603174603,15.634920634920634,202.77777777777777,-2.142857142857143,220.07936507936506,13.253968253968253,30.71428571428571,-116.58730158730158,197.85714285714283,-5.476190476190476,217.69841269841268,7.222222222222221,278.17460317460313,-2.619047619047619,0.07936507936507936,-325.0,-325.0,-325.0,-325.0,-325.0,-321.8253968253968
118,40.39682539682539,217.53968253968253,2.619047619047619,187.85714285714283,27.698412698412696,189.12698412698413,4.2063492063492065,197.85714285714283,11.666666666666666,166.74603174603175,-81.98412698412697,178.015873015873,-3.253968253968254,195.3174603174603,3.571428571428571,288.968253968254,-2.619047619047619,-0.07936507936507936,-325.0,-325.0,-325.0,-325.0,-325.0,-321.8253968253968
119,40.39682539682539,217.53968253968253,2.619047619047619,187.85714285714283,27.698412698412696,189.12698412698413,4.2063492063492065,197.85714285714283,11.666666666666666,166.74603174603175,-81.98412698412697,178.015873015873,-3.253968253968254,195.3174603174603,3.571428571428571,288.968253968254,-2.619047619047619,-0.07936507936507936,-325.0,-325.0,-325.0,-325.0,-325.0,-321.8253968253968
120,28.174603174603174,196.26984126984127,-2.619047619047619,171.34920634920633,27.857142857142854,165.79365079365078,0.5555555555555556,170.55555555555554,12.619047619047619,99.28571428571428,-152.61904761904762,161.66666666666666,-2.619047619047619,175.15873015873015,0.07936507936507936,284.36507936507934,-2.3015873015873014,0.3968253968253968,-325.0,-325.0,-325.0,-325.0,-325.0,-7.5396825396825395
121,28.174603174603174,196.26984126984127,-2.619047619047619,171.34920634920633,27.857142857142854,165.79365079365078,0.5555555555555556,170.55555555555554,12.619047619047619,99.28571428571428,-152.61904761904762,161.66666666666666,-2.619047619047619,175.15873015873015,0.07936507936507936,284.36507936507934,-2.3015873015873014,0.3968253968253968,-325.0,-325.0,-325.0,-325.0,-325.0,-7.5396825396825395
122,13.888888888888888,183.7301587301587,-8.492063492063492,154.04761904761904,26.11111111111111,154.2063492063492,7.857142857142857,151.34920634920633,19.285714285714285,94.04761904761904,-248.33333333333331,149.28571428571428,-6.904761904761904,155.3174603174603,6.111111111111111,295.1587301587301,-2.7777777777777777,-0.07936507936507936,-325.0,-325.0,-325.0,-325.0,-325.0,-7.5396825396825395
123,13.888888888888888,183.7301587301587,-8.492063492063492,154.04761904761904,26.11111111111111,154.2063492063492,7.857142857142857,151.34920634920633,19.285714285714285,94.04761904761904,-248.33333333333331,149.28571428571428,-6.904761904761904,155.3174603174603,6.111111111111111,295.1587301587301,-2.7777777777777777,-0.07936507936507936,-325.0,-325.0,-325.0,-325.0,-325.0,-7.5396825396825395
124,9.761904761904761,171.8253968253968,-6.746031746031746,146.9047619047619,27.22222222222222,148.17460317460316,9.761904761904761,136.42857142857142,17.22222222222222,-103.88888888888889,-281.19047619047615,138.015873015873,-10.396825396825395,133.57142857142856,6.428571428571428,231.34920634920633,-2.7777777777777777,-0.07936507936507936,-325.0,-325.0,-325.0,-325.0,-325.0,-7.5396825396825395
125,9.761904761904761,171.8253968253968,-6.746031746031746,146.9047619047619,27.22222222222222,148.17460317460316,9.761904761904761,136.42857142857142,17.22222222222222,-103.88888888888889,-281.19047619047615,138.015873015873,-10.396825396825395,133.57142857142856,6.428571428571428,231.34920634920633,-2.7777777777777777,-0.07936507936507936,-325.0,-325.0,-325.0,-325.0,-325.0,-7.5396825396825395
126,-1.507936507936508,133.88888888888889,-5.158730158730158,122.14285714285714,23.253968253968253,127.22222222222221,8.174603174603174,105.63492063492063,8.015873015873016,-93.73015873015872,-295.6349206349206,112.93650793650794,-7.3809523809523805,106.1111111111111,2.46031746031746,138.015873015873,-2.142857142857143,0.07936507936507936,-325.0,-325.0,-325.0,-325.0,-325.0,-7.5396825396825395
127,-1.507936507936508,133.88888888888889,-5.158730158730158,122.14285714285714,23.253968253968253,127.22222222222221,8.174603174603174,105.63492063492063,8.015873015873016,-93.73015873015872,-295.6349206349206,112.93650793650794,-7.3809523809523805,106.1111111111111,2.46031746031746,138.015873015873,-2.142857142857143,0.07936507936507936,-325.0,-325.0,-325.0,-325.0,-325.0,-7.5396825396825395
128,-13.095238095238095,90.71428571428571,-7.063492063492063,84.04761904761904,28.65079365079365,88.33333333333333,11.507936507936508,69.92063492063491,9.603174603174603,-186.26984126984127,-260.7142857142857,81.82539682539682,-5.0,70.55555555555556,5.476190476190476,92.14285714285714,-2.7777777777777777,-0.3968253968253968,-325.0,-325.0,-325.0,-325.0,-325.0,-7.5396825396825395
129,-13.095238095238095,90.71428571428571,-7.063492063492063,84.04761904761904,28.65079365079365,88.33333333333333,11.507936507936508,69.92063492063491,9.603174603174603,-186.26984126984127,-260.7142857142857,81.82539682539682,-5.0,70.55555555555556,5.476190476190476,92.14285714285714,-2.7777777777777777,-0.3968253968253968,-325.0,-325.0,-325.0,-325.0,-325.0,-7.5396825396825395
130,-17.38095238095238,65.95238095238095,-3.253968253968254,70.07936507936508,26.11111111111111,79.12698412698413,9.761904761904761,52.3015873015873,2.46031746031746,-118.33333333333333,-193.57142857142856,62.460317460317455,-5.476190476190476,48.96825396825397,6.26984126984127,55.476190476190474,-2.7777777777777777,0.07936507936507936,-325.0,-325.0,-325.0,-325.0,-325.0,-321.8253968253968
131,-17.38095238095238,65.95238095238095,-3.253968253968254,70.07936507936508,26.11111111111111,79.12698412698413,9.761904761904761,52.3015873015873,2.46031746031746,-118.33333333333333,-193.57142857142856,62.460317460317455,-5.476190476190476,48.96825396825397,6.26984126984127,55.476190476190474,-2.7777777777777777,0.07936507936507936,-325.0,-325.0,-325.0,-325.0,-325.0,-321.8253968253968
132,-26.428571428571427,50.079365079365076,-6.587301587301587,48.650793650793645,25.476190476190474,66.26984126984127,13.73015873015873,29.126984126984127,5.476190476190476,-54.52380952380952,-135.15873015873015,39.44444444444444,-6.26984126984127,26.26984126984127,10.396825396825395,59.92063492063492,-2.3015873015873014,0.3968253968253968,-325.0,-325.0,-325.0,-325.0,-325.0,-321.8253968253968
133,-26.428571428571427,50.079365079365076,-6.587301587301587,48.650793650793645,25.476190476190474,66.26984126984127,13.73015873015873,29.126984126984127,5.476190476190476,-54.52380952380952,-135.15873015873015,39.44444444444444,-6.26984126984127,26.26984126984127,10.396825396825395,59.92063492063492,-2.3015873015873014,0.3968253968253968,-325.0,-325.0,-325.0,-325.0,-325.0,-321.8253968253968
134,-27.38095238095238,12.619047619047619,-10.079365079365079,12.619047619047619,15.317460317460316,39.76190476190476,12.777777777777777,10.873015873015872,23.253968253968253,-88.17460317460316,-90.87301587301587,8.809523809523808,-6.111111111111111,2.7777777777777777,12.46031746031746,25.0,-3.095238095238095,0.3968253968253968,-325.0,-325.0,-325.0,-325.0,-325.0,-321.8253968253968
135,-27.38095238095238,12.619047619047619,-10.079365079365079,12.619047619047619,15.317460317460316,39.76190476190476,12.777777777777777,10.873015873015872,23.253968253968253,-88.17460317460316,-90.87301587301587,8.809523809523808,-6.111111111111111,2.7777777777777777,12.46031746031746,25.0,-3.095238095238095,0.3968253968253968,-325.0,-325.0,-325.0,-325.0,-325.0,-321.8253968253968
136,-9.603174603174603,-8.015873015873016,-2.7777777777777777,-38.80952380952381,12.142857142857142,15.158730158730158,5.0,-17.22222222222222,14.84126984126984,-52.14285714285714,-41.19047619047619,-11.19047619047619,-5.317460317460317,-23.253968253968253,3.888888888888889,-39.6031746031746,-2.46031746031746,0.7142857142857142,-325.0,-325.0,-325.0,-325.0,-325.0,-321.8253968253968
137,-9.603174603174603,-8.015873015873016,-2.7777777777777777,-38.80952380952381,12.142857142857142,15.158730158730158,5.0,-17.22222222222222,14.84126984126984,-52.14285714285714,-41.19047619047619,-11.19047619047619,-5.317460317460317,-23.253968253968253,3.888888888888889,-39.6031746031746,-2.46031746031746,0.7142857142857142,-325.0,-325.0,-325.0,-325.0,-325.0,-321.8253968253968
138,-9.920634920634921,-14.206349206349206,-8.015873015873016,-37.857142857142854,-1.0317460317460316,12.777777777777777,10.873015873015872,-17.857142857142858,18.96825396825397,-6.111111111111111,-10.555555555555555,-14.365079365079364,-6.26984126984127,-22.936507936507937,13.253968253968253,-62.93650793650793,-2.7777777777777777,0.5555555555555556,-325.0,-325.0,-325.0,-325.0,-325.0,-321.8253968253968
139,-9.920634920634921,-14.206349206349206,-8.015873015873016,-37.857142857142854,-1.0317460317460316,12.777777777777777,10.873015873015872,-17.857142857142858,18.96825396825397,-6.111111111111111,-10.555555555555555,-14.365079365079364,-6.26984126984127,-22.936507936507937,13.253968253968253,-62.93650793650793,-2.7777777777777777,0.5555555555555556,-325.0,-325.0,-325.0,-325.0,-325.0,-321.8253968253968
140,-14.523809523809524,-26.26984126984127,-14.047619047619047,-42.61904761904761,-30.396825396825395,8.65079365079365,2.9365079365079363,-27.22222222222222,14.365079365079364,-31.03174603174603,-15.793650793650793,-25.0,-7.063492063492063,-30.07936507936508,15.793650793650793,-123.09523809523809,-2.619047619047619,-0.07936507936507936,-325.0,-325.0,-325.0,-325.0,-325.0,-7.5396825396825395
141,-14.523809523809524,-26.26984126984127,-14.047619047619047,-42.61904761904761,-30.396825396825395,8.65079365079365,2.9365079365079363,-27.22222222222222,14.365079365079364,-31.03174603174603,-15.793650793650793,-25.0,-7.063492063492063,-30.07936507936508,15.793650793650793,-123.09523809523809,-2.619047619047619,-0.07936507936507936,-325.0,-325.0,-325.0,-325.0,-325.0,-7.5396825396825395
142,-4.365079365079365,-35.79365079365079,-9.444444444444445,-49.6031746031746,-24.365079365079364,-10.079365079365079,4.2063492063492065,-40.238095238095234,7.857142857142857,110.07936507936508,-24.365079365079364,-34.36507936507936,-2.619047619047619,-35.63492063492063,11.19047619047619,-157.38095238095238,-2.7777777777777777,0.23809523809523808,-325.0,-325.0,-325.0,-325.0,-325.0,-7.5396825396825395
143,-4.365079365079365,-35.79365079365079,-9.444444444444445,-49.6031746031746,-24.365079365079364,-10.079365079365079,4.2063492063492065,-40.238095238095234,7.857142857142857,110.07936507936508,-24.365079365079364,-34.36507936507936,-2.619047619047619,-35.63492063492063,11.19047619047619,-157.38095238095238,-2.7777777777777777,0.23809523809523808,-325.0,-325.0,-325.0,-325.0,-325.0,-7.5396825396825395
144,-12.619047619047619,-47.53968253968254,-5.7936507936507935,-43.095238095238095,-29.126984126984127,-9.603174603174603,4.0476190476190474,-37.53968253968254,3.253968253968254,2.619047619047619,-78.17460317460316,-36.269841269841265,-3.73015873015873,-45.63492063492063,10.079365079365079,-120.71428571428571,-3.4126984126984126,0.7142857142857142,-325.0,-325.0,-325.0,-325.0,-325.0,-7.5396825396825395
145,-12.619047619047619,-47.53968253968254,-5.7936507936507935,-43.095238095238095,-29.126984126984127,-9.603174603174603,4.0476190476190474,-37.53968253968254,3.253968253968254,2.619047619047619,-78.17460317460316,-36.269841269841265,-3.73015873015873,-45.63492063492063,10.079365079365079,-120.71428571428571,-3.4126984126984126,0.7142857142857142,-325.0,-325.0,-325.0,-325.0,-325.0,-7.5396825396825395
146,-24.206349206349206,-44.52380952380952,-7.5396825396825395,-34.2063492063492,-35.317460317460316,4.682539682539682,5.476190476190476,-21.03174603174603,4.2063492063492065,10.079365079365079,-111.66666666666666,-33.57142857142857,-9.285714285714285,-44.36507936507936,6.428571428571428,-113.88888888888889,-3.095238095238095,0.5555555555555556,-325.0,-325.0,-325.0,-325.0,-325.0,-7.5396825396825395
147,-24.206349206349206,-44.52380952380952,-7.5396825396825395,-34.2063492063492,-35.317460317460316,4.682539682539682,5.476190476190476,-21.03174603174603,4.2063492063492065,10.079365079365079,-111.66666666666666,-33.57142857142857,-9.285714285714285,-44.36507936507936,6.428571428571428,-113.88888888888889,-3.095238095238095,0.5555555555555556,-325.0,-325.0,-325.0,-325.0,-325.0,-7.5396825396825395
148,-15.317460317460316,-45.95238095238095,1.6666666666666665,-30.71428571428571,-24.84126984126984,-18.333333333333332,-1.349206349206349,-42.61904761904761,-4.841269841269841,9.444444444444445,-141.19047619047618,-34.52380952380952,-3.095238095238095,-44.68253968253968,4.0476190476190474,-125.63492063492063,-2.9365079365079363,0.873015873015873,-325.0,-325.0,-325.0,-325.0,-325.0,-7.5396825396825395
149,-15.317460317460316,-45.95238095238095,1.6666666666666665,-30.71428571428571,-24.84126984126984,-18.333333333333332,-1.349206349206349,-42.61904761904761,-4.841269841269841,9.444444444444445,-141.19047619047618,-34.52380952380952,-3.095238095238095,-44.68253968253968,4.0476190476190474,-125.63492063492063,-2.9365079365079363,0.873015873015873,-325.0,-325.0,-325.0,-325.0,-325.0,-7.5396825396825395
150,-11.349206349206348,-56.904761904761905,-0.3968253968253968,-43.888888888888886,-20.238095238095237,-33.57142857142857,3.571428571428571,-52.93650793650794,6.26984126984127,11.349206349206348,-173.25396825396825,-53.095238095238095,-1.349206349206349,-54.841269841269835,12.3015873015873,-132.46031746031744,-2.619047619047619,0.873015873015873,-325.0,-325.0,-325.0,-325.0,-325.0,-321.8253968253968
151,-11.349206349206348,-56.904761904761905,-0.3968253968253968,-43.888888888888886,-20.238095238095237,-33.57142857142857,3.571428571428571,-52.93650793650794,6.26984126984127,11.349206349206348,-173.25396825396825,-53.095238095238095,-1.349206349206349,-54.841269841269835,12.3015873015873,-132.46031746031744,-2.619047619047619,0.873015873015873,-325.0,-325.0,-325.0,-325.0,-325.0,-321.8253968253968
152,-24.68253968253968,-64.52380952380952,-15.158730158730158,-40.079365079365076,-25.476190476190474,-39.285714285714285,-8.809523809523808,-46.269841269841265,-10.714285714285714,28.809523809523807,-185.47619047619045,-57.857142857142854,-8.174603174603174,-57.53968253968254,-2.7777777777777777,-168.17460317460316,-2.3015873015873014,-0.07936507936507936,-325.0,-325.0,-325.0,-325.0,-325.0,-321.8253968253968
153,-24.68253968253968,-64.52380952380952,-15.158730158730158,-40.079365079365076,-25.476190476190474,-39.285714285714285,-8.809523809523808,-46.269841269841265,-10.714285714285714,28.809523809523807,-185.47619047619045,-57.857142857142854,-8.174603174603174,-57.53968253968254,-2.7777777777777777,-168.17460317460316,-2.3015873015873014,-0.07936507936507936,-325.0,-325.0,-325.0,-325.0,-325.0,-321.8253968253968
154,-6.111111111111111,-73.4126984126984,1.8253968253968254,-28.174603174603174,-14.365079365079364,-63.73015873015873,-3.095238095238095,-64.2063492063492,-10.873015873015872,-9.761904761904761,-152.77777777777777,-66.58730158730158,-0.23809523809523808,-70.71428571428571,-0.7142857142857142,-164.04761904761904,-1.8253968253968254,0.3968253968253968,-325.0,-325.0,-325.0,-325.0,-325.0,-321.8253968253968
155,-6.111111111111111,-73.4126984126984,1.8253968253968254,-28.174603174603174,-14.365079365079364,-63.73015873015873,-3.095238095238095,-64.2063492063492,-10.873015873015872,-9.761904761904761,-152.77777777777777,-66.58730158730158,-0.23809523809523808,-70.71428571428571,-0.7142857142857142,-164.04761904761904,-1.8253968253968254,0.3968253968253968,-325.0,-325.0,-325.0,-325.0,-325.0,-321.8253968253968
156,7.5396825396825395,-68.17460317460318,7.063492063492063,-14.84126984126984,-9.285714285714285,-59.12698412698413,-3.888888888888889,-69.92063492063491,-5.634920634920634,-43.73015873015873,-111.34920634920634,-64.68253968253968,3.253968253968254,-70.23809523809524,-1.507936507936508,-161.8253968253968,-2.9365079365079363,0.07936507936507936,-325.0,-325.0,-325.0,-325.0,-325.0,-321.8253968253968
157,7.5396825396825395,-68.17460317460318,7.063492063492063,-14.84126984126984,-9.285714285714285,-59.12698412698413,-3.888888888888889,-69.92063492063491,-5.634920634920634,-43.73015873015873,-111.34920634920634,-64.68253968253968,3.253968253968254,-70.23809523809524,-1.507936507936508,-161.8253968253968,-2.9365079365079363,0.07936507936507936,-325.0,-325.0,-325.0,-325.0,-325.0,-321.8253968253968
158,1.6666666666666665,-87.53968253968253,1.8253968253968254,-36.904761904761905,-5.7936507936507935,-55.0,7.063492063492063,-65.79365079365078,12.619047619047619,-94.04761904761904,-30.71428571428571,-73.73015873015872,1.984126984126984,-74.84126984126983,10.555555555555555,-216.58730158730157,-1.984126984126984,0.7142857142857142,-325.0,-325.0,-325.0,-325.0,-325.0,-321.8253968253968
159,1.6666666666666665,-87.53968253968253,1.8253968253968254,-36.904761904761905,-5.7936507936507935,-55.0,7.063492063492063,-65.79365079365078,12.619047619047619,-94.04761904761904,-30.71428571428571,-73.73015873015872,1.984126984126984,-74.84126984126983,10.555555555555555,-216.58730158730157,-1.984126984126984,0.7142857142857142,-325.0,-325.0,-325.0,-325.0,-325.0,-321.8253968253968
160,-7.5396825396825395,-107.38095238095238,0.07936507936507936,-64.84126984126983,-13.571428571428571,-85.79365079365078,3.253968253968254,-85.79365079365078,8.015873015873016,-91.19047619047619,25.317460317460316,-95.15873015873015,0.23809523809523808,-93.25396825396825,7.222222222222221,-243.4126984126984,-1.8253968253968254,0.3968253968253968,-325.0,-325.0,-325.0,-325.0,-325.0,-7.5396825396825395
161,-7.5396825396825395,-107.38095238095238,0.07936507936507936,-64.84126984126983,-13.571428571428571,-85.79365079365078,3.253968253968254,-85.79365079365078,8.015873015873016,-91.19047619047619,25.317460317460316,-95.15873015873015,0.23809523809523808,-93.25396825396825,7.222222222222221,-243.4126984126984,-1.8253968253968254,0.3968253968253968,-325.0,-325.0,-325.0,-325.0,-325.0,-7.5396825396825395
162,-8.809523809523808,-121.5079365079365,-2.142857142857143,-82.3015873015873,-22.142857142857142,-101.19047619047619,-0.3968253968253968,-102.61904761904762,-2.7777777777777777,-43.888888888888886,-31.349206349206348,-109.44444444444444,-1.507936507936508,-111.34920634920634,-2.9365079365079363,-248.65079365079364,-2.3015873015873014,0.3968253968253968,-325.0,-325.0,-325.0,-325.0,-325.0,-7.5396825396825395
163,-8.809523809523808,-121.5079365079365,-2.142857142857143,-82.3015873015873,-22.142857142857142,-101.19047619047619,-0.3968253968253968,-102.61904761904762,-2.7777777777777777,-43.888888888888886,-31.349206349206348,-109.44444444444444,-1.507936507936508,-111.34920634920634,-2.9365079365079363,-248.65079365079364,-2.3015873015873014,0.3968253968253968,-325.0,-325.0,-325.0,-325.0,-325.0,-7.5396825396825395
164,-16.428571428571427,-103.25396825396825,-1.1904761904761905,-67.85714285714285,-18.65079365079365,-76.58730158730158,1.1904761904761905,-84.84126984126983,-8.174603174603174,4.682539682539682,-29.126984126984127,-85.63492063492063,1.984126984126984,-95.63492063492063,-0.5555555555555556,-214.2063492063492,-2.142857142857143,0.3968253968253968,-325.0,-325.0,-325.0,-325.0,-325.0,-7.5396825396825395
165,-16.428571428571427,-103.25396825396825,-1.1904761904761905,-67.85714285714285,-18.65079365079365,-76.58730158730158,1.1904761904761905,-84.84126984126983,-8.174603174603174,4.682539682539682,-29.126984126984127,-85.63492063492063,1.984126984126984,-95.63492063492063,-0.5555555555555556,-214.2063492063492,-2.142857142857143,0.3968253968253968,-325.0,-325.0,-325.0,-325.0,-325.0,-7.5396825396825395
166,-28.809523809523807,-45.95238095238095,-6.26984126984127,-11.666666666666666,-28.333333333333332,-22.142857142857142,-11.349206349206348,-27.539682539682538,-15.0,56.58730158730158,-11.666666666666666,-15.476190476190474,-1.6666666666666665,-32.61904761904762,-8.015873015873016,-149.12698412698413,-1.507936507936508,0.3968253968253968,-325.0,-325.0,-325.0,-325.0,-325.0,-7.5396825396825395
167,-28.809523809523807,-45.95238095238095,-6.26984126984127,-11.666666666666666,-28.333333333333332,-22.142857142857142,-11.349206349206348,-27.539682539682538,-15.0,56.58730158730158,-11.666666666666666,-15.476190476190474,-1.6666666666666665,-32.61904761904762,-8.015873015873016,-149.12698412698413,-1.507936507936508,0.3968253968253968,-325.0,-325.0,-325.0,-325.0,-325.0,-7.5396825396825395
168,-14.523809523809524,12.777777777777777,5.317460317460317,53.41269841269841,-23.41269841269841,20.238095238095237,-3.253968253968254,29.6031746031746,-3.4126984126984126,103.25396825396825,-10.396825396825395,44.2063492063492,3.73015873015873,26.9047619047619,0.873015873015873,-74.68253968253968,-2.142857142857143,0.5555555555555556,-325.0,-325.0,-325.0,-325.0,-325.0,-7.5396825396825395
169,-14.523809523809524,12.777777777777777,5.317460317460317,53.41269841269841,-23.41269841269841,20.238095238095237,-3.253968253968254,29.6031746031746,-3.4126984126984126,103.25396825396825,-10.396825396825395,44.2063492063492,3.73015873015873,26.9047619047619,0.873015873015873,-74.68253968253968,-2.142857142857143,0.5555555555555556,-325.0,-325.0,-325.0,-325.0,-325.0,-7.5396825396825395
170,-1.507936507936508,48.01587301587301,6.587301587301587,77.06349206349206,-32.61904761904762,37.698412698412696,1.1904761904761905,48.49206349206349,-5.7936507936507935,171.8253968253968,59.92063492063492,60.079365079365076,4.2063492063492065,49.6031746031746,-1.8253968253968254,-42.93650793650794,-1.984126984126984,0.7142857142857142,-325.0,-325.0,-325.0,-325.0,-325.0,-321.8253968253968
171,-1.507936507936508,48.01587301587301,6.587301587301587,77.06349206349206,-32.61904761904762,37.698412698412696,1.1904761904761905,48.49206349206349,-5.7936507936507935,171.8253968253968,59.92063492063492,60.079365079365076,4.2063492063492065,49.6031746031746,-1.8253968253968254,-42.93650793650794,-1.984126984126984,0.7142857142857142,-325.0,-325.0,-325.0,-325.0,-325.0,-321.8253968253968
172,-0.873015873015873,29.920634920634917,-2.142857142857143,60.39682539682539,-45.95238095238095,28.809523809523807,-10.555555555555555,39.76190476190476,-10.396825396825395,145.95238095238093,95.79365079365078,41.34920634920635,-1.349206349206349,36.904761904761905,-7.222222222222221,-50.238095238095234,-2.9365079365079363,1.1904761904761905,-325.0,-325.0,-325.0,-325.0,-325.0,-321.8253968253968
173,-0.873015873015873,29.920634920634917,-2.142857142857143,60.39682539682539,-45.95238095238095,28.809523809523807,-10.555555555555555,39.76190476190476,-10.396825396825395,145.95238095238093,95.79365079365078,41.34920634920635,-1.349206349206349,36.904761904761905,-7.222222222222221,-50.238095238095234,-2.9365079365079363,1.1904761904761905,-325.0,-325.0,-325.0,-325.0,-325.0,-321.8253968253968
174,7.857142857142857,38.01587301587301,2.142857142857143,66.58730158730158,-45.317460317460316,42.93650793650794,-4.0476190476190474,58.8095238095238,0.3968253968253968,92.61904761904762,86.26984126984127,47.06349206349206,2.7777777777777777,43.095238095238095,-1.1904761904761905,5.476190476190476,-2.46031746031746,0.5555555555555556,-325.0,-325.0,-325.0,-325.0,-325.0,-321.8253968253968
175,7.857142857142857,38.01587301587301,2.142857142857143,66.58730158730158,-45.317460317460316,42.93650793650794,-4.0476190476190474,58.8095238095238,0.3968253968253968,92.61904761904762,86.26984126984127,47.06349206349206,2.7777777777777777,43.095238095238095,-1.1904761904761905,5.476190476190476,-2.46031746031746,0.5555555555555556,-325.0,-325.0,-325.0,-325.0,-325.0,-321.8253968253968
176,6.428571428571428,24.68253968253968,-2.7777777777777777,47.06349206349206,-42.77777777777778,18.49206349206349,-13.412698412698411,31.349206349206348,-17.857142857142858,-0.3968253968253968,106.42857142857142,29.920634920634917,3.4126984126984126,24.68253968253968,-9.761904761904761,-2.3015873015873014,-2.3015873015873014,0.5555555555555556,-325.0,-325.0,-325.0,-325.0,-325.0,-321.8253968253968
177,6.428571428571428,24.68253968253968,-2.7777777777777777,47.06349206349206,-42.77777777777778,18.49206349206349,-13.412698412698411,31.349206349206348,-17.857142857142858,-0.3968253968253968,106.42857142857142,29.920634920634917,3.4126984126984126,24.68253968253968,-9.761904761904761,-2.3015873015873014,-2.3015873015873014,0.5555555555555556,-325.0,-325.0,-325.0,-325.0,-325.0,-321.8253968253968
178,11.031746031746032,8.809523809523808,1.0317460317460316,27.857142857142854,-43.888888888888886,-7.857142857142857,-11.349206349206348,7.857142857142857,-10.079365079365079,38.01587301587301,113.57142857142857,14.365079365079364,2.7777777777777777,9.444444444444445,-7.063492063492063,27.063492063492063,-2.7777777777777777,0.7142857142857142,-325.0,-325.0,-325.0,-325.0,-325.0,-321.8253968253968
179,11.031746031746032,8.809523809523808,1.0317460317460316,27.857142857142854,-43.888888888888886,-7.857142857142857,-11.349206349206348,7.857142857142857,-10.079365079365079,38.01587301587301,113.57142857142857,14.365079365079364,2.7777777777777777,9.444444444444445,-7.063492063492063,27.063492063492063,-2.7777777777777777,0.7142857142857142,-325.0,-325.0,-325.0,-325.0,-325.0,-321.8253968253968
180,19.126984126984127,-5.0,6.904761904761904,1.1904761904761905,-47.53968253968254,-19.92063492063492,0.07936507936507936,-10.079365079365079,5.7936507936507935,62.3015873015873,128.4920634920635,-6.111111111111111,4.523809523809524,-10.396825396825395,1.0317460317460316,70.39682539682539,-2.46031746031746,-0.07936507936507936,-325.0,-325.0,-325.0,-325.0,-325.0,-7.5396825396825395
181,19.126984126984127,-5.0,6.904761904761904,1.1904761904761905,-47.53968253968254,-19.92063492063492,0.07936507936507936,-10.079365079365079,5.7936507936507935,62.3015873015873,128.4920634920635,-6.111111111111111,4.523809523809524,-10.396825396825395,1.0317460317460316,70.39682539682539,-2.46031746031746,-0.07936507936507936,-325.0,-325.0,-325.0,-325.0,-325.0,-7.5396825396825395
182,12.142857142857142,-43.25396825396825,1.1904761904761905,-27.38095238095238,-69.44444444444444,-45.79365079365079,-2.3015873015873014,-32.61904761904762,8.968253968253968,32.77777777777778,94.84126984126983,-37.38095238095238,2.619047619047619,-45.79365079365079,2.7777777777777777,57.53968253968254,-3.095238095238095,0.23809523809523808,-325.0,-325.0,-325.0,-325.0,-325.0,-7.5396825396825395
183,12.142857142857142,-43.25396825396825,1.1904761904761905,-27.38095238095238,-69.44444444444444,-45.79365079365079,-2.3015873015873014,-32.61904761904762,8.968253968253968,32.77777777777778,94.84126984126983,-37.38095238095238,2.619047619047619,-45.79365079365079,2.7777777777777777,57.53968253968254,-3.095238095238095,0.23809523809523808,-325.0,-325.0,-325.0,-325.0,-325.0,-7.5396825396825395
184,-2.7777777777777777,-54.52380952380952,-12.777777777777777,-40.39682539682539,-78.01587301587301,-66.58730158730158,-7.222222222222221,-37.53968253968254,5.317460317460317,27.857142857142854,1.349206349206349,-41.34920634920635,-3.095238095238095,-50.55555555555555,-6.428571428571428,10.079365079365079,-3.095238095238095,0.07936507936507936,-325.0,-325.0,-325.0,-325.0,-325.0,-7.5396825396825395
185,-2.7777777777777777,-54.52380952380952,-12.777777777777777,-40.39682539682539,-78.01587301587301,-66.58730158730158,-7.222222222222221,-37.53968253968254,5.317460317460317,27.857142857142854,1.349206349206349,-41.34920634920635,-3.095238095238095,-50.55555555555555,-6.428571428571428,10.079365079365079,-3.095238095238095,0.07936507936507936,-325.0,-325.0,-325.0,-325.0,-325.0,-7.5396825396825395
186,0.7142857142857142,-39.76190476190476,-0.7142857142857142,-29.126984126984127,-54.52380952380952,-53.73015873015873,1.349206349206349,-33.095238095238095,-0.3968253968253968,38.17460317460317,-1.8253968253968254,-30.396825396825395,1.8253968253968254,-43.095238095238095,-5.158730158730158,-35.0,-3.4126984126984126,0.7142857142857142,-325.0,-325.0,-325.0,-325.0,-325.0,-7.5396825396825395
187,0.7142857142857142,-39.76190476190476,-0.7142857142857142,-29.126984126984127,-54.52380952380952,-53.73015873015873,1.349206349206349,-33.095238095238095,-0.3968253968253968,38.17460317460317,-1.8253968253968254,-30.396825396825395,1.8253968253968254,-43.095238095238095,-5.158730158730158,-35.0,-3.4126984126984126,0.7142857142857142,-325.0,-325.0,-325.0,-325.0,-325.0,-7.5396825396825395
188,-3.095238095238095,-39.76190476190476,0.23809523809523808,-18.65079365079365,-42.77777777777778,-39.285714285714285,1.8253968253968254,-24.84126984126984,-0.23809523809523808,115.95238095238095,-31.507936507936506,-26.746031746031743,1.8253968253968254,-37.06349206349206,-5.7936507936507935,-59.285714285714285,-3.095238095238095,0.5555555555555556,-325.0,-325.0,-325.0,-325.0,-325.0,-7.5396825396825395
189,-3.095238095238095,-39.76190476190476,0.23809523809523808,-18.65079365079365,-42.77777777777778,-39.285714285714285,1.8253968253968254,-24.84126984126984,-0.23809523809523808,115.95238095238095,-31.507936507936506,-26.746031746031743,1.8253968253968254,-37.06349206349206,-5.7936507936507935,-59.285714285714285,-3.095238095238095,0.5555555555555556,-325.0,-325.0,-325.0,-325.0,-325.0,-7.5396825396825395
190,-0.07936507936507936,-50.55555555555555,4.523809523809524,-29.6031746031746,-35.95238095238095,-49.92063492063492,3.095238095238095,-38.96825396825397,1.6666666666666665,129.76190476190476,-50.55555555555555,-42.3015873015873,2.9365079365079363,-50.39682539682539,-3.095238095238095,-113.73015873015872,-2.46031746031746,0.873015873015873,-325.0,-325.0,-325.0,-325.0,-325.0,-321.8253968253968
191,-0.07936507936507936,-50.55555555555555,4.523809523809524,-29.6031746031746,-35.95238095238095,-49.92063492063492,3.095238095238095,-38.96825396825397,1.6666666666666665,129.76190476190476,-50.55555555555555,-42.3015873015873,2.9365079365079363,-50.39682539682539,-3.095238095238095,-113.73015873015872,-2.46031746031746,0.873015873015873,-325.0,-325.0,-325.0,-325.0,-325.0,-321.8253968253968
192,-0.873015873015873,-79.12698412698413,-3.095238095238095,-62.61904761904761,-39.6031746031746,-73.25396825396825,-7.698412698412698,-67.53968253968253,-7.063492063492063,-2.142857142857143,-55.15873015873016,-66.74603174603175,4.365079365079365,-71.19047619047619,-6.26984126984127,-152.93650793650792,-2.7777777777777777,0.873015873015873,-325.0,-325.0,-325.0,-325.0,-325.0,-321.8253968253968
193,-0.873015873015873,-79.12698412698413,-3.095238095238095,-62.61904761904761,-39.6031746031746,-73.25396825396825,-7.698412698412698,-67.53968253968253,-7.063492063492063,-2.142857142857143,-55.15873015873016,-66.74603174603175,4.365079365079365,-71.19047619047619,-6.26984126984127,-152.93650793650792,-2.7777777777777777,0.873015873015873,-325.0,-325.0,-325.0,-325.0,-325.0,-321.8253968253968
194,-7.222222222222221,-90.39682539682539,-9.444444444444445,-77.38095238095238,-33.41269841269841,-92.46031746031746,-4.682539682539682,-72.93650793650794,-5.158730158730158,-8.968253968253968,-72.77777777777777,-76.9047619047619,0.07936507936507936,-79.12698412698413,-8.492063492063492,-148.17460317460316,-1.984126984126984,0.3968253968253968,-325.0,-325.0,-325.0,-325.0,-325.0,-321.8253968253968
195,-7.222222222222221,-90.39682539682539,-9.444444444444445,-77.38095238095238,-33.41269841269841,-92.46031746031746,-4.682539682539682,-72.93650793650794,-5.158730158730158,-8.968253968253968,-72.77777777777777,-76.9047619047619,0.07936507936507936,-79.12698412698413,-8.492063492063492,-148.17460317460316,-1.984126984126984,0.3968253968253968,-325.0,-325.0,-325.0,-325.0,-325.0,-321.8253968253968
196,-7.063492063492063,-66.58730158730158,-2.3015873015873014,-68.65079365079364,-21.825396825396822,-77.38095238095238,3.095238095238095,-60.079365079365076,3.571428571428571,50.71428571428571,-70.71428571428571,-60.873015873015866,1.984126984126984,-68.01587301587301,0.3968253968253968,-59.44444444444444,-1.6666666666666665,0.3968253968253968,-325.0,-325.0,-325.0,-325.0,-325.0,-321.8253968253968
197,-7.063492063492063,-66.58730158730158,-2.3015873015873014,-68.65079365079364,-21.825396825396822,-77.38095238095238,3.095238095238095,-60.079365079365076,3.571428571428571,50.71428571428571,-70.71428571428571,-60.873015873015866,1.984126984126984,-68.01587301587301,0.3968253968253968,-59.44444444444444,-1.6666666666666665,0.3968253968253968,-325.0,-325.0,-325.0,-325.0,-325.0,-321.8253968253968
198,-17.857142857142858,-85.63492063492063,-6.428571428571428,-80.71428571428571,-19.126984126984127,-72.93650793650794,-0.3968253968253968,-64.84126984126983,7.3809523809523805,36.58730158730159,-75.15873015873015,-74.68253968253968,-2.46031746031746,-77.85714285714285,-1.0317460317460316,16.26984126984127,-2.46031746031746,0.23809523809523808,-325.0,-325.0,-325.0,-325.0,-325.0,-321.8253968253968
199,-17.857142857142858,-85.63492063492063,-6.428571428571428,-80.71428571428571,-19.126984126984127,-72.93650793650794,-0.3968253968253968,-64.84126984126983,7.3809523809523805,36.58730158730159,-75.15873015873015,-74.68253968253968,-2.46031746031746,-77.85714285714285,-1.0317460317460316,16.26984126984127,-2.46031746031746,0.23809523809523808,-325.0,-325.0,-325.0,-325.0,-325.0,-321.8253968253968
200,-15.634920634920634,-113.57142857142857,-7.5396825396825395,-105.79365079365078,-18.80952380952381,-102.46031746031746,7.857142857142857,-87.6984126984127,8.809523809523808,-55.15873015873016,-124.2063492063492,-101.5079365079365,0.7142857142857142,-104.2063492063492,2.142857142857143,5.476190476190476,-2.9365079365079363,1.0317460317460316,-325.0,-325.0,-325.0,-325.0,-325.0,-7.5396825396825395
201,-15.634920634920634,-113.57142857142857,-7.5396825396825395,-105.79365079365078,-18.80952380952381,-102.46031746031746,7.857142857142857,-87.6984126984127,8.809523809523808,-55.15873015873016,-124.2063492063492,-101.5079365079365,0.7142857142857142,-104.2063492063492,2.142857142857143,5.476190476190476,-2.9365079365079363,1.0317460317460316,-325.0,-325.0,-325.0,-325.0,-325.0,-7.5396825396825395
202,-6.111111111111111,-123.57142857142857,-4.365079365079365,-123.25396825396825,-46.58730158730158,-128.4920634920635,-1.6666666666666665,-107.22222222222221,-4.365079365079365,-95.95238095238095,-134.04761904761904,-119.28571428571428,0.5555555555555556,-118.8095238095238,-5.317460317460317,12.936507936507935,-2.619047619047619,1.0317460317460316,-325.0,-325.0,-325.0,-325.0,-325.0,-7.5396825396825395
203,-6.111111111111111,-123.57142857142857,-4.365079365079365,-123.25396825396825,-46.58730158730158,-128.4920634920635,-1.6666666666666665,-107.22222222222221,-4.365079365079365,-95.95238095238095,-134.04761904761904,-119.28571428571428,0.5555555555555556,-118.8095238095238,-5.317460317460317,12.936507936507935,-2.619047619047619,1.0317460317460316,-325.0,-325.0,-325.0,-325.0,-325.0,-7.5396825396825395
204,-6.904761904761904,-126.74603174603173,-5.0,-130.3968253968254,-38.01587301587301,-138.33333333333331,-4.682539682539682,-117.53968253968253,-8.809523809523808,-106.58730158730158,-151.03174603174602,-128.8095238095238,-1.507936507936508,-124.36507936507935,-6.111111111111111,49.12698412698413,-2.619047619047619,1.349206349206349,-325.0,-325.0,-325.0,-325.0,-325.0,-7.5396825396825395
205,-6.904761904761904,-126.74603174603173,-5.0,-130.3968253968254,-38.01587301587301,-138.33333333333331,-4.682539682539682,-117.53968253968253,-8.809523809523808,-106.58730158730158,-151.03174603174602,-128.8095238095238,-1.507936507936508,-124.36507936507935,-6.111111111111111,49.12698412698413,-2.619047619047619,1.349206349206349,-325.0,-325.0,-325.0,-325.0,-325.0,-7.5396825396825395
206,-2.619047619047619,-136.74603174603175,-3.888888888888889,-133.25396825396825,-23.57142857142857,-134.52380952380952,-7.5396825396825395,-123.88888888888889,-11.984126984126984,-133.88888888888889,-255.0,-134.04761904761904,0.7142857142857142,-130.55555555555554,-4.523809523809524,42.93650793650794,-3.095238095238095,0.873015873015873,-325.0,-325.0,-325.0,-325.0,-325.0,-7.5396825396825395
207,-2.619047619047619,-136.74603174603175,-3.888888888888889,-133.25396825396825,-23.57142857142857,-134.52380952380952,-7.5396825396825395,-123.88888888888889,-11.984126984126984,-133.88888888888889,-255.0,-134.04761904761904,0.7142857142857142,-130.55555555555554,-4.523809523809524,42.93650793650794,-3.095238095238095,0.873015873015873,-325.0,-325.0,-325.0,-325.0,-325.0,-7.5396825396825395
208,-3.888888888888889,-150.07936507936506,-4.523809523809524,-152.61904761904762,-13.412698412698411,-145.3174603174603,-12.46031746031746,-153.25396825396825,-22.936507936507937,-138.96825396825395,-268.3333333333333,-150.7142857142857,-2.3015873015873014,-147.06349206349205,-10.079365079365079,48.80952380952381,-3.095238095238095,1.0317460317460316,-325.0,-325.0,-325.0,-325.0,-325.0,-7.5396825396825395
209,-3.888888888888889,-150.07936507936506,-4.523809523809524,-152.61904761904762,-13.412698412698411,-145.3174603174603,-12.46031746031746,-153.25396825396825,-22.936507936507937,-138.96825396825395,-268.3333333333333,-150.7142857142857,-2.3015873015873014,-147.06349206349205,-10.079365079365079,48.80952380952381,-3.095238095238095,1.0317460317460316,-325.0,-325.0,-325.0,-325.0,-325.0,-7.5396825396825395
210,1.507936507936508,-153.25396825396825,-7.3809523809523805,-148.65079365079364,-7.698412698412698,-149.12698412698413,0.23809523809523808,-143.4126984126984,-0.5555555555555556,-123.25396825396825,-264.04761904761904,-154.2063492063492,-0.873015873015873,-145.63492063492063,1.1904761904761905,21.984126984126984,-2.7777777777777777,0.7142857142857142,-325.0,-325.0,-325.0,-325.0,-325.0,-321.8253968253968
211,1.507936507936508,-153.25396825396825,-7.3809523809523805,-148.65079365079364,-7.698412698412698,-149.12698412698413,0.23809523809523808,-143.4126984126984,-0.5555555555555556,-123.25396825396825,-264.04761904761904,-154.2063492063492,-0.873015873015873,-145.63492063492063,1.1904761904761905,21.984126984126984,-2.7777777777777777,0.7142857142857142,-325.0,-325.0,-325.0,-325.0,-325.0,-321.8253968253968
212,-12.777777777777777,-158.96825396825395,-11.19047619047619,-148.33333333333331,-2.619047619047619,-151.984126984127,-0.5555555555555556,-145.15873015873015,-2.46031746031746,-124.52380952380952,-260.07936507936506,-152.3015873015873,-3.253968253968254,-153.57142857142856,2.3015873015873014,-15.793650793650793,-2.7777777777777777,-0.07936507936507936,-325.0,-325.0,-325.0,-325.0,-325.0,-321.8253968253968
213,-12.777777777777777,-158.96825396825395,-11.19047619047619,-148.33333333333331,-2.619047619047619,-151.984126984127,-0.5555555555555556,-145.15873015873015,-2.46031746031746,-124.52380952380952,-260.07936507936506,-152.3015873015873,-3.253968253968254,-153.57142857142856,2.3015873015873014,-15.793650793650793,-2.7777777777777777,-0.07936507936507936,-325.0,-325.0,-325.0,-325.0,-325.0,-321.8253968253968
214,-19.444444444444443,-159.28571428571428,-1.984126984126984,-143.88888888888889,6.904761904761904,-148.17460317460316,2.9365079365079363,-149.76190476190476,1.507936507936508,-128.65079365079364,-157.2222222222222,-148.8095238095238,-1.6666666666666665,-154.04761904761904,3.73015873015873,-31.19047619047619,-2.7777777777777777,0.5555555555555556,-325.0,-325.0,-325.0,-325.0,-325.0,-321.8253968253968
215,-19.444444444444443,-159.28571428571428,-1.984126984126984,-143.88888888888889,6.904761904761904,-148.17460317460316,2.9365079365079363,-149.76190476190476,1.507936507936508,-128.65079365079364,-157.2222222222222,-148.8095238095238,-1.6666666666666665,-154.04761904761904,3.73015873015873,-31.19047619047619,-2.7777777777777777,0.5555555555555556,-325.0,-325.0,-325.0,-325.0,-325.0,-321.8253968253968
216,-25.952380952380953,-141.8253968253968,-12.3015873015873,-133.73015873015873,-8.015873015873016,-124.36507936507935,-1.349206349206349,-126.74603174603173,-8.492063492063492,-175.79365079365078,-73.57142857142857,-130.3968253968254,-1.6666666666666665,-137.22222222222223,2.3015873015873014,-7.3809523809523805,-3.095238095238095,1.0317460317460316,-325.0,-325.0,-325.0,-325.0,-325.0,-321.8253968253968
217,-25.952380952380953,-141.8253968253968,-12.3015873015873,-133.73015873015873,-8.015873015873016,-124.36507936507935,-1.349206349206349,-126.74603174603173,-8.492063492063492,-175.79365079365078,-73.57142857142857,-130.3968253968254,-1.6666666666666665,-137.22222222222223,2.3015873015873014,-7.3809523809523805,-3.095238095238095,1.0317460317460316,-325.0,-325.0,-325.0,-325.0,-325.0,-321.8253968253968
218,-27.539682539682538,-126.74603174603173,-5.476190476190476,-115.63492063492063,-1.507936507936508,-119.28571428571428,2.9365079365079363,-121.34920634920634,-2.142857142857143,-133.57142857142856,-72.14285714285714,-117.38095238095238,0.3968253968253968,-122.46031746031746,5.0,4.2063492063492065,-2.9365079365079363,0.5555555555555556,-325.0,-325.0,-325.0,-325.0,-325.0,-321.8253968253968
219,-27.539682539682538,-126.74603174603173,-5.476190476190476,-115.63492063492063,-1.507936507936508,-119.28571428571428,2.9365079365079363,-121.34920634920634,-2.142857142857143,-133.57142857142856,-72.14285714285714,-117.38095238095238,0.3968253968253968,-122.46031746031746,5.0,4.2063492063492065,-2.9365079365079363,0.5555555555555556,-325.0,-325.0,-325.0,-325.0,-325.0,-321.8253968253968
220,-31.349206349206348,-109.92063492063491,-11.825396825396824,-101.19047619047619,5.158730158730158,-104.84126984126983,4.2063492063492065,-106.42857142857142,-3.4126984126984126,-167.2222222222222,-35.79365079365079,-98.96825396825396,0.07936507936507936,-109.12698412698413,1.1904761904761905,-7.222222222222221,-2.3015873015873014,0.3968253968253968,-325.0,-325.0,-325.0,-325.0,-325.0,-7.5396825396825395
221,-31.349206349206348,-109.92063492063491,-11.825396825396824,-101.19047619047619,5.158730158730158,-104.84126984126983,4.2063492063492065,-106.42857142857142,-3.4126984126984126,-167.2222222222222,-35.79365079365079,-98.96825396825396,0.07936507936507936,-109.12698412698413,1.1904761904761905,-7.222222222222221,-2.3015873015873014,0.3968253968253968,-325.0,-325.0,-325.0,-325.0,-325.0,-7.5396825396825395
222,-18.80952380952381,-85.47619047619047,-1.1904761904761905,-79.6031746031746,13.095238095238095,-101.82539682539682,3.253968253968254,-89.44444444444444,-8.968253968253968,-68.17460317460318,-1.1904761904761905,-81.66666666666666,1.6666666666666665,-90.39682539682539,-0.873015873015873,-13.095238095238095,-2.619047619047619,0.7142857142857142,-325.0,-325.0,-325.0,-325.0,-325.0,-7.5396825396825395
223,-18.80952380952381,-85.47619047619047,-1.1904761904761905,-79.6031746031746,13.095238095238095,-101.82539682539682,3.253968253968254,-89.44444444444444,-8.968253968253968,-68.17460317460318,-1.1904761904761905,-81.66666666666666,1.6666666666666665,-90.39682539682539,-0.873015873015873,-13.095238095238095,-2.619047619047619,0.7142857142857142,-325.0,-325.0,-325.0,-325.0,-325.0,-7.5396825396825395
224,-10.873015873015872,-79.44444444444444,1.1904761904761905,-75.63492063492063,25.476190476190474,-86.26984126984127,5.476190476190476,-79.92063492063491,-1.1904761904761905,62.77777777777777,-34.047619047619044,-77.06349206349206,3.095238095238095,-81.19047619047619,-2.619047619047619,10.555555555555555,-3.095238095238095,0.5555555555555556,-325.0,-325.0,-325.0,-325.0,-325.0,-7.5396825396825395
225,-10.873015873015872,-79.44444444444444,1.1904761904761905,-75.63492063492063,25.476190476190474,-86.26984126984127,5.476190476190476,-79.92063492063491,-1.1904761904761905,62.77777777777777,-34.047619047619044,-77.06349206349206,3.095238095238095,-81.19047619047619,-2.619047619047619,10.555555555555555,-3.095238095238095,0.5555555555555556,-325.0,-325.0,-325.0,-325.0,-325.0,-7.5396825396825395
226,-4.523809523809524,-75.15873015873015,-1.6666666666666665,-84.84126984126983,24.206349206349206,-83.4126984126984,-6.26984126984127,-85.31746031746032,-14.682539682539682,50.39682539682539,-62.77777777777777,-81.34920634920634,1.349206349206349,-83.73015873015872,-16.587301587301585,37.698412698412696,-2.9365079365079363,0.5555555555555556,-325.0,-325.0,-325.0,-325.0,-325.0,-7.5396825396825395
227,-4.523809523809524,-75.15873015873015,-1.6666666666666665,-84.84126984126983,24.206349206349206,-83.4126984126984,-6.26984126984127,-85.31746031746032,-14.682539682539682,50.39682539682539,-62.77777777777777,-81.34920634920634,1.349206349206349,-83.73015873015872,-16.587301587301585,37.698412698412696,-2.9365079365079363,0.5555555555555556,-325.0,-325.0,-325.0,-325.0,-325.0,-7.5396825396825395
228,2.619047619047619,-67.6984126984127,3.4126984126984126,-85.0,26.11111111111111,-76.58730158730158,-1.6666666666666665,-80.87301587301587,-10.079365079365079,-43.25396825396825,-20.238095238095237,-72.77777777777777,4.682539682539682,-71.19047619047619,-13.412698412698411,48.01587301587301,-3.4126984126984126,0.7142857142857142,-325.0,-325.0,-325.0,-325.0,-325.0,-7.5396825396825395
229,2.619047619047619,-67.6984126984127,3.4126984126984126,-85.0,26.11111111111111,-76.58730158730158,-1.6666666666666665,-80.87301587301587,-10.079365079365079,-43.25396825396825,-20.238095238095237,-72.77777777777777,4.682539682539682,-71.19047619047619,-13.412698412698411,48.01587301587301,-3.4126984126984126,0.7142857142857142,-325.0,-325.0,-325.0,-325.0,-325.0,-7.5396825396825395
230,6.904761904761904,-70.71428571428571,3.73015873015873,-85.95238095238095,29.444444444444443,-79.28571428571428,3.4126984126984126,-74.68253968253968,-4.0476190476190474,-109.76190476190476,-15.793650793650793,-72.14285714285714,6.111111111111111,-72.3015873015873,-8.015873015873016,78.4920634920635,-3.095238095238095,-0.23809523809523808,-325.0,-325.0,-325.0,-325.0,-325.0,-321.8253968253968
231,6.904761904761904,-70.71428571428571,3.73015873015873,-85.95238095238095,29.444444444444443,-79.28571428571428,3.4126984126984126,-74.68253968253968,-4.0476190476190474,-109.76190476190476,-15.793650793650793,-72.14285714285714,6.111111111111111,-72.3015873015873,-8.015873015873016,78.4920634920635,-3.095238095238095,-0.23809523809523808,-325.0,-325.0,-325.0,-325.0,-325.0,-321.8253968253968
232,4.2063492063492065,-78.33333333333333,0.7142857142857142,-96.74603174603175,25.634920634920633,-98.17460317460316,-0.5555555555555556,-84.36507936507937,13.412698412698411,-95.31746031746032,-26.26984126984127,-83.57142857142857,-0.23809523809523808,-85.15873015873015,-6.428571428571428,33.41269841269841,-3.571428571428571,0.07936507936507936,-325.0,-325.0,-325.0,-325.0,-325.0,-321.8253968253968
233,4.2063492063492065,-78.33333333333333,0.7142857142857142,-96.74603174603175,25.634920634920633,-98.17460317460316,-0.5555555555555556,-84.36507936507937,13.412698412698411,-95.31746031746032,-26.26984126984127,-83.57142857142857,-0.23809523809523808,-85.15873015873015,-6.428571428571428,33.41269841269841,-3.571428571428571,0.07936507936507936,-325.0,-325.0,-325.0,-325.0,-325.0,-321.8253968253968
234,-4.523809523809524,-81.34920634920634,-5.7936507936507935,-96.9047619047619,27.698412698412696,-92.14285714285714,3.253968253968254,-70.55555555555556,13.571428571428571,-103.57142857142857,-13.73015873015873,-82.77777777777777,-1.984126984126984,-85.79365079365078,0.873015873015873,-3.253968253968254,-2.619047619047619,0.3968253968253968,-325.0,-325.0,-325.0,-325.0,-325.0,-321.8253968253968
235,-4.523809523809524,-81.34920634920634,-5.7936507936507935,-96.9047619047619,27.698412698412696,-92.14285714285714,3.253968253968254,-70.55555555555556,13.571428571428571,-103.57142857142857,-13.73015873015873,-82.77777777777777,-1.984126984126984,-85.79365079365078,0.873015873015873,-3.253968253968254,-2.619047619047619,0.3968253968253968,-325.0,-325.0,-325.0,-325.0,-325.0,-321.8253968253968
236,-10.079365079365079,-71.66666666666666,-3.888888888888889,-87.06349206349206,16.904761904761905,-91.34920634920634,-3.571428571428571,-65.47619047619047,2.3015873015873014,-95.0,10.873015873015872,-67.06349206349206,-1.349206349206349,-70.55555555555556,-3.253968253968254,-20.238095238095237,-3.253968253968254,0.23809523809523808,-325.0,-325.0,-325.0,-325.0,-325.0,-321.8253968253968
237,-10.079365079365079,-71.66666666666666,-3.888888888888889,-87.06349206349206,16.904761904761905,-91.34920634920634,-3.571428571428571,-65.47619047619047,2.3015873015873014,-95.0,10.873015873015872,-67.06349206349206,-1.349206349206349,-70.55555555555556,-3.253968253968254,-20.238095238095237,-3.253968253968254,0.23809523809523808,-325.0,-325.0,-325.0,-325.0,-325.0,-321.8253968253968
238,-8.015873015873016,-57.53968253968254,-4.0476190476190474,-73.09523809523809,11.825396825396824,-74.84126984126983,-1.507936507936508,-58.650793650793645,1.507936507936508,-74.68253968253968,38.96825396825397,-52.3015873015873,-1.1904761904761905,-54.36507936507936,1.984126984126984,-42.77777777777778,-3.095238095238095,0.873015873015873,-325.0,-325.0,-325.0,-325.0,-325.0,-321.8253968253968
239,-8.015873015873016,-57.53968253968254,-4.0476190476190474,-73.09523809523809,11.825396825396824,-74.84126984126983,-1.507936507936508,-58.650793650793645,1.507936507936508,-74.68253968253968,38.96825396825397,-52.3015873015873,-1.1904761904761905,-54.36507936507936,1.984126984126984,-42.77777777777778,-3.095238095238095,0.873015873015873,-325.0,-325.0,-325.0,-325.0,-325.0,-321.8253968253968
240,-5.317460317460317,-59.285714285714285,2.7777777777777777,-61.82539682539682,20.555555555555554,-58.8095238095238,1.0317460317460316,-60.079365079365076,-6.26984126984127,-72.46031746031746,21.666666666666664,-52.61904761904761,1.8253968253968254,-53.57142857142857,1.0317460317460316,-27.539682539682538,-2.46031746031746,0.3968253968253968,-325.0,-325.0,-325.0,-325.0,-325.0,-7.5396825396825395
241,-5.317460317460317,-59.285714285714285,2.7777777777777777,-61.82539682539682,20.555555555555554,-58.8095238095238,1.0317460317460316,-60.079365079365076,-6.26984126984127,-72.46031746031746,21.666666666666664,-52.61904761904761,1.8253968253968254,-53.57142857142857,1.0317460317460316,-27.539682539682538,-2.46031746031746,0.3968253968253968,-325.0,-325.0,-325.0,-325.0,-325.0,-7.5396825396825395
242,4.841269841269841,-44.84126984126984,15.476190476190474,-44.68253968253968,33.888888888888886,-30.07936507936508,10.396825396825395,-39.6031746031746,5.952380952380952,-71.66666666666666,7.698412698412698,-47.857142857142854,5.0,-47.22222222222222,9.761904761904761,50.079365079365076,-2.619047619047619,0.5555555555555556,-325.0,-325.0,-325.0,-325.0,-325.0,-7.5396825396825395
243,4.841269841269841,-44.84126984126984,15.476190476190474,-44.68253968253968,33.888888888888886,-30.07936507936508,10.396825396825395,-39.6031746031746,5.952380952380952,-71.66666666666666,7.698412698412698,-47.857142857142854,5.0,-47.22222222222222,9.761904761904761,50.079365079365076,-2.619047619047619,0.5555555555555556,-325.0,-325.0,-325.0,-325.0,-325.0,-7.5396825396825395
244,4.0476190476190474,-38.96825396825397,7.698412698412698,-49.6031746031746,24.365079365079364,-30.07936507936508,-2.142857142857143,-43.095238095238095,-5.317460317460317,-55.79365079365079,-8.968253968253968,-43.888888888888886,5.158730158730158,-40.39682539682539,3.4126984126984126,5.158730158730158,-3.4126984126984126,0.5555555555555556,-325.0,-325.0,-325.0,-325.0,-325.0,-7.5396825396825395
245,4.0476190476190474,-38.96825396825397,7.698412698412698,-49.6031746031746,24.365079365079364,-30.07936507936508,-2.142857142857143,-43.095238095238095,-5.317460317460317,-55.79365079365079,-8.968253968253968,-43.888888888888886,5.158730158730158,-40.39682539682539,3.4126984126984126,5.158730158730158,-3.4126984126984126,0.5555555555555556,-325.0,-325.0,-325.0,-325.0,-325.0,-7.5396825396825395
246,1.6666666666666665,-33.095238095238095,5.952380952380952,-45.0,25.317460317460316,-20.555555555555554,5.634920634920634,-36.11111111111111,-2.9365079365079363,39.12698412698413,-44.2063492063492,-36.269841269841265,2.9365079365079363,-28.49206349206349,4.682539682539682,-22.142857142857142,-2.3015873015873014,0.07936507936507936,-325.0,-325.0,-325.0,-325.0,-325.0,-7.5396825396825395
247,1.6666666666666665,-33.095238095238095,5.952380952380952,-45.0,25.317460317460316,-20.555555555555554,5.634920634920634,-36.11111111111111,-2.9365079365079363,39.12698412698413,-44.2063492063492,-36.269841269841265,2.9365079365079363,-28.49206349206349,4.682539682539682,-22.142857142857142,-2.3015873015873014,0.07936507936507936,-325.0,-325.0,-325.0,-325.0,-325.0,-7.5396825396825395
248,-6.587301587301587,-22.777777777777775,0.07936507936507936,-48.96825396825397,17.698412698412696,-31.825396825396822,8.968253968253968,-23.253968253968253,11.19047619047619,-43.095238095238095,-113.57142857142857,-26.587301587301585,-1.8253968253968254,-21.825396825396822,8.015873015873016,15.793650793650793,-2.46031746031746,0.3968253968253968,-325.0,-325.0,-325.0,-325.0,-325.0,-7.5396825396825395
249,-6.587301587301587,-22.777777777777775,0.07936507936507936,-48.96825396825397,17.698412698412696,-31.825396825396822,8.968253968253968,-23.253968253968253,11.19047619047619,-43.095238095238095,-113.57142857142857,-26.587301587301585,-1.8253968253968254,-21.825396825396822,8.015873015873016,15.793650793650793,-2.46031746031746,0.3968253968253968,-325.0,-325.0,-325.0,-325.0,-325.0,-7.5396825396825395
250,-1.0317460317460316,-31.507936507936506,-7.5396825396825395,-58.49206349206349,18.65079365079365,-40.238095238095234,7.698412698412698,-41.03174603174603,9.603174603174603,-47.698412698412696,-189.28571428571428,-33.41269841269841,2.142857142857143,-27.539682539682538,12.46031746031746,38.96825396825397,-3.095238095238095,0.873015873015873,-325.0,-325.0,-325.0,-325.0,-325.0,-321.8253968253968
251,-1.0317460317460316,-31.507936507936506,-7.5396825396825395,-58.49206349206349,18.65079365079365,-40.238095238095234,7.698412698412698,-41.03174603174603,9.603174603174603,-47.698412698412696,-189.28571428571428,-33.41269841269841,2.142857142857143,-27.539682539682538,12.46031746031746,38.96825396825397,-3.095238095238095,0.873015873015873,-325.0,-325.0,-325.0,-325.0,-325.0,-321.8253968253968
252,9.761904761904761,-10.396825396825395,6.904761904761904,-29.920634920634917,27.539682539682538,-2.619047619047619,11.031746031746032,-16.587301587301585,7.857142857142857,-69.28571428571428,-194.52380952380952,-17.38095238095238,6.428571428571428,-11.507936507936508,11.349206349206348,68.33333333333333,-2.46031746031746,0.873015873015873,-325.0,-325.0,-325.0,-325.0,-325.0,-321.8253968253968
253,9.761904761904761,-10.396825396825395,6.904761904761904,-29.920634920634917,27.539682539682538,-2.619047619047619,11.031746031746032,-16.587301587301585,7.857142857142857,-69.28571428571428,-194.52380952380952,-17.38095238095238,6.428571428571428,-11.507936507936508,11.349206349206348,68.33333333333333,-2.46031746031746,0.873015873015873,-325.0,-325.0,-325.0,-325.0,-325.0,-321.8253968253968
254,9.444444444444445,1.8253968253968254,8.174603174603174,-20.873015873015873,20.238095238095237,14.365079365079364,0.873015873015873,-4.841269841269841,-3.4126984126984126,-95.0,-161.66666666666666,-7.063492063492063,3.571428571428571,1.8253968253968254,7.063492063492063,79.12698412698413,-2.9365079365079363,1.349206349206349,-325.0,-325.0,-325.0,-325.0,-325.0,-321.8253968253968
255,9.444444444444445,1.8253968253968254,8.174603174603174,-20.873015873015873,20.238095238095237,14.365079365079364,0.873015873015873,-4.841269841269841,-3.4126984126984126,-95.0,-161.66666666666666,-7.063492063492063,3.571428571428571,1.8253968253968254,7.063492063492063,79.12698412698413,-2.9365079365079363,1.349206349206349,-325.0,-325.0,-325.0,-325.0,-325.0,-321.8253968253968
256,-1.1904761904761905,7.857142857142857,-1.507936507936508,-6.428571428571428,35.317460317460316,29.76190476190476,3.4126984126984126,5.476190476190476,-9.761904761904761,15.793650793650793,-205.79365079365078,0.23809523809523808,3.888888888888889,5.158730158730158,9.761904761904761,69.44444444444444,-2.619047619047619,1.349206349206349,-325.0,-325.0,-325.0,-325.0,-325.0,-321.8253968253968
257,-1.1904761904761905,7.857142857142857,-1.507936507936508,-6.428571428571428,35.317460317460316,29.76190476190476,3.4126984126984126,5.476190476190476,-9.761904761904761,15.793650793650793,-205.79365079365078,0.23809523809523808,3.888888888888889,5.158730158730158,9.761904761904761,69.44444444444444,-2.619047619047619,1.349206349206349,-325.0,-325.0,-325.0,-325.0,-325.0,-321.8253968253968
258,-5.158730158730158,11.19047619047619,-0.07936507936507936,5.634920634920634,25.79365079365079,27.698412698412696,2.7777777777777777,15.317460317460316,0.3968253968253968,60.238095238095234,-284.5238095238095,12.777777777777777,-2.3015873015873014,14.206349206349206,4.0476190476190474,87.38095238095238,-2.9365079365079363,1.507936507936508,-325.0,-325.0,-325.0,-325.0,-325.0,-321.8253968253968
259,-5.158730158730158,11.19047619047619,-0.07936507936507936,5.634920634920634,25.79365079365079,27.698412698412696,2.7777777777777777,15.317460317460316,0.3968253968253968,60.238095238095234,-284.5238095238095,12.777777777777777,-2.3015873015873014,14.206349206349206,4.0476190476190474,87.38095238095238,-2.9365079365079363,1.507936507936508,-325.0,-325.0,-325.0,-325.0,-325.0,-321.8253968253968
260,-7.857142857142857,6.428571428571428,-0.7142857142857142,3.73015873015873,26.11111111111111,23.41269841269841,3.253968253968254,11.19047619047619,0.873015873015873,-89.12698412698413,-311.3492063492063,14.682539682539682,-3.73015873015873,17.539682539682538,1.8253968253968254,97.06349206349206,-3.253968253968254,1.1904761904761905,-325.0,-325.0,-325.0,-325.0,-325.0,-7.5396825396825395
261,-7.857142857142857,6.428571428571428,-0.7142857142857142,3.73015873015873,26.11111111111111,23.41269841269841,3.253968253968254,11.19047619047619,0.873015873015873,-89.12698412698413,-311.3492063492063,14.682539682539682,-3.73015873015873,17.539682539682538,1.8253968253968254,97.06349206349206,-3.253968253968254,1.1904761904761905,-325.0,-325.0,-325.0,-325.0,-325.0,-7.5396825396825395
262,-4.365079365079365,17.38095238095238,11.031746031746032,18.333333333333332,30.87301587301587,44.2063492063492,-5.0,11.984126984126984,-4.2063492063492065,-37.06349206349206,-297.38095238095235,19.6031746031746,-1.507936507936508,16.26984126984127,3.253968253968254,137.38095238095238,-2.7777777777777777,1.1904761904761905,-325.0,-325.0,-325.0,-325.0,-325.0,-7.5396825396825395
263,-4.365079365079365,17.38095238095238,11.031746031746032,18.333333333333332,30.87301587301587,44.2063492063492,-5.0,11.984126984126984,-4.2063492063492065,-37.06349206349206,-297.38095238095235,19.6031746031746,-1.507936507936508,16.26984126984127,3.253968253968254,137.38095238095238,-2.7777777777777777,1.1904761904761905,-325.0,-325.0,-325.0,-325.0,-325.0,-7.5396825396825395
264,-19.285714285714285,21.19047619047619,-4.365079365079365,18.333333333333332,31.507936507936506,40.55555555555555,2.142857142857143,22.936507936507937,2.619047619047619,-76.1111111111111,-280.07936507936506,26.11111111111111,-3.888888888888889,23.730158730158728,8.333333333333332,157.2222222222222,-3.4126984126984126,1.0317460317460316,-325.0,-325.0,-325.0,-325.0,-325.0,-7.5396825396825395
265,-19.285714285714285,21.19047619047619,-4.365079365079365,18.333333333333332,31.507936507936506,40.55555555555555,2.142857142857143,22.936507936507937,2.619047619047619,-76.1111111111111,-280.07936507936506,26.11111111111111,-3.888888888888889,23.730158730158728,8.333333333333332,157.2222222222222,-3.4126984126984126,1.0317460317460316,-325.0,-325.0,-325.0,-325.0,-325.0,-7.5396825396825395
266,-16.11111111111111,29.444444444444443,4.0476190476190474,34.682539682539684,34.52380952380952,47.857142857142854,4.682539682539682,32.61904761904762,2.46031746031746,-106.74603174603175,-229.60317460317458,39.285714285714285,-1.1904761904761905,30.238095238095237,9.603174603174603,126.74603174603173,-3.73015873015873,1.0317460317460316,-325.0,-325.0,-325.0,-325.0,-325.0,-7.5396825396825395
267,-16.11111111111111,29.444444444444443,4.0476190476190474,34.682539682539684,34.52380952380952,47.857142857142854,4.682539682539682,32.61904761904762,2.46031746031746,-106.74603174603175,-229.60317460317458,39.285714285714285,-1.1904761904761905,30.238095238095237,9.603174603174603,126.74603174603173,-3.73015873015873,1.0317460317460316,-325.0,-325.0,-325.0,-325.0,-325.0,-7.5396825396825395
268,-26.11111111111111,31.349206349206348,-0.7142857142857142,40.714285714285715,16.746031746031743,41.82539682539682,-8.015873015873016,30.396825396825395,-4.365079365079365,-86.9047619047619,-151.19047619047618,53.095238095238095,-4.523809523809524,33.25396825396825,0.873015873015873,-1.8253968253968254,-3.73015873015873,1.349206349206349,-325.0,-325.0,-325.0,-325.0,-325.0,-7.5396825396825395
269,-26.11111111111111,31.349206349206348,-0.7142857142857142,40.714285714285715,16.746031746031743,41.82539682539682,-8.015873015873016,30.396825396825395,-4.365079365079365,-86.9047619047619,-151.19047619047618,53.095238095238095,-4.523809523809524,33.25396825396825,0.873015873015873,-1.8253968253968254,-3.73015873015873,1.349206349206349,-325.0,-325.0,-325.0,-325.0,-325.0,-7.5396825396825395
270,-30.87301587301587,35.63492063492063,1.0317460317460316,42.3015873015873,8.492063492063492,45.317460317460316,-7.222222222222221,32.3015873015873,-6.904761904761904,-110.71428571428571,-83.57142857142857,60.55555555555555,-4.841269841269841,38.01587301587301,-2.3015873015873014,-25.79365079365079,-3.095238095238095,1.349206349206349,-325.0,-325.0,-325.0,-325.0,-325.0,-321.8253968253968
271,-30.87301587301587,35.63492063492063,1.0317460317460316,42.3015873015873,8.492063492063492,45.317460317460316,-7.222222222222221,32.3015873015873,-6.904761904761904,-110.71428571428571,-83.57142857142857,60.55555555555555,-4.841269841269841,38.01587301587301,-2.3015873015873014,-25.79365079365079,-3.095238095238095,1.349206349206349,-325.0,-325.0,-325.0,-325.0,-325.0,-321.8253968253968
272,-35.79365079365079,39.12698412698413,-7.698412698412698,47.857142857142854,-0.5555555555555556,44.84126984126984,-8.65079365079365,43.888888888888886,-12.142857142857142,-26.9047619047619,-3.095238095238095,63.73015873015873,-6.428571428571428,38.17460317460317,-4.523809523809524,1.6666666666666665,-2.9365079365079363,0.873015873015873,-325.0,-325.0,-325.0,-325.0,-325.0,-321.8253968253968
273,-35.79365079365079,39.12698412698413,-7.698412698412698,47.857142857142854,-0.5555555555555556,44.84126984126984,-8.65079365079365,43.888888888888886,-12.142857142857142,-26.9047619047619,-3.095238095238095,63.73015873015873,-6.428571428571428,38.17460317460317,-4.523809523809524,1.6666666666666665,-2.9365079365079363,0.873015873015873,-325.0,-325.0,-325.0,-325.0,-325.0,-321.8253968253968
274,-52.3015873015873,47.53968253968254,-9.444444444444445,64.68253968253968,-0.3968253968253968,71.34920634920634,-7.698412698412698,59.6031746031746,-12.619047619047619,123.57142857142857,71.34920634920634,83.73015873015872,-6.26984126984127,49.92063492063492,-7.3809523809523805,18.333333333333332,-2.7777777777777777,1.349206349206349,-325.0,-325.0,-325.0,-325.0,-325.0,-321.8253968253968
275,-52.3015873015873,47.53968253968254,-9.444444444444445,64.68253968253968,-0.3968253968253968,71.34920634920634,-7.698412698412698,59.6031746031746,-12.619047619047619,123.57142857142857,71.34920634920634,83.73015873015872,-6.26984126984127,49.92063492063492,-7.3809523809523805,18.333333333333332,-2.7777777777777777,1.349206349206349,-325.0,-325.0,-325.0,-325.0,-325.0,-321.8253968253968
276,-66.42857142857143,38.01587301587301,-6.26984126984127,67.6984126984127,3.095238095238095,79.92063492063491,0.5555555555555556,54.36507936507936,-9.920634920634921,177.2222222222222,99.12698412698413,89.92063492063491,-8.65079365079365,50.238095238095234,-7.3809523809523805,23.730158730158728,-2.619047619047619,1.1904761904761905,-325.0,-325.0,-325.0,-325.0,-325.0,-321.8253968253968
277,-66.42857142857143,38.01587301587301,-6.26984126984127,67.6984126984127,3.095238095238095,79.92063492063491,0.5555555555555556,54.36507936507936,-9.920634920634921,177.2222222222222,99.12698412698413,89.92063492063491,-8.65079365079365,50.238095238095234,-7.3809523809523805,23.730158730158728,-2.619047619047619,1.1904761904761905,-325.0,-325.0,-325.0,-325.0,-325.0,-321.8253968253968
278,-74.52380952380952,35.79365079365079,-13.095238095238095,53.095238095238095,-2.142857142857143,61.34920634920635,-6.587301587301587,45.317460317460316,-10.238095238095237,136.9047619047619,150.55555555555554,85.63492063492063,-10.555555555555555,42.77777777777778,-8.968253968253968,-31.349206349206348,-2.7777777777777777,1.1904761904761905,-325.0,-325.0,-325.0,-325.0,-325.0,-321.8253968253968
279,-74.52380952380952,35.79365079365079,-13.095238095238095,53.095238095238095,-2.142857142857143,61.34920634920635,-6.587301587301587,45.317460317460316,-10.238095238095237,136.9047619047619,150.55555555555554,85.63492063492063,-10.555555555555555,42.77777777777778,-8.968253968253968,-31.349206349206348,-2.7777777777777777,1.1904761904761905,-325.0,-325.0,-325.0,-325.0,-325.0,-321.8253968253968
280,-73.88888888888889,26.9047619047619,-18.96825396825397,53.095238095238095,-1.984126984126984,67.22222222222221,-8.015873015873016,49.285714285714285,-6.904761904761904,119.76190476190476,159.9206349206349,81.19047619047619,-10.238095238095237,42.3015873015873,-8.333333333333332,-25.476190476190474,-2.619047619047619,0.7142857142857142,-325.0,-325.0,-325.0,-325.0,-325.0,-7.5396825396825395
281,-73.88888888888889,26.9047619047619,-18.96825396825397,53.095238095238095,-1.984126984126984,67.22222222222221,-8.015873015873016,49.285714285714285,-6.904761904761904,119.76190476190476,159.9206349206349,81.19047619047619,-10.238095238095237,42.3015873015873,-8.333333333333332,-25.476190476190474,-2.619047619047619,0.7142857142857142,-325.0,-325.0,-325.0,-325.0,-325.0,-7.5396825396825395
282,-70.23809523809524,34.047619047619044,-13.888888888888888,70.07936507936508,1.8253968253968254,79.28571428571428,-4.365079365079365,63.41269841269841,-3.4126984126984126,127.6984126984127,132.3015873015873,89.76190476190476,-9.603174603174603,57.53968253968254,-2.619047619047619,-13.412698412698411,-2.7777777777777777,1.0317460317460316,-325.0,-325.0,-325.0,-325.0,-325.0,-7.5396825396825395
283,-70.23809523809524,34.047619047619044,-13.888888888888888,70.07936507936508,1.8253968253968254,79.28571428571428,-4.365079365079365,63.41269841269841,-3.4126984126984126,127.6984126984127,132.3015873015873,89.76190476190476,-9.603174603174603,57.53968253968254,-2.619047619047619,-13.412698412698411,-2.7777777777777777,1.0317460317460316,-325.0,-325.0,-325.0,-325.0,-325.0,-7.5396825396825395
284,-65.95238095238095,54.68253968253968,-6.111111111111111,95.0,10.396825396825395,102.14285714285714,-1.984126984126984,76.9047619047619,-9.920634920634921,253.25396825396825,175.79365079365078,104.04761904761904,-5.952380952380952,61.507936507936506,-1.6666666666666665,36.269841269841265,-2.3015873015873014,1.0317460317460316,-325.0,-325.0,-325.0,-325.0,-325.0,-7.5396825396825395
285,-65.95238095238095,54.68253968253968,-6.111111111111111,95.0,10.396825396825395,102.14285714285714,-1.984126984126984,76.9047619047619,-9.920634920634921,253.25396825396825,175.79365079365078,104.04761904761904,-5.952380952380952,61.507936507936506,-1.6666666666666665,36.269841269841265,-2.3015873015873014,1.0317460317460316,-325.0,-325.0,-325.0,-325.0,-325.0,-7.5396825396825395
286,-65.63492063492063,216.26984126984127,-2.619047619047619,234.84126984126982,15.0,232.77777777777777,9.761904761904761,223.7301587301587,-2.3015873015873014,298.4920634920635,174.68253968253967,234.2063492063492,-4.365079365079365,220.87301587301587,7.222222222222221,219.76190476190476,-2.7777777777777777,0.873015873015873,-325.0,-325.0,-325.0,-325.0,-325.0,-7.5396825396825395
287,-65.63492063492063,216.26984126984127,-2.619047619047619,234.84126984126982,15.0,232.77777777777777,9.761904761904761,223.7301587301587,-2.3015873015873014,298.4920634920635,174.68253968253967,234.2063492063492,-4.365079365079365,220.87301587301587,7.222222222222221,219.76190476190476,-2.7777777777777777,0.873015873015873,-325.0,-325.0,-325.0,-325.0,-325.0,-7.5396825396825395
288,-62.3015873015873,325.0,-0.873015873015873,325.0,17.698412698412696,325.0,1.984126984126984,325.0,-8.333333333333332,325.0,206.42857142857142,325.0,-3.888888888888889,325.0,1.507936507936508,325.0,-3.4126984126984126,0.23809523809523808,-325.0,-325.0,-325.0,-325.0,-325.0,-7.5396825396825395
289,-62.3015873015873,325.0,-0.873015873015873,325.0,17.698412698412696,325.0,1.984126984126984,325.0,-8.333333333333332,325.0,206.42857142857142,325.0,-3.888888888888889,325.0,1.507936507936508,325.0,-3.4126984126984126,0.23809523809523808,-325.0,-325.0,-325.0,-325.0,-325.0,-7.5396825396825395
290,-39.12698412698413,325.0,8.015873015873016,325.0,29.920634920634917,325.0,11.507936507936508,325.0,-4.841269841269841,325.0,252.46031746031744,325.0,6.26984126984127,325.0,3.571428571428571,325.0,-2.9365079365079363,1.0317460317460316,-325.0,-325.0,-325.0,-325.0,-325.0,-321.8253968253968
291,-39.12698412698413,325.0,8.015873015873016,325.0,29.920634920634917,325.0,11.507936507936508,325.0,-4.841269841269841,325.0,252.46031746031744,325.0,6.26984126984127,325.0,3.571428571428571,325.0,-2.9365079365079363,1.0317460317460316,-325.0,-325.0,-325.0,-325.0,-325.0,-321.8253968253968
292,-44.047619047619044,325.0,-4.365079365079365,325.0,18.65079365079365,325.0,-4.523809523809524,325.0,-6.746031746031746,325.0,249.60317460317458,325.0,1.0317460317460316,325.0,1.507936507936508,325.0,-3.73015873015873,0.873015873015873,-325.0,-325.0,-325.0,-325.0,-325.0,-321.8253968253968
293,-44.047619047619044,325.0,-4.365079365079365,325.0,18.65079365079365,325.0,-4.523809523809524,325.0,-6.746031746031746,325.0,249.60317460317458,325.0,1.0317460317460316,325.0,1.507936507936508,325.0,-3.73015873015873,0.873015873015873,-325.0,-325.0,-325.0,-325.0,-325.0,-321.8253968253968
294,-27.698412698412696,317.22222222222223,-6.111111111111111,325.0,16.904761904761905,325.0,-1.507936507936508,325.0,-7.3809523809523805,325.0,203.88888888888889,325.0,-1.8253968253968254,307.06349206349205,3.888888888888889,325.0,-2.619047619047619,0.5555555555555556,-325.0,-325.0,-325.0,-325.0,-325.0,-321.8253968253968
295,-27.698412698412696,317.22222222222223,-6.111111111111111,325.0,16.904761904761905,325.0,-1.507936507936508,325.0,-7.3809523809523805,325.0,203.88888888888889,325.0,-1.8253968253968254,307.06349206349205,3.888888888888889,325.0,-2.619047619047619,0.5555555555555556,-325.0,-325.0,-325.0,-325.0,-325.0,-321.8253968253968
296,-13.412698412698411,277.53968253968253,-6.746031746031746,302.6190476190476,16.904761904761905,302.6190476190476,3.253968253968254,294.2063492063492,6.746031746031746,325.0,113.88888888888889,302.46031746031747,-0.07936507936507936,261.984126984127,9.444444444444445,309.4444444444444,-3.095238095238095,0.873015873015873,-325.0,-325.0,-325.0,-325.0,-325.0,-321.8253968253968
297,-13.412698412698411,277.53968253968253,-6.746031746031746,302.6190476190476,16.904761904761905,302.6190476190476,3.253968253968254,294.2063492063492,6.746031746031746,325.0,113.88888888888889,302.46031746031747,-0.07936507936507936,261.984126984127,9.444444444444445,309.4444444444444,-3.095238095238095,0.873015873015873,-325.0,-325.0,-325.0,-325.0,-325.0,-321.8253968253968
298,-0.873015873015873,213.88888888888889,-2.3015873015873014,239.9206349206349,14.523809523809524,224.52380952380952,2.7777777777777777,225.3174603174603,8.809523809523808,315.3174603174603,62.14285714285714,228.015873015873,2.142857142857143,197.06349206349205,11.031746031746032,243.57142857142856,-3.888888888888889,1.0317460317460316,-325.0,-325.0,-325.0,-325.0,-325.0,-321.8253968253968
299,-0.873015873015873,213.88888888888889,-2.3015873015873014,239.9206349206349,14.523809523809524,224.52380952380952,2.7777777777777777,225.3174603174603,8.809523809523808,315.3174603174603,62.14285714285714,228.015873015873,2.142857142857143,197.06349206349205,11.031746031746032,243.57142857142856,-3.888888888888889,1.0317460317460316,-325.0,-325.0,-325.0,-325.0,-325.0,-321.8253968253968
300,8.968253968253968,151.66666666666666,-6.428571428571428,160.87301587301587,15.317460317460316,134.84126984126982,-1.984126984126984,150.07936507936506,10.873015873015872,277.85714285714283,40.079365079365076,158.33333333333331,3.095238095238095,134.36507936507937,14.523809523809524,187.85714285714283,-3.73015873015873,1.0317460317460316,-325.0,-325.0,-325.0,-325.0,-325.0,-7.5396825396825395
301,8.968253968253968,151.66666666666666,-6.428571428571428,160.87301587301587,15.317460317460316,134.84126984126982,-1.984126984126984,150.07936507936506,10.873015873015872,277.85714285714283,40.079365079365076,158.33333333333331,3.095238095238095,134.36507936507937,14.523809523809524,187.85714285714283,-3.73015873015873,1.0317460317460316,-325.0,-325.0,-325.0,-325.0,-325.0,-7.5396825396825395
302,15.317460317460316,71.19047619047619,2.3015873015873014,73.57142857142857,26.11111111111111,26.746031746031743,-3.571428571428571,65.15873015873015,3.888888888888889,169.9206349206349,80.39682539682539,70.39682539682539,4.523809523809524,52.77777777777777,12.777777777777777,53.095238095238095,-4.0476190476190474,0.7142857142857142,-325.0,-325.0,-325.0,-325.0,-325.0,-7.5396825396825395
303,15.317460317460316,71.19047619047619,2.3015873015873014,73.57142857142857,26.11111111111111,26.746031746031743,-3.571428571428571,65.15873015873015,3.888888888888889,169.9206349206349,80.39682539682539,70.39682539682539,4.523809523809524,52.77777777777777,12.777777777777777,53.095238095238095,-4.0476190476190474,0.7142857142857142,-325.0,-325.0,-325.0,-325.0,-325.0,-7.5396825396825395
304,23.88888888888889,2.46031746031746,0.07936507936507936,8.968253968253968,24.365079365079364,-34.682539682539684,-6.746031746031746,-12.777777777777777,3.095238095238095,3.095238095238095,75.47619047619047,-2.3015873015873014,2.9365079365079363,-16.587301587301585,9.444444444444445,-108.49206349206348,-3.4126984126984126,0.7142857142857142,-325.0,-325.0,-325.0,-325.0,-325.0,-7.5396825396825395
