,Fp1[1],Fp2[2],F3[3],F4[4],C3[5],C4[6],P3[7],P4[8],O1[9],O2[10],F7[11],F8[12],T3[13],T4[14],T5[15],T6[16],Fz[17],Pz[18],Cz[19],Pg1[20],Pg2[21],EOGR[22],EOOGL[23],EMG[24]
0,325.0,118.8095238095238,325.0,96.9047619047619,325.0,325.0,325.0,325.0,325.0,131.03174603174602,325.0,325.0,325.0,325.0,325.0,63.888888888888886,325.0,127.53968253968253,-54.52380952380952,-325.0,-325.0,-1.1904761904761905,-0.07936507936507936,-166.26984126984127
1,325.0,118.8095238095238,325.0,96.9047619047619,325.0,325.0,325.0,325.0,325.0,131.03174603174602,325.0,325.0,325.0,325.0,325.0,63.888888888888886,325.0,127.53968253968253,-54.52380952380952,-325.0,-325.0,-1.1904761904761905,-0.07936507936507936,-166.26984126984127
2,325.0,107.06349206349206,325.0,77.53968253968253,325.0,325.0,325.0,325.0,325.0,103.4126984126984,325.0,325.0,325.0,325.0,325.0,52.14285714285714,325.0,100.71428571428571,-26.587301587301585,-325.0,-325.0,-10.555555555555555,-19.126984126984127,-166.26984126984127
3,325.0,107.06349206349206,325.0,77.53968253968253,325.0,325.0,325.0,325.0,325.0,103.4126984126984,325.0,325.0,325.0,325.0,325.0,52.14285714285714,325.0,100.71428571428571,-26.587301587301585,-325.0,-325.0,-10.555555555555555,-19.126984126984127,-166.26984126984127
4,325.0,99.28571428571428,325.0,70.07936507936508,325.0,325.0,325.0,325.0,325.0,90.39682539682539,325.0,325.0,325.0,325.0,325.0,50.55555555555555,325.0,88.17460317460316,-2.619047619047619,-325.0,-325.0,-0.07936507936507936,-0.07936507936507936,-166.26984126984127
5,325.0,99.28571428571428,325.0,70.07936507936508,325.0,325.0,325.0,325.0,325.0,90.39682539682539,325.0,325.0,325.0,325.0,325.0,50.55555555555555,325.0,88.17460317460316,-2.619047619047619,-325.0,-325.0,-0.07936507936507936,-0.07936507936507936,-166.26984126984127
6,325.0,77.6984126984127,325.0,49.76190476190476,325.0,325.0,325.0,325.0,325.0,60.873015873015866,325.0,325.0,325.0,-0.07936507936507936,325.0,40.87301587301587,325.0,59.44444444444444,21.666666666666664,-325.0,-325.0,-0.7142857142857142,-0.23809523809523808,-166.26984126984127
7,325.0,77.6984126984127,325.0,49.76190476190476,325.0,325.0,325.0,325.0,325.0,60.873015873015866,325.0,325.0,325.0,-0.07936507936507936,325.0,40.87301587301587,325.0,59.44444444444444,21.666666666666664,-325.0,-325.0,-0.7142857142857142,-0.23809523809523808,-166.26984126984127
8,325.0,60.71428571428571,325.0,36.904761904761905,325.0,325.0,325.0,325.0,325.0,42.460317460317455,325.0,325.0,325.0,-116.42857142857142,325.0,35.476190476190474,325.0,41.98412698412698,32.3015873015873,-325.0,-325.0,3.888888888888889,10.555555555555555,-166.26984126984127
9,325.0,60.71428571428571,325.0,36.904761904761905,325.0,325.0,325.0,325.0,325.0,42.460317460317455,325.0,325.0,325.0,-116.42857142857142,325.0,35.476190476190474,325.0,41.98412698412698,32.3015873015873,-325.0,-325.0,3.888888888888889,10.555555555555555,-166.26984126984127
10,325.0,48.49206349206349,325.0,26.746031746031743,325.0,325.0,325.0,325.0,325.0,29.920634920634917,325.0,325.0,325.0,-325.0,325.0,28.333333333333332,325.0,29.444444444444443,29.920634920634917,-325.0,-325.0,3.888888888888889,11.349206349206348,-321.8253968253968
11,325.0,48.49206349206349,325.0,26.746031746031743,325.0,325.0,325.0,325.0,325.0,29.920634920634917,325.0,325.0,325.0,-325.0,325.0,28.333333333333332,325.0,29.444444444444443,29.920634920634917,-325.0,-325.0,3.888888888888889,11.349206349206348,-321.8253968253968
12,325.0,43.095238095238095,325.0,20.873015873015873,325.0,325.0,325.0,-150.3968253968254,325.0,23.253968253968253,325.0,325.0,325.0,-325.0,325.0,23.41269841269841,325.0,23.095238095238095,28.65079365079365,-325.0,-325.0,-2.619047619047619,-10.714285714285714,-321.8253968253968
13,325.0,43.095238095238095,325.0,20.873015873015873,325.0,325.0,325.0,-150.3968253968254,325.0,23.253968253968253,325.0,325.0,325.0,-325.0,325.0,23.41269841269841,325.0,23.095238095238095,28.65079365079365,-325.0,-325.0,-2.619047619047619,-10.714285714285714,-321.8253968253968
14,325.0,34.047619047619044,325.0,14.206349206349206,325.0,325.0,325.0,-325.0,325.0,15.634920634920634,325.0,325.0,325.0,-325.0,325.0,17.22222222222222,325.0,15.476190476190474,21.507936507936506,-325.0,-325.0,3.4126984126984126,10.873015873015872,-321.8253968253968
15,325.0,34.047619047619044,325.0,14.206349206349206,325.0,325.0,325.0,-325.0,325.0,15.634920634920634,325.0,325.0,325.0,-325.0,325.0,17.22222222222222,325.0,15.476190476190474,21.507936507936506,-325.0,-325.0,3.4126984126984126,10.873015873015872,-321.8253968253968
16,325.0,34.2063492063492,325.0,13.571428571428571,325.0,325.0,325.0,-325.0,325.0,14.84126984126984,325.0,325.0,325.0,-325.0,325.0,18.015873015873016,325.0,15.158730158730158,26.746031746031743,-320.7142857142857,-323.25396825396825,-4.0476190476190474,-10.873015873015872,-321.8253968253968
17,325.0,34.2063492063492,325.0,13.571428571428571,325.0,325.0,325.0,-325.0,325.0,14.84126984126984,325.0,325.0,325.0,-325.0,325.0,18.015873015873016,325.0,15.158730158730158,26.746031746031743,-320.7142857142857,-323.25396825396825,-4.0476190476190474,-10.873015873015872,-321.8253968253968
18,325.0,22.142857142857142,325.0,3.888888888888889,325.0,325.0,325.0,-325.0,325.0,4.2063492063492065,325.0,325.0,325.0,-325.0,325.0,8.809523809523808,325.0,4.523809523809524,15.0,-315.1587301587301,-317.53968253968253,4.0476190476190474,9.603174603174603,-321.8253968253968
19,325.0,22.142857142857142,325.0,3.888888888888889,325.0,325.0,325.0,-325.0,325.0,4.2063492063492065,325.0,325.0,325.0,-325.0,325.0,8.809523809523808,325.0,4.523809523809524,15.0,-315.1587301587301,-317.53968253968253,4.0476190476190474,9.603174603174603,-321.8253968253968
20,325.0,20.396825396825395,325.0,1.8253968253968254,325.0,325.0,325.0,-325.0,325.0,2.142857142857143,325.0,325.0,325.0,-325.0,325.0,6.587301587301587,325.0,2.142857142857143,14.84126984126984,-313.73015873015873,-316.26984126984127,11.507936507936508,18.174603174603174,-166.26984126984127
21,325.0,20.396825396825395,325.0,1.8253968253968254,325.0,325.0,325.0,-325.0,325.0,2.142857142857143,325.0,325.0,325.0,-325.0,325.0,6.587301587301587,325.0,2.142857142857143,14.84126984126984,-313.73015873015873,-316.26984126984127,11.507936507936508,18.174603174603174,-166.26984126984127
22,314.36507936507934,12.3015873015873,325.0,-3.571428571428571,325.0,325.0,325.0,-325.0,325.0,-5.0,325.0,325.0,325.0,-325.0,325.0,5.634920634920634,325.0,-3.73015873015873,18.65079365079365,-290.87301587301585,-291.8253968253968,2.7777777777777777,-2.46031746031746,-166.26984126984127
23,314.36507936507934,12.3015873015873,325.0,-3.571428571428571,325.0,325.0,325.0,-325.0,325.0,-5.0,325.0,325.0,325.0,-325.0,325.0,5.634920634920634,325.0,-3.73015873015873,18.65079365079365,-290.87301587301585,-291.8253968253968,2.7777777777777777,-2.46031746031746,-166.26984126984127
24,263.73015873015873,-7.222222222222221,298.015873015873,-15.95238095238095,60.71428571428571,287.06349206349205,58.17460317460317,-325.0,284.04761904761904,-20.71428571428571,98.17460317460316,280.55555555555554,277.06349206349205,-299.6031746031746,300.39682539682536,-4.365079365079365,-62.93650793650793,-20.07936507936508,14.047619047619047,-244.36507936507934,-244.04761904761904,-8.65079365079365,-17.38095238095238,-166.26984126984127
25,263.73015873015873,-7.222222222222221,298.015873015873,-15.95238095238095,60.71428571428571,287.06349206349205,58.17460317460317,-325.0,284.04761904761904,-20.71428571428571,98.17460317460316,280.55555555555554,277.06349206349205,-299.6031746031746,300.39682539682536,-4.365079365079365,-62.93650793650793,-20.07936507936508,14.047619047619047,-244.36507936507934,-244.04761904761904,-8.65079365079365,-17.38095238095238,-166.26984126984127
26,226.74603174603175,-15.158730158730158,271.19047619047615,-19.6031746031746,-203.57142857142856,249.28571428571428,-208.65079365079364,-325.0,245.63492063492063,-25.952380952380953,-128.65079365079364,242.3015873015873,238.96825396825395,-274.2063492063492,275.7936507936508,-6.746031746031746,-307.85714285714283,-26.428571428571427,15.476190476190474,-210.55555555555554,-209.28571428571428,-5.158730158730158,-15.476190476190474,-166.26984126984127
27,226.74603174603175,-15.158730158730158,271.19047619047615,-19.6031746031746,-203.57142857142856,249.28571428571428,-208.65079365079364,-325.0,245.63492063492063,-25.952380952380953,-128.65079365079364,242.3015873015873,238.96825396825395,-274.2063492063492,275.7936507936508,-6.746031746031746,-307.85714285714283,-26.428571428571427,15.476190476190474,-210.55555555555554,-209.28571428571428,-5.158730158730158,-15.476190476190474,-166.26984126984127
28,226.74603174603175,-15.158730158730158,271.19047619047615,-19.6031746031746,-203.57142857142856,249.28571428571428,-208.65079365079364,-325.0,245.63492063492063,-25.952380952380953,-128.65079365079364,242.3015873015873,238.96825396825395,-274.2063492063492,275.7936507936508,-6.746031746031746,-307.85714285714283,-26.428571428571427,15.476190476190474,-210.55555555555554,-209.28571428571428,-5.158730158730158,-15.476190476190474,-166.26984126984127
29,226.74603174603175,-15.158730158730158,271.19047619047615,-19.6031746031746,-203.57142857142856,249.28571428571428,-208.65079365079364,-325.0,245.63492063492063,-25.952380952380953,-128.65079365079364,242.3015873015873,238.96825396825395,-274.2063492063492,275.7936507936508,-6.746031746031746,-307.85714285714283,-26.428571428571427,15.476190476190474,-210.55555555555554,-209.28571428571428,-5.158730158730158,-15.476190476190474,-166.26984126984127
30,226.74603174603175,-15.158730158730158,271.19047619047615,-19.6031746031746,-203.57142857142856,249.28571428571428,-208.65079365079364,-325.0,245.63492063492063,-25.952380952380953,-128.65079365079364,242.3015873015873,238.96825396825395,-274.2063492063492,275.7936507936508,-6.746031746031746,-307.85714285714283,-26.428571428571427,15.476190476190474,-210.55555555555554,-209.28571428571428,-5.158730158730158,-15.476190476190474,-321.8253968253968
31,226.74603174603175,-15.158730158730158,271.19047619047615,-19.6031746031746,-203.57142857142856,249.28571428571428,-208.65079365079364,-325.0,245.63492063492063,-25.952380952380953,-128.65079365079364,242.3015873015873,238.96825396825395,-274.2063492063492,275.7936507936508,-6.746031746031746,-307.85714285714283,-26.428571428571427,15.476190476190474,-210.55555555555554,-209.28571428571428,-5.158730158730158,-15.476190476190474,-321.8253968253968
32,226.74603174603175,-15.158730158730158,271.19047619047615,-19.6031746031746,-203.57142857142856,249.28571428571428,-208.65079365079364,-325.0,245.63492063492063,-25.952380952380953,-128.65079365079364,242.3015873015873,238.96825396825395,-274.2063492063492,275.7936507936508,-6.746031746031746,-307.85714285714283,-26.428571428571427,15.476190476190474,-210.55555555555554,-209.28571428571428,-5.158730158730158,-15.476190476190474,-321.8253968253968
33,226.74603174603175,-15.158730158730158,271.19047619047615,-19.6031746031746,-203.57142857142856,249.28571428571428,-208.65079365079364,-325.0,245.63492063492063,-25.952380952380953,-128.65079365079364,242.3015873015873,238.96825396825395,-274.2063492063492,275.7936507936508,-6.746031746031746,-307.85714285714283,-26.428571428571427,15.476190476190474,-210.55555555555554,-209.28571428571428,-5.158730158730158,-15.476190476190474,-321.8253968253968
34,226.74603174603175,-15.158730158730158,271.19047619047615,-19.6031746031746,-203.57142857142856,249.28571428571428,-208.65079365079364,-325.0,245.63492063492063,-25.952380952380953,-128.65079365079364,242.3015873015873,238.96825396825395,-274.2063492063492,275.7936507936508,-6.746031746031746,-307.85714285714283,-26.428571428571427,15.476190476190474,-210.55555555555554,-209.28571428571428,-5.158730158730158,-15.476190476190474,-321.8253968253968
35,226.74603174603175,-15.158730158730158,271.19047619047615,-19.6031746031746,-203.57142857142856,249.28571428571428,-208.65079365079364,-325.0,245.63492063492063,-25.952380952380953,-128.65079365079364,242.3015873015873,238.96825396825395,-274.2063492063492,275.7936507936508,-6.746031746031746,-307.85714285714283,-26.428571428571427,15.476190476190474,-210.55555555555554,-209.28571428571428,-5.158730158730158,-15.476190476190474,-321.8253968253968
36,226.74603174603175,-15.158730158730158,271.19047619047615,-19.6031746031746,-203.57142857142856,249.28571428571428,-208.65079365079364,-325.0,245.63492063492063,-25.952380952380953,-128.65079365079364,242.3015873015873,238.96825396825395,-274.2063492063492,275.7936507936508,-6.746031746031746,-307.85714285714283,-26.428571428571427,15.476190476190474,-210.55555555555554,-209.28571428571428,-5.158730158730158,-15.476190476190474,-321.8253968253968
37,226.74603174603175,-15.158730158730158,271.19047619047615,-19.6031746031746,-203.57142857142856,249.28571428571428,-208.65079365079364,-325.0,245.63492063492063,-25.952380952380953,-128.65079365079364,242.3015873015873,238.96825396825395,-274.2063492063492,275.7936507936508,-6.746031746031746,-307.85714285714283,-26.428571428571427,15.476190476190474,-210.55555555555554,-209.28571428571428,-5.158730158730158,-15.476190476190474,-321.8253968253968
38,226.74603174603175,-15.158730158730158,271.19047619047615,-19.6031746031746,-203.57142857142856,249.28571428571428,-208.65079365079364,-325.0,245.63492063492063,-25.952380952380953,-128.65079365079364,242.3015873015873,238.96825396825395,-274.2063492063492,275.7936507936508,-6.746031746031746,-307.85714285714283,-26.428571428571427,15.476190476190474,-210.55555555555554,-209.28571428571428,-5.158730158730158,-15.476190476190474,-321.8253968253968
39,226.74603174603175,-15.158730158730158,271.19047619047615,-19.6031746031746,-203.57142857142856,249.28571428571428,-208.65079365079364,-325.0,245.63492063492063,-25.952380952380953,-128.65079365079364,242.3015873015873,238.96825396825395,-274.2063492063492,275.7936507936508,-6.746031746031746,-307.85714285714283,-26.428571428571427,15.476190476190474,-210.55555555555554,-209.28571428571428,-5.158730158730158,-15.476190476190474,-321.8253968253968
40,226.74603174603175,-15.158730158730158,271.19047619047615,-19.6031746031746,-203.57142857142856,249.28571428571428,-208.65079365079364,-325.0,245.63492063492063,-25.952380952380953,-128.65079365079364,242.3015873015873,238.96825396825395,-274.2063492063492,275.7936507936508,-6.746031746031746,-307.85714285714283,-26.428571428571427,15.476190476190474,-210.55555555555554,-209.28571428571428,-5.158730158730158,-15.476190476190474,-166.26984126984127
41,226.74603174603175,-15.158730158730158,271.19047619047615,-19.6031746031746,-203.57142857142856,249.28571428571428,-208.65079365079364,-325.0,245.63492063492063,-25.952380952380953,-128.65079365079364,242.3015873015873,238.96825396825395,-274.2063492063492,275.7936507936508,-6.746031746031746,-307.85714285714283,-26.428571428571427,15.476190476190474,-210.55555555555554,-209.28571428571428,-5.158730158730158,-15.476190476190474,-166.26984126984127
42,226.74603174603175,-15.158730158730158,271.19047619047615,-19.6031746031746,-203.57142857142856,249.28571428571428,-208.65079365079364,-325.0,245.63492063492063,-25.952380952380953,-128.65079365079364,242.3015873015873,238.96825396825395,-274.2063492063492,275.7936507936508,-6.746031746031746,-307.85714285714283,-26.428571428571427,15.476190476190474,-210.55555555555554,-209.28571428571428,-5.158730158730158,-15.476190476190474,-166.26984126984127
43,226.74603174603175,-15.158730158730158,271.19047619047615,-19.6031746031746,-203.57142857142856,249.28571428571428,-208.65079365079364,-325.0,245.63492063492063,-25.952380952380953,-128.65079365079364,242.3015873015873,238.96825396825395,-274.2063492063492,275.7936507936508,-6.746031746031746,-307.85714285714283,-26.428571428571427,15.476190476190474,-210.55555555555554,-209.28571428571428,-5.158730158730158,-15.476190476190474,-166.26984126984127
44,226.74603174603175,-15.158730158730158,271.19047619047615,-19.6031746031746,-203.57142857142856,249.28571428571428,-208.65079365079364,-325.0,245.63492063492063,-25.952380952380953,-128.65079365079364,242.3015873015873,238.96825396825395,-274.2063492063492,275.7936507936508,-6.746031746031746,-307.85714285714283,-26.428571428571427,15.476190476190474,-210.55555555555554,-209.28571428571428,-5.158730158730158,-15.476190476190474,-166.26984126984127
45,226.74603174603175,-15.158730158730158,271.19047619047615,-19.6031746031746,-203.57142857142856,249.28571428571428,-208.65079365079364,-325.0,245.63492063492063,-25.952380952380953,-128.65079365079364,242.3015873015873,238.96825396825395,-274.2063492063492,275.7936507936508,-6.746031746031746,-307.85714285714283,-26.428571428571427,15.476190476190474,-210.55555555555554,-209.28571428571428,-5.158730158730158,-15.476190476190474,-166.26984126984127
46,226.74603174603175,-15.158730158730158,271.19047619047615,-19.6031746031746,-203.57142857142856,249.28571428571428,-208.65079365079364,-325.0,245.63492063492063,-25.952380952380953,-128.65079365079364,242.3015873015873,238.96825396825395,-274.2063492063492,275.7936507936508,-6.746031746031746,-307.85714285714283,-26.428571428571427,15.476190476190474,-210.55555555555554,-209.28571428571428,-5.158730158730158,-15.476190476190474,-166.26984126984127
47,226.74603174603175,-15.158730158730158,271.19047619047615,-19.6031746031746,-203.57142857142856,249.28571428571428,-208.65079365079364,-325.0,245.63492063492063,-25.952380952380953,-128.65079365079364,242.3015873015873,238.96825396825395,-274.2063492063492,275.7936507936508,-6.746031746031746,-307.85714285714283,-26.428571428571427,15.476190476190474,-210.55555555555554,-209.28571428571428,-5.158730158730158,-15.476190476190474,-166.26984126984127
48,113.73015873015872,-61.507936507936506,137.69841269841268,-51.507936507936506,-114.52380952380952,129.28571428571428,-124.36507936507935,-249.44444444444443,208.17460317460316,-57.38095238095238,-166.11111111111111,123.73015873015872,87.38095238095238,325.0,143.4126984126984,-42.460317460317455,-92.14285714285714,-56.904761904761905,-21.825396825396822,103.4126984126984,-88.17460317460316,5.0,11.031746031746032,-166.26984126984127
49,113.73015873015872,-61.507936507936506,137.69841269841268,-51.507936507936506,-114.52380952380952,129.28571428571428,-124.36507936507935,-249.44444444444443,208.17460317460316,-57.38095238095238,-166.11111111111111,123.73015873015872,87.38095238095238,325.0,143.4126984126984,-42.460317460317455,-92.14285714285714,-56.904761904761905,-21.825396825396822,103.4126984126984,-88.17460317460316,5.0,11.031746031746032,-166.26984126984127
50,113.25396825396825,-54.36507936507936,137.06349206349205,-45.476190476190474,-160.55555555555554,128.65079365079364,-175.0,-248.33333333333331,206.9047619047619,-50.39682539682539,-178.015873015873,123.25396825396825,185.79365079365078,325.0,142.77777777777777,-36.42857142857142,-137.38095238095238,-51.03174603174603,-16.11111111111111,308.4920634920635,-107.85714285714285,10.079365079365079,16.11111111111111,-321.8253968253968
51,113.25396825396825,-54.36507936507936,137.06349206349205,-45.476190476190474,-160.55555555555554,128.65079365079364,-175.0,-248.33333333333331,206.9047619047619,-50.39682539682539,-178.015873015873,123.25396825396825,185.79365079365078,325.0,142.77777777777777,-36.42857142857142,-137.38095238095238,-51.03174603174603,-16.11111111111111,308.4920634920635,-107.85714285714285,10.079365079365079,16.11111111111111,-321.8253968253968
52,108.65079365079364,-51.19047619047619,131.66666666666666,-42.61904761904761,-155.15873015873015,123.73015873015872,-185.3174603174603,-239.28571428571428,198.8095238095238,-48.650793650793645,-237.53968253968253,118.65079365079364,-118.17460317460316,325.0,137.53968253968253,-34.84126984126984,-114.04761904761904,-48.80952380952381,-14.523809523809524,135.3174603174603,-27.38095238095238,-4.841269841269841,-5.158730158730158,-321.8253968253968
53,108.65079365079364,-51.19047619047619,131.66666666666666,-42.61904761904761,-155.15873015873015,123.73015873015872,-185.3174603174603,-239.28571428571428,198.8095238095238,-48.650793650793645,-237.53968253968253,118.65079365079364,-118.17460317460316,325.0,137.53968253968253,-34.84126984126984,-114.04761904761904,-48.80952380952381,-14.523809523809524,135.3174603174603,-27.38095238095238,-4.841269841269841,-5.158730158730158,-321.8253968253968
54,107.38095238095238,-40.714285714285715,130.07936507936506,-33.73015873015873,-245.95238095238093,122.14285714285714,-292.3015873015873,-236.58730158730157,196.11111111111111,-39.76190476190476,-325.0,117.22222222222221,-207.38095238095238,325.0,135.79365079365078,-26.587301587301585,-170.7142857142857,-40.87301587301587,-6.111111111111111,325.0,-23.253968253968253,-8.333333333333332,-17.063492063492063,-321.8253968253968
55,107.38095238095238,-40.714285714285715,130.07936507936506,-33.73015873015873,-245.95238095238093,122.14285714285714,-292.3015873015873,-236.58730158730157,196.11111111111111,-39.76190476190476,-325.0,117.22222222222221,-207.38095238095238,325.0,135.79365079365078,-26.587301587301585,-170.7142857142857,-40.87301587301587,-6.111111111111111,325.0,-23.253968253968253,-8.333333333333332,-17.063492063492063,-321.8253968253968
56,103.57142857142857,-38.33333333333333,125.63492063492063,-31.666666666666664,-285.4761904761905,118.17460317460316,-308.6507936507936,-229.12698412698413,188.96825396825395,-37.698412698412696,-325.0,113.09523809523809,-251.66666666666666,325.0,131.19047619047618,-24.84126984126984,-215.63492063492063,-38.96825396825397,-5.317460317460317,325.0,64.2063492063492,-8.015873015873016,-17.38095238095238,-321.8253968253968
57,103.57142857142857,-38.33333333333333,125.63492063492063,-31.666666666666664,-285.4761904761905,118.17460317460316,-308.6507936507936,-229.12698412698413,188.96825396825395,-37.698412698412696,-325.0,113.09523809523809,-251.66666666666666,325.0,131.19047619047618,-24.84126984126984,-215.63492063492063,-38.96825396825397,-5.317460317460317,325.0,64.2063492063492,-8.015873015873016,-17.38095238095238,-321.8253968253968
58,98.96825396825396,-57.38095238095238,119.92063492063491,-47.53968253968254,-98.65079365079364,113.25396825396825,-104.52380952380952,-219.28571428571428,180.23809523809524,-53.095238095238095,-138.015873015873,108.17460317460316,10.873015873015872,325.0,125.63492063492063,-39.6031746031746,-74.52380952380952,-51.666666666666664,-21.984126984126984,289.4444444444444,-18.65079365079365,0.3968253968253968,5.317460317460317,-321.8253968253968
59,98.96825396825396,-57.38095238095238,119.92063492063491,-47.53968253968254,-98.65079365079364,113.25396825396825,-104.52380952380952,-219.28571428571428,180.23809523809524,-53.095238095238095,-138.015873015873,108.17460317460316,10.873015873015872,325.0,125.63492063492063,-39.6031746031746,-74.52380952380952,-51.666666666666664,-21.984126984126984,289.4444444444444,-18.65079365079365,0.3968253968253968,5.317460317460317,-321.8253968253968
60,98.96825396825396,-57.38095238095238,119.92063492063491,-47.53968253968254,-98.65079365079364,113.25396825396825,-104.52380952380952,-219.28571428571428,180.23809523809524,-53.095238095238095,-138.015873015873,108.17460317460316,10.873015873015872,325.0,125.63492063492063,-39.6031746031746,-74.52380952380952,-51.666666666666664,-21.984126984126984,289.4444444444444,-18.65079365079365,0.3968253968253968,5.317460317460317,-166.26984126984127
61,98.96825396825396,-57.38095238095238,119.92063492063491,-47.53968253968254,-98.65079365079364,113.25396825396825,-104.52380952380952,-219.28571428571428,180.23809523809524,-53.095238095238095,-138.015873015873,108.17460317460316,10.873015873015872,325.0,125.63492063492063,-39.6031746031746,-74.52380952380952,-51.666666666666664,-21.984126984126984,289.4444444444444,-18.65079365079365,0.3968253968253968,5.317460317460317,-166.26984126984127
62,98.96825396825396,-57.38095238095238,119.92063492063491,-47.53968253968254,-98.65079365079364,113.25396825396825,-104.52380952380952,-219.28571428571428,180.23809523809524,-53.095238095238095,-138.015873015873,108.17460317460316,10.873015873015872,325.0,125.63492063492063,-39.6031746031746,-74.52380952380952,-51.666666666666664,-21.984126984126984,289.4444444444444,-18.65079365079365,0.3968253968253968,5.317460317460317,-166.26984126984127
63,98.96825396825396,-57.38095238095238,119.92063492063491,-47.53968253968254,-98.65079365079364,113.25396825396825,-104.52380952380952,-219.28571428571428,180.23809523809524,-53.095238095238095,-138.015873015873,108.17460317460316,10.873015873015872,325.0,125.63492063492063,-39.6031746031746,-74.52380952380952,-51.666666666666664,-21.984126984126984,289.4444444444444,-18.65079365079365,0.3968253968253968,5.317460317460317,-166.26984126984127
64,95.95238095238095,-43.57142857142857,116.42857142857142,-34.682539682539684,-203.25396825396825,110.07936507936508,-214.84126984126982,-213.4126984126984,174.52380952380952,-40.714285714285715,-231.5079365079365,105.0,-157.06349206349205,325.0,121.98412698412697,-28.174603174603174,-154.36507936507937,-40.714285714285715,-10.873015873015872,307.22222222222223,153.09523809523807,-4.682539682539682,-5.634920634920634,-166.26984126984127
65,95.95238095238095,-43.57142857142857,116.42857142857142,-34.682539682539684,-203.25396825396825,110.07936507936508,-214.84126984126982,-213.4126984126984,174.52380952380952,-40.714285714285715,-231.5079365079365,105.0,-157.06349206349205,325.0,121.98412698412697,-28.174603174603174,-154.36507936507937,-40.714285714285715,-10.873015873015872,307.22222222222223,153.09523809523807,-4.682539682539682,-5.634920634920634,-166.26984126984127
66,91.66666666666666,-51.666666666666664,111.19047619047619,-41.19047619047619,-100.39682539682539,105.15873015873015,-116.58730158730158,-205.0,166.42857142857142,-46.904761904761905,-149.9206349206349,100.55555555555554,67.85714285714285,325.0,116.9047619047619,-35.317460317460316,-83.88888888888889,-46.269841269841265,-18.96825396825397,286.4285714285714,174.36507936507937,4.365079365079365,11.19047619047619,-166.26984126984127
67,91.66666666666666,-51.666666666666664,111.19047619047619,-41.19047619047619,-100.39682539682539,105.15873015873015,-116.58730158730158,-205.0,166.42857142857142,-46.904761904761905,-149.9206349206349,100.55555555555554,67.85714285714285,325.0,116.9047619047619,-35.317460317460316,-83.88888888888889,-46.269841269841265,-18.96825396825397,286.4285714285714,174.36507936507937,4.365079365079365,11.19047619047619,-166.26984126984127
68,90.55555555555556,-45.95238095238095,109.92063492063491,-38.17460317460317,48.17460317460317,104.2063492063492,56.58730158730158,-202.77777777777777,164.2063492063492,-42.77777777777778,26.746031746031743,99.12698412698413,82.46031746031746,325.0,115.31746031746032,-32.93650793650794,11.666666666666666,-45.317460317460316,-16.26984126984127,325.0,18.65079365079365,1.0317460317460316,-6.587301587301587,-166.26984126984127
69,90.55555555555556,-45.95238095238095,109.92063492063491,-38.17460317460317,48.17460317460317,104.2063492063492,56.58730158730158,-202.77777777777777,164.2063492063492,-42.77777777777778,26.746031746031743,99.12698412698413,82.46031746031746,325.0,115.31746031746032,-32.93650793650794,11.666666666666666,-45.317460317460316,-16.26984126984127,325.0,18.65079365079365,1.0317460317460316,-6.587301587301587,-166.26984126984127
70,89.28571428571428,-47.38095238095238,108.49206349206348,-37.857142857142854,-42.93650793650794,102.77777777777777,-47.53968253968254,-200.3968253968254,161.984126984127,-42.61904761904761,-68.80952380952381,98.01587301587301,57.53968253968254,325.0,113.88888888888889,-32.460317460317455,-51.03174603174603,-44.047619047619044,-16.428571428571427,325.0,171.8253968253968,4.682539682539682,4.682539682539682,-321.8253968253968
71,89.28571428571428,-47.38095238095238,108.49206349206348,-37.857142857142854,-42.93650793650794,102.77777777777777,-47.53968253968254,-200.3968253968254,161.984126984127,-42.61904761904761,-68.80952380952381,98.01587301587301,57.53968253968254,325.0,113.88888888888889,-32.460317460317455,-51.03174603174603,-44.047619047619044,-16.428571428571427,325.0,171.8253968253968,4.682539682539682,4.682539682539682,-321.8253968253968
72,87.06349206349206,-35.317460317460316,105.47619047619047,-27.22222222222222,-58.33333333333333,100.07936507936508,-63.25396825396825,-195.47619047619045,157.85714285714286,-31.98412698412698,-116.74603174603173,95.47619047619047,-106.26984126984127,325.0,110.87301587301587,-21.825396825396822,-45.95238095238095,-33.41269841269841,-5.952380952380952,295.95238095238096,238.33333333333331,-5.952380952380952,-12.619047619047619,-321.8253968253968
73,87.06349206349206,-35.317460317460316,105.47619047619047,-27.22222222222222,-58.33333333333333,100.07936507936508,-63.25396825396825,-195.47619047619045,157.85714285714286,-31.98412698412698,-116.74603174603173,95.47619047619047,-106.26984126984127,325.0,110.87301587301587,-21.825396825396822,-45.95238095238095,-33.41269841269841,-5.952380952380952,295.95238095238096,238.33333333333331,-5.952380952380952,-12.619047619047619,-321.8253968253968
74,85.63492063492063,-48.17460317460317,104.2063492063492,-35.63492063492063,-61.98412698412698,98.80952380952381,-62.93650793650793,-192.61904761904762,155.63492063492063,-41.19047619047619,-125.47619047619047,94.2063492063492,-35.0,325.0,109.6031746031746,-30.396825396825395,-56.269841269841265,-40.714285714285715,-16.11111111111111,46.58730158730158,325.0,1.6666666666666665,8.174603174603174,-321.8253968253968
75,85.63492063492063,-48.17460317460317,104.2063492063492,-35.63492063492063,-61.98412698412698,98.80952380952381,-62.93650793650793,-192.61904761904762,155.63492063492063,-41.19047619047619,-125.47619047619047,94.2063492063492,-35.0,325.0,109.6031746031746,-30.396825396825395,-56.269841269841265,-40.714285714285715,-16.11111111111111,46.58730158730158,325.0,1.6666666666666665,8.174603174603174,-321.8253968253968
76,83.88888888888889,-19.285714285714285,101.82539682539682,-11.666666666666666,-78.96825396825396,96.58730158730158,-95.95238095238095,-189.12698412698413,152.3015873015873,-15.95238095238095,-119.76190476190476,92.14285714285714,-104.68253968253968,325.0,107.38095238095238,-6.428571428571428,-63.41269841269841,-17.539682539682538,8.015873015873016,110.39682539682539,214.2063492063492,-5.0,-12.619047619047619,-321.8253968253968
77,83.88888888888889,-19.285714285714285,101.82539682539682,-11.666666666666666,-78.96825396825396,96.58730158730158,-95.95238095238095,-189.12698412698413,152.3015873015873,-15.95238095238095,-119.76190476190476,92.14285714285714,-104.68253968253968,325.0,107.38095238095238,-6.428571428571428,-63.41269841269841,-17.539682539682538,8.015873015873016,110.39682539682539,214.2063492063492,-5.0,-12.619047619047619,-321.8253968253968
78,83.57142857142857,-12.777777777777777,101.34920634920634,-4.365079365079365,-265.95238095238096,96.1111111111111,-308.3333333333333,-188.17460317460316,151.66666666666666,-9.761904761904761,-325.0,91.82539682539682,-325.0,325.0,107.06349206349206,-0.23809523809523808,-203.7301587301587,-11.349206349206348,14.206349206349206,124.36507936507935,325.0,-9.603174603174603,-16.587301587301585,-321.8253968253968
79,83.57142857142857,-12.777777777777777,101.34920634920634,-4.365079365079365,-265.95238095238096,96.1111111111111,-308.3333333333333,-188.17460317460316,151.66666666666666,-9.761904761904761,-325.0,91.82539682539682,-325.0,325.0,107.06349206349206,-0.23809523809523808,-203.7301587301587,-11.349206349206348,14.206349206349206,124.36507936507935,325.0,-9.603174603174603,-16.587301587301585,-321.8253968253968
80,83.57142857142857,-12.777777777777777,101.34920634920634,-4.365079365079365,-265.95238095238096,96.1111111111111,-308.3333333333333,-188.17460317460316,151.66666666666666,-9.761904761904761,-325.0,91.82539682539682,-325.0,325.0,107.06349206349206,-0.23809523809523808,-203.7301587301587,-11.349206349206348,14.206349206349206,124.36507936507935,325.0,-9.603174603174603,-16.587301587301585,-166.26984126984127
81,83.57142857142857,-12.777777777777777,101.34920634920634,-4.365079365079365,-265.95238095238096,96.1111111111111,-308.3333333333333,-188.17460317460316,151.66666666666666,-9.761904761904761,-325.0,91.82539682539682,-325.0,325.0,107.06349206349206,-0.23809523809523808,-203.7301587301587,-11.349206349206348,14.206349206349206,124.36507936507935,325.0,-9.603174603174603,-16.587301587301585,-166.26984126984127
82,78.80952380952381,-32.14285714285714,95.63492063492063,-21.19047619047619,-64.04761904761905,91.03174603174602,-70.39682539682539,-178.65079365079364,105.47619047619047,-25.79365079365079,-90.39682539682539,86.74603174603175,-59.12698412698413,325.0,101.03174603174602,-16.746031746031743,-78.01587301587301,-27.063492063492063,-4.2063492063492065,-14.047619047619047,318.17460317460313,5.0,3.095238095238095,-166.26984126984127
83,78.80952380952381,-32.14285714285714,95.63492063492063,-21.19047619047619,-64.04761904761905,91.03174603174602,-70.39682539682539,-178.65079365079364,105.47619047619047,-25.79365079365079,-90.39682539682539,86.74603174603175,-59.12698412698413,325.0,101.03174603174602,-16.746031746031743,-78.01587301587301,-27.063492063492063,-4.2063492063492065,-14.047619047619047,318.17460317460313,5.0,3.095238095238095,-166.26984126984127
84,77.53968253968253,-33.25396825396825,93.88888888888889,-22.3015873015873,-61.03174603174603,89.44444444444444,-72.46031746031746,-175.79365079365078,107.85714285714285,-27.22222222222222,-90.55555555555556,85.31746031746032,-116.9047619047619,325.0,99.44444444444444,-18.96825396825397,-70.39682539682539,-28.65079365079365,-6.904761904761904,52.77777777777777,318.17460317460313,5.0,3.73015873015873,-166.26984126984127
85,77.53968253968253,-33.25396825396825,93.88888888888889,-22.3015873015873,-61.03174603174603,89.44444444444444,-72.46031746031746,-175.79365079365078,107.85714285714285,-27.22222222222222,-90.55555555555556,85.31746031746032,-116.9047619047619,325.0,99.44444444444444,-18.96825396825397,-70.39682539682539,-28.65079365079365,-6.904761904761904,52.77777777777777,318.17460317460313,5.0,3.73015873015873,-166.26984126984127
86,75.63492063492063,-22.46031746031746,91.82539682539682,-11.825396825396824,-164.68253968253967,87.53968253968253,-184.04761904761904,-171.984126984127,-91.19047619047619,-16.904761904761905,-213.7301587301587,83.25396825396825,-268.968253968254,325.0,97.22222222222221,-8.174603174603174,-149.28571428571428,-18.174603174603174,3.095238095238095,8.015873015873016,325.0,-1.507936507936508,-1.0317460317460316,-166.26984126984127
87,75.63492063492063,-22.46031746031746,91.82539682539682,-11.825396825396824,-164.68253968253967,87.53968253968253,-184.04761904761904,-171.984126984127,-91.19047619047619,-16.904761904761905,-213.7301587301587,83.25396825396825,-268.968253968254,325.0,97.22222222222221,-8.174603174603174,-149.28571428571428,-18.174603174603174,3.095238095238095,8.015873015873016,325.0,-1.507936507936508,-1.0317460317460316,-166.26984126984127
88,74.2063492063492,-13.888888888888888,90.39682539682539,-4.365079365079365,-162.93650793650792,86.26984126984127,-184.2063492063492,-169.12698412698413,-179.9206349206349,-8.968253968253968,-212.61904761904762,81.82539682539682,-285.0,325.0,95.47619047619047,-0.23809523809523808,-146.9047619047619,-9.920634920634921,10.396825396825395,26.26984126984127,325.0,-1.507936507936508,-0.873015873015873,-166.26984126984127
89,74.2063492063492,-13.888888888888888,90.39682539682539,-4.365079365079365,-162.93650793650792,86.26984126984127,-184.2063492063492,-169.12698412698413,-179.9206349206349,-8.968253968253968,-212.61904761904762,81.82539682539682,-285.0,325.0,95.47619047619047,-0.23809523809523808,-146.9047619047619,-9.920634920634921,10.396825396825395,26.26984126984127,325.0,-1.507936507936508,-0.873015873015873,-166.26984126984127
90,73.57142857142857,-21.03174603174603,89.6031746031746,-10.555555555555555,-116.9047619047619,85.63492063492063,-146.74603174603175,-167.85714285714286,-34.84126984126984,-15.476190476190474,-152.46031746031744,81.03174603174602,-244.84126984126982,325.0,94.68253968253968,-6.904761904761904,-97.38095238095238,-15.793650793650793,3.253968253968254,284.36507936507934,325.0,8.333333333333332,15.317460317460316,-321.8253968253968
91,73.57142857142857,-21.03174603174603,89.6031746031746,-10.555555555555555,-116.9047619047619,85.63492063492063,-146.74603174603175,-167.85714285714286,-34.84126984126984,-15.476190476190474,-152.46031746031744,81.03174603174602,-244.84126984126982,325.0,94.68253968253968,-6.904761904761904,-97.38095238095238,-15.793650793650793,3.253968253968254,284.36507936507934,325.0,8.333333333333332,15.317460317460316,-321.8253968253968
92,73.57142857142857,-21.03174603174603,89.6031746031746,-10.555555555555555,-116.9047619047619,85.63492063492063,-146.74603174603175,-167.85714285714286,-34.84126984126984,-15.476190476190474,-152.46031746031744,81.03174603174602,-244.84126984126982,325.0,94.68253968253968,-6.904761904761904,-97.38095238095238,-15.793650793650793,3.253968253968254,284.36507936507934,325.0,8.333333333333332,15.317460317460316,-321.8253968253968
93,73.57142857142857,-21.03174603174603,89.6031746031746,-10.555555555555555,-116.9047619047619,85.63492063492063,-146.74603174603175,-167.85714285714286,-34.84126984126984,-15.476190476190474,-152.46031746031744,81.03174603174602,-244.84126984126982,325.0,94.68253968253968,-6.904761904761904,-97.38095238095238,-15.793650793650793,3.253968253968254,284.36507936507934,325.0,8.333333333333332,15.317460317460316,-321.8253968253968
94,73.57142857142857,-21.03174603174603,89.6031746031746,-10.555555555555555,-116.9047619047619,85.63492063492063,-146.74603174603175,-167.85714285714286,-34.84126984126984,-15.476190476190474,-152.46031746031744,81.03174603174602,-244.84126984126982,325.0,94.68253968253968,-6.904761904761904,-97.38095238095238,-15.793650793650793,3.253968253968254,284.36507936507934,325.0,8.333333333333332,15.317460317460316,-321.8253968253968
95,73.57142857142857,-21.03174603174603,89.6031746031746,-10.555555555555555,-116.9047619047619,85.63492063492063,-146.74603174603175,-167.85714285714286,-34.84126984126984,-15.476190476190474,-152.46031746031744,81.03174603174602,-244.84126984126982,325.0,94.68253968253968,-6.904761904761904,-97.38095238095238,-15.793650793650793,3.253968253968254,284.36507936507934,325.0,8.333333333333332,15.317460317460316,-321.8253968253968
96,71.03174603174602,-19.444444444444443,-117.6984126984127,-10.238095238095237,-106.74603174603175,82.77777777777777,-142.93650793650792,-162.46031746031744,-179.9206349206349,-14.682539682539682,-148.17460317460316,78.33333333333333,-253.57142857142856,325.0,91.5079365079365,-7.063492063492063,-90.87301587301587,-15.476190476190474,2.619047619047619,286.1111111111111,297.6984126984127,9.285714285714285,15.158730158730158,-321.8253968253968
97,71.03174603174602,-19.444444444444443,-117.6984126984127,-10.238095238095237,-106.74603174603175,82.77777777777777,-142.93650793650792,-162.46031746031744,-179.9206349206349,-14.682539682539682,-148.17460317460316,78.33333333333333,-253.57142857142856,325.0,91.5079365079365,-7.063492063492063,-90.87301587301587,-15.476190476190474,2.619047619047619,286.1111111111111,297.6984126984127,9.285714285714285,15.158730158730158,-321.8253968253968
98,67.53968253968253,-26.11111111111111,-325.0,-16.746031746031743,-67.85714285714285,78.80952380952381,-95.79365079365078,-154.84126984126982,-325.0,-21.666666666666664,-119.12698412698413,75.0,-242.93650793650792,325.0,87.38095238095238,-14.84126984126984,-63.25396825396825,-22.46031746031746,-5.476190476190476,96.1111111111111,190.07936507936506,6.746031746031746,12.619047619047619,-321.8253968253968
99,67.53968253968253,-26.11111111111111,-325.0,-16.746031746031743,-67.85714285714285,78.80952380952381,-95.79365079365078,-154.84126984126982,-325.0,-21.666666666666664,-119.12698412698413,75.0,-242.93650793650792,325.0,87.38095238095238,-14.84126984126984,-63.25396825396825,-22.46031746031746,-5.476190476190476,96.1111111111111,190.07936507936506,6.746031746031746,12.619047619047619,-321.8253968253968
100,66.74603174603175,-34.36507936507936,-325.0,-23.730158730158728,-38.96825396825397,77.6984126984127,-52.460317460317455,-152.77777777777777,-325.0,-29.444444444444443,-94.36507936507935,74.2063492063492,-223.57142857142856,325.0,86.26984126984127,-22.3015873015873,-41.98412698412698,-29.76190476190476,-12.936507936507935,-95.79365079365078,109.6031746031746,3.095238095238095,10.238095238095237,-166.26984126984127
101,66.74603174603175,-34.36507936507936,-325.0,-23.730158730158728,-38.96825396825397,77.6984126984127,-52.460317460317455,-152.77777777777777,-325.0,-29.444444444444443,-94.36507936507935,74.2063492063492,-223.57142857142856,325.0,86.26984126984127,-22.3015873015873,-41.98412698412698,-29.76190476190476,-12.936507936507935,-95.79365079365078,109.6031746031746,3.095238095238095,10.238095238095237,-166.26984126984127
102,63.888888888888886,-26.428571428571427,-325.0,-17.698412698412696,-57.857142857142854,74.52380952380952,-66.26984126984127,-147.06349206349205,-325.0,-22.619047619047617,-96.9047619047619,71.03174603174602,-181.8253968253968,325.0,82.61904761904762,-16.428571428571427,-67.22222222222221,-23.57142857142857,-7.5396825396825395,-84.84126984126983,49.6031746031746,1.984126984126984,0.5555555555555556,-166.26984126984127
103,63.888888888888886,-26.428571428571427,-325.0,-17.698412698412696,-57.857142857142854,74.52380952380952,-66.26984126984127,-147.06349206349205,-325.0,-22.619047619047617,-96.9047619047619,71.03174603174602,-181.8253968253968,325.0,82.61904761904762,-16.428571428571427,-67.22222222222221,-23.57142857142857,-7.5396825396825395,-84.84126984126983,49.6031746031746,1.984126984126984,0.5555555555555556,-166.26984126984127
104,61.19047619047619,-18.49206349206349,-325.0,-11.666666666666666,-76.74603174603175,71.34920634920634,-79.92063492063491,-141.19047619047618,-325.0,-15.793650793650793,-99.44444444444444,67.85714285714285,-139.9206349206349,325.0,79.12698412698413,-10.555555555555555,-92.30158730158729,-17.38095238095238,-1.984126984126984,-73.88888888888889,-10.396825396825395,1.0317460317460316,-8.968253968253968,-166.26984126984127
105,61.19047619047619,-18.49206349206349,-325.0,-11.666666666666666,-76.74603174603175,71.34920634920634,-79.92063492063491,-141.19047619047618,-325.0,-15.793650793650793,-99.44444444444444,67.85714285714285,-139.9206349206349,325.0,79.12698412698413,-10.555555555555555,-92.30158730158729,-17.38095238095238,-1.984126984126984,-73.88888888888889,-10.396825396825395,1.0317460317460316,-8.968253968253968,-166.26984126984127
106,61.19047619047619,-18.49206349206349,-325.0,-11.666666666666666,-76.74603174603175,71.34920634920634,-79.92063492063491,-141.19047619047618,-325.0,-15.793650793650793,-99.44444444444444,67.85714285714285,-139.9206349206349,325.0,79.12698412698413,-10.555555555555555,-92.30158730158729,-17.38095238095238,-1.984126984126984,-73.88888888888889,-10.396825396825395,1.0317460317460316,-8.968253968253968,-166.26984126984127
107,61.19047619047619,-18.49206349206349,-325.0,-11.666666666666666,-76.74603174603175,71.34920634920634,-79.92063492063491,-141.19047619047618,-325.0,-15.793650793650793,-99.44444444444444,67.85714285714285,-139.9206349206349,325.0,79.12698412698413,-10.555555555555555,-92.30158730158729,-17.38095238095238,-1.984126984126984,-73.88888888888889,-10.396825396825395,1.0317460317460316,-8.968253968253968,-166.26984126984127
108,61.19047619047619,-18.49206349206349,-325.0,-11.666666666666666,-76.74603174603175,71.34920634920634,-79.92063492063491,-141.19047619047618,-325.0,-15.793650793650793,-99.44444444444444,67.85714285714285,-139.9206349206349,325.0,79.12698412698413,-10.555555555555555,-92.30158730158729,-17.38095238095238,-1.984126984126984,-73.88888888888889,-10.396825396825395,1.0317460317460316,-8.968253968253968,-166.26984126984127
109,61.19047619047619,-18.49206349206349,-325.0,-11.666666666666666,-76.74603174603175,71.34920634920634,-79.92063492063491,-141.19047619047618,-325.0,-15.793650793650793,-99.44444444444444,67.85714285714285,-139.9206349206349,325.0,79.12698412698413,-10.555555555555555,-92.30158730158729,-17.38095238095238,-1.984126984126984,-73.88888888888889,-10.396825396825395,1.0317460317460316,-8.968253968253968,-166.26984126984127
110,56.11111111111111,-7.222222222222221,-325.0,-1.1904761904761905,-178.17460317460316,66.42857142857143,-192.14285714285714,-130.87301587301587,-325.0,-4.523809523809524,-225.95238095238093,62.77777777777777,-277.53968253968253,253.7301587301587,73.09523809523809,-0.07936507936507936,-161.984126984127,-5.7936507936507935,6.904761904761904,66.11111111111111,285.95238095238096,-14.84126984126984,-18.49206349206349,-321.8253968253968
111,56.11111111111111,-7.222222222222221,-325.0,-1.1904761904761905,-178.17460317460316,66.42857142857143,-192.14285714285714,-130.87301587301587,-325.0,-4.523809523809524,-225.95238095238093,62.77777777777777,-277.53968253968253,253.7301587301587,73.09523809523809,-0.07936507936507936,-161.984126984127,-5.7936507936507935,6.904761904761904,66.11111111111111,285.95238095238096,-14.84126984126984,-18.49206349206349,-321.8253968253968
112,55.15873015873016,-5.476190476190476,-325.0,0.7142857142857142,-179.76190476190476,65.15873015873015,-189.44444444444443,-128.8095238095238,-325.0,-2.9365079365079363,-225.15873015873015,61.666666666666664,-285.4761904761905,187.85714285714283,71.82539682539682,1.6666666666666665,-165.79365079365078,-3.73015873015873,8.968253968253968,167.53968253968253,305.4761904761905,-14.365079365079364,-18.015873015873016,-321.8253968253968
113,55.15873015873016,-5.476190476190476,-325.0,0.7142857142857142,-179.76190476190476,65.15873015873015,-189.44444444444443,-128.8095238095238,-325.0,-2.9365079365079363,-225.15873015873015,61.666666666666664,-285.4761904761905,187.85714285714283,71.82539682539682,1.6666666666666665,-165.79365079365078,-3.73015873015873,8.968253968253968,167.53968253968253,305.4761904761905,-14.365079365079364,-18.015873015873016,-321.8253968253968
114,54.2063492063492,-3.73015873015873,-325.0,2.7777777777777777,-181.19047619047618,64.04761904761905,-186.74603174603175,-126.74603174603173,-325.0,-1.1904761904761905,-224.36507936507934,60.55555555555555,-293.25396825396825,121.98412698412697,70.55555555555556,3.571428571428571,-169.44444444444443,-1.6666666666666665,11.19047619047619,268.968253968254,325.0,-13.888888888888888,-17.38095238095238,-321.8253968253968
115,54.2063492063492,-3.73015873015873,-325.0,2.7777777777777777,-181.19047619047618,64.04761904761905,-186.74603174603175,-126.74603174603173,-325.0,-1.1904761904761905,-224.36507936507934,60.55555555555555,-293.25396825396825,121.98412698412697,70.55555555555556,3.571428571428571,-169.44444444444443,-1.6666666666666665,11.19047619047619,268.968253968254,325.0,-13.888888888888888,-17.38095238095238,-321.8253968253968
116,54.2063492063492,-3.73015873015873,-325.0,2.7777777777777777,-181.19047619047618,64.04761904761905,-186.74603174603175,-126.74603174603173,-325.0,-1.1904761904761905,-224.36507936507934,60.55555555555555,-293.25396825396825,121.98412698412697,70.55555555555556,3.571428571428571,-169.44444444444443,-1.6666666666666665,11.19047619047619,268.968253968254,325.0,-13.888888888888888,-17.38095238095238,-321.8253968253968
117,54.2063492063492,-3.73015873015873,-325.0,2.7777777777777777,-181.19047619047618,64.04761904761905,-186.74603174603175,-126.74603174603173,-325.0,-1.1904761904761905,-224.36507936507934,60.55555555555555,-293.25396825396825,121.98412698412697,70.55555555555556,3.571428571428571,-169.44444444444443,-1.6666666666666665,11.19047619047619,268.968253968254,325.0,-13.888888888888888,-17.38095238095238,-321.8253968253968
118,51.507936507936506,-9.126984126984127,-325.0,-2.619047619047619,-86.42857142857143,60.873015873015866,-96.26984126984127,-121.03174603174602,-325.0,-4.523809523809524,-106.58730158730158,57.53968253968254,-214.52380952380952,294.5238095238095,67.06349206349206,-2.142857142857143,-72.93650793650794,-6.26984126984127,4.523809523809524,325.0,98.17460317460316,8.333333333333332,13.412698412698411,-321.8253968253968
119,51.507936507936506,-9.126984126984127,-325.0,-2.619047619047619,-86.42857142857143,60.873015873015866,-96.26984126984127,-121.03174603174602,-325.0,-4.523809523809524,-106.58730158730158,57.53968253968254,-214.52380952380952,294.5238095238095,67.06349206349206,-2.142857142857143,-72.93650793650794,-6.26984126984127,4.523809523809524,325.0,98.17460317460316,8.333333333333332,13.412698412698411,-321.8253968253968
120,51.507936507936506,-9.126984126984127,-325.0,-2.619047619047619,-86.42857142857143,60.873015873015866,-96.26984126984127,-121.03174603174602,-325.0,-4.523809523809524,-106.58730158730158,57.53968253968254,-214.52380952380952,294.5238095238095,67.06349206349206,-2.142857142857143,-72.93650793650794,-6.26984126984127,4.523809523809524,325.0,98.17460317460316,8.333333333333332,13.412698412698411,-166.26984126984127
121,51.507936507936506,-9.126984126984127,-325.0,-2.619047619047619,-86.42857142857143,60.873015873015866,-96.26984126984127,-121.03174603174602,-325.0,-4.523809523809524,-106.58730158730158,57.53968253968254,-214.52380952380952,294.5238095238095,67.06349206349206,-2.142857142857143,-72.93650793650794,-6.26984126984127,4.523809523809524,325.0,98.17460317460316,8.333333333333332,13.412698412698411,-166.26984126984127
122,49.44444444444444,-9.285714285714285,-325.0,-3.888888888888889,-109.92063492063491,18.333333333333332,-122.77777777777777,-116.74603174603173,-319.1269841269841,-6.428571428571428,-131.8253968253968,-32.77777777777778,-214.68253968253967,-15.317460317460316,64.52380952380952,-4.523809523809524,-102.30158730158729,-8.809523809523808,2.142857142857143,216.74603174603175,137.85714285714286,5.158730158730158,1.349206349206349,-166.26984126984127
123,49.44444444444444,-9.285714285714285,-325.0,-3.888888888888889,-109.92063492063491,18.333333333333332,-122.77777777777777,-116.74603174603173,-319.1269841269841,-6.428571428571428,-131.8253968253968,-32.77777777777778,-214.68253968253967,-15.317460317460316,64.52380952380952,-4.523809523809524,-102.30158730158729,-8.809523809523808,2.142857142857143,216.74603174603175,137.85714285714286,5.158730158730158,1.349206349206349,-166.26984126984127
124,46.74603174603175,-5.634920634920634,-325.0,-0.7142857142857142,-115.31746031746032,18.333333333333332,-129.28571428571428,-111.03174603174602,-310.7142857142857,-3.571428571428571,-137.38095238095238,-29.6031746031746,-218.8095238095238,-324.36507936507934,61.19047619047619,-2.142857142857143,-106.1111111111111,-6.26984126984127,4.2063492063492065,216.74603174603175,187.85714285714283,5.476190476190476,1.8253968253968254,-166.26984126984127
125,46.74603174603175,-5.634920634920634,-325.0,-0.7142857142857142,-115.31746031746032,18.333333333333332,-129.28571428571428,-111.03174603174602,-310.7142857142857,-3.571428571428571,-137.38095238095238,-29.6031746031746,-218.8095238095238,-324.36507936507934,61.19047619047619,-2.142857142857143,-106.1111111111111,-6.26984126984127,4.2063492063492065,216.74603174603175,187.85714285714283,5.476190476190476,1.8253968253968254,-166.26984126984127
126,46.11111111111111,-1.8253968253968254,-325.0,3.571428571428571,-97.06349206349206,60.71428571428571,-109.44444444444444,-109.6031746031746,-308.015873015873,1.349206349206349,-117.6984126984127,63.888888888888886,-222.77777777777777,-323.73015873015873,60.39682539682539,2.619047619047619,-80.71428571428571,-1.1904761904761905,8.65079365079365,325.0,198.17460317460316,8.968253968253968,14.206349206349206,-166.26984126984127
127,46.11111111111111,-1.8253968253968254,-325.0,3.571428571428571,-97.06349206349206,60.71428571428571,-109.44444444444444,-109.6031746031746,-308.015873015873,1.349206349206349,-117.6984126984127,63.888888888888886,-222.77777777777777,-323.73015873015873,60.39682539682539,2.619047619047619,-80.71428571428571,-1.1904761904761905,8.65079365079365,325.0,198.17460317460316,8.968253968253968,14.206349206349206,-166.26984126984127
128,29.285714285714285,-1.349206349206349,-325.0,2.46031746031746,-123.73015873015872,-132.14285714285714,-135.47619047619048,-106.9047619047619,-300.87301587301585,-0.07936507936507936,-153.4126984126984,-130.55555555555554,-230.87301587301587,-189.12698412698413,58.96825396825397,1.507936507936508,-114.36507936507935,-1.507936507936508,7.698412698412698,260.87301587301585,261.5079365079365,-3.571428571428571,-2.9365079365079363,-166.26984126984127
129,29.285714285714285,-1.349206349206349,-325.0,2.46031746031746,-123.73015873015872,-132.14285714285714,-135.47619047619048,-106.9047619047619,-300.87301587301585,-0.07936507936507936,-153.4126984126984,-130.55555555555554,-230.87301587301587,-189.12698412698413,58.96825396825397,1.507936507936508,-114.36507936507935,-1.507936507936508,7.698412698412698,260.87301587301585,261.5079365079365,-3.571428571428571,-2.9365079365079363,-166.26984126984127
130,-325.0,-16.11111111111111,-325.0,-11.19047619047619,-61.98412698412698,-325.0,-72.77777777777777,-100.71428571428571,-257.06349206349205,-14.206349206349206,-94.52380952380952,-325.0,-170.3968253968254,304.04761904761904,55.476190476190474,-13.888888888888888,-64.68253968253968,-15.95238095238095,-8.333333333333332,262.9365079365079,161.19047619047618,3.4126984126984126,1.349206349206349,-321.8253968253968
131,-325.0,-16.11111111111111,-325.0,-11.19047619047619,-61.98412698412698,-325.0,-72.77777777777777,-100.71428571428571,-257.06349206349205,-14.206349206349206,-94.52380952380952,-325.0,-170.3968253968254,304.04761904761904,55.476190476190474,-13.888888888888888,-64.68253968253968,-15.95238095238095,-8.333333333333332,262.9365079365079,161.19047619047618,3.4126984126984126,1.349206349206349,-321.8253968253968
132,-325.0,-13.095238095238095,-325.0,-7.698412698412698,-68.17460317460318,-221.19047619047618,-83.73015873015872,-97.6984126984127,-30.396825396825395,-9.285714285714285,-91.82539682539682,-260.07936507936506,-172.61904761904762,293.73015873015873,54.2063492063492,-9.126984126984127,-58.17460317460317,-11.19047619047619,-3.888888888888889,293.73015873015873,151.984126984127,3.571428571428571,2.142857142857143,-321.8253968253968
133,-325.0,-13.095238095238095,-325.0,-7.698412698412698,-68.17460317460318,-221.19047619047618,-83.73015873015872,-97.6984126984127,-30.396825396825395,-9.285714285714285,-91.82539682539682,-260.07936507936506,-172.61904761904762,293.73015873015873,54.2063492063492,-9.126984126984127,-58.17460317460317,-11.19047619047619,-3.888888888888889,293.73015873015873,151.984126984127,3.571428571428571,2.142857142857143,-321.8253968253968
134,-325.0,-19.444444444444443,-325.0,-13.412698412698411,-46.11111111111111,-324.04761904761904,-59.76190476190476,-89.28571428571428,-189.76190476190476,-15.317460317460316,-79.12698412698413,-325.0,-155.63492063492063,289.76190476190476,53.73015873015873,-15.317460317460316,-50.71428571428571,-16.904761904761905,-10.555555555555555,288.015873015873,138.015873015873,3.571428571428571,1.8253968253968254,-321.8253968253968
135,-325.0,-19.444444444444443,-325.0,-13.412698412698411,-46.11111111111111,-324.04761904761904,-59.76190476190476,-89.28571428571428,-189.76190476190476,-15.317460317460316,-79.12698412698413,-325.0,-155.63492063492063,289.76190476190476,53.73015873015873,-15.317460317460316,-50.71428571428571,-16.904761904761905,-10.555555555555555,288.015873015873,138.015873015873,3.571428571428571,1.8253968253968254,-321.8253968253968
136,-325.0,-22.936507936507937,-325.0,-14.206349206349206,-18.174603174603174,-322.9365079365079,-25.317460317460316,-80.55555555555556,-231.34920634920633,-16.587301587301585,-55.95238095238095,-325.0,-148.8095238095238,287.22222222222223,53.25396825396825,-16.11111111111111,-30.238095238095237,-17.539682539682538,-12.142857142857142,313.73015873015873,144.2063492063492,7.222222222222221,14.206349206349206,-321.8253968253968
137,-325.0,-22.936507936507937,-325.0,-14.206349206349206,-18.174603174603174,-322.9365079365079,-25.317460317460316,-80.55555555555556,-231.34920634920633,-16.587301587301585,-55.95238095238095,-325.0,-148.8095238095238,287.22222222222223,53.25396825396825,-16.11111111111111,-30.238095238095237,-17.539682539682538,-12.142857142857142,313.73015873015873,144.2063492063492,7.222222222222221,14.206349206349206,-321.8253968253968
138,-325.0,10.396825396825395,-325.0,12.936507936507935,-102.61904761904762,-325.0,-110.71428571428571,13.253968253968253,-186.26984126984127,12.46031746031746,-123.09523809523809,-325.0,-183.4126984126984,231.66666666666666,43.25396825396825,12.142857142857142,-90.87301587301587,11.349206349206348,14.682539682539682,271.5079365079365,236.42857142857142,-3.095238095238095,-2.46031746031746,-321.8253968253968
139,-325.0,10.396825396825395,-325.0,12.936507936507935,-102.61904761904762,-325.0,-110.71428571428571,13.253968253968253,-186.26984126984127,12.46031746031746,-123.09523809523809,-325.0,-183.4126984126984,231.66666666666666,43.25396825396825,12.142857142857142,-90.87301587301587,11.349206349206348,14.682539682539682,271.5079365079365,236.42857142857142,-3.095238095238095,-2.46031746031746,-321.8253968253968
140,-325.0,4.523809523809524,-325.0,7.698412698412698,-46.269841269841265,-325.0,-55.63492063492063,68.96825396825396,-215.3174603174603,7.5396825396825395,-56.904761904761905,-325.0,-148.015873015873,225.63492063492063,41.98412698412698,6.428571428571428,-27.698412698412696,6.428571428571428,8.809523809523808,325.0,142.93650793650792,9.761904761904761,14.047619047619047,-166.26984126984127
141,-325.0,4.523809523809524,-325.0,7.698412698412698,-46.269841269841265,-325.0,-55.63492063492063,68.96825396825396,-215.3174603174603,7.5396825396825395,-56.904761904761905,-325.0,-148.015873015873,225.63492063492063,41.98412698412698,6.428571428571428,-27.698412698412696,6.428571428571428,8.809523809523808,325.0,142.93650793650792,9.761904761904761,14.047619047619047,-166.26984126984127
142,-325.0,7.5396825396825395,-325.0,10.555555555555555,-43.41269841269841,-325.0,-52.3015873015873,23.88888888888889,-265.95238095238096,10.079365079365079,-54.047619047619044,-325.0,-144.68253968253967,221.66666666666666,41.19047619047619,9.285714285714285,-24.047619047619047,9.285714285714285,11.666666666666666,325.0,137.85714285714286,8.65079365079365,14.047619047619047,-166.26984126984127
143,-325.0,7.5396825396825395,-325.0,10.555555555555555,-43.41269841269841,-325.0,-52.3015873015873,23.88888888888889,-265.95238095238096,10.079365079365079,-54.047619047619044,-325.0,-144.68253968253967,221.66666666666666,41.19047619047619,9.285714285714285,-24.047619047619047,9.285714285714285,11.666666666666666,325.0,137.85714285714286,8.65079365079365,14.047619047619047,-166.26984126984127
144,-325.0,11.031746031746032,-325.0,11.507936507936508,-35.15873015873016,-325.0,-39.92063492063492,-100.07936507936508,-119.6031746031746,11.349206349206348,-55.476190476190474,-325.0,-138.33333333333331,214.84126984126982,40.238095238095234,10.396825396825395,-32.460317460317455,10.079365079365079,13.095238095238095,298.968253968254,133.57142857142856,7.857142857142857,14.047619047619047,-166.26984126984127
145,-325.0,11.031746031746032,-325.0,11.507936507936508,-35.15873015873016,-325.0,-39.92063492063492,-100.07936507936508,-119.6031746031746,11.349206349206348,-55.476190476190474,-325.0,-138.33333333333331,214.84126984126982,40.238095238095234,10.396825396825395,-32.460317460317455,10.079365079365079,13.095238095238095,298.968253968254,133.57142857142856,7.857142857142857,14.047619047619047,-166.26984126984127
146,-325.0,22.46031746031746,-325.0,21.349206349206348,-31.98412698412698,-325.0,-40.079365079365076,-98.96825396825396,85.79365079365078,21.03174603174603,-42.3015873015873,-325.0,-132.3015873015873,213.88888888888889,40.079365079365076,20.07936507936508,-13.095238095238095,19.92063492063492,22.936507936507937,325.0,115.47619047619047,8.015873015873016,13.095238095238095,-166.26984126984127
147,-325.0,22.46031746031746,-325.0,21.349206349206348,-31.98412698412698,-325.0,-40.079365079365076,-98.96825396825396,85.79365079365078,21.03174603174603,-42.3015873015873,-325.0,-132.3015873015873,213.88888888888889,40.079365079365076,20.07936507936508,-13.095238095238095,19.92063492063492,22.936507936507937,325.0,115.47619047619047,8.015873015873016,13.095238095238095,-166.26984126984127
148,-325.0,6.111111111111111,-325.0,8.015873015873016,-34.682539682539684,-325.0,-35.476190476190474,-95.0,-239.76190476190476,6.587301587301587,-64.52380952380952,-325.0,-138.17460317460316,208.33333333333331,38.96825396825397,6.904761904761904,-48.01587301587301,6.26984126984127,8.809523809523808,271.66666666666663,136.74603174603175,7.857142857142857,15.317460317460316,-166.26984126984127
149,-325.0,6.111111111111111,-325.0,8.015873015873016,-34.682539682539684,-325.0,-35.476190476190474,-95.0,-239.76190476190476,6.587301587301587,-64.52380952380952,-325.0,-138.17460317460316,208.33333333333331,38.96825396825397,6.904761904761904,-48.01587301587301,6.26984126984127,8.809523809523808,271.66666666666663,136.74603174603175,7.857142857142857,15.317460317460316,-166.26984126984127
150,-325.0,6.111111111111111,-325.0,8.015873015873016,-34.682539682539684,-325.0,-35.476190476190474,-95.0,-239.76190476190476,6.587301587301587,-64.52380952380952,-325.0,-138.17460317460316,208.33333333333331,38.96825396825397,6.904761904761904,-48.01587301587301,6.26984126984127,8.809523809523808,271.66666666666663,136.74603174603175,7.857142857142857,15.317460317460316,-321.8253968253968
151,-325.0,6.111111111111111,-325.0,8.015873015873016,-34.682539682539684,-325.0,-35.476190476190474,-95.0,-239.76190476190476,6.587301587301587,-64.52380952380952,-325.0,-138.17460317460316,208.33333333333331,38.96825396825397,6.904761904761904,-48.01587301587301,6.26984126984127,8.809523809523808,271.66666666666663,136.74603174603175,7.857142857142857,15.317460317460316,-321.8253968253968
152,-325.0,16.587301587301585,-325.0,17.857142857142858,-23.88888888888889,-325.0,-27.857142857142854,-41.666666666666664,-81.19047619047619,16.904761904761905,-43.25396825396825,-325.0,-123.57142857142857,203.88888888888889,31.507936507936506,16.904761904761905,-21.349206349206348,16.587301587301585,18.96825396825397,298.3333333333333,113.73015873015872,8.015873015873016,13.888888888888888,-321.8253968253968
153,-325.0,16.587301587301585,-325.0,17.857142857142858,-23.88888888888889,-325.0,-27.857142857142854,-41.666666666666664,-81.19047619047619,16.904761904761905,-43.25396825396825,-325.0,-123.57142857142857,203.88888888888889,31.507936507936506,16.904761904761905,-21.349206349206348,16.587301587301585,18.96825396825397,298.3333333333333,113.73015873015872,8.015873015873016,13.888888888888888,-321.8253968253968
154,-325.0,29.285714285714285,-325.0,29.444444444444443,-81.82539682539682,-325.0,-89.12698412698413,-42.14285714285714,-52.14285714285714,28.65079365079365,-99.44444444444444,-325.0,-152.46031746031744,197.53968253968253,19.285714285714285,28.49206349206349,-69.44444444444444,28.015873015873016,30.71428571428571,233.4126984126984,207.85714285714283,-4.0476190476190474,-3.095238095238095,-321.8253968253968
155,-325.0,29.285714285714285,-325.0,29.444444444444443,-81.82539682539682,-325.0,-89.12698412698413,-42.14285714285714,-52.14285714285714,28.65079365079365,-99.44444444444444,-325.0,-152.46031746031744,197.53968253968253,19.285714285714285,28.49206349206349,-69.44444444444444,28.015873015873016,30.71428571428571,233.4126984126984,207.85714285714283,-4.0476190476190474,-3.095238095238095,-321.8253968253968
156,-325.0,16.746031746031743,-325.0,14.523809523809524,-109.6031746031746,-325.0,-120.55555555555554,-87.53968253968253,-151.19047619047618,14.206349206349206,-128.17460317460316,-325.0,-155.63492063492063,189.76190476190476,-2.142857142857143,13.571428571428571,-99.92063492063491,13.73015873015873,15.634920634920634,136.26984126984127,249.44444444444443,-9.444444444444445,-15.476190476190474,-321.8253968253968
157,-325.0,16.746031746031743,-325.0,14.523809523809524,-109.6031746031746,-325.0,-120.55555555555554,-87.53968253968253,-151.19047619047618,14.206349206349206,-128.17460317460316,-325.0,-155.63492063492063,189.76190476190476,-2.142857142857143,13.571428571428571,-99.92063492063491,13.73015873015873,15.634920634920634,136.26984126984127,249.44444444444443,-9.444444444444445,-15.476190476190474,-321.8253968253968
158,-325.0,28.333333333333332,-325.0,27.857142857142854,-71.98412698412697,-325.0,-77.85714285714285,-46.74603174603175,-191.34920634920633,28.015873015873016,-87.53968253968253,-325.0,-136.42857142857142,183.88888888888889,-16.904761904761905,27.38095238095238,-58.01587301587301,27.38095238095238,29.126984126984127,237.69841269841268,205.79365079365078,-3.888888888888889,-2.142857142857143,-321.8253968253968
159,-325.0,28.333333333333332,-325.0,27.857142857142854,-71.98412698412697,-325.0,-77.85714285714285,-46.74603174603175,-191.34920634920633,28.015873015873016,-87.53968253968253,-325.0,-136.42857142857142,183.88888888888889,-16.904761904761905,27.38095238095238,-58.01587301587301,27.38095238095238,29.126984126984127,237.69841269841268,205.79365079365078,-3.888888888888889,-2.142857142857143,-321.8253968253968
160,-325.0,18.65079365079365,-321.19047619047615,17.857142857142858,-6.111111111111111,-325.0,-12.142857142857142,-33.41269841269841,-111.03174603174602,18.015873015873016,-13.571428571428571,-325.0,-96.9047619047619,178.96825396825395,-29.285714285714285,16.11111111111111,13.095238095238095,17.38095238095238,18.96825396825397,325.0,79.12698412698413,9.126984126984127,12.142857142857142,-166.26984126984127
161,-325.0,18.65079365079365,-321.19047619047615,17.857142857142858,-6.111111111111111,-325.0,-12.142857142857142,-33.41269841269841,-111.03174603174602,18.015873015873016,-13.571428571428571,-325.0,-96.9047619047619,178.96825396825395,-29.285714285714285,16.11111111111111,13.095238095238095,17.38095238095238,18.96825396825397,325.0,79.12698412698413,9.126984126984127,12.142857142857142,-166.26984126984127
162,-325.0,21.03174603174603,-311.8253968253968,20.873015873015873,-19.444444444444443,-325.0,-24.206349206349206,5.952380952380952,18.174603174603174,21.349206349206348,-38.17460317460317,-325.0,-112.6190476190476,173.4126984126984,-42.61904761904761,19.76190476190476,-16.904761904761905,20.555555555555554,21.507936507936506,293.4126984126984,100.87301587301587,7.222222222222221,14.365079365079364,-166.26984126984127
163,-325.0,21.03174603174603,-311.8253968253968,20.873015873015873,-19.444444444444443,-325.0,-24.206349206349206,5.952380952380952,18.174603174603174,21.349206349206348,-38.17460317460317,-325.0,-112.6190476190476,173.4126984126984,-42.61904761904761,19.76190476190476,-16.904761904761905,20.555555555555554,21.507936507936506,293.4126984126984,100.87301587301587,7.222222222222221,14.365079365079364,-166.26984126984127
164,-325.0,28.174603174603174,-306.4285714285714,26.746031746031743,-100.71428571428571,-325.0,-110.87301587301587,-38.17460317460317,-86.1111111111111,26.428571428571427,-118.01587301587301,-325.0,-140.87301587301587,170.3968253968254,-49.44444444444444,24.84126984126984,-89.76190476190476,25.79365079365079,26.9047619047619,132.61904761904762,245.95238095238093,-9.285714285714285,-15.158730158730158,-166.26984126984127
165,-325.0,28.174603174603174,-306.4285714285714,26.746031746031743,-100.71428571428571,-325.0,-110.87301587301587,-38.17460317460317,-86.1111111111111,26.428571428571427,-118.01587301587301,-325.0,-140.87301587301587,170.3968253968254,-49.44444444444444,24.84126984126984,-89.76190476190476,25.79365079365079,26.9047619047619,132.61904761904762,245.95238095238093,-9.285714285714285,-15.158730158730158,-166.26984126984127
166,-325.0,13.253968253968253,-301.66666666666663,14.682539682539682,-17.857142857142858,-325.0,-21.19047619047619,45.317460317460316,116.26984126984127,14.365079365079364,-35.317460317460316,-325.0,-108.96825396825396,167.38095238095238,-56.58730158730158,12.777777777777777,-15.476190476190474,14.206349206349206,14.84126984126984,275.0,95.63492063492063,8.333333333333332,14.682539682539682,-166.26984126984127
167,-325.0,13.253968253968253,-301.66666666666663,14.682539682539682,-17.857142857142858,-325.0,-21.19047619047619,45.317460317460316,116.26984126984127,14.365079365079364,-35.317460317460316,-325.0,-108.96825396825396,167.38095238095238,-56.58730158730158,12.777777777777777,-15.476190476190474,14.206349206349206,14.84126984126984,275.0,95.63492063492063,8.333333333333332,14.682539682539682,-166.26984126984127
168,-325.0,8.968253968253968,-297.53968253968253,7.222222222222221,-89.12698412698413,-325.0,-104.36507936507935,-0.7142857142857142,0.7142857142857142,7.063492063492063,-99.76190476190476,-325.0,-128.65079365079364,165.15873015873015,-61.666666666666664,4.682539682539682,-74.36507936507937,6.26984126984127,7.3809523809523805,104.2063492063492,239.44444444444443,-1.984126984126984,-13.73015873015873,-166.26984126984127
169,-325.0,8.968253968253968,-297.53968253968253,7.222222222222221,-89.12698412698413,-325.0,-104.36507936507935,-0.7142857142857142,0.7142857142857142,7.063492063492063,-99.76190476190476,-325.0,-128.65079365079364,165.15873015873015,-61.666666666666664,4.682539682539682,-74.36507936507937,6.26984126984127,7.3809523809523805,104.2063492063492,239.44444444444443,-1.984126984126984,-13.73015873015873,-166.26984126984127
170,-325.0,17.698412698412696,-282.1428571428571,16.587301587301585,-89.44444444444444,-325.0,-97.22222222222221,-39.76190476190476,-115.0,15.476190476190474,-102.93650793650794,-325.0,-121.19047619047619,156.11111111111111,-80.07936507936508,14.206349206349206,-75.31746031746032,14.523809523809524,14.84126984126984,126.42857142857142,282.1428571428571,-7.857142857142857,-14.523809523809524,-321.8253968253968
171,-325.0,17.698412698412696,-282.1428571428571,16.587301587301585,-89.44444444444444,-325.0,-97.22222222222221,-39.76190476190476,-115.0,15.476190476190474,-102.93650793650794,-325.0,-121.19047619047619,156.11111111111111,-80.07936507936508,14.206349206349206,-75.31746031746032,14.523809523809524,14.84126984126984,126.42857142857142,282.1428571428571,-7.857142857142857,-14.523809523809524,-321.8253968253968
172,-325.0,14.84126984126984,-261.3492063492063,15.95238095238095,-66.58730158730158,-325.0,-67.85714285714285,-12.777777777777777,-90.55555555555556,14.523809523809524,-87.53968253968253,-325.0,-121.66666666666666,143.88888888888889,-104.36507936507935,14.047619047619047,-68.96825396825396,14.365079365079364,13.095238095238095,189.76190476190476,212.61904761904762,-2.3015873015873014,1.0317460317460316,-321.8253968253968
173,-325.0,14.84126984126984,-261.3492063492063,15.95238095238095,-66.58730158730158,-325.0,-67.85714285714285,-12.777777777777777,-90.55555555555556,14.523809523809524,-87.53968253968253,-325.0,-121.66666666666666,143.88888888888889,-104.36507936507935,14.047619047619047,-68.96825396825396,14.365079365079364,13.095238095238095,189.76190476190476,212.61904761904762,-2.3015873015873014,1.0317460317460316,-321.8253968253968
174,-325.0,8.333333333333332,-252.77777777777777,8.492063492063492,1.984126984126984,-325.0,-9.285714285714285,118.49206349206348,201.98412698412696,8.968253968253968,-7.222222222222221,-325.0,-56.11111111111111,138.65079365079364,-113.73015873015872,6.428571428571428,19.6031746031746,8.65079365079365,6.587301587301587,230.3968253968254,78.96825396825396,1.6666666666666665,-1.349206349206349,-321.8253968253968
175,-325.0,8.333333333333332,-252.77777777777777,8.492063492063492,1.984126984126984,-325.0,-9.285714285714285,118.49206349206348,201.98412698412696,8.968253968253968,-7.222222222222221,-325.0,-56.11111111111111,138.65079365079364,-113.73015873015872,6.428571428571428,19.6031746031746,8.65079365079365,6.587301587301587,230.3968253968254,78.96825396825396,1.6666666666666665,-1.349206349206349,-321.8253968253968
176,-325.0,3.888888888888889,-249.60317460317458,6.587301587301587,-35.476190476190474,-325.0,-47.06349206349206,240.55555555555554,100.71428571428571,6.746031746031746,-55.476190476190474,-325.0,-97.22222222222221,136.74603174603175,-116.9047619047619,4.523809523809524,-37.857142857142854,6.746031746031746,4.365079365079365,186.42857142857142,124.84126984126983,2.619047619047619,1.507936507936508,-321.8253968253968
177,-325.0,3.888888888888889,-249.60317460317458,6.587301587301587,-35.476190476190474,-325.0,-47.06349206349206,240.55555555555554,100.71428571428571,6.746031746031746,-55.476190476190474,-325.0,-97.22222222222221,136.74603174603175,-116.9047619047619,4.523809523809524,-37.857142857142854,6.746031746031746,4.365079365079365,186.42857142857142,124.84126984126983,2.619047619047619,1.507936507936508,-321.8253968253968
178,-325.0,20.396825396825395,-239.28571428571428,22.46031746031746,-34.682539682539684,-325.0,-36.42857142857142,174.36507936507937,165.15873015873015,22.142857142857142,-44.2063492063492,-325.0,-81.82539682539682,130.7142857142857,-232.77777777777777,19.285714285714285,-17.22222222222222,21.03174603174603,18.65079365079365,205.47619047619045,157.69841269841268,-3.4126984126984126,-1.8253968253968254,-321.8253968253968
179,-325.0,20.396825396825395,-239.28571428571428,22.46031746031746,-34.682539682539684,-325.0,-36.42857142857142,174.36507936507937,165.15873015873015,22.142857142857142,-44.2063492063492,-325.0,-81.82539682539682,130.7142857142857,-232.77777777777777,19.285714285714285,-17.22222222222222,21.03174603174603,18.65079365079365,205.47619047619045,157.69841269841268,-3.4126984126984126,-1.8253968253968254,-321.8253968253968
180,-325.0,18.174603174603174,-234.04761904761904,18.96825396825397,-67.06349206349206,-325.0,-73.73015873015872,179.76190476190476,101.19047619047619,18.49206349206349,-78.96825396825396,-325.0,-89.28571428571428,128.015873015873,-325.0,16.26984126984127,-53.41269841269841,17.698412698412696,15.158730158730158,131.66666666666666,221.98412698412696,-7.063492063492063,-13.412698412698411,-166.26984126984127
181,-325.0,18.174603174603174,-234.04761904761904,18.96825396825397,-67.06349206349206,-325.0,-73.73015873015872,179.76190476190476,101.19047619047619,18.49206349206349,-78.96825396825396,-325.0,-89.28571428571428,128.015873015873,-325.0,16.26984126984127,-53.41269841269841,17.698412698412696,15.158730158730158,131.66666666666666,221.98412698412696,-7.063492063492063,-13.412698412698411,-166.26984126984127
182,-325.0,8.333333333333332,-231.19047619047618,11.825396825396824,-35.15873015873016,-325.0,-44.84126984126984,-107.38095238095238,24.047619047619047,11.825396825396824,-61.98412698412698,-325.0,-117.6984126984127,126.26984126984127,-325.0,10.238095238095237,-55.15873015873016,11.984126984126984,8.968253968253968,215.47619047619045,78.65079365079364,8.015873015873016,16.11111111111111,-166.26984126984127
183,-325.0,8.333333333333332,-231.19047619047618,11.825396825396824,-35.15873015873016,-325.0,-44.84126984126984,-107.38095238095238,24.047619047619047,11.825396825396824,-61.98412698412698,-325.0,-117.6984126984127,126.26984126984127,-325.0,10.238095238095237,-55.15873015873016,11.984126984126984,8.968253968253968,215.47619047619045,78.65079365079364,8.015873015873016,16.11111111111111,-166.26984126984127
184,-325.0,19.444444444444443,-228.33333333333331,21.984126984126984,-68.65079365079364,-325.0,-70.55555555555556,-91.98412698412697,155.3174603174603,20.873015873015873,-87.22222222222221,-325.0,-114.2063492063492,124.52380952380952,-325.0,19.444444444444443,-69.6031746031746,20.238095238095237,17.22222222222222,168.33333333333331,201.8253968253968,-2.619047619047619,1.0317460317460316,-166.26984126984127
185,-325.0,19.444444444444443,-228.33333333333331,21.984126984126984,-68.65079365079364,-325.0,-70.55555555555556,-91.98412698412697,155.3174603174603,20.873015873015873,-87.22222222222221,-325.0,-114.2063492063492,124.52380952380952,-325.0,19.444444444444443,-69.6031746031746,20.238095238095237,17.22222222222222,168.33333333333331,201.8253968253968,-2.619047619047619,1.0317460317460316,-166.26984126984127
186,-325.0,8.492063492063492,-223.25396825396825,12.46031746031746,-38.80952380952381,-325.0,-52.3015873015873,171.19047619047618,13.571428571428571,13.253968253968253,-65.63492063492063,-325.0,-118.17460317460316,121.82539682539682,-325.0,12.619047619047619,-58.96825396825397,14.047619047619047,9.603174603174603,218.65079365079364,65.15873015873015,8.015873015873016,15.317460317460316,-166.26984126984127
187,-325.0,8.492063492063492,-223.25396825396825,12.46031746031746,-38.80952380952381,-325.0,-52.3015873015873,171.19047619047618,13.571428571428571,13.253968253968253,-65.63492063492063,-325.0,-118.17460317460316,121.82539682539682,-325.0,12.619047619047619,-58.96825396825397,14.047619047619047,9.603174603174603,218.65079365079364,65.15873015873015,8.015873015873016,15.317460317460316,-166.26984126984127
188,-325.0,18.65079365079365,-218.96825396825395,16.587301587301585,-48.17460317460317,-325.0,-49.76190476190476,-16.904761904761905,212.46031746031744,16.26984126984127,-58.33333333333333,-325.0,-66.9047619047619,118.96825396825396,-325.0,14.84126984126984,-33.095238095238095,15.158730158730158,12.46031746031746,154.68253968253967,196.11111111111111,-6.26984126984127,-13.412698412698411,-166.26984126984127
189,-325.0,18.65079365079365,-218.96825396825395,16.587301587301585,-48.17460317460317,-325.0,-49.76190476190476,-16.904761904761905,212.46031746031744,16.26984126984127,-58.33333333333333,-325.0,-66.9047619047619,118.96825396825396,-325.0,14.84126984126984,-33.095238095238095,15.158730158730158,12.46031746031746,154.68253968253967,196.11111111111111,-6.26984126984127,-13.412698412698411,-166.26984126984127
190,-325.0,21.507936507936506,-215.3174603174603,22.46031746031746,21.349206349206348,-325.0,4.0476190476190474,-83.73015873015872,141.5079365079365,22.936507936507937,3.571428571428571,-325.0,-48.49206349206349,117.06349206349206,-325.0,22.46031746031746,21.984126984126984,23.41269841269841,20.07936507936508,276.58730158730157,-23.730158730158728,5.317460317460317,11.349206349206348,-321.8253968253968
191,-325.0,21.507936507936506,-215.3174603174603,22.46031746031746,21.349206349206348,-325.0,4.0476190476190474,-83.73015873015872,141.5079365079365,22.936507936507937,3.571428571428571,-325.0,-48.49206349206349,117.06349206349206,-325.0,22.46031746031746,21.984126984126984,23.41269841269841,20.07936507936508,276.58730158730157,-23.730158730158728,5.317460317460317,11.349206349206348,-321.8253968253968
192,-325.0,20.873015873015873,-211.8253968253968,21.507936507936506,20.396825396825395,-325.0,3.571428571428571,-73.09523809523809,76.74603174603175,21.984126984126984,2.9365079365079363,-325.0,-48.80952380952381,114.84126984126983,-325.0,21.03174603174603,21.349206349206348,22.3015873015873,18.49206349206349,265.4761904761905,-19.76190476190476,5.634920634920634,11.825396825396824,-321.8253968253968
193,-325.0,20.873015873015873,-211.8253968253968,21.507936507936506,20.396825396825395,-325.0,3.571428571428571,-73.09523809523809,76.74603174603175,21.984126984126984,2.9365079365079363,-325.0,-48.80952380952381,114.84126984126983,-325.0,21.03174603174603,21.349206349206348,22.3015873015873,18.49206349206349,265.4761904761905,-19.76190476190476,5.634920634920634,11.825396825396824,-321.8253968253968
194,-320.55555555555554,13.571428571428571,-205.47619047619045,15.634920634920634,-47.698412698412696,-325.0,-67.06349206349206,-100.23809523809523,-50.39682539682539,15.634920634920634,-76.74603174603175,-325.0,-119.44444444444444,103.25396825396825,-325.0,14.682539682539682,-68.65079365079364,16.428571428571427,12.3015873015873,207.06349206349205,35.15873015873016,6.746031746031746,15.0,-321.8253968253968
195,-320.55555555555554,13.571428571428571,-205.47619047619045,15.634920634920634,-47.698412698412696,-325.0,-67.06349206349206,-100.23809523809523,-50.39682539682539,15.634920634920634,-76.74603174603175,-325.0,-119.44444444444444,103.25396825396825,-325.0,14.682539682539682,-68.65079365079364,16.428571428571427,12.3015873015873,207.06349206349205,35.15873015873016,6.746031746031746,15.0,-321.8253968253968
196,-313.73015873015873,23.41269841269841,-200.55555555555554,21.03174603174603,93.4126984126984,-325.0,77.38095238095238,-109.92063492063491,128.4920634920635,21.19047619047619,87.22222222222221,-325.0,30.396825396825395,-78.96825396825396,-325.0,18.174603174603174,113.73015873015872,20.873015873015873,17.698412698412696,304.04761904761904,-106.1111111111111,5.158730158730158,8.65079365079365,-321.8253968253968
197,-313.73015873015873,23.41269841269841,-200.55555555555554,21.03174603174603,93.4126984126984,-325.0,77.38095238095238,-109.92063492063491,128.4920634920635,21.19047619047619,87.22222222222221,-325.0,30.396825396825395,-78.96825396825396,-325.0,18.174603174603174,113.73015873015872,20.873015873015873,17.698412698412696,304.04761904761904,-106.1111111111111,5.158730158730158,8.65079365079365,-321.8253968253968
198,-307.69841269841265,29.6031746031746,-196.58730158730157,26.9047619047619,-116.26984126984127,-325.0,-103.09523809523809,-106.58730158730158,140.87301587301587,25.952380952380953,-122.14285714285714,-325.0,-115.63492063492063,-325.0,-325.0,23.253968253968253,-96.42857142857142,24.523809523809522,20.555555555555554,107.6984126984127,308.8095238095238,-10.873015873015872,-9.761904761904761,-321.8253968253968
199,-307.69841269841265,29.6031746031746,-196.58730158730157,26.9047619047619,-116.26984126984127,-325.0,-103.09523809523809,-106.58730158730158,140.87301587301587,25.952380952380953,-122.14285714285714,-325.0,-115.63492063492063,-325.0,-325.0,23.253968253968253,-96.42857142857142,24.523809523809522,20.555555555555554,107.6984126984127,308.8095238095238,-10.873015873015872,-9.761904761904761,-321.8253968253968
200,-301.66666666666663,21.666666666666664,-193.09523809523807,21.507936507936506,27.063492063492063,-325.0,17.063492063492063,-91.03174603174602,229.12698412698413,21.666666666666664,21.825396825396822,-325.0,-14.682539682539682,96.26984126984127,-325.0,18.49206349206349,44.52380952380952,21.03174603174603,17.698412698412696,177.85714285714286,20.71428571428571,1.0317460317460316,-3.095238095238095,-166.26984126984127
201,-301.66666666666663,21.666666666666664,-193.09523809523807,21.507936507936506,27.063492063492063,-325.0,17.063492063492063,-91.03174603174602,229.12698412698413,21.666666666666664,21.825396825396822,-325.0,-14.682539682539682,96.26984126984127,-325.0,18.49206349206349,44.52380952380952,21.03174603174603,17.698412698412696,177.85714285714286,20.71428571428571,1.0317460317460316,-3.095238095238095,-166.26984126984127
202,-297.53968253968253,29.920634920634917,-190.3968253968254,32.460317460317455,-126.9047619047619,-325.0,-117.6984126984127,-85.15873015873015,-112.30158730158729,30.07936507936508,-133.4126984126984,-325.0,-126.42857142857142,145.0,-325.0,28.174603174603174,-107.6984126984127,29.285714285714285,25.317460317460316,68.96825396825396,325.0,-9.126984126984127,-11.984126984126984,-166.26984126984127
203,-297.53968253968253,29.920634920634917,-190.3968253968254,32.460317460317455,-126.9047619047619,-325.0,-117.6984126984127,-85.15873015873015,-112.30158730158729,30.07936507936508,-133.4126984126984,-325.0,-126.42857142857142,145.0,-325.0,28.174603174603174,-107.6984126984127,29.285714285714285,25.317460317460316,68.96825396825396,325.0,-9.126984126984127,-11.984126984126984,-166.26984126984127
204,-291.5079365079365,18.015873015873016,-186.74603174603175,21.507936507936506,29.126984126984127,-325.0,22.46031746031746,325.0,207.69841269841268,20.873015873015873,24.84126984126984,-325.0,-11.666666666666666,135.79365079365078,-325.0,18.333333333333332,46.904761904761905,20.238095238095237,16.428571428571427,164.68253968253967,29.920634920634917,2.46031746031746,-1.8253968253968254,-166.26984126984127
205,-291.5079365079365,18.015873015873016,-186.74603174603175,21.507936507936506,29.126984126984127,-325.0,22.46031746031746,325.0,207.69841269841268,20.873015873015873,24.84126984126984,-325.0,-11.666666666666666,135.79365079365078,-325.0,18.333333333333332,46.904761904761905,20.238095238095237,16.428571428571427,164.68253968253967,29.920634920634917,2.46031746031746,-1.8253968253968254,-166.26984126984127
206,-286.4285714285714,9.920634920634921,-183.4126984126984,16.904761904761905,-95.31746031746032,-325.0,-93.4126984126984,262.6190476190476,-127.53968253968253,15.158730158730158,-110.07936507936508,-325.0,-131.5079365079365,111.34920634920634,-325.0,13.571428571428571,-97.22222222222221,14.682539682539682,9.761904761904761,83.4126984126984,201.8253968253968,-2.46031746031746,1.8253968253968254,-166.26984126984127
207,-286.4285714285714,9.920634920634921,-183.4126984126984,16.904761904761905,-95.31746031746032,-325.0,-93.4126984126984,262.6190476190476,-127.53968253968253,15.158730158730158,-110.07936507936508,-325.0,-131.5079365079365,111.34920634920634,-325.0,13.571428571428571,-97.22222222222221,14.682539682539682,9.761904761904761,83.4126984126984,201.8253968253968,-2.46031746031746,1.8253968253968254,-166.26984126984127
208,-283.25396825396825,13.412698412698411,-181.34920634920633,19.126984126984127,83.57142857142857,-325.0,83.09523809523809,325.0,254.68253968253967,19.6031746031746,81.98412698412697,-325.0,19.126984126984127,131.03174603174602,-325.0,17.698412698412696,101.82539682539682,18.96825396825397,14.206349206349206,203.09523809523807,-71.98412698412697,2.619047619047619,6.111111111111111,-166.26984126984127
209,-283.25396825396825,13.412698412698411,-181.34920634920633,19.126984126984127,83.57142857142857,-325.0,83.09523809523809,325.0,254.68253968253967,19.6031746031746,81.98412698412697,-325.0,19.126984126984127,131.03174603174602,-325.0,17.698412698412696,101.82539682539682,18.96825396825397,14.206349206349206,203.09523809523807,-71.98412698412697,2.619047619047619,6.111111111111111,-166.26984126984127
210,-279.6031746031746,5.634920634920634,-178.96825396825395,13.412698412698411,2.7777777777777777,-325.0,0.23809523809523808,325.0,30.555555555555554,13.571428571428571,-9.920634920634921,-325.0,-66.11111111111111,129.28571428571428,-325.0,11.984126984126984,1.0317460317460316,13.095238095238095,7.857142857142857,146.74603174603175,12.142857142857142,3.253968253968254,10.079365079365079,-321.8253968253968
211,-279.6031746031746,5.634920634920634,-178.96825396825395,13.412698412698411,2.7777777777777777,-325.0,0.23809523809523808,325.0,30.555555555555554,13.571428571428571,-9.920634920634921,-325.0,-66.11111111111111,129.28571428571428,-325.0,11.984126984126984,1.0317460317460316,13.095238095238095,7.857142857142857,146.74603174603175,12.142857142857142,3.253968253968254,10.079365079365079,-321.8253968253968
212,-272.3015873015873,2.7777777777777777,-174.52380952380952,8.65079365079365,21.03174603174603,-325.0,14.523809523809524,325.0,131.19047619047618,8.015873015873016,17.22222222222222,-325.0,-17.22222222222222,123.57142857142857,-325.0,6.26984126984127,39.6031746031746,7.3809523809523805,3.253968253968254,124.36507936507935,60.873015873015866,2.142857142857143,-2.3015873015873014,-321.8253968253968
213,-272.3015873015873,2.7777777777777777,-174.52380952380952,8.65079365079365,21.03174603174603,-325.0,14.523809523809524,325.0,131.19047619047618,8.015873015873016,17.22222222222222,-325.0,-17.22222222222222,123.57142857142857,-325.0,6.26984126984127,39.6031746031746,7.3809523809523805,3.253968253968254,124.36507936507935,60.873015873015866,2.142857142857143,-2.3015873015873014,-321.8253968253968
214,-271.031746031746,0.7142857142857142,-173.4126984126984,5.317460317460317,-33.095238095238095,-325.0,-46.42857142857142,325.0,126.1111111111111,4.841269841269841,-39.12698412698413,-325.0,-46.42857142857142,120.55555555555554,-325.0,2.7777777777777777,-14.365079365079364,3.888888888888889,-0.3968253968253968,63.73015873015873,185.15873015873015,0.7142857142857142,-11.507936507936508,-321.8253968253968
215,-271.031746031746,0.7142857142857142,-173.4126984126984,5.317460317460317,-33.095238095238095,-325.0,-46.42857142857142,325.0,126.1111111111111,4.841269841269841,-39.12698412698413,-325.0,-46.42857142857142,120.55555555555554,-325.0,2.7777777777777777,-14.365079365079364,3.888888888888889,-0.3968253968253968,63.73015873015873,185.15873015873015,0.7142857142857142,-11.507936507936508,-321.8253968253968
216,-265.4761904761905,8.492063492063492,-169.9206349206349,15.634920634920634,-68.01587301587301,-325.0,-71.98412698412697,325.0,140.87301587301587,14.682539682539682,-74.04761904761904,-323.88888888888886,-74.68253968253968,119.92063492063491,-325.0,12.619047619047619,-48.80952380952381,13.571428571428571,8.174603174603174,41.34920634920635,255.0,-5.0,-10.238095238095237,-321.8253968253968
217,-265.4761904761905,8.492063492063492,-169.9206349206349,15.634920634920634,-68.01587301587301,-325.0,-71.98412698412697,325.0,140.87301587301587,14.682539682539682,-74.04761904761904,-323.88888888888886,-74.68253968253968,119.92063492063491,-325.0,12.619047619047619,-48.80952380952381,13.571428571428571,8.174603174603174,41.34920634920635,255.0,-5.0,-10.238095238095237,-321.8253968253968
218,-259.9206349206349,16.26984126984127,-166.26984126984127,26.11111111111111,-102.77777777777777,-325.0,-97.38095238095238,325.0,155.63492063492063,24.523809523809522,-108.96825396825396,-322.6190476190476,-102.77777777777777,119.44444444444444,-325.0,22.46031746031746,-83.25396825396825,23.253968253968253,16.746031746031743,18.96825396825397,325.0,-10.555555555555555,-8.968253968253968,-321.8253968253968
219,-259.9206349206349,16.26984126984127,-166.26984126984127,26.11111111111111,-102.77777777777777,-325.0,-97.38095238095238,325.0,155.63492063492063,24.523809523809522,-108.96825396825396,-322.6190476190476,-102.77777777777777,119.44444444444444,-325.0,22.46031746031746,-83.25396825396825,23.253968253968253,16.746031746031743,18.96825396825397,325.0,-10.555555555555555,-8.968253968253968,-321.8253968253968
220,-252.3015873015873,8.809523809523808,-161.8253968253968,16.904761904761905,-48.33333333333333,-325.0,-51.666666666666664,325.0,261.8253968253968,15.476190476190474,-53.57142857142857,-313.25396825396825,-50.55555555555555,-158.015873015873,-325.0,12.777777777777777,-27.539682539682538,14.206349206349206,9.285714285714285,63.57142857142857,225.63492063492063,-3.095238095238095,-8.492063492063492,-166.26984126984127
221,-252.3015873015873,8.809523809523808,-161.8253968253968,16.904761904761905,-48.33333333333333,-325.0,-51.666666666666664,325.0,261.8253968253968,15.476190476190474,-53.57142857142857,-313.25396825396825,-50.55555555555555,-158.015873015873,-325.0,12.777777777777777,-27.539682539682538,14.206349206349206,9.285714285714285,63.57142857142857,225.63492063492063,-3.095238095238095,-8.492063492063492,-166.26984126984127
222,-248.015873015873,11.19047619047619,-159.28571428571428,20.396825396825395,29.920634920634917,-323.73015873015873,15.95238095238095,325.0,325.0,19.76190476190476,16.26984126984127,-308.3333333333333,-34.52380952380952,-313.57142857142856,-325.0,17.38095238095238,29.126984126984127,19.444444444444443,14.523809523809524,171.66666666666666,-37.698412698412696,2.3015873015873014,7.063492063492063,-166.26984126984127
223,-248.015873015873,11.19047619047619,-159.28571428571428,20.396825396825395,29.920634920634917,-323.73015873015873,15.95238095238095,325.0,325.0,19.76190476190476,16.26984126984127,-308.3333333333333,-34.52380952380952,-313.57142857142856,-325.0,17.38095238095238,29.126984126984127,19.444444444444443,14.523809523809524,171.66666666666666,-37.698412698412696,2.3015873015873014,7.063492063492063,-166.26984126984127
224,-245.0,13.888888888888888,-157.2222222222222,21.03174603174603,63.25396825396825,-319.76190476190476,70.55555555555556,325.0,325.0,19.92063492063492,61.82539682539682,-304.36507936507934,39.44444444444444,-313.57142857142856,-325.0,16.587301587301585,87.38095238095238,18.65079365079365,14.047619047619047,203.4126984126984,-26.587301587301585,-2.3015873015873014,-1.6666666666666665,-166.26984126984127
225,-245.0,13.888888888888888,-157.2222222222222,21.03174603174603,63.25396825396825,-319.76190476190476,70.55555555555556,325.0,325.0,19.92063492063492,61.82539682539682,-304.36507936507934,39.44444444444444,-313.57142857142856,-325.0,16.587301587301585,87.38095238095238,18.65079365079365,14.047619047619047,203.4126984126984,-26.587301587301585,-2.3015873015873014,-1.6666666666666665,-166.26984126984127
226,-239.76190476190476,8.65079365079365,-153.88888888888889,16.904761904761905,32.460317460317455,-313.4126984126984,19.126984126984127,325.0,325.0,15.634920634920634,21.19047619047619,-298.17460317460313,-24.84126984126984,-325.0,-325.0,13.73015873015873,27.857142857142854,16.11111111111111,11.19047619047619,195.63492063492063,-122.93650793650794,0.7142857142857142,6.587301587301587,-166.26984126984127
227,-239.76190476190476,8.65079365079365,-153.88888888888889,16.904761904761905,32.460317460317455,-313.4126984126984,19.126984126984127,325.0,325.0,15.634920634920634,21.19047619047619,-298.17460317460313,-24.84126984126984,-325.0,-325.0,13.73015873015873,27.857142857142854,16.11111111111111,11.19047619047619,195.63492063492063,-122.93650793650794,0.7142857142857142,6.587301587301587,-166.26984126984127
228,-235.47619047619045,9.920634920634921,-151.19047619047618,15.158730158730158,-14.365079365079364,-308.015873015873,-5.7936507936507935,325.0,325.0,13.412698412698411,-16.428571428571427,-292.9365079365079,-14.682539682539682,-325.0,-325.0,10.714285714285714,9.444444444444445,12.777777777777777,8.492063492063492,107.6984126984127,107.22222222222221,-1.8253968253968254,-7.5396825396825395,-166.26984126984127
229,-235.47619047619045,9.920634920634921,-151.19047619047618,15.158730158730158,-14.365079365079364,-308.015873015873,-5.7936507936507935,325.0,325.0,13.412698412698411,-16.428571428571427,-292.9365079365079,-14.682539682539682,-325.0,-325.0,10.714285714285714,9.444444444444445,12.777777777777777,8.492063492063492,107.6984126984127,107.22222222222221,-1.8253968253968254,-7.5396825396825395,-166.26984126984127
230,-231.8253968253968,11.349206349206348,-148.8095238095238,18.96825396825397,46.11111111111111,-303.25396825396825,28.333333333333332,325.0,325.0,17.38095238095238,34.52380952380952,-288.3333333333333,-11.825396825396824,-325.0,-325.0,15.158730158730158,44.52380952380952,17.38095238095238,12.777777777777777,177.53968253968253,-113.88888888888889,1.0317460317460316,5.952380952380952,-321.8253968253968
231,-231.8253968253968,11.349206349206348,-148.8095238095238,18.96825396825397,46.11111111111111,-303.25396825396825,28.333333333333332,325.0,325.0,17.38095238095238,34.52380952380952,-288.3333333333333,-11.825396825396824,-325.0,-325.0,15.158730158730158,44.52380952380952,17.38095238095238,12.777777777777777,177.53968253968253,-113.88888888888889,1.0317460317460316,5.952380952380952,-321.8253968253968
232,-228.65079365079364,10.079365079365079,-146.9047619047619,15.95238095238095,56.42857142857142,-299.76190476190476,65.0,325.0,325.0,13.73015873015873,55.79365079365079,-284.5238095238095,36.269841269841265,-325.0,-325.0,11.19047619047619,77.85714285714285,13.253968253968253,9.126984126984127,178.65079365079364,-60.873015873015866,-1.349206349206349,-1.507936507936508,-321.8253968253968
233,-228.65079365079364,10.079365079365079,-146.9047619047619,15.95238095238095,56.42857142857142,-299.76190476190476,65.0,325.0,325.0,13.73015873015873,55.79365079365079,-284.5238095238095,36.269841269841265,-325.0,-325.0,11.19047619047619,77.85714285714285,13.253968253968253,9.126984126984127,178.65079365079364,-60.873015873015866,-1.349206349206349,-1.507936507936508,-321.8253968253968
234,-224.68253968253967,5.476190476190476,-144.36507936507937,14.047619047619047,-111.19047619047619,-294.5238095238095,-135.0,325.0,325.0,12.777777777777777,-131.19047619047618,-279.9206349206349,-166.11111111111111,-325.0,-325.0,11.666666666666666,-125.31746031746032,13.571428571428571,8.333333333333332,69.12698412698413,22.3015873015873,1.8253968253968254,9.285714285714285,-321.8253968253968
235,-224.68253968253967,5.476190476190476,-144.36507936507937,14.047619047619047,-111.19047619047619,-294.5238095238095,-135.0,325.0,325.0,12.777777777777777,-131.19047619047618,-279.9206349206349,-166.11111111111111,-325.0,-325.0,11.666666666666666,-125.31746031746032,13.571428571428571,8.333333333333332,69.12698412698413,22.3015873015873,1.8253968253968254,9.285714285714285,-321.8253968253968
236,-219.76190476190476,0.07936507936507936,-141.19047619047618,6.26984126984127,-71.5079365079365,-288.4920634920635,-66.74603174603175,325.0,143.4126984126984,3.4126984126984126,-73.73015873015872,-273.73015873015873,-68.17460317460318,-325.0,-325.0,1.0317460317460316,-50.55555555555555,2.46031746031746,-1.8253968253968254,48.96825396825397,224.68253968253967,-2.46031746031746,-7.063492063492063,-321.8253968253968
237,-219.76190476190476,0.07936507936507936,-141.19047619047618,6.26984126984127,-71.5079365079365,-288.4920634920635,-66.74603174603175,325.0,143.4126984126984,3.4126984126984126,-73.73015873015872,-273.73015873015873,-68.17460317460318,-325.0,-325.0,1.0317460317460316,-50.55555555555555,2.46031746031746,-1.8253968253968254,48.96825396825397,224.68253968253967,-2.46031746031746,-7.063492063492063,-321.8253968253968
238,-215.47619047619045,0.7142857142857142,-138.4920634920635,8.492063492063492,120.55555555555554,-283.0952380952381,121.98412698412697,325.0,325.0,4.2063492063492065,120.71428571428571,-268.4920634920635,68.65079365079364,-325.0,-325.0,1.984126984126984,139.76190476190476,4.365079365079365,0.7142857142857142,194.36507936507937,-133.73015873015873,4.2063492063492065,5.952380952380952,-321.8253968253968
239,-215.47619047619045,0.7142857142857142,-138.4920634920635,8.492063492063492,120.55555555555554,-283.0952380952381,121.98412698412697,325.0,325.0,4.2063492063492065,120.71428571428571,-268.4920634920635,68.65079365079364,-325.0,-325.0,1.984126984126984,139.76190476190476,4.365079365079365,0.7142857142857142,194.36507936507937,-133.73015873015873,4.2063492063492065,5.952380952380952,-321.8253968253968
240,-209.9206349206349,1.0317460317460316,-134.84126984126982,6.904761904761904,9.126984126984127,-275.7936507936508,14.365079365079364,70.39682539682539,180.07936507936506,3.73015873015873,7.063492063492063,-261.3492063492063,-18.65079365079365,-325.0,-325.0,0.7142857142857142,25.79365079365079,2.7777777777777777,-1.984126984126984,98.96825396825396,75.63492063492063,-1.6666666666666665,-0.7142857142857142,-166.26984126984127
241,-209.9206349206349,1.0317460317460316,-134.84126984126982,6.904761904761904,9.126984126984127,-275.7936507936508,14.365079365079364,70.39682539682539,180.07936507936506,3.73015873015873,7.063492063492063,-261.3492063492063,-18.65079365079365,-325.0,-325.0,0.7142857142857142,25.79365079365079,2.7777777777777777,-1.984126984126984,98.96825396825396,75.63492063492063,-1.6666666666666665,-0.7142857142857142,-166.26984126984127
242,-208.33333333333331,4.0476190476190474,-133.88888888888889,11.349206349206348,120.23809523809523,-273.88888888888886,121.98412698412697,325.0,325.0,8.65079365079365,117.6984126984127,-259.44444444444446,58.49206349206349,-325.0,-325.0,5.476190476190476,131.34920634920636,7.857142857142857,3.253968253968254,158.96825396825395,-128.33333333333331,4.2063492063492065,5.7936507936507935,-166.26984126984127
243,-208.33333333333331,4.0476190476190474,-133.88888888888889,11.349206349206348,120.23809523809523,-273.88888888888886,121.98412698412697,325.0,325.0,8.65079365079365,117.6984126984127,-259.44444444444446,58.49206349206349,-325.0,-325.0,5.476190476190476,131.34920634920636,7.857142857142857,3.253968253968254,158.96825396825395,-128.33333333333331,4.2063492063492065,5.7936507936507935,-166.26984126984127
244,-204.84126984126982,3.095238095238095,-131.66666666666666,10.396825396825395,124.36507936507935,-269.6031746031746,126.58730158730158,325.0,325.0,6.746031746031746,123.73015873015872,-255.3174603174603,67.06349206349206,-325.0,-325.0,3.888888888888889,140.87301587301587,6.428571428571428,1.984126984126984,176.26984126984127,-130.07936507936506,3.4126984126984126,5.476190476190476,-166.26984126984127
245,-204.84126984126982,3.095238095238095,-131.66666666666666,10.396825396825395,124.36507936507935,-269.6031746031746,126.58730158730158,325.0,325.0,6.746031746031746,123.73015873015872,-255.3174603174603,67.06349206349206,-325.0,-325.0,3.888888888888889,140.87301587301587,6.428571428571428,1.984126984126984,176.26984126984127,-130.07936507936506,3.4126984126984126,5.476190476190476,-166.26984126984127
246,-199.28571428571428,-0.5555555555555556,-128.33333333333331,5.476190476190476,42.460317460317455,-262.77777777777777,49.92063492063492,242.6190476190476,92.61904761904762,1.1904761904761905,42.460317460317455,-248.65079365079364,24.523809523809522,-325.0,-325.0,-1.349206349206349,66.26984126984127,0.7142857142857142,-3.73015873015873,146.42857142857142,24.047619047619047,-2.142857142857143,-1.0317460317460316,-166.26984126984127
247,-199.28571428571428,-0.5555555555555556,-128.33333333333331,5.476190476190476,42.460317460317455,-262.77777777777777,49.92063492063492,242.6190476190476,92.61904761904762,1.1904761904761905,42.460317460317455,-248.65079365079364,24.523809523809522,-325.0,-325.0,-1.349206349206349,66.26984126984127,0.7142857142857142,-3.73015873015873,146.42857142857142,24.047619047619047,-2.142857142857143,-1.0317460317460316,-166.26984126984127
248,-195.3174603174603,-5.158730158730158,-125.47619047619047,3.4126984126984126,10.238095238095237,-257.53968253968253,-6.26984126984127,325.0,282.6190476190476,0.5555555555555556,-0.3968253968253968,-243.7301587301587,-34.36507936507936,-325.0,-325.0,-2.142857142857143,10.396825396825395,0.5555555555555556,-4.365079365079365,147.2222222222222,-75.95238095238095,1.1904761904761905,7.5396825396825395,-166.26984126984127
249,-195.3174603174603,-5.158730158730158,-125.47619047619047,3.4126984126984126,10.238095238095237,-257.53968253968253,-6.26984126984127,325.0,282.6190476190476,0.5555555555555556,-0.3968253968253968,-243.7301587301587,-34.36507936507936,-325.0,-325.0,-2.142857142857143,10.396825396825395,0.5555555555555556,-4.365079365079365,147.2222222222222,-75.95238095238095,1.1904761904761905,7.5396825396825395,-166.26984126984127
250,-192.93650793650792,-3.888888888888889,-123.88888888888889,2.7777777777777777,103.73015873015872,-254.52380952380952,117.6984126984127,325.0,-0.07936507936507936,-0.7142857142857142,105.95238095238095,-240.55555555555554,92.14285714285714,-325.0,-325.0,-4.2063492063492065,130.7142857142857,-1.349206349206349,-6.111111111111111,243.25396825396825,-117.6984126984127,-2.619047619047619,-0.5555555555555556,-321.8253968253968
251,-192.93650793650792,-3.888888888888889,-123.88888888888889,2.7777777777777777,103.73015873015872,-254.52380952380952,117.6984126984127,325.0,-0.07936507936507936,-0.7142857142857142,105.95238095238095,-240.55555555555554,92.14285714285714,-325.0,-325.0,-4.2063492063492065,130.7142857142857,-1.349206349206349,-6.111111111111111,243.25396825396825,-117.6984126984127,-2.619047619047619,-0.5555555555555556,-321.8253968253968
252,-189.44444444444443,3.4126984126984126,-121.82539682539682,10.714285714285714,121.98412698412697,-250.2380952380952,139.44444444444443,325.0,-325.0,7.698412698412698,125.47619047619047,-236.42857142857142,110.71428571428571,-325.0,-325.0,4.841269841269841,147.06349206349205,7.3809523809523805,2.46031746031746,267.53968253968253,-179.28571428571428,-3.4126984126984126,-2.46031746031746,-321.8253968253968
253,-189.44444444444443,3.4126984126984126,-121.82539682539682,10.714285714285714,121.98412698412697,-250.2380952380952,139.44444444444443,325.0,-325.0,7.698412698412698,125.47619047619047,-236.42857142857142,110.71428571428571,-325.0,-325.0,4.841269841269841,147.06349206349205,7.3809523809523805,2.46031746031746,267.53968253968253,-179.28571428571428,-3.4126984126984126,-2.46031746031746,-321.8253968253968
254,-185.47619047619045,6.904761904761904,-119.12698412698413,14.206349206349206,56.269841269841265,-245.15873015873015,68.80952380952381,325.0,-325.0,11.19047619047619,55.476190476190474,-231.34920634920633,75.63492063492063,-325.0,-325.0,8.492063492063492,85.0,10.555555555555555,6.587301587301587,158.96825396825395,-24.68253968253968,-1.1904761904761905,-6.111111111111111,-321.8253968253968
255,-185.47619047619045,6.904761904761904,-119.12698412698413,14.206349206349206,56.269841269841265,-245.15873015873015,68.80952380952381,325.0,-325.0,11.19047619047619,55.476190476190474,-231.34920634920633,75.63492063492063,-325.0,-325.0,8.492063492063492,85.0,10.555555555555555,6.587301587301587,158.96825396825395,-24.68253968253968,-1.1904761904761905,-6.111111111111111,-321.8253968253968
256,-184.52380952380952,6.746031746031746,-118.49206349206348,14.206349206349206,102.30158730158729,-244.04761904761904,133.0952380952381,325.0,-325.0,11.349206349206348,105.79365079365078,-230.3968253968254,131.66666666666666,-325.0,-325.0,9.444444444444445,141.984126984127,11.507936507936508,6.904761904761904,255.79365079365078,-109.44444444444444,-5.634920634920634,-4.0476190476190474,-321.8253968253968
257,-184.52380952380952,6.746031746031746,-118.49206349206348,14.206349206349206,102.30158730158729,-244.04761904761904,133.0952380952381,325.0,-325.0,11.349206349206348,105.79365079365078,-230.3968253968254,131.66666666666666,-325.0,-325.0,9.444444444444445,141.984126984127,11.507936507936508,6.904761904761904,255.79365079365078,-109.44444444444444,-5.634920634920634,-4.0476190476190474,-321.8253968253968
258,-178.96825396825395,10.555555555555555,-115.15873015873015,17.539682539682538,-45.317460317460316,-237.2222222222222,-38.01587301587301,325.0,-325.0,14.682539682539682,-50.238095238095234,-223.57142857142856,19.285714285714285,-325.0,-325.0,12.142857142857142,-6.26984126984127,14.365079365079364,9.920634920634921,152.14285714285714,-17.539682539682538,0.23809523809523808,-4.365079365079365,-321.8253968253968
259,-178.96825396825395,10.555555555555555,-115.15873015873015,17.539682539682538,-45.317460317460316,-237.2222222222222,-38.01587301587301,325.0,-325.0,14.682539682539682,-50.238095238095234,-223.57142857142856,19.285714285714285,-325.0,-325.0,12.142857142857142,-6.26984126984127,14.365079365079364,9.920634920634921,152.14285714285714,-17.539682539682538,0.23809523809523808,-4.365079365079365,-321.8253968253968
260,-176.26984126984127,17.063492063492063,-113.25396825396825,25.952380952380953,85.79365079365078,-233.57142857142856,85.95238095238095,325.0,-325.0,22.936507936507937,80.39682539682539,-220.2380952380952,31.98412698412698,-325.0,-325.0,20.396825396825395,84.68253968253968,22.777777777777775,17.857142857142858,178.8095238095238,-208.96825396825395,-1.8253968253968254,3.73015873015873,-166.26984126984127
261,-176.26984126984127,17.063492063492063,-113.25396825396825,25.952380952380953,85.79365079365078,-233.57142857142856,85.95238095238095,325.0,-325.0,22.936507936507937,80.39682539682539,-220.2380952380952,31.98412698412698,-325.0,-325.0,20.396825396825395,84.68253968253968,22.777777777777775,17.857142857142858,178.8095238095238,-208.96825396825395,-1.8253968253968254,3.73015873015873,-166.26984126984127
262,-171.984126984127,4.2063492063492065,-110.71428571428571,11.984126984126984,-53.888888888888886,-228.49206349206347,-20.71428571428571,325.0,-325.0,8.968253968253968,-47.38095238095238,-215.15873015873015,14.206349206349206,-325.0,-325.0,6.587301587301587,5.317460317460317,8.968253968253968,3.4126984126984126,150.55555555555554,-32.93650793650794,-2.619047619047619,-1.984126984126984,-166.26984126984127
263,-171.984126984127,4.2063492063492065,-110.71428571428571,11.984126984126984,-53.888888888888886,-228.49206349206347,-20.71428571428571,325.0,-325.0,8.968253968253968,-47.38095238095238,-215.15873015873015,14.206349206349206,-325.0,-325.0,6.587301587301587,5.317460317460317,8.968253968253968,3.4126984126984126,150.55555555555554,-32.93650793650794,-2.619047619047619,-1.984126984126984,-166.26984126984127
264,-166.26984126984127,7.063492063492063,-107.06349206349206,14.523809523809524,-48.01587301587301,-221.5079365079365,-5.952380952380952,325.0,-325.0,11.666666666666666,-39.12698412698413,-207.85714285714283,5.317460317460317,-325.0,-325.0,8.809523809523808,5.158730158730158,11.349206349206348,6.26984126984127,114.2063492063492,-16.11111111111111,-3.4126984126984126,-2.142857142857143,-166.26984126984127
265,-166.26984126984127,7.063492063492063,-107.06349206349206,14.523809523809524,-48.01587301587301,-221.5079365079365,-5.952380952380952,325.0,-325.0,11.666666666666666,-39.12698412698413,-207.85714285714283,5.317460317460317,-325.0,-325.0,8.809523809523808,5.158730158730158,11.349206349206348,6.26984126984127,114.2063492063492,-16.11111111111111,-3.4126984126984126,-2.142857142857143,-166.26984126984127
266,-163.09523809523807,10.555555555555555,-105.0,19.6031746031746,85.95238095238095,-217.06349206349205,86.74603174603175,325.0,-325.0,15.95238095238095,80.87301587301587,-204.04761904761904,76.26984126984127,-325.0,-325.0,13.253968253968253,94.68253968253968,15.634920634920634,11.825396825396824,103.73015873015872,-44.36507936507936,-0.07936507936507936,-4.841269841269841,-166.26984126984127
267,-163.09523809523807,10.555555555555555,-105.0,19.6031746031746,85.95238095238095,-217.06349206349205,86.74603174603175,325.0,-325.0,15.95238095238095,80.87301587301587,-204.04761904761904,76.26984126984127,-325.0,-325.0,13.253968253968253,94.68253968253968,15.634920634920634,11.825396825396824,103.73015873015872,-44.36507936507936,-0.07936507936507936,-4.841269841269841,-166.26984126984127
268,-160.07936507936506,5.634920634920634,-103.09523809523809,13.73015873015873,-73.09523809523809,-213.4126984126984,-61.19047619047619,325.0,-325.0,11.19047619047619,-74.84126984126983,-200.7142857142857,-87.85714285714285,-325.0,-325.0,8.65079365079365,-56.904761904761905,10.714285714285714,5.476190476190476,20.238095238095237,18.96825396825397,-2.142857142857143,2.46031746031746,-166.26984126984127
269,-160.07936507936506,5.634920634920634,-103.09523809523809,13.73015873015873,-73.09523809523809,-213.4126984126984,-61.19047619047619,325.0,-325.0,11.19047619047619,-74.84126984126983,-200.7142857142857,-87.85714285714285,-325.0,-325.0,8.65079365079365,-56.904761904761905,10.714285714285714,5.476190476190476,20.238095238095237,18.96825396825397,-2.142857142857143,2.46031746031746,-166.26984126984127
270,-157.38095238095238,6.111111111111111,-101.34920634920634,14.047619047619047,-100.23809523809523,-209.9206349206349,-96.26984126984127,325.0,-325.0,11.19047619047619,-103.57142857142857,-197.2222222222222,-118.17460317460316,-325.0,-325.0,8.492063492063492,-88.80952380952381,10.396825396825395,5.317460317460317,-28.174603174603174,80.39682539682539,-1.6666666666666665,3.095238095238095,-321.8253968253968
271,-157.38095238095238,6.111111111111111,-101.34920634920634,14.047619047619047,-100.23809523809523,-209.9206349206349,-96.26984126984127,325.0,-325.0,11.19047619047619,-103.57142857142857,-197.2222222222222,-118.17460317460316,-325.0,-325.0,8.492063492063492,-88.80952380952381,10.396825396825395,5.317460317460317,-28.174603174603174,80.39682539682539,-1.6666666666666665,3.095238095238095,-321.8253968253968
272,-153.57142857142856,3.73015873015873,-99.12698412698413,12.142857142857142,11.507936507936508,-205.0,11.19047619047619,325.0,-325.0,8.968253968253968,-0.5555555555555556,-192.61904761904762,-50.079365079365076,-325.0,-325.0,6.746031746031746,3.571428571428571,8.65079365079365,3.571428571428571,-9.920634920634921,-39.92063492063492,-0.7142857142857142,4.523809523809524,-321.8253968253968
273,-153.57142857142856,3.73015873015873,-99.12698412698413,12.142857142857142,11.507936507936508,-205.0,11.19047619047619,325.0,-325.0,8.968253968253968,-0.5555555555555556,-192.61904761904762,-50.079365079365076,-325.0,-325.0,6.746031746031746,3.571428571428571,8.65079365079365,3.571428571428571,-9.920634920634921,-39.92063492063492,-0.7142857142857142,4.523809523809524,-321.8253968253968
274,-151.19047619047618,-2.7777777777777777,-97.38095238095238,4.365079365079365,-12.46031746031746,-201.98412698412696,-19.76190476190476,325.0,-325.0,1.0317460317460316,-15.317460317460316,-189.60317460317458,11.19047619047619,-325.0,-325.0,-0.7142857142857142,2.3015873015873014,0.7142857142857142,-2.9365079365079363,-18.65079365079365,249.12698412698413,0.873015873015873,-9.444444444444445,-321.8253968253968
275,-151.19047619047618,-2.7777777777777777,-97.38095238095238,4.365079365079365,-12.46031746031746,-201.98412698412696,-19.76190476190476,325.0,-325.0,1.0317460317460316,-15.317460317460316,-189.60317460317458,11.19047619047619,-325.0,-325.0,-0.7142857142857142,2.3015873015873014,0.7142857142857142,-2.9365079365079363,-18.65079365079365,249.12698412698413,0.873015873015873,-9.444444444444445,-321.8253968253968
276,-148.8095238095238,2.142857142857143,-95.95238095238095,9.444444444444445,-10.079365079365079,-198.96825396825395,-18.015873015873016,325.0,-325.0,5.952380952380952,-12.3015873015873,-186.58730158730157,14.523809523809524,-325.0,-325.0,4.0476190476190474,5.0,5.634920634920634,1.984126984126984,-17.38095238095238,241.98412698412696,1.1904761904761905,-9.444444444444445,-321.8253968253968
277,-148.8095238095238,2.142857142857143,-95.95238095238095,9.444444444444445,-10.079365079365079,-198.96825396825395,-18.015873015873016,325.0,-325.0,5.952380952380952,-12.3015873015873,-186.58730158730157,14.523809523809524,-325.0,-325.0,4.0476190476190474,5.0,5.634920634920634,1.984126984126984,-17.38095238095238,241.98412698412696,1.1904761904761905,-9.444444444444445,-321.8253968253968
278,-143.88888888888889,7.3809523809523805,-92.77777777777777,14.682539682539682,-10.396825396825395,-192.61904761904762,-19.444444444444443,325.0,-325.0,11.031746031746032,-11.825396825396824,-180.55555555555554,17.698412698412696,-325.0,-325.0,9.126984126984127,4.841269841269841,10.873015873015872,6.746031746031746,-18.96825396825397,241.03174603174602,1.1904761904761905,-9.444444444444445,-321.8253968253968
279,-143.88888888888889,7.3809523809523805,-92.77777777777777,14.682539682539682,-10.396825396825395,-192.61904761904762,-19.444444444444443,325.0,-325.0,11.031746031746032,-11.825396825396824,-180.55555555555554,17.698412698412696,-325.0,-325.0,9.126984126984127,4.841269841269841,10.873015873015872,6.746031746031746,-18.96825396825397,241.03174603174602,1.1904761904761905,-9.444444444444445,-321.8253968253968
280,-138.96825396825395,7.698412698412698,-89.76190476190476,17.38095238095238,-126.42857142857142,-186.42857142857142,-130.7142857142857,325.0,-325.0,15.317460317460316,-138.65079365079364,-174.68253968253967,-193.7301587301587,-325.0,-325.0,14.84126984126984,-141.03174603174602,16.26984126984127,10.396825396825395,-101.66666666666666,80.07936507936508,-0.07936507936507936,8.65079365079365,-166.26984126984127
281,-138.96825396825395,7.698412698412698,-89.76190476190476,17.38095238095238,-126.42857142857142,-186.42857142857142,-130.7142857142857,325.0,-325.0,15.317460317460316,-138.65079365079364,-174.68253968253967,-193.7301587301587,-325.0,-325.0,14.84126984126984,-141.03174603174602,16.26984126984127,10.396825396825395,-101.66666666666666,80.07936507936508,-0.07936507936507936,8.65079365079365,-166.26984126984127
282,-138.96825396825395,7.698412698412698,-89.76190476190476,17.38095238095238,-126.42857142857142,-186.42857142857142,-130.7142857142857,325.0,-325.0,15.317460317460316,-138.65079365079364,-174.68253968253967,-193.7301587301587,-325.0,-325.0,14.84126984126984,-141.03174603174602,16.26984126984127,10.396825396825395,-101.66666666666666,80.07936507936508,-0.07936507936507936,8.65079365079365,-166.26984126984127
283,-138.96825396825395,7.698412698412698,-89.76190476190476,17.38095238095238,-126.42857142857142,-186.42857142857142,-130.7142857142857,325.0,-325.0,15.317460317460316,-138.65079365079364,-174.68253968253967,-193.7301587301587,-325.0,-325.0,14.84126984126984,-141.03174603174602,16.26984126984127,10.396825396825395,-101.66666666666666,80.07936507936508,-0.07936507936507936,8.65079365079365,-166.26984126984127
284,-138.96825396825395,7.698412698412698,-89.76190476190476,17.38095238095238,-126.42857142857142,-186.42857142857142,-130.7142857142857,325.0,-325.0,15.317460317460316,-138.65079365079364,-174.68253968253967,-193.7301587301587,-325.0,-325.0,14.84126984126984,-141.03174603174602,16.26984126984127,10.396825396825395,-101.66666666666666,80.07936507936508,-0.07936507936507936,8.65079365079365,-166.26984126984127
285,-138.96825396825395,7.698412698412698,-89.76190476190476,17.38095238095238,-126.42857142857142,-186.42857142857142,-130.7142857142857,325.0,-325.0,15.317460317460316,-138.65079365079364,-174.68253968253967,-193.7301587301587,-325.0,-325.0,14.84126984126984,-141.03174603174602,16.26984126984127,10.396825396825395,-101.66666666666666,80.07936507936508,-0.07936507936507936,8.65079365079365,-166.26984126984127
286,-128.65079365079364,2.46031746031746,-83.09523809523809,10.555555555555555,-68.65079365079364,-173.25396825396825,-76.9047619047619,325.0,-325.0,8.174603174603174,-75.95238095238095,-161.8253968253968,-87.06349206349206,-325.0,-305.1587301587301,7.698412698412698,-69.28571428571428,9.285714285714285,4.2063492063492065,-78.96825396825396,196.74603174603175,-0.5555555555555556,-0.873015873015873,-166.26984126984127
287,-128.65079365079364,2.46031746031746,-83.09523809523809,10.555555555555555,-68.65079365079364,-173.25396825396825,-76.9047619047619,325.0,-325.0,8.174603174603174,-75.95238095238095,-161.8253968253968,-87.06349206349206,-325.0,-305.1587301587301,7.698412698412698,-69.28571428571428,9.285714285714285,4.2063492063492065,-78.96825396825396,196.74603174603175,-0.5555555555555556,-0.873015873015873,-166.26984126984127
288,-123.25396825396825,2.142857142857143,-79.6031746031746,8.65079365079365,3.4126984126984126,-166.26984126984127,-3.095238095238095,325.0,-325.0,5.476190476190476,1.349206349206349,-154.84126984126982,30.555555555555554,-325.0,-292.77777777777777,4.2063492063492065,17.38095238095238,6.26984126984127,1.8253968253968254,-35.63492063492063,280.55555555555554,0.5555555555555556,-9.285714285714285,-166.26984126984127
289,-123.25396825396825,2.142857142857143,-79.6031746031746,8.65079365079365,3.4126984126984126,-166.26984126984127,-3.095238095238095,325.0,-325.0,5.476190476190476,1.349206349206349,-154.84126984126982,30.555555555555554,-325.0,-292.77777777777777,4.2063492063492065,17.38095238095238,6.26984126984127,1.8253968253968254,-35.63492063492063,280.55555555555554,0.5555555555555556,-9.285714285714285,-166.26984126984127
290,-123.25396825396825,2.142857142857143,-79.6031746031746,8.65079365079365,3.4126984126984126,-166.26984126984127,-3.095238095238095,325.0,-325.0,5.476190476190476,1.349206349206349,-154.84126984126982,30.555555555555554,-325.0,-292.77777777777777,4.2063492063492065,17.38095238095238,6.26984126984127,1.8253968253968254,-35.63492063492063,280.55555555555554,0.5555555555555556,-9.285714285714285,-321.8253968253968
291,-123.25396825396825,2.142857142857143,-79.6031746031746,8.65079365079365,3.4126984126984126,-166.26984126984127,-3.095238095238095,325.0,-325.0,5.476190476190476,1.349206349206349,-154.84126984126982,30.555555555555554,-325.0,-292.77777777777777,4.2063492063492065,17.38095238095238,6.26984126984127,1.8253968253968254,-35.63492063492063,280.55555555555554,0.5555555555555556,-9.285714285714285,-321.8253968253968
