,Fp1[1],Fp2[2],F3[3],F4[4],C3[5],C4[6],P3[7],P4[8],O1[9],O2[10],F7[11],F8[12],T3[13],T4[14],T5[15],T6[16],Fz[17],Pz[18],Cz[19],Pg1[20],Pg2[21],EOGR[22],EOOGL[23],EMG[24]
0,55.476190476190474,-241.34920634920633,-264.2063492063492,-242.6190476190476,-109.6031746031746,-282.3015873015873,124.04761904761904,-262.6190476190476,306.74603174603175,-302.3015873015873,-61.03174603174603,-323.57142857142856,-140.3968253968254,265.3174603174603,-294.68253968253964,-299.76190476190476,-264.2063492063492,161.984126984127,-212.14285714285714,323.73015873015873,-154.04761904761904,140.87301587301587,-6.26984126984127,-166.26984126984127
1,55.476190476190474,-241.34920634920633,-264.2063492063492,-242.6190476190476,-109.6031746031746,-282.3015873015873,124.04761904761904,-262.6190476190476,306.74603174603175,-302.3015873015873,-61.03174603174603,-323.57142857142856,-140.3968253968254,265.3174603174603,-294.68253968253964,-299.76190476190476,-264.2063492063492,161.984126984127,-212.14285714285714,323.73015873015873,-154.04761904761904,140.87301587301587,-6.26984126984127,-166.26984126984127
2,55.476190476190474,-241.34920634920633,-264.2063492063492,-242.6190476190476,-109.6031746031746,-282.3015873015873,124.04761904761904,-262.6190476190476,306.74603174603175,-302.3015873015873,-61.03174603174603,-323.57142857142856,-140.3968253968254,265.3174603174603,-294.68253968253964,-299.76190476190476,-264.2063492063492,161.984126984127,-212.14285714285714,323.73015873015873,-154.04761904761904,140.87301587301587,-6.26984126984127,-166.26984126984127
3,55.476190476190474,-241.34920634920633,-264.2063492063492,-242.6190476190476,-109.6031746031746,-282.3015873015873,124.04761904761904,-262.6190476190476,306.74603174603175,-302.3015873015873,-61.03174603174603,-323.57142857142856,-140.3968253968254,265.3174603174603,-294.68253968253964,-299.76190476190476,-264.2063492063492,161.984126984127,-212.14285714285714,323.73015873015873,-154.04761904761904,140.87301587301587,-6.26984126984127,-166.26984126984127
4,55.476190476190474,-241.34920634920633,-264.2063492063492,-242.6190476190476,-109.6031746031746,-282.3015873015873,124.04761904761904,-262.6190476190476,306.74603174603175,-302.3015873015873,-61.03174603174603,-323.57142857142856,-140.3968253968254,265.3174603174603,-294.68253968253964,-299.76190476190476,-264.2063492063492,161.984126984127,-212.14285714285714,323.73015873015873,-154.04761904761904,140.87301587301587,-6.26984126984127,-166.26984126984127
5,55.476190476190474,-241.34920634920633,-264.2063492063492,-242.6190476190476,-109.6031746031746,-282.3015873015873,124.04761904761904,-262.6190476190476,306.74603174603175,-302.3015873015873,-61.03174603174603,-323.57142857142856,-140.3968253968254,265.3174603174603,-294.68253968253964,-299.76190476190476,-264.2063492063492,161.984126984127,-212.14285714285714,323.73015873015873,-154.04761904761904,140.87301587301587,-6.26984126984127,-166.26984126984127
6,38.49206349206349,41.82539682539682,-102.61904761904762,-125.15873015873015,-51.19047619047619,-36.58730158730159,70.39682539682539,-111.66666666666666,160.55555555555554,11.349206349206348,-25.0,-142.3015873015873,-232.77777777777777,127.85714285714285,-122.6190476190476,12.619047619047619,3.253968253968254,171.8253968253968,-118.33333333333333,156.42857142857142,-87.22222222222221,68.17460317460318,-8.492063492063492,-166.26984126984127
7,38.49206349206349,41.82539682539682,-102.61904761904762,-125.15873015873015,-51.19047619047619,-36.58730158730159,70.39682539682539,-111.66666666666666,160.55555555555554,11.349206349206348,-25.0,-142.3015873015873,-232.77777777777777,127.85714285714285,-122.6190476190476,12.619047619047619,3.253968253968254,171.8253968253968,-118.33333333333333,156.42857142857142,-87.22222222222221,68.17460317460318,-8.492063492063492,-166.26984126984127
8,21.666666666666664,325.0,59.12698412698413,-7.698412698412698,7.3809523809523805,209.12698412698413,16.746031746031743,39.285714285714285,14.365079365079364,325.0,11.19047619047619,38.96825396825397,-325.0,-9.603174603174603,49.44444444444444,325.0,270.87301587301585,181.66666666666666,-24.365079365079364,-10.873015873015872,-20.396825396825395,-4.523809523809524,-10.555555555555555,-166.26984126984127
9,21.666666666666664,325.0,59.12698412698413,-7.698412698412698,7.3809523809523805,209.12698412698413,16.746031746031743,39.285714285714285,14.365079365079364,325.0,11.19047619047619,38.96825396825397,-325.0,-9.603174603174603,49.44444444444444,325.0,270.87301587301585,181.66666666666666,-24.365079365079364,-10.873015873015872,-20.396825396825395,-4.523809523809524,-10.555555555555555,-166.26984126984127
10,21.666666666666664,325.0,59.12698412698413,-7.698412698412698,7.3809523809523805,209.12698412698413,16.746031746031743,39.285714285714285,14.365079365079364,325.0,11.19047619047619,38.96825396825397,-325.0,-9.603174603174603,49.44444444444444,325.0,270.87301587301585,181.66666666666666,-24.365079365079364,-10.873015873015872,-20.396825396825395,-4.523809523809524,-10.555555555555555,-321.8253968253968
11,21.666666666666664,325.0,59.12698412698413,-7.698412698412698,7.3809523809523805,209.12698412698413,16.746031746031743,39.285714285714285,14.365079365079364,325.0,11.19047619047619,38.96825396825397,-325.0,-9.603174603174603,49.44444444444444,325.0,270.87301587301585,181.66666666666666,-24.365079365079364,-10.873015873015872,-20.396825396825395,-4.523809523809524,-10.555555555555555,-321.8253968253968
12,21.666666666666664,325.0,59.12698412698413,-7.698412698412698,7.3809523809523805,209.12698412698413,16.746031746031743,39.285714285714285,14.365079365079364,325.0,11.19047619047619,38.96825396825397,-325.0,-9.603174603174603,49.44444444444444,325.0,270.87301587301585,181.66666666666666,-24.365079365079364,-10.873015873015872,-20.396825396825395,-4.523809523809524,-10.555555555555555,-321.8253968253968
13,21.666666666666664,325.0,59.12698412698413,-7.698412698412698,7.3809523809523805,209.12698412698413,16.746031746031743,39.285714285714285,14.365079365079364,325.0,11.19047619047619,38.96825396825397,-325.0,-9.603174603174603,49.44444444444444,325.0,270.87301587301585,181.66666666666666,-24.365079365079364,-10.873015873015872,-20.396825396825395,-4.523809523809524,-10.555555555555555,-321.8253968253968
14,21.666666666666664,325.0,59.12698412698413,-7.698412698412698,7.3809523809523805,209.12698412698413,16.746031746031743,39.285714285714285,14.365079365079364,325.0,11.19047619047619,38.96825396825397,-325.0,-9.603174603174603,49.44444444444444,325.0,270.87301587301585,181.66666666666666,-24.365079365079364,-10.873015873015872,-20.396825396825395,-4.523809523809524,-10.555555555555555,-321.8253968253968
15,21.666666666666664,325.0,59.12698412698413,-7.698412698412698,7.3809523809523805,209.12698412698413,16.746031746031743,39.285714285714285,14.365079365079364,325.0,11.19047619047619,38.96825396825397,-325.0,-9.603174603174603,49.44444444444444,325.0,270.87301587301585,181.66666666666666,-24.365079365079364,-10.873015873015872,-20.396825396825395,-4.523809523809524,-10.555555555555555,-321.8253968253968
16,19.6031746031746,325.0,52.3015873015873,-7.222222222222221,6.587301587301587,187.53968253968253,15.0,35.0,13.095238095238095,325.0,10.079365079365079,34.52380952380952,-118.33333333333333,-8.968253968253968,43.73015873015873,-0.07936507936507936,242.46031746031744,164.68253968253967,-21.825396825396822,-10.238095238095237,-18.174603174603174,0.5555555555555556,-4.523809523809524,-321.8253968253968
17,19.6031746031746,325.0,52.3015873015873,-7.222222222222221,6.587301587301587,187.53968253968253,15.0,35.0,13.095238095238095,325.0,10.079365079365079,34.52380952380952,-118.33333333333333,-8.968253968253968,43.73015873015873,-0.07936507936507936,242.46031746031744,164.68253968253967,-21.825396825396822,-10.238095238095237,-18.174603174603174,0.5555555555555556,-4.523809523809524,-321.8253968253968
18,16.746031746031743,-24.84126984126984,43.25396825396825,-6.587301587301587,5.7936507936507935,158.33333333333331,13.253968253968253,29.126984126984127,11.507936507936508,325.0,8.65079365079365,28.809523809523807,83.73015873015872,-8.174603174603174,36.42857142857142,-325.0,204.36507936507937,141.8253968253968,-18.333333333333332,-9.285714285714285,-15.476190476190474,4.523809523809524,7.3809523809523805,-321.8253968253968
19,16.746031746031743,-24.84126984126984,43.25396825396825,-6.587301587301587,5.7936507936507935,158.33333333333331,13.253968253968253,29.126984126984127,11.507936507936508,325.0,8.65079365079365,28.809523809523807,83.73015873015872,-8.174603174603174,36.42857142857142,-325.0,204.36507936507937,141.8253968253968,-18.333333333333332,-9.285714285714285,-15.476190476190474,4.523809523809524,7.3809523809523805,-321.8253968253968
20,15.95238095238095,-325.0,40.87301587301587,-6.428571428571428,5.634920634920634,150.55555555555554,12.46031746031746,27.698412698412696,10.873015873015872,325.0,8.174603174603174,27.22222222222222,79.44444444444444,-7.857142857142857,34.36507936507936,-325.0,194.2063492063492,135.47619047619048,-17.539682539682538,-8.65079365079365,-14.523809523809524,-5.317460317460317,-6.428571428571428,-166.26984126984127
21,15.95238095238095,-325.0,40.87301587301587,-6.428571428571428,5.634920634920634,150.55555555555554,12.46031746031746,27.698412698412696,10.873015873015872,325.0,8.174603174603174,27.22222222222222,79.44444444444444,-7.857142857142857,34.36507936507936,-325.0,194.2063492063492,135.47619047619048,-17.539682539682538,-8.65079365079365,-14.523809523809524,-5.317460317460317,-6.428571428571428,-166.26984126984127
22,15.793650793650793,-325.0,40.39682539682539,-6.26984126984127,5.476190476190476,148.4920634920635,12.3015873015873,27.539682539682538,10.873015873015872,325.0,8.174603174603174,26.9047619047619,78.17460317460316,-7.698412698412698,33.73015873015873,-325.0,191.19047619047618,133.88888888888889,-17.22222222222222,-8.809523809523808,-14.047619047619047,5.317460317460317,3.4126984126984126,-166.26984126984127
23,15.793650793650793,-325.0,40.39682539682539,-6.26984126984127,5.476190476190476,148.4920634920635,12.3015873015873,27.539682539682538,10.873015873015872,325.0,8.174603174603174,26.9047619047619,78.17460317460316,-7.698412698412698,33.73015873015873,-325.0,191.19047619047618,133.88888888888889,-17.22222222222222,-8.809523809523808,-14.047619047619047,5.317460317460317,3.4126984126984126,-166.26984126984127
24,15.317460317460316,-325.0,38.80952380952381,-6.428571428571428,5.476190476190476,142.93650793650792,11.825396825396824,26.428571428571427,10.396825396825395,325.0,7.857142857142857,25.952380952380953,75.31746031746032,-7.5396825396825395,32.77777777777778,-323.0952380952381,184.52380952380952,129.6031746031746,-16.746031746031743,-8.333333333333332,-13.571428571428571,6.26984126984127,2.142857142857143,-166.26984126984127
25,15.317460317460316,-325.0,38.80952380952381,-6.428571428571428,5.476190476190476,142.93650793650792,11.825396825396824,26.428571428571427,10.396825396825395,325.0,7.857142857142857,25.952380952380953,75.31746031746032,-7.5396825396825395,32.77777777777778,-323.0952380952381,184.52380952380952,129.6031746031746,-16.746031746031743,-8.333333333333332,-13.571428571428571,6.26984126984127,2.142857142857143,-166.26984126984127
26,15.317460317460316,-325.0,38.80952380952381,-6.428571428571428,5.476190476190476,142.93650793650792,11.825396825396824,26.428571428571427,10.396825396825395,325.0,7.857142857142857,25.952380952380953,75.31746031746032,-7.5396825396825395,32.77777777777778,-323.0952380952381,184.52380952380952,129.6031746031746,-16.746031746031743,-8.333333333333332,-13.571428571428571,6.26984126984127,2.142857142857143,-166.26984126984127
27,15.317460317460316,-325.0,38.80952380952381,-6.428571428571428,5.476190476190476,142.93650793650792,11.825396825396824,26.428571428571427,10.396825396825395,325.0,7.857142857142857,25.952380952380953,75.31746031746032,-7.5396825396825395,32.77777777777778,-323.0952380952381,184.52380952380952,129.6031746031746,-16.746031746031743,-8.333333333333332,-13.571428571428571,6.26984126984127,2.142857142857143,-166.26984126984127
28,14.365079365079364,-325.0,35.95238095238095,-5.952380952380952,5.158730158730158,134.04761904761904,11.507936507936508,24.365079365079364,10.079365079365079,325.0,7.3809523809523805,24.206349206349206,69.92063492063491,-7.222222222222221,30.396825396825395,-304.2063492063492,172.61904761904762,121.98412698412697,-15.476190476190474,-8.333333333333332,-12.936507936507935,-3.571428571428571,-9.761904761904761,-166.26984126984127
29,14.365079365079364,-325.0,35.95238095238095,-5.952380952380952,5.158730158730158,134.04761904761904,11.507936507936508,24.365079365079364,10.079365079365079,325.0,7.3809523809523805,24.206349206349206,69.92063492063491,-7.222222222222221,30.396825396825395,-304.2063492063492,172.61904761904762,121.98412698412697,-15.476190476190474,-8.333333333333332,-12.936507936507935,-3.571428571428571,-9.761904761904761,-166.26984126984127
30,12.46031746031746,-325.0,30.07936507936508,-5.158730158730158,4.365079365079365,113.57142857142857,9.761904761904761,20.396825396825395,8.809523809523808,-325.0,6.26984126984127,20.07936507936508,58.8095238095238,-6.428571428571428,25.317460317460316,-259.6031746031746,145.79365079365078,105.15873015873015,-13.253968253968253,-7.3809523809523805,-10.555555555555555,3.73015873015873,7.857142857142857,-321.8253968253968
31,12.46031746031746,-325.0,30.07936507936508,-5.158730158730158,4.365079365079365,113.57142857142857,9.761904761904761,20.396825396825395,8.809523809523808,-325.0,6.26984126984127,20.07936507936508,58.8095238095238,-6.428571428571428,25.317460317460316,-259.6031746031746,145.79365079365078,105.15873015873015,-13.253968253968253,-7.3809523809523805,-10.555555555555555,3.73015873015873,7.857142857142857,-321.8253968253968
32,12.46031746031746,-325.0,30.07936507936508,-5.158730158730158,4.365079365079365,113.57142857142857,9.761904761904761,20.396825396825395,8.809523809523808,-325.0,6.26984126984127,20.07936507936508,58.8095238095238,-6.428571428571428,25.317460317460316,-259.6031746031746,145.79365079365078,105.15873015873015,-13.253968253968253,-7.3809523809523805,-10.555555555555555,3.73015873015873,7.857142857142857,-321.8253968253968
33,12.46031746031746,-325.0,30.07936507936508,-5.158730158730158,4.365079365079365,113.57142857142857,9.761904761904761,20.396825396825395,8.809523809523808,-325.0,6.26984126984127,20.07936507936508,58.8095238095238,-6.428571428571428,25.317460317460316,-259.6031746031746,145.79365079365078,105.15873015873015,-13.253968253968253,-7.3809523809523805,-10.555555555555555,3.73015873015873,7.857142857142857,-321.8253968253968
34,12.46031746031746,-325.0,30.07936507936508,-5.158730158730158,4.365079365079365,113.57142857142857,9.761904761904761,20.396825396825395,8.809523809523808,-325.0,6.26984126984127,20.07936507936508,58.8095238095238,-6.428571428571428,25.317460317460316,-259.6031746031746,145.79365079365078,105.15873015873015,-13.253968253968253,-7.3809523809523805,-10.555555555555555,3.73015873015873,7.857142857142857,-321.8253968253968
35,12.46031746031746,-325.0,30.07936507936508,-5.158730158730158,4.365079365079365,113.57142857142857,9.761904761904761,20.396825396825395,8.809523809523808,-325.0,6.26984126984127,20.07936507936508,58.8095238095238,-6.428571428571428,25.317460317460316,-259.6031746031746,145.79365079365078,105.15873015873015,-13.253968253968253,-7.3809523809523805,-10.555555555555555,3.73015873015873,7.857142857142857,-321.8253968253968
36,12.46031746031746,-325.0,30.07936507936508,-5.158730158730158,4.365079365079365,113.57142857142857,9.761904761904761,20.396825396825395,8.809523809523808,-325.0,6.26984126984127,20.07936507936508,58.8095238095238,-6.428571428571428,25.317460317460316,-259.6031746031746,145.79365079365078,105.15873015873015,-13.253968253968253,-7.3809523809523805,-10.555555555555555,3.73015873015873,7.857142857142857,-321.8253968253968
37,12.46031746031746,-325.0,30.07936507936508,-5.158730158730158,4.365079365079365,113.57142857142857,9.761904761904761,20.396825396825395,8.809523809523808,-325.0,6.26984126984127,20.07936507936508,58.8095238095238,-6.428571428571428,25.317460317460316,-259.6031746031746,145.79365079365078,105.15873015873015,-13.253968253968253,-7.3809523809523805,-10.555555555555555,3.73015873015873,7.857142857142857,-321.8253968253968
38,12.46031746031746,-325.0,30.07936507936508,-5.158730158730158,4.365079365079365,113.57142857142857,9.761904761904761,20.396825396825395,8.809523809523808,-325.0,6.26984126984127,20.07936507936508,58.8095238095238,-6.428571428571428,25.317460317460316,-259.6031746031746,145.79365079365078,105.15873015873015,-13.253968253968253,-7.3809523809523805,-10.555555555555555,3.73015873015873,7.857142857142857,-321.8253968253968
39,12.46031746031746,-325.0,30.07936507936508,-5.158730158730158,4.365079365079365,113.57142857142857,9.761904761904761,20.396825396825395,8.809523809523808,-325.0,6.26984126984127,20.07936507936508,58.8095238095238,-6.428571428571428,25.317460317460316,-259.6031746031746,145.79365079365078,105.15873015873015,-13.253968253968253,-7.3809523809523805,-10.555555555555555,3.73015873015873,7.857142857142857,-321.8253968253968
40,12.46031746031746,-325.0,30.07936507936508,-5.158730158730158,4.365079365079365,113.57142857142857,9.761904761904761,20.396825396825395,8.809523809523808,-325.0,6.26984126984127,20.07936507936508,58.8095238095238,-6.428571428571428,25.317460317460316,-259.6031746031746,145.79365079365078,105.15873015873015,-13.253968253968253,-7.3809523809523805,-10.555555555555555,3.73015873015873,7.857142857142857,-166.26984126984127
41,12.46031746031746,-325.0,30.07936507936508,-5.158730158730158,4.365079365079365,113.57142857142857,9.761904761904761,20.396825396825395,8.809523809523808,-325.0,6.26984126984127,20.07936507936508,58.8095238095238,-6.428571428571428,25.317460317460316,-259.6031746031746,145.79365079365078,105.15873015873015,-13.253968253968253,-7.3809523809523805,-10.555555555555555,3.73015873015873,7.857142857142857,-166.26984126984127
42,9.761904761904761,-325.0,21.984126984126984,-4.365079365079365,3.4126984126984126,85.31746031746032,7.5396825396825395,15.634920634920634,7.063492063492063,-325.0,4.841269841269841,15.158730158730158,43.41269841269841,-5.317460317460317,18.80952380952381,-198.8095238095238,-325.0,-325.0,-10.238095238095237,-6.111111111111111,-8.333333333333332,0.7142857142857142,-2.46031746031746,-166.26984126984127
43,9.761904761904761,-325.0,21.984126984126984,-4.365079365079365,3.4126984126984126,85.31746031746032,7.5396825396825395,15.634920634920634,7.063492063492063,-325.0,4.841269841269841,15.158730158730158,43.41269841269841,-5.317460317460317,18.80952380952381,-198.8095238095238,-325.0,-325.0,-10.238095238095237,-6.111111111111111,-8.333333333333332,0.7142857142857142,-2.46031746031746,-166.26984126984127
44,9.761904761904761,-325.0,21.984126984126984,-4.365079365079365,3.4126984126984126,85.0,7.5396825396825395,15.634920634920634,7.063492063492063,-325.0,4.841269841269841,15.158730158730158,43.25396825396825,-5.317460317460317,18.80952380952381,-198.015873015873,-325.0,-325.0,-10.238095238095237,-5.952380952380952,-8.174603174603174,5.317460317460317,4.2063492063492065,-166.26984126984127
45,9.761904761904761,-325.0,21.984126984126984,-4.365079365079365,3.4126984126984126,85.0,7.5396825396825395,15.634920634920634,7.063492063492063,-325.0,4.841269841269841,15.158730158730158,43.25396825396825,-5.317460317460317,18.80952380952381,-198.015873015873,-325.0,-325.0,-10.238095238095237,-5.952380952380952,-8.174603174603174,5.317460317460317,4.2063492063492065,-166.26984126984127
46,9.603174603174603,-325.0,21.19047619047619,-4.2063492063492065,3.4126984126984126,82.14285714285714,7.5396825396825395,15.0,6.746031746031746,-325.0,4.523809523809524,14.523809523809524,41.98412698412698,-5.317460317460317,18.174603174603174,-191.98412698412696,-325.0,-325.0,-10.079365079365079,-5.7936507936507935,-8.174603174603174,0.873015873015873,-2.619047619047619,-166.26984126984127
47,9.603174603174603,-325.0,21.19047619047619,-4.2063492063492065,3.4126984126984126,82.14285714285714,7.5396825396825395,15.0,6.746031746031746,-325.0,4.523809523809524,14.523809523809524,41.98412698412698,-5.317460317460317,18.174603174603174,-191.98412698412696,-325.0,-325.0,-10.079365079365079,-5.7936507936507935,-8.174603174603174,0.873015873015873,-2.619047619047619,-166.26984126984127
48,9.285714285714285,-325.0,20.873015873015873,-4.2063492063492065,3.4126984126984126,81.03174603174602,7.3809523809523805,14.682539682539682,6.746031746031746,-325.0,4.523809523809524,14.365079365079364,41.34920634920635,-5.317460317460317,17.857142857142858,-189.60317460317458,-325.0,-325.0,-9.920634920634921,-5.634920634920634,-8.015873015873016,-0.5555555555555556,-0.5555555555555556,-166.26984126984127
49,9.285714285714285,-325.0,20.873015873015873,-4.2063492063492065,3.4126984126984126,81.03174603174602,7.3809523809523805,14.682539682539682,6.746031746031746,-325.0,4.523809523809524,14.365079365079364,41.34920634920635,-5.317460317460317,17.857142857142858,-189.60317460317458,-325.0,-325.0,-9.920634920634921,-5.634920634920634,-8.015873015873016,-0.5555555555555556,-0.5555555555555556,-166.26984126984127
50,9.285714285714285,-325.0,20.238095238095237,-4.2063492063492065,3.253968253968254,79.28571428571428,7.222222222222221,14.523809523809524,6.746031746031746,-325.0,4.682539682539682,14.206349206349206,40.079365079365076,-5.0,17.38095238095238,-185.63492063492063,-325.0,-325.0,-9.603174603174603,-5.952380952380952,-7.857142857142857,1.507936507936508,-2.7777777777777777,-321.8253968253968
51,9.285714285714285,-325.0,20.238095238095237,-4.2063492063492065,3.253968253968254,79.28571428571428,7.222222222222221,14.523809523809524,6.746031746031746,-325.0,4.682539682539682,14.206349206349206,40.079365079365076,-5.0,17.38095238095238,-185.63492063492063,-325.0,-325.0,-9.603174603174603,-5.952380952380952,-7.857142857142857,1.507936507936508,-2.7777777777777777,-321.8253968253968
52,9.126984126984127,-325.0,19.92063492063492,-4.2063492063492065,3.253968253968254,78.33333333333333,7.222222222222221,14.365079365079364,6.746031746031746,-325.0,4.523809523809524,14.047619047619047,39.44444444444444,-5.0,17.063492063492063,-183.25396825396825,-325.0,-325.0,-9.603174603174603,-5.7936507936507935,-7.857142857142857,-0.07936507936507936,-0.3968253968253968,-321.8253968253968
53,9.126984126984127,-325.0,19.92063492063492,-4.2063492063492065,3.253968253968254,78.33333333333333,7.222222222222221,14.365079365079364,6.746031746031746,-325.0,4.523809523809524,14.047619047619047,39.44444444444444,-5.0,17.063492063492063,-183.25396825396825,-325.0,-325.0,-9.603174603174603,-5.7936507936507935,-7.857142857142857,-0.07936507936507936,-0.3968253968253968,-321.8253968253968
54,8.809523809523808,-325.0,19.6031746031746,-4.2063492063492065,3.095238095238095,76.58730158730158,6.904761904761904,14.047619047619047,6.428571428571428,-325.0,4.365079365079365,13.73015873015873,38.65079365079365,-5.158730158730158,16.746031746031743,-179.12698412698413,-325.0,-325.0,-9.444444444444445,-5.7936507936507935,-7.5396825396825395,2.142857142857143,-1.984126984126984,-321.8253968253968
55,8.809523809523808,-325.0,19.6031746031746,-4.2063492063492065,3.095238095238095,76.58730158730158,6.904761904761904,14.047619047619047,6.428571428571428,-325.0,4.365079365079365,13.73015873015873,38.65079365079365,-5.158730158730158,16.746031746031743,-179.12698412698413,-325.0,-325.0,-9.444444444444445,-5.7936507936507935,-7.5396825396825395,2.142857142857143,-1.984126984126984,-321.8253968253968
56,8.809523809523808,-325.0,19.126984126984127,-4.2063492063492065,3.095238095238095,75.47619047619047,6.904761904761904,13.888888888888888,6.428571428571428,-325.0,4.365079365079365,13.412698412698411,38.17460317460317,-5.158730158730158,16.428571428571427,-176.74603174603175,-325.0,-325.0,-9.444444444444445,-5.634920634920634,-7.5396825396825395,0.23809523809523808,-0.23809523809523808,-321.8253968253968
57,8.809523809523808,-325.0,19.126984126984127,-4.2063492063492065,3.095238095238095,75.47619047619047,6.904761904761904,13.888888888888888,6.428571428571428,-325.0,4.365079365079365,13.412698412698411,38.17460317460317,-5.158730158730158,16.428571428571427,-176.74603174603175,-325.0,-325.0,-9.444444444444445,-5.634920634920634,-7.5396825396825395,0.23809523809523808,-0.23809523809523808,-321.8253968253968
58,8.65079365079365,-323.88888888888886,18.80952380952381,-4.2063492063492065,3.095238095238095,74.04761904761904,6.904761904761904,13.73015873015873,6.587301587301587,-325.0,4.2063492063492065,13.412698412698411,37.38095238095238,-5.158730158730158,16.428571428571427,-173.73015873015873,-325.0,-325.0,-9.444444444444445,-5.317460317460317,-7.3809523809523805,-2.9365079365079363,-8.333333333333332,-321.8253968253968
59,8.65079365079365,-323.88888888888886,18.80952380952381,-4.2063492063492065,3.095238095238095,74.04761904761904,6.904761904761904,13.73015873015873,6.587301587301587,-325.0,4.2063492063492065,13.412698412698411,37.38095238095238,-5.158730158730158,16.428571428571427,-173.73015873015873,-325.0,-325.0,-9.444444444444445,-5.317460317460317,-7.3809523809523805,-2.9365079365079363,-8.333333333333332,-321.8253968253968
60,8.65079365079365,-323.88888888888886,18.80952380952381,-4.2063492063492065,3.095238095238095,74.04761904761904,6.904761904761904,13.73015873015873,6.587301587301587,-325.0,4.2063492063492065,13.412698412698411,37.38095238095238,-5.158730158730158,16.428571428571427,-173.73015873015873,-325.0,-325.0,-9.444444444444445,-5.317460317460317,-7.3809523809523805,-2.9365079365079363,-8.333333333333332,-166.26984126984127
61,8.65079365079365,-323.88888888888886,18.80952380952381,-4.2063492063492065,3.095238095238095,74.04761904761904,6.904761904761904,13.73015873015873,6.587301587301587,-325.0,4.2063492063492065,13.412698412698411,37.38095238095238,-5.158730158730158,16.428571428571427,-173.73015873015873,-325.0,-325.0,-9.444444444444445,-5.317460317460317,-7.3809523809523805,-2.9365079365079363,-8.333333333333332,-166.26984126984127
62,8.492063492063492,-317.38095238095235,18.333333333333332,-4.0476190476190474,3.095238095238095,72.3015873015873,6.587301587301587,13.412698412698411,6.428571428571428,-325.0,4.2063492063492065,12.936507936507935,36.42857142857142,-5.0,15.95238095238095,-170.07936507936506,-325.0,-325.0,-9.126984126984127,-5.317460317460317,-7.222222222222221,1.8253968253968254,-1.984126984126984,-166.26984126984127
63,8.492063492063492,-317.38095238095235,18.333333333333332,-4.0476190476190474,3.095238095238095,72.3015873015873,6.587301587301587,13.412698412698411,6.428571428571428,-325.0,4.2063492063492065,12.936507936507935,36.42857142857142,-5.0,15.95238095238095,-170.07936507936506,-325.0,-325.0,-9.126984126984127,-5.317460317460317,-7.222222222222221,1.8253968253968254,-1.984126984126984,-166.26984126984127
64,8.174603174603174,-308.015873015873,17.698412698412696,-3.888888888888889,3.095238095238095,70.07936507936508,6.428571428571428,12.936507936507935,6.111111111111111,-325.0,4.2063492063492065,12.46031746031746,35.15873015873016,-4.841269841269841,15.317460317460316,-164.84126984126982,-325.0,-325.0,-8.809523809523808,-5.317460317460317,-6.904761904761904,0.23809523809523808,-0.23809523809523808,-166.26984126984127
65,8.174603174603174,-308.015873015873,17.698412698412696,-3.888888888888889,3.095238095238095,70.07936507936508,6.428571428571428,12.936507936507935,6.111111111111111,-325.0,4.2063492063492065,12.46031746031746,35.15873015873016,-4.841269841269841,15.317460317460316,-164.84126984126982,-325.0,-325.0,-8.809523809523808,-5.317460317460317,-6.904761904761904,0.23809523809523808,-0.23809523809523808,-166.26984126984127
66,7.857142857142857,-301.66666666666663,17.22222222222222,-3.73015873015873,3.095238095238095,68.4920634920635,6.428571428571428,12.46031746031746,6.111111111111111,-325.0,3.888888888888889,12.142857142857142,34.36507936507936,-4.841269841269841,14.84126984126984,-161.19047619047618,-325.0,-325.0,-8.65079365079365,-5.158730158730158,-6.904761904761904,1.349206349206349,-2.142857142857143,-166.26984126984127
67,7.857142857142857,-301.66666666666663,17.22222222222222,-3.73015873015873,3.095238095238095,68.4920634920635,6.428571428571428,12.46031746031746,6.111111111111111,-325.0,3.888888888888889,12.142857142857142,34.36507936507936,-4.841269841269841,14.84126984126984,-161.19047619047618,-325.0,-325.0,-8.65079365079365,-5.158730158730158,-6.904761904761904,1.349206349206349,-2.142857142857143,-166.26984126984127
68,7.698412698412698,-300.07936507936506,17.22222222222222,-3.73015873015873,3.095238095238095,68.01587301587301,6.428571428571428,12.46031746031746,6.111111111111111,-325.0,3.888888888888889,12.3015873015873,34.047619047619044,-4.682539682539682,14.84126984126984,-160.55555555555554,-325.0,-325.0,-8.492063492063492,-5.158730158730158,-6.904761904761904,6.746031746031746,4.2063492063492065,-166.26984126984127
69,7.698412698412698,-300.07936507936506,17.22222222222222,-3.73015873015873,3.095238095238095,68.01587301587301,6.428571428571428,12.46031746031746,6.111111111111111,-325.0,3.888888888888889,12.3015873015873,34.047619047619044,-4.682539682539682,14.84126984126984,-160.55555555555554,-325.0,-325.0,-8.492063492063492,-5.158730158730158,-6.904761904761904,6.746031746031746,4.2063492063492065,-166.26984126984127
70,7.698412698412698,-291.3492063492063,16.587301587301585,-3.73015873015873,2.9365079365079363,65.95238095238095,6.111111111111111,12.142857142857142,5.7936507936507935,-325.0,3.73015873015873,11.825396825396824,33.095238095238095,-4.682539682539682,14.365079365079364,-155.63492063492063,-325.0,-325.0,-8.333333333333332,-5.158730158730158,-6.587301587301587,1.6666666666666665,-3.253968253968254,-321.8253968253968
71,7.698412698412698,-291.3492063492063,16.587301587301585,-3.73015873015873,2.9365079365079363,65.95238095238095,6.111111111111111,12.142857142857142,5.7936507936507935,-325.0,3.73015873015873,11.825396825396824,33.095238095238095,-4.682539682539682,14.365079365079364,-155.63492063492063,-325.0,-325.0,-8.333333333333332,-5.158730158730158,-6.587301587301587,1.6666666666666665,-3.253968253968254,-321.8253968253968
72,7.698412698412698,-286.58730158730157,16.26984126984127,-3.73015873015873,2.7777777777777777,64.68253968253968,5.952380952380952,11.984126984126984,5.634920634920634,-325.0,3.888888888888889,11.507936507936508,32.61904761904762,-4.523809523809524,13.888888888888888,-152.93650793650792,-325.0,-325.0,-8.174603174603174,-5.158730158730158,-6.587301587301587,1.8253968253968254,-2.7777777777777777,-321.8253968253968
73,7.698412698412698,-286.58730158730157,16.26984126984127,-3.73015873015873,2.7777777777777777,64.68253968253968,5.952380952380952,11.984126984126984,5.634920634920634,-325.0,3.888888888888889,11.507936507936508,32.61904761904762,-4.523809523809524,13.888888888888888,-152.93650793650792,-325.0,-325.0,-8.174603174603174,-5.158730158730158,-6.587301587301587,1.8253968253968254,-2.7777777777777777,-321.8253968253968
74,7.5396825396825395,-279.2857142857143,15.95238095238095,-3.571428571428571,2.7777777777777777,62.93650793650793,5.952380952380952,11.666666666666666,5.476190476190476,-325.0,3.73015873015873,11.507936507936508,31.666666666666664,-4.523809523809524,13.73015873015873,-149.12698412698413,-325.0,-325.0,-8.174603174603174,-5.0,-6.587301587301587,5.158730158730158,6.111111111111111,-321.8253968253968
75,7.5396825396825395,-279.2857142857143,15.95238095238095,-3.571428571428571,2.7777777777777777,62.93650793650793,5.952380952380952,11.666666666666666,5.476190476190476,-325.0,3.73015873015873,11.507936507936508,31.666666666666664,-4.523809523809524,13.73015873015873,-149.12698412698413,-325.0,-325.0,-8.174603174603174,-5.0,-6.587301587301587,5.158730158730158,6.111111111111111,-321.8253968253968
76,7.3809523809523805,-274.8412698412698,15.476190476190474,-3.888888888888889,2.46031746031746,61.82539682539682,5.7936507936507935,11.666666666666666,5.476190476190476,-325.0,3.73015873015873,11.19047619047619,30.87301587301587,-4.523809523809524,13.253968253968253,-146.42857142857142,-325.0,-325.0,-8.174603174603174,-5.158730158730158,-6.428571428571428,-5.952380952380952,-6.904761904761904,-321.8253968253968
77,7.3809523809523805,-274.8412698412698,15.476190476190474,-3.888888888888889,2.46031746031746,61.82539682539682,5.7936507936507935,11.666666666666666,5.476190476190476,-325.0,3.73015873015873,11.19047619047619,30.87301587301587,-4.523809523809524,13.253968253968253,-146.42857142857142,-325.0,-325.0,-8.174603174603174,-5.158730158730158,-6.428571428571428,-5.952380952380952,-6.904761904761904,-321.8253968253968
78,7.3809523809523805,-271.19047619047615,15.317460317460316,-3.73015873015873,2.619047619047619,61.19047619047619,5.7936507936507935,11.349206349206348,5.634920634920634,-325.0,3.73015873015873,11.349206349206348,30.396825396825395,-4.523809523809524,13.253968253968253,-144.68253968253967,-325.0,-325.0,-7.857142857142857,-4.841269841269841,-6.587301587301587,6.428571428571428,4.2063492063492065,-321.8253968253968
79,7.3809523809523805,-271.19047619047615,15.317460317460316,-3.73015873015873,2.619047619047619,61.19047619047619,5.7936507936507935,11.349206349206348,5.634920634920634,-325.0,3.73015873015873,11.349206349206348,30.396825396825395,-4.523809523809524,13.253968253968253,-144.68253968253967,-325.0,-325.0,-7.857142857142857,-4.841269841269841,-6.587301587301587,6.428571428571428,4.2063492063492065,-321.8253968253968
80,7.222222222222221,-265.6349206349206,14.84126984126984,-3.73015873015873,2.619047619047619,59.6031746031746,5.634920634920634,11.19047619047619,5.317460317460317,-325.0,3.571428571428571,10.873015873015872,29.920634920634917,-4.523809523809524,12.936507936507935,-141.19047619047618,-325.0,-325.0,-7.857142857142857,-4.841269841269841,-6.26984126984127,-5.7936507936507935,-6.587301587301587,-166.26984126984127
81,7.222222222222221,-265.6349206349206,14.84126984126984,-3.73015873015873,2.619047619047619,59.6031746031746,5.634920634920634,11.19047619047619,5.317460317460317,-325.0,3.571428571428571,10.873015873015872,29.920634920634917,-4.523809523809524,12.936507936507935,-141.19047619047618,-325.0,-325.0,-7.857142857142857,-4.841269841269841,-6.26984126984127,-5.7936507936507935,-6.587301587301587,-166.26984126984127
82,7.063492063492063,-262.3015873015873,14.84126984126984,-3.73015873015873,2.619047619047619,58.96825396825397,5.476190476190476,11.031746031746032,5.476190476190476,-325.0,3.73015873015873,10.714285714285714,29.285714285714285,-4.523809523809524,12.619047619047619,-139.44444444444443,-325.0,-325.0,-7.698412698412698,-5.158730158730158,-6.111111111111111,6.904761904761904,5.158730158730158,-166.26984126984127
83,7.063492063492063,-262.3015873015873,14.84126984126984,-3.73015873015873,2.619047619047619,58.96825396825397,5.476190476190476,11.031746031746032,5.476190476190476,-325.0,3.73015873015873,10.714285714285714,29.285714285714285,-4.523809523809524,12.619047619047619,-139.44444444444443,-325.0,-325.0,-7.698412698412698,-5.158730158730158,-6.111111111111111,6.904761904761904,5.158730158730158,-166.26984126984127
84,6.904761904761904,-259.1269841269841,14.523809523809524,-3.73015873015873,2.619047619047619,58.17460317460317,5.317460317460317,10.873015873015872,5.317460317460317,-325.0,3.571428571428571,10.396825396825395,28.96825396825397,-4.523809523809524,12.46031746031746,-137.69841269841268,-325.0,-325.0,-7.698412698412698,-5.0,-6.111111111111111,1.8253968253968254,-1.6666666666666665,-166.26984126984127
85,6.904761904761904,-259.1269841269841,14.523809523809524,-3.73015873015873,2.619047619047619,58.17460317460317,5.317460317460317,10.873015873015872,5.317460317460317,-325.0,3.571428571428571,10.396825396825395,28.96825396825397,-4.523809523809524,12.46031746031746,-137.69841269841268,-325.0,-325.0,-7.698412698412698,-5.0,-6.111111111111111,1.8253968253968254,-1.6666666666666665,-166.26984126984127
86,6.904761904761904,-252.46031746031744,14.047619047619047,-3.571428571428571,2.46031746031746,56.42857142857142,5.476190476190476,10.396825396825395,5.317460317460317,-324.04761904761904,3.4126984126984126,10.396825396825395,28.015873015873016,-4.523809523809524,12.3015873015873,-134.04761904761904,-325.0,-325.0,-7.5396825396825395,-4.841269841269841,-5.952380952380952,4.365079365079365,5.952380952380952,-166.26984126984127
87,6.904761904761904,-252.46031746031744,14.047619047619047,-3.571428571428571,2.46031746031746,56.42857142857142,5.476190476190476,10.396825396825395,5.317460317460317,-324.04761904761904,3.4126984126984126,10.396825396825395,28.015873015873016,-4.523809523809524,12.3015873015873,-134.04761904761904,-325.0,-325.0,-7.5396825396825395,-4.841269841269841,-5.952380952380952,4.365079365079365,5.952380952380952,-166.26984126984127
88,6.746031746031746,-248.33333333333331,13.73015873015873,-3.571428571428571,2.619047619047619,55.317460317460316,5.317460317460317,10.555555555555555,5.158730158730158,-318.6507936507936,3.4126984126984126,10.079365079365079,27.539682539682538,-4.523809523809524,11.984126984126984,-131.8253968253968,-325.0,-325.0,-7.5396825396825395,-4.682539682539682,-5.952380952380952,-5.476190476190476,-7.857142857142857,-166.26984126984127
89,6.746031746031746,-248.33333333333331,13.73015873015873,-3.571428571428571,2.619047619047619,55.317460317460316,5.317460317460317,10.555555555555555,5.158730158730158,-318.6507936507936,3.4126984126984126,10.079365079365079,27.539682539682538,-4.523809523809524,11.984126984126984,-131.8253968253968,-325.0,-325.0,-7.5396825396825395,-4.682539682539682,-5.952380952380952,-5.476190476190476,-7.857142857142857,-166.26984126984127
90,6.904761904761904,-245.15873015873015,13.412698412698411,-3.253968253968254,2.46031746031746,54.52380952380952,5.476190476190476,10.238095238095237,5.317460317460317,-314.68253968253964,-66.42857142857143,10.079365079365079,27.063492063492063,-4.365079365079365,11.825396825396824,-129.9206349206349,-325.0,-325.0,-7.3809523809523805,-4.523809523809524,-5.7936507936507935,6.746031746031746,4.0476190476190474,-321.8253968253968
91,6.904761904761904,-245.15873015873015,13.412698412698411,-3.253968253968254,2.46031746031746,54.52380952380952,5.476190476190476,10.238095238095237,5.317460317460317,-314.68253968253964,-66.42857142857143,10.079365079365079,27.063492063492063,-4.365079365079365,11.825396825396824,-129.9206349206349,-325.0,-325.0,-7.3809523809523805,-4.523809523809524,-5.7936507936507935,6.746031746031746,4.0476190476190474,-321.8253968253968
92,6.428571428571428,-239.9206349206349,13.253968253968253,-3.571428571428571,2.46031746031746,53.25396825396825,5.158730158730158,10.079365079365079,5.158730158730158,-307.85714285714283,-38.65079365079365,9.761904761904761,26.428571428571427,-4.365079365079365,11.507936507936508,-127.22222222222221,-325.0,-325.0,-7.222222222222221,-4.523809523809524,-5.7936507936507935,-5.0,-7.222222222222221,-321.8253968253968
93,6.428571428571428,-239.9206349206349,13.253968253968253,-3.571428571428571,2.46031746031746,53.25396825396825,5.158730158730158,10.079365079365079,5.158730158730158,-307.85714285714283,-38.65079365079365,9.761904761904761,26.428571428571427,-4.365079365079365,11.507936507936508,-127.22222222222221,-325.0,-325.0,-7.222222222222221,-4.523809523809524,-5.7936507936507935,-5.0,-7.222222222222221,-321.8253968253968
94,6.428571428571428,-237.2222222222222,13.253968253968253,-3.571428571428571,2.46031746031746,36.74603174603175,4.841269841269841,10.079365079365079,5.158730158730158,-303.88888888888886,-325.0,9.603174603174603,26.11111111111111,-4.2063492063492065,11.507936507936508,-125.47619047619047,-325.0,-325.0,-7.063492063492063,-4.682539682539682,-5.476190476190476,8.015873015873016,5.0,-321.8253968253968
95,6.428571428571428,-237.2222222222222,13.253968253968253,-3.571428571428571,2.46031746031746,36.74603174603175,4.841269841269841,10.079365079365079,5.158730158730158,-303.88888888888886,-325.0,9.603174603174603,26.11111111111111,-4.2063492063492065,11.507936507936508,-125.47619047619047,-325.0,-325.0,-7.063492063492063,-4.682539682539682,-5.476190476190476,8.015873015873016,5.0,-321.8253968253968
96,6.26984126984127,-231.98412698412696,12.936507936507935,-3.4126984126984126,2.3015873015873014,44.68253968253968,4.841269841269841,9.603174603174603,5.0,-297.53968253968253,-321.031746031746,9.285714285714285,25.476190476190474,-4.2063492063492065,11.19047619047619,-122.6190476190476,-325.0,-325.0,-7.063492063492063,-4.523809523809524,-5.317460317460317,-5.634920634920634,-7.5396825396825395,-321.8253968253968
97,6.26984126984127,-231.98412698412696,12.936507936507935,-3.4126984126984126,2.3015873015873014,44.68253968253968,4.841269841269841,9.603174603174603,5.0,-297.53968253968253,-321.031746031746,9.285714285714285,25.476190476190474,-4.2063492063492065,11.19047619047619,-122.6190476190476,-325.0,-325.0,-7.063492063492063,-4.523809523809524,-5.317460317460317,-5.634920634920634,-7.5396825396825395,-321.8253968253968
98,5.952380952380952,-228.8095238095238,12.619047619047619,-3.253968253968254,2.619047619047619,-197.85714285714283,5.0,9.761904761904761,5.0,-293.25396825396825,-325.0,9.444444444444445,25.476190476190474,-3.888888888888889,11.19047619047619,-121.03174603174602,-325.0,-325.0,-6.904761904761904,-4.2063492063492065,-5.476190476190476,7.857142857142857,4.682539682539682,-321.8253968253968
99,5.952380952380952,-228.8095238095238,12.619047619047619,-3.253968253968254,2.619047619047619,-197.85714285714283,5.0,9.761904761904761,5.0,-293.25396825396825,-325.0,9.444444444444445,25.476190476190474,-3.888888888888889,11.19047619047619,-121.03174603174602,-325.0,-325.0,-6.904761904761904,-4.2063492063492065,-5.476190476190476,7.857142857142857,4.682539682539682,-321.8253968253968
100,5.952380952380952,-225.95238095238093,12.46031746031746,-3.253968253968254,2.46031746031746,-150.07936507936506,5.0,9.603174603174603,5.0,-289.6031746031746,-325.0,9.285714285714285,25.0,-3.888888888888889,11.031746031746032,-119.44444444444444,-325.0,-325.0,-6.904761904761904,-4.2063492063492065,-5.476190476190476,2.3015873015873014,-2.46031746031746,-166.26984126984127
101,5.952380952380952,-225.95238095238093,12.46031746031746,-3.253968253968254,2.46031746031746,-150.07936507936506,5.0,9.603174603174603,5.0,-289.6031746031746,-325.0,9.285714285714285,25.0,-3.888888888888889,11.031746031746032,-119.44444444444444,-325.0,-325.0,-6.904761904761904,-4.2063492063492065,-5.476190476190476,2.3015873015873014,-2.46031746031746,-166.26984126984127
102,6.111111111111111,-221.34920634920633,12.142857142857142,-3.095238095238095,2.46031746031746,-325.0,4.682539682539682,9.126984126984127,5.0,-283.73015873015873,-325.0,9.126984126984127,24.206349206349206,-3.888888888888889,10.555555555555555,-116.74603174603173,-325.0,-325.0,-6.587301587301587,-4.523809523809524,-5.317460317460317,7.698412698412698,4.365079365079365,-166.26984126984127
103,6.111111111111111,-221.34920634920633,12.142857142857142,-3.095238095238095,2.46031746031746,-325.0,4.682539682539682,9.126984126984127,5.0,-283.73015873015873,-325.0,9.126984126984127,24.206349206349206,-3.888888888888889,10.555555555555555,-116.74603174603173,-325.0,-325.0,-6.587301587301587,-4.523809523809524,-5.317460317460317,7.698412698412698,4.365079365079365,-166.26984126984127
104,5.952380952380952,-218.65079365079364,11.984126984126984,-3.095238095238095,2.3015873015873014,-325.0,4.523809523809524,8.968253968253968,5.0,-280.07936507936506,-325.0,8.968253968253968,23.88888888888889,-3.888888888888889,10.396825396825395,-115.31746031746032,-325.0,-325.0,-6.428571428571428,-4.523809523809524,-5.317460317460317,2.142857142857143,-2.46031746031746,-166.26984126984127
105,5.952380952380952,-218.65079365079364,11.984126984126984,-3.095238095238095,2.3015873015873014,-325.0,4.523809523809524,8.968253968253968,5.0,-280.07936507936506,-325.0,8.968253968253968,23.88888888888889,-3.888888888888889,10.396825396825395,-115.31746031746032,-325.0,-325.0,-6.428571428571428,-4.523809523809524,-5.317460317460317,2.142857142857143,-2.46031746031746,-166.26984126984127
106,5.952380952380952,-213.7301587301587,11.825396825396824,-3.253968253968254,2.3015873015873014,-325.0,4.365079365079365,9.126984126984127,4.523809523809524,-273.73015873015873,-325.0,8.809523809523808,23.57142857142857,-3.888888888888889,10.238095238095237,-112.6190476190476,-325.0,-325.0,-6.428571428571428,-4.0476190476190474,-5.0,7.063492063492063,5.476190476190476,-166.26984126984127
107,5.952380952380952,-213.7301587301587,11.825396825396824,-3.253968253968254,2.3015873015873014,-325.0,4.365079365079365,9.126984126984127,4.523809523809524,-273.73015873015873,-325.0,8.809523809523808,23.57142857142857,-3.888888888888889,10.238095238095237,-112.6190476190476,-325.0,-325.0,-6.428571428571428,-4.0476190476190474,-5.0,7.063492063492063,5.476190476190476,-166.26984126984127
108,5.952380952380952,-213.7301587301587,11.825396825396824,-3.253968253968254,2.3015873015873014,-325.0,4.365079365079365,9.126984126984127,4.523809523809524,-273.73015873015873,-325.0,8.809523809523808,23.57142857142857,-3.888888888888889,10.238095238095237,-112.6190476190476,-325.0,-325.0,-6.428571428571428,-4.0476190476190474,-5.0,7.063492063492063,5.476190476190476,-166.26984126984127
109,5.952380952380952,-213.7301587301587,11.825396825396824,-3.253968253968254,2.3015873015873014,-325.0,4.365079365079365,9.126984126984127,4.523809523809524,-273.73015873015873,-325.0,8.809523809523808,23.57142857142857,-3.888888888888889,10.238095238095237,-112.6190476190476,-325.0,-325.0,-6.428571428571428,-4.0476190476190474,-5.0,7.063492063492063,5.476190476190476,-166.26984126984127
110,5.952380952380952,-213.7301587301587,11.825396825396824,-3.253968253968254,2.3015873015873014,-325.0,4.365079365079365,9.126984126984127,4.523809523809524,-273.73015873015873,-325.0,8.809523809523808,23.57142857142857,-3.888888888888889,10.238095238095237,-112.6190476190476,-325.0,-325.0,-6.428571428571428,-4.0476190476190474,-5.0,7.063492063492063,5.476190476190476,-321.8253968253968
111,5.952380952380952,-213.7301587301587,11.825396825396824,-3.253968253968254,2.3015873015873014,-325.0,4.365079365079365,9.126984126984127,4.523809523809524,-273.73015873015873,-325.0,8.809523809523808,23.57142857142857,-3.888888888888889,10.238095238095237,-112.6190476190476,-325.0,-325.0,-6.428571428571428,-4.0476190476190474,-5.0,7.063492063492063,5.476190476190476,-321.8253968253968
112,5.476190476190476,-202.3015873015873,11.031746031746032,-3.095238095238095,2.142857142857143,-325.0,4.365079365079365,8.492063492063492,4.523809523809524,-258.968253968254,-325.0,8.492063492063492,21.984126984126984,-3.73015873015873,9.761904761904761,-106.58730158730158,-325.0,-325.0,-6.26984126984127,-4.0476190476190474,-5.158730158730158,-5.7936507936507935,-7.3809523809523805,-321.8253968253968
113,5.476190476190476,-202.3015873015873,11.031746031746032,-3.095238095238095,2.142857142857143,-325.0,4.365079365079365,8.492063492063492,4.523809523809524,-258.968253968254,-325.0,8.492063492063492,21.984126984126984,-3.73015873015873,9.761904761904761,-106.58730158730158,-325.0,-325.0,-6.26984126984127,-4.0476190476190474,-5.158730158730158,-5.7936507936507935,-7.3809523809523805,-321.8253968253968
114,5.7936507936507935,-199.76190476190476,10.873015873015872,-3.095238095238095,1.984126984126984,-325.0,4.2063492063492065,8.492063492063492,4.523809523809524,-255.63492063492063,-325.0,8.333333333333332,21.666666666666664,-3.73015873015873,9.603174603174603,-105.0,-325.0,-325.0,-6.111111111111111,-4.365079365079365,-4.841269841269841,6.26984126984127,4.523809523809524,-321.8253968253968
115,5.7936507936507935,-199.76190476190476,10.873015873015872,-3.095238095238095,1.984126984126984,-325.0,4.2063492063492065,8.492063492063492,4.523809523809524,-255.63492063492063,-325.0,8.333333333333332,21.666666666666664,-3.73015873015873,9.603174603174603,-105.0,-325.0,-325.0,-6.111111111111111,-4.365079365079365,-4.841269841269841,6.26984126984127,4.523809523809524,-321.8253968253968
116,5.7936507936507935,-199.76190476190476,10.873015873015872,-3.095238095238095,1.984126984126984,-325.0,4.2063492063492065,8.492063492063492,4.523809523809524,-255.63492063492063,-325.0,8.333333333333332,21.666666666666664,-3.73015873015873,9.603174603174603,-105.0,-325.0,-325.0,-6.111111111111111,-4.365079365079365,-4.841269841269841,6.26984126984127,4.523809523809524,-321.8253968253968
117,5.7936507936507935,-199.76190476190476,10.873015873015872,-3.095238095238095,1.984126984126984,-325.0,4.2063492063492065,8.492063492063492,4.523809523809524,-255.63492063492063,-325.0,8.333333333333332,21.666666666666664,-3.73015873015873,9.603174603174603,-105.0,-325.0,-325.0,-6.111111111111111,-4.365079365079365,-4.841269841269841,6.26984126984127,4.523809523809524,-321.8253968253968
118,5.7936507936507935,-199.76190476190476,10.873015873015872,-3.095238095238095,1.984126984126984,-325.0,4.2063492063492065,8.492063492063492,4.523809523809524,-255.63492063492063,-325.0,8.333333333333332,21.666666666666664,-3.73015873015873,9.603174603174603,-105.0,-325.0,-325.0,-6.111111111111111,-4.365079365079365,-4.841269841269841,6.26984126984127,4.523809523809524,-321.8253968253968
119,5.7936507936507935,-199.76190476190476,10.873015873015872,-3.095238095238095,1.984126984126984,-325.0,4.2063492063492065,8.492063492063492,4.523809523809524,-255.63492063492063,-325.0,8.333333333333332,21.666666666666664,-3.73015873015873,9.603174603174603,-105.0,-325.0,-325.0,-6.111111111111111,-4.365079365079365,-4.841269841269841,6.26984126984127,4.523809523809524,-321.8253968253968
120,5.634920634920634,-189.9206349206349,10.238095238095237,-2.9365079365079363,1.984126984126984,-325.0,4.2063492063492065,8.015873015873016,4.365079365079365,-242.77777777777777,-325.0,7.857142857142857,20.71428571428571,-3.73015873015873,8.809523809523808,-99.44444444444444,-325.0,-325.0,-6.111111111111111,-4.0476190476190474,-4.682539682539682,-7.698412698412698,-5.317460317460317,-166.26984126984127
121,5.634920634920634,-189.9206349206349,10.238095238095237,-2.9365079365079363,1.984126984126984,-325.0,4.2063492063492065,8.015873015873016,4.365079365079365,-242.77777777777777,-325.0,7.857142857142857,20.71428571428571,-3.73015873015873,8.809523809523808,-99.44444444444444,-325.0,-325.0,-6.111111111111111,-4.0476190476190474,-4.682539682539682,-7.698412698412698,-5.317460317460317,-166.26984126984127
122,5.317460317460317,-186.58730158730157,9.761904761904761,-2.9365079365079363,1.984126984126984,-325.0,4.2063492063492065,7.857142857142857,4.523809523809524,-238.65079365079364,-325.0,7.857142857142857,19.92063492063492,-3.571428571428571,8.968253968253968,-97.85714285714285,-325.0,-325.0,-5.7936507936507935,-4.0476190476190474,-4.523809523809524,7.063492063492063,4.841269841269841,-166.26984126984127
123,5.317460317460317,-186.58730158730157,9.761904761904761,-2.9365079365079363,1.984126984126984,-325.0,4.2063492063492065,7.857142857142857,4.523809523809524,-238.65079365079364,-325.0,7.857142857142857,19.92063492063492,-3.571428571428571,8.968253968253968,-97.85714285714285,-325.0,-325.0,-5.7936507936507935,-4.0476190476190474,-4.523809523809524,7.063492063492063,4.841269841269841,-166.26984126984127
124,5.317460317460317,-186.58730158730157,9.761904761904761,-2.9365079365079363,1.984126984126984,-325.0,4.2063492063492065,7.857142857142857,4.523809523809524,-238.65079365079364,-325.0,7.857142857142857,19.92063492063492,-3.571428571428571,8.968253968253968,-97.85714285714285,-325.0,-325.0,-5.7936507936507935,-4.0476190476190474,-4.523809523809524,7.063492063492063,4.841269841269841,-166.26984126984127
125,5.317460317460317,-186.58730158730157,9.761904761904761,-2.9365079365079363,1.984126984126984,-325.0,4.2063492063492065,7.857142857142857,4.523809523809524,-238.65079365079364,-325.0,7.857142857142857,19.92063492063492,-3.571428571428571,8.968253968253968,-97.85714285714285,-325.0,-325.0,-5.7936507936507935,-4.0476190476190474,-4.523809523809524,7.063492063492063,4.841269841269841,-166.26984126984127
126,5.317460317460317,-186.58730158730157,9.761904761904761,-2.9365079365079363,1.984126984126984,-325.0,4.2063492063492065,7.857142857142857,4.523809523809524,-238.65079365079364,-325.0,7.857142857142857,19.92063492063492,-3.571428571428571,8.968253968253968,-97.85714285714285,-325.0,-325.0,-5.7936507936507935,-4.0476190476190474,-4.523809523809524,7.063492063492063,4.841269841269841,-166.26984126984127
127,5.317460317460317,-186.58730158730157,9.761904761904761,-2.9365079365079363,1.984126984126984,-325.0,4.2063492063492065,7.857142857142857,4.523809523809524,-238.65079365079364,-325.0,7.857142857142857,19.92063492063492,-3.571428571428571,8.968253968253968,-97.85714285714285,-325.0,-325.0,-5.7936507936507935,-4.0476190476190474,-4.523809523809524,7.063492063492063,4.841269841269841,-166.26984126984127
128,5.317460317460317,-186.58730158730157,9.761904761904761,-2.9365079365079363,1.984126984126984,-325.0,4.2063492063492065,7.857142857142857,4.523809523809524,-238.65079365079364,-325.0,7.857142857142857,19.92063492063492,-3.571428571428571,8.968253968253968,-97.85714285714285,-325.0,-325.0,-5.7936507936507935,-4.0476190476190474,-4.523809523809524,7.063492063492063,4.841269841269841,-166.26984126984127
129,5.317460317460317,-186.58730158730157,9.761904761904761,-2.9365079365079363,1.984126984126984,-325.0,4.2063492063492065,7.857142857142857,4.523809523809524,-238.65079365079364,-325.0,7.857142857142857,19.92063492063492,-3.571428571428571,8.968253968253968,-97.85714285714285,-325.0,-325.0,-5.7936507936507935,-4.0476190476190474,-4.523809523809524,7.063492063492063,4.841269841269841,-166.26984126984127
130,5.0,-174.2063492063492,9.285714285714285,-2.7777777777777777,1.8253968253968254,-325.0,4.0476190476190474,7.222222222222221,4.2063492063492065,-222.61904761904762,-325.0,7.5396825396825395,18.65079365079365,-3.4126984126984126,8.65079365079365,-91.5079365079365,-325.0,-325.0,-5.634920634920634,-3.571428571428571,-4.682539682539682,7.5396825396825395,5.0,-321.8253968253968
131,5.0,-174.2063492063492,9.285714285714285,-2.7777777777777777,1.8253968253968254,-325.0,4.0476190476190474,7.222222222222221,4.2063492063492065,-222.61904761904762,-325.0,7.5396825396825395,18.65079365079365,-3.4126984126984126,8.65079365079365,-91.5079365079365,-325.0,-325.0,-5.634920634920634,-3.571428571428571,-4.682539682539682,7.5396825396825395,5.0,-321.8253968253968
132,5.0,-172.14285714285714,9.126984126984127,-2.9365079365079363,1.8253968253968254,-325.0,3.888888888888889,7.222222222222221,4.0476190476190474,-219.76190476190476,-325.0,7.3809523809523805,18.333333333333332,-3.571428571428571,8.333333333333332,-90.39682539682539,-325.0,-325.0,-5.634920634920634,-3.73015873015873,-4.682539682539682,2.619047619047619,-1.1904761904761905,-321.8253968253968
133,5.0,-172.14285714285714,9.126984126984127,-2.9365079365079363,1.8253968253968254,-325.0,3.888888888888889,7.222222222222221,4.0476190476190474,-219.76190476190476,-325.0,7.3809523809523805,18.333333333333332,-3.571428571428571,8.333333333333332,-90.39682539682539,-325.0,-325.0,-5.634920634920634,-3.73015873015873,-4.682539682539682,2.619047619047619,-1.1904761904761905,-321.8253968253968
134,5.0,-168.4920634920635,8.968253968253968,-2.9365079365079363,0.873015873015873,-325.0,3.571428571428571,7.222222222222221,3.888888888888889,-215.0,-325.0,7.063492063492063,18.174603174603174,-3.571428571428571,7.857142857142857,-88.17460317460316,-325.0,-325.0,-5.476190476190476,-4.2063492063492065,-4.365079365079365,6.904761904761904,5.634920634920634,-321.8253968253968
135,5.0,-168.4920634920635,8.968253968253968,-2.9365079365079363,0.873015873015873,-325.0,3.571428571428571,7.222222222222221,3.888888888888889,-215.0,-325.0,7.063492063492063,18.174603174603174,-3.571428571428571,7.857142857142857,-88.17460317460316,-325.0,-325.0,-5.476190476190476,-4.2063492063492065,-4.365079365079365,6.904761904761904,5.634920634920634,-321.8253968253968
136,4.682539682539682,-165.0,8.65079365079365,-2.9365079365079363,1.8253968253968254,-325.0,3.73015873015873,7.063492063492063,3.888888888888889,-210.3968253968254,-325.0,6.904761904761904,17.539682539682538,-3.571428571428571,7.698412698412698,-86.1111111111111,-319.2857142857143,-325.0,-5.476190476190476,-3.73015873015873,-4.365079365079365,-5.158730158730158,-7.698412698412698,-321.8253968253968
137,4.682539682539682,-165.0,8.65079365079365,-2.9365079365079363,1.8253968253968254,-325.0,3.73015873015873,7.063492063492063,3.888888888888889,-210.3968253968254,-325.0,6.904761904761904,17.539682539682538,-3.571428571428571,7.698412698412698,-86.1111111111111,-319.2857142857143,-325.0,-5.476190476190476,-3.73015873015873,-4.365079365079365,-5.158730158730158,-7.698412698412698,-321.8253968253968
138,4.523809523809524,-162.77777777777777,8.65079365079365,-3.095238095238095,-96.26984126984127,-325.0,3.73015873015873,7.063492063492063,3.888888888888889,-207.53968253968253,-325.0,6.904761904761904,17.38095238095238,-3.888888888888889,7.857142857142857,-85.0,-315.0,-325.0,-5.634920634920634,-3.73015873015873,-4.365079365079365,8.333333333333332,5.158730158730158,-321.8253968253968
139,4.523809523809524,-162.77777777777777,8.65079365079365,-3.095238095238095,-96.26984126984127,-325.0,3.73015873015873,7.063492063492063,3.888888888888889,-207.53968253968253,-325.0,6.904761904761904,17.38095238095238,-3.888888888888889,7.857142857142857,-85.0,-315.0,-325.0,-5.634920634920634,-3.73015873015873,-4.365079365079365,8.333333333333332,5.158730158730158,-321.8253968253968
140,4.365079365079365,-159.6031746031746,8.492063492063492,-2.9365079365079363,-10.238095238095237,-325.0,3.4126984126984126,6.904761904761904,3.73015873015873,-203.25396825396825,-325.0,6.746031746031746,17.063492063492063,-3.571428571428571,7.5396825396825395,-83.25396825396825,-308.8095238095238,-325.0,-5.317460317460317,-3.73015873015873,-4.2063492063492065,-5.7936507936507935,-7.857142857142857,-166.26984126984127
141,4.365079365079365,-159.6031746031746,8.492063492063492,-2.9365079365079363,-10.238095238095237,-325.0,3.4126984126984126,6.904761904761904,3.73015873015873,-203.25396825396825,-325.0,6.746031746031746,17.063492063492063,-3.571428571428571,7.5396825396825395,-83.25396825396825,-308.8095238095238,-325.0,-5.317460317460317,-3.73015873015873,-4.2063492063492065,-5.7936507936507935,-7.857142857142857,-166.26984126984127
142,4.523809523809524,-157.38095238095238,8.333333333333332,-2.7777777777777777,-290.23809523809524,-325.0,3.4126984126984126,6.428571428571428,3.888888888888889,-200.7142857142857,-325.0,6.587301587301587,16.746031746031743,-3.4126984126984126,7.5396825396825395,-82.14285714285714,-304.68253968253964,-325.0,-5.158730158730158,-3.73015873015873,-4.2063492063492065,7.857142857142857,5.476190476190476,-166.26984126984127
143,4.523809523809524,-157.38095238095238,8.333333333333332,-2.7777777777777777,-290.23809523809524,-325.0,3.4126984126984126,6.428571428571428,3.888888888888889,-200.7142857142857,-325.0,6.587301587301587,16.746031746031743,-3.4126984126984126,7.5396825396825395,-82.14285714285714,-304.68253968253964,-325.0,-5.158730158730158,-3.73015873015873,-4.2063492063492065,7.857142857142857,5.476190476190476,-166.26984126984127
144,4.365079365079365,-154.04761904761904,8.174603174603174,-2.619047619047619,-73.4126984126984,-325.0,3.4126984126984126,6.587301587301587,3.73015873015873,-196.42857142857142,-325.0,6.587301587301587,16.26984126984127,-3.4126984126984126,7.3809523809523805,-80.39682539682539,-298.4920634920635,-143.73015873015873,-5.158730158730158,-3.571428571428571,-4.2063492063492065,-5.7936507936507935,-8.174603174603174,-166.26984126984127
145,4.365079365079365,-154.04761904761904,8.174603174603174,-2.619047619047619,-73.4126984126984,-325.0,3.4126984126984126,6.587301587301587,3.73015873015873,-196.42857142857142,-325.0,6.587301587301587,16.26984126984127,-3.4126984126984126,7.3809523809523805,-80.39682539682539,-298.4920634920635,-143.73015873015873,-5.158730158730158,-3.571428571428571,-4.2063492063492065,-5.7936507936507935,-8.174603174603174,-166.26984126984127
146,4.365079365079365,-152.14285714285714,8.174603174603174,-2.7777777777777777,-325.0,-325.0,3.253968253968254,6.746031746031746,3.73015873015873,-193.7301587301587,-325.0,6.587301587301587,16.26984126984127,-3.4126984126984126,7.3809523809523805,-79.44444444444444,-294.68253968253964,61.98412698412698,-5.158730158730158,-3.73015873015873,-4.0476190476190474,7.698412698412698,5.158730158730158,-166.26984126984127
147,4.365079365079365,-152.14285714285714,8.174603174603174,-2.7777777777777777,-325.0,-325.0,3.253968253968254,6.746031746031746,3.73015873015873,-193.7301587301587,-325.0,6.587301587301587,16.26984126984127,-3.4126984126984126,7.3809523809523805,-79.44444444444444,-294.68253968253964,61.98412698412698,-5.158730158730158,-3.73015873015873,-4.0476190476190474,7.698412698412698,5.158730158730158,-166.26984126984127
148,4.2063492063492065,-150.23809523809524,8.015873015873016,-2.9365079365079363,-273.25396825396825,-325.0,3.4126984126984126,6.587301587301587,3.571428571428571,-191.34920634920633,-325.0,6.428571428571428,15.95238095238095,-3.571428571428571,7.222222222222221,-78.4920634920635,-291.031746031746,193.4126984126984,-5.158730158730158,-3.73015873015873,-4.2063492063492065,1.984126984126984,-1.507936507936508,-166.26984126984127
149,4.2063492063492065,-150.23809523809524,8.015873015873016,-2.9365079365079363,-273.25396825396825,-325.0,3.4126984126984126,6.587301587301587,3.571428571428571,-191.34920634920633,-325.0,6.428571428571428,15.95238095238095,-3.571428571428571,7.222222222222221,-78.4920634920635,-291.031746031746,193.4126984126984,-5.158730158730158,-3.73015873015873,-4.2063492063492065,1.984126984126984,-1.507936507936508,-166.26984126984127
150,4.2063492063492065,-148.33333333333331,8.015873015873016,-3.095238095238095,-221.34920634920633,-325.0,3.571428571428571,6.428571428571428,3.571428571428571,-188.96825396825395,-325.0,6.428571428571428,15.793650793650793,-3.571428571428571,7.063492063492063,-77.53968253968253,-287.38095238095235,325.0,-5.158730158730158,-3.73015873015873,-4.2063492063492065,-3.571428571428571,-8.174603174603174,-321.8253968253968
151,4.2063492063492065,-148.33333333333331,8.015873015873016,-3.095238095238095,-221.34920634920633,-325.0,3.571428571428571,6.428571428571428,3.571428571428571,-188.96825396825395,-325.0,6.428571428571428,15.793650793650793,-3.571428571428571,7.063492063492063,-77.53968253968253,-287.38095238095235,325.0,-5.158730158730158,-3.73015873015873,-4.2063492063492065,-3.571428571428571,-8.174603174603174,-321.8253968253968
152,4.2063492063492065,-148.33333333333331,8.015873015873016,-3.095238095238095,-221.34920634920633,-325.0,3.571428571428571,6.428571428571428,3.571428571428571,-188.96825396825395,-325.0,6.428571428571428,15.793650793650793,-3.571428571428571,7.063492063492063,-77.53968253968253,-287.38095238095235,325.0,-5.158730158730158,-3.73015873015873,-4.2063492063492065,-3.571428571428571,-8.174603174603174,-321.8253968253968
153,4.2063492063492065,-148.33333333333331,8.015873015873016,-3.095238095238095,-221.34920634920633,-325.0,3.571428571428571,6.428571428571428,3.571428571428571,-188.96825396825395,-325.0,6.428571428571428,15.793650793650793,-3.571428571428571,7.063492063492063,-77.53968253968253,-287.38095238095235,325.0,-5.158730158730158,-3.73015873015873,-4.2063492063492065,-3.571428571428571,-8.174603174603174,-321.8253968253968
154,4.2063492063492065,-148.33333333333331,8.015873015873016,-3.095238095238095,-221.34920634920633,-325.0,3.571428571428571,6.428571428571428,3.571428571428571,-188.96825396825395,-325.0,6.428571428571428,15.793650793650793,-3.571428571428571,7.063492063492063,-77.53968253968253,-287.38095238095235,325.0,-5.158730158730158,-3.73015873015873,-4.2063492063492065,-3.571428571428571,-8.174603174603174,-321.8253968253968
155,4.2063492063492065,-148.33333333333331,8.015873015873016,-3.095238095238095,-221.34920634920633,-325.0,3.571428571428571,6.428571428571428,3.571428571428571,-188.96825396825395,-325.0,6.428571428571428,15.793650793650793,-3.571428571428571,7.063492063492063,-77.53968253968253,-287.38095238095235,325.0,-5.158730158730158,-3.73015873015873,-4.2063492063492065,-3.571428571428571,-8.174603174603174,-321.8253968253968
156,4.2063492063492065,-148.33333333333331,8.015873015873016,-3.095238095238095,-221.34920634920633,-325.0,3.571428571428571,6.428571428571428,3.571428571428571,-188.96825396825395,-325.0,6.428571428571428,15.793650793650793,-3.571428571428571,7.063492063492063,-77.53968253968253,-287.38095238095235,325.0,-5.158730158730158,-3.73015873015873,-4.2063492063492065,-3.571428571428571,-8.174603174603174,-321.8253968253968
157,4.2063492063492065,-148.33333333333331,8.015873015873016,-3.095238095238095,-221.34920634920633,-325.0,3.571428571428571,6.428571428571428,3.571428571428571,-188.96825396825395,-325.0,6.428571428571428,15.793650793650793,-3.571428571428571,7.063492063492063,-77.53968253968253,-287.38095238095235,325.0,-5.158730158730158,-3.73015873015873,-4.2063492063492065,-3.571428571428571,-8.174603174603174,-321.8253968253968
158,4.2063492063492065,-148.33333333333331,8.015873015873016,-3.095238095238095,-221.34920634920633,-325.0,3.571428571428571,6.428571428571428,3.571428571428571,-188.96825396825395,-325.0,6.428571428571428,15.793650793650793,-3.571428571428571,7.063492063492063,-77.53968253968253,-287.38095238095235,325.0,-5.158730158730158,-3.73015873015873,-4.2063492063492065,-3.571428571428571,-8.174603174603174,-321.8253968253968
159,4.2063492063492065,-148.33333333333331,8.015873015873016,-3.095238095238095,-221.34920634920633,-325.0,3.571428571428571,6.428571428571428,3.571428571428571,-188.96825396825395,-325.0,6.428571428571428,15.793650793650793,-3.571428571428571,7.063492063492063,-77.53968253968253,-287.38095238095235,325.0,-5.158730158730158,-3.73015873015873,-4.2063492063492065,-3.571428571428571,-8.174603174603174,-321.8253968253968
160,3.888888888888889,-134.2063492063492,7.063492063492063,-2.7777777777777777,-325.0,-325.0,2.9365079365079363,-9.761904761904761,3.253968253968254,-170.87301587301587,-325.0,5.634920634920634,14.206349206349206,-3.4126984126984126,6.428571428571428,-68.4920634920635,-260.87301587301585,325.0,-4.841269841269841,-3.253968253968254,-3.888888888888889,-5.0,-8.174603174603174,-166.26984126984127
161,3.888888888888889,-134.2063492063492,7.063492063492063,-2.7777777777777777,-325.0,-325.0,2.9365079365079363,-9.761904761904761,3.253968253968254,-170.87301587301587,-325.0,5.634920634920634,14.206349206349206,-3.4126984126984126,6.428571428571428,-68.4920634920635,-260.87301587301585,325.0,-4.841269841269841,-3.253968253968254,-3.888888888888889,-5.0,-8.174603174603174,-166.26984126984127
162,3.888888888888889,-132.61904761904762,7.063492063492063,-2.619047619047619,-325.0,-325.0,2.9365079365079363,-259.6031746031746,3.253968253968254,-168.8095238095238,-325.0,5.634920634920634,14.047619047619047,-3.095238095238095,6.26984126984127,-68.80952380952381,-257.53968253968253,325.0,-4.523809523809524,-3.4126984126984126,-3.73015873015873,8.015873015873016,5.317460317460317,-166.26984126984127
163,3.888888888888889,-132.61904761904762,7.063492063492063,-2.619047619047619,-325.0,-325.0,2.9365079365079363,-259.6031746031746,3.253968253968254,-168.8095238095238,-325.0,5.634920634920634,14.047619047619047,-3.095238095238095,6.26984126984127,-68.80952380952381,-257.53968253968253,325.0,-4.523809523809524,-3.4126984126984126,-3.73015873015873,8.015873015873016,5.317460317460317,-166.26984126984127
164,3.888888888888889,-129.76190476190476,6.746031746031746,-2.7777777777777777,-325.0,-325.0,2.9365079365079363,-119.76190476190476,3.253968253968254,-165.3174603174603,-325.0,5.634920634920634,13.571428571428571,-3.253968253968254,6.26984126984127,-50.87301587301587,-252.3015873015873,325.0,-4.682539682539682,-3.253968253968254,-3.888888888888889,-5.0,-7.857142857142857,-166.26984126984127
165,3.888888888888889,-129.76190476190476,6.746031746031746,-2.7777777777777777,-325.0,-325.0,2.9365079365079363,-119.76190476190476,3.253968253968254,-165.3174603174603,-325.0,5.634920634920634,13.571428571428571,-3.253968253968254,6.26984126984127,-50.87301587301587,-252.3015873015873,325.0,-4.682539682539682,-3.253968253968254,-3.888888888888889,-5.0,-7.857142857142857,-166.26984126984127
166,3.73015873015873,-128.015873015873,7.063492063492063,-2.7777777777777777,-325.0,-325.0,2.9365079365079363,-325.0,3.095238095238095,-162.93650793650792,-325.0,5.634920634920634,13.571428571428571,-3.253968253968254,6.26984126984127,-66.58730158730158,-248.96825396825395,325.0,-4.682539682539682,-3.4126984126984126,-3.571428571428571,7.698412698412698,5.952380952380952,-166.26984126984127
167,3.73015873015873,-128.015873015873,7.063492063492063,-2.7777777777777777,-325.0,-325.0,2.9365079365079363,-325.0,3.095238095238095,-162.93650793650792,-325.0,5.634920634920634,13.571428571428571,-3.253968253968254,6.26984126984127,-66.58730158730158,-248.96825396825395,325.0,-4.682539682539682,-3.4126984126984126,-3.571428571428571,7.698412698412698,5.952380952380952,-166.26984126984127
168,3.73015873015873,-126.42857142857142,6.904761904761904,-2.7777777777777777,-325.0,-325.0,2.9365079365079363,-325.0,3.095238095238095,-160.87301587301587,-325.0,5.317460317460317,13.412698412698411,-3.253968253968254,6.111111111111111,-53.41269841269841,-245.79365079365078,325.0,-4.682539682539682,-3.4126984126984126,-3.73015873015873,2.46031746031746,-1.349206349206349,-166.26984126984127
169,3.73015873015873,-126.42857142857142,6.904761904761904,-2.7777777777777777,-325.0,-325.0,2.9365079365079363,-325.0,3.095238095238095,-160.87301587301587,-325.0,5.317460317460317,13.412698412698411,-3.253968253968254,6.111111111111111,-53.41269841269841,-245.79365079365078,325.0,-4.682539682539682,-3.4126984126984126,-3.73015873015873,2.46031746031746,-1.349206349206349,-166.26984126984127
170,3.73015873015873,-123.57142857142857,6.587301587301587,-2.619047619047619,-325.0,-325.0,2.9365079365079363,-325.0,3.253968253968254,-157.38095238095238,-325.0,5.317460317460317,12.936507936507935,-3.095238095238095,5.7936507936507935,-64.52380952380952,-240.55555555555554,325.0,-4.523809523809524,-3.095238095238095,-3.73015873015873,7.857142857142857,5.7936507936507935,-321.8253968253968
171,3.73015873015873,-123.57142857142857,6.587301587301587,-2.619047619047619,-325.0,-325.0,2.9365079365079363,-325.0,3.253968253968254,-157.38095238095238,-325.0,5.317460317460317,12.936507936507935,-3.095238095238095,5.7936507936507935,-64.52380952380952,-240.55555555555554,325.0,-4.523809523809524,-3.095238095238095,-3.73015873015873,7.857142857142857,5.7936507936507935,-321.8253968253968
172,3.73015873015873,-121.98412698412697,6.428571428571428,-2.619047619047619,-325.0,-325.0,2.9365079365079363,-325.0,3.253968253968254,-155.3174603174603,-325.0,-13.571428571428571,12.777777777777777,-3.095238095238095,5.7936507936507935,-38.65079365079365,-237.53968253968253,325.0,-4.523809523809524,-3.095238095238095,-3.73015873015873,2.46031746031746,-1.1904761904761905,-321.8253968253968
173,3.73015873015873,-121.98412698412697,6.428571428571428,-2.619047619047619,-325.0,-325.0,2.9365079365079363,-325.0,3.253968253968254,-155.3174603174603,-325.0,-13.571428571428571,12.777777777777777,-3.095238095238095,5.7936507936507935,-38.65079365079365,-237.53968253968253,325.0,-4.523809523809524,-3.095238095238095,-3.73015873015873,2.46031746031746,-1.1904761904761905,-321.8253968253968
174,3.571428571428571,-119.12698412698413,6.26984126984127,-2.46031746031746,-325.0,-325.0,2.9365079365079363,-325.0,2.9365079365079363,-151.19047619047618,-325.0,-75.15873015873015,12.619047619047619,-3.253968253968254,5.476190476190476,-54.2063492063492,-231.66666666666666,325.0,-4.365079365079365,-3.095238095238095,-3.4126984126984126,3.73015873015873,6.587301587301587,-321.8253968253968
175,3.571428571428571,-119.12698412698413,6.26984126984127,-2.46031746031746,-325.0,-325.0,2.9365079365079363,-325.0,2.9365079365079363,-151.19047619047618,-325.0,-75.15873015873015,12.619047619047619,-3.253968253968254,5.476190476190476,-54.2063492063492,-231.66666666666666,325.0,-4.365079365079365,-3.095238095238095,-3.4126984126984126,3.73015873015873,6.587301587301587,-321.8253968253968
176,3.571428571428571,-117.22222222222221,5.952380952380952,-2.46031746031746,-325.0,-325.0,2.7777777777777777,-325.0,3.095238095238095,-148.8095238095238,-325.0,-70.23809523809524,12.3015873015873,-3.095238095238095,5.317460317460317,69.12698412698413,-227.85714285714283,325.0,-4.2063492063492065,-3.253968253968254,-3.4126984126984126,-6.26984126984127,-7.698412698412698,-321.8253968253968
177,3.571428571428571,-117.22222222222221,5.952380952380952,-2.46031746031746,-325.0,-325.0,2.7777777777777777,-325.0,3.095238095238095,-148.8095238095238,-325.0,-70.23809523809524,12.3015873015873,-3.095238095238095,5.317460317460317,69.12698412698413,-227.85714285714283,325.0,-4.2063492063492065,-3.253968253968254,-3.4126984126984126,-6.26984126984127,-7.698412698412698,-321.8253968253968
178,3.4126984126984126,-115.0,5.952380952380952,-2.619047619047619,-325.0,-325.0,2.619047619047619,-325.0,3.095238095238095,-146.11111111111111,-325.0,-309.9206349206349,12.142857142857142,-3.253968253968254,5.476190476190476,-45.63492063492063,-223.7301587301587,325.0,-4.365079365079365,-2.9365079365079363,-3.4126984126984126,5.158730158730158,7.063492063492063,-321.8253968253968
179,3.4126984126984126,-115.0,5.952380952380952,-2.619047619047619,-325.0,-325.0,2.619047619047619,-325.0,3.095238095238095,-146.11111111111111,-325.0,-309.9206349206349,12.142857142857142,-3.253968253968254,5.476190476190476,-45.63492063492063,-223.7301587301587,325.0,-4.365079365079365,-2.9365079365079363,-3.4126984126984126,5.158730158730158,7.063492063492063,-321.8253968253968
180,3.253968253968254,-113.57142857142857,5.952380952380952,-2.619047619047619,-325.0,-325.0,2.619047619047619,-325.0,3.095238095238095,-144.2063492063492,-325.0,-301.031746031746,11.984126984126984,-3.095238095238095,5.317460317460317,19.92063492063492,-220.87301587301587,325.0,-4.2063492063492065,-2.9365079365079363,-3.4126984126984126,0.23809523809523808,-0.07936507936507936,-166.26984126984127
181,3.253968253968254,-113.57142857142857,5.952380952380952,-2.619047619047619,-325.0,-325.0,2.619047619047619,-325.0,3.095238095238095,-144.2063492063492,-325.0,-301.031746031746,11.984126984126984,-3.095238095238095,5.317460317460317,19.92063492063492,-220.87301587301587,325.0,-4.2063492063492065,-2.9365079365079363,-3.4126984126984126,0.23809523809523808,-0.07936507936507936,-166.26984126984127
182,3.571428571428571,-111.66666666666666,5.7936507936507935,-2.142857142857143,-325.0,-325.0,2.7777777777777777,-325.0,3.095238095238095,-141.8253968253968,-325.0,-325.0,11.666666666666666,-2.9365079365079363,5.158730158730158,-52.14285714285714,-217.2222222222222,325.0,-4.2063492063492065,-2.9365079365079363,-3.095238095238095,8.809523809523808,6.587301587301587,-166.26984126984127
183,3.571428571428571,-111.66666666666666,5.7936507936507935,-2.142857142857143,-325.0,-325.0,2.7777777777777777,-325.0,3.095238095238095,-141.8253968253968,-325.0,-325.0,11.666666666666666,-2.9365079365079363,5.158730158730158,-52.14285714285714,-217.2222222222222,325.0,-4.2063492063492065,-2.9365079365079363,-3.095238095238095,8.809523809523808,6.587301587301587,-166.26984126984127
184,3.4126984126984126,-110.23809523809523,5.634920634920634,-2.3015873015873014,-325.0,-325.0,2.619047619047619,-325.0,3.095238095238095,-140.07936507936506,-325.0,-325.0,11.507936507936508,-2.9365079365079363,5.158730158730158,34.682539682539684,-214.68253968253967,325.0,-4.2063492063492065,-2.9365079365079363,-3.253968253968254,3.4126984126984126,-1.349206349206349,-166.26984126984127
185,3.4126984126984126,-110.23809523809523,5.634920634920634,-2.3015873015873014,-325.0,-325.0,2.619047619047619,-325.0,3.095238095238095,-140.07936507936506,-325.0,-325.0,11.507936507936508,-2.9365079365079363,5.158730158730158,34.682539682539684,-214.68253968253967,325.0,-4.2063492063492065,-2.9365079365079363,-3.253968253968254,3.4126984126984126,-1.349206349206349,-166.26984126984127
186,3.253968253968254,-107.6984126984127,5.952380952380952,-2.46031746031746,-325.0,-325.0,2.3015873015873014,-325.0,2.9365079365079363,-137.06349206349205,-325.0,-325.0,11.349206349206348,-2.9365079365079363,5.158730158730158,-44.84126984126984,-210.07936507936506,325.0,-4.0476190476190474,-3.095238095238095,-3.095238095238095,7.3809523809523805,5.476190476190476,-166.26984126984127
187,3.253968253968254,-107.6984126984127,5.952380952380952,-2.46031746031746,-325.0,-325.0,2.3015873015873014,-325.0,2.9365079365079363,-137.06349206349205,-325.0,-325.0,11.349206349206348,-2.9365079365079363,5.158730158730158,-44.84126984126984,-210.07936507936506,325.0,-4.0476190476190474,-3.095238095238095,-3.095238095238095,7.3809523809523805,5.476190476190476,-166.26984126984127
188,3.253968253968254,-106.42857142857142,5.7936507936507935,-2.46031746031746,-325.0,-325.0,2.46031746031746,-325.0,2.7777777777777777,-135.3174603174603,-325.0,-325.0,11.19047619047619,-2.9365079365079363,5.158730158730158,64.2063492063492,-207.53968253968253,325.0,-4.0476190476190474,-3.095238095238095,-3.253968253968254,1.6666666666666665,-1.1904761904761905,-166.26984126984127
189,3.253968253968254,-106.42857142857142,5.7936507936507935,-2.46031746031746,-325.0,-325.0,2.46031746031746,-325.0,2.7777777777777777,-135.3174603174603,-325.0,-325.0,11.19047619047619,-2.9365079365079363,5.158730158730158,64.2063492063492,-207.53968253968253,325.0,-4.0476190476190474,-3.095238095238095,-3.253968253968254,1.6666666666666665,-1.1904761904761905,-166.26984126984127
190,3.253968253968254,-103.88888888888889,5.476190476190476,-2.46031746031746,-325.0,-325.0,2.46031746031746,-325.0,2.9365079365079363,-132.46031746031744,-325.0,-325.0,10.873015873015872,-2.7777777777777777,5.0,-36.269841269841265,-203.09523809523807,325.0,-3.888888888888889,-2.9365079365079363,-3.4126984126984126,6.587301587301587,6.26984126984127,-321.8253968253968
191,3.253968253968254,-103.88888888888889,5.476190476190476,-2.46031746031746,-325.0,-325.0,2.46031746031746,-325.0,2.9365079365079363,-132.46031746031744,-325.0,-325.0,10.873015873015872,-2.7777777777777777,5.0,-36.269841269841265,-203.09523809523807,325.0,-3.888888888888889,-2.9365079365079363,-3.4126984126984126,6.587301587301587,6.26984126984127,-321.8253968253968
192,3.095238095238095,-101.82539682539682,5.158730158730158,-2.46031746031746,-325.0,-325.0,2.46031746031746,-325.0,2.619047619047619,-129.44444444444443,-325.0,-325.0,10.873015873015872,-2.9365079365079363,4.682539682539682,279.9206349206349,-198.8095238095238,325.0,-4.0476190476190474,-2.7777777777777777,-3.095238095238095,-5.476190476190476,-7.063492063492063,-321.8253968253968
193,3.095238095238095,-101.82539682539682,5.158730158730158,-2.46031746031746,-325.0,-325.0,2.46031746031746,-325.0,2.619047619047619,-129.44444444444443,-325.0,-325.0,10.873015873015872,-2.9365079365079363,4.682539682539682,279.9206349206349,-198.8095238095238,325.0,-4.0476190476190474,-2.7777777777777777,-3.095238095238095,-5.476190476190476,-7.063492063492063,-321.8253968253968
194,3.253968253968254,-100.55555555555554,5.317460317460317,-2.3015873015873014,-325.0,-325.0,2.46031746031746,-325.0,2.7777777777777777,-128.015873015873,-325.0,-325.0,10.714285714285714,-2.9365079365079363,4.523809523809524,-8.65079365079365,-196.26984126984127,325.0,-3.888888888888889,-2.9365079365079363,-2.9365079365079363,7.3809523809523805,6.26984126984127,-321.8253968253968
195,3.253968253968254,-100.55555555555554,5.317460317460317,-2.3015873015873014,-325.0,-325.0,2.46031746031746,-325.0,2.7777777777777777,-128.015873015873,-325.0,-325.0,10.714285714285714,-2.9365079365079363,4.523809523809524,-8.65079365079365,-196.26984126984127,325.0,-3.888888888888889,-2.9365079365079363,-2.9365079365079363,7.3809523809523805,6.26984126984127,-321.8253968253968
196,3.095238095238095,-98.49206349206348,5.0,-2.3015873015873014,-325.0,-325.0,2.3015873015873014,-325.0,2.619047619047619,-125.15873015873015,-325.0,-325.0,10.396825396825395,-2.9365079365079363,4.682539682539682,308.8095238095238,-192.3015873015873,325.0,-3.888888888888889,-2.7777777777777777,-2.9365079365079363,-5.476190476190476,-7.857142857142857,-321.8253968253968
197,3.095238095238095,-98.49206349206348,5.0,-2.3015873015873014,-325.0,-325.0,2.3015873015873014,-325.0,2.619047619047619,-125.15873015873015,-325.0,-325.0,10.396825396825395,-2.9365079365079363,4.682539682539682,308.8095238095238,-192.3015873015873,325.0,-3.888888888888889,-2.7777777777777777,-2.9365079365079363,-5.476190476190476,-7.857142857142857,-321.8253968253968
198,3.095238095238095,-97.06349206349206,5.158730158730158,-1.984126984126984,-325.0,-325.0,2.46031746031746,-325.0,2.619047619047619,-123.4126984126984,-325.0,-325.0,10.396825396825395,-3.095238095238095,4.523809523809524,19.92063492063492,-189.76190476190476,325.0,-4.0476190476190474,-2.619047619047619,-2.9365079365079363,6.587301587301587,6.26984126984127,-321.8253968253968
199,3.095238095238095,-97.06349206349206,5.158730158730158,-1.984126984126984,-325.0,-325.0,2.46031746031746,-325.0,2.619047619047619,-123.4126984126984,-325.0,-325.0,10.396825396825395,-3.095238095238095,4.523809523809524,19.92063492063492,-189.76190476190476,325.0,-4.0476190476190474,-2.619047619047619,-2.9365079365079363,6.587301587301587,6.26984126984127,-321.8253968253968
200,2.9365079365079363,-95.31746031746032,5.0,-2.3015873015873014,-325.0,-325.0,2.3015873015873014,-325.0,2.7777777777777777,-121.03174603174602,-325.0,-325.0,10.079365079365079,-3.095238095238095,4.523809523809524,325.0,-185.95238095238093,325.0,-3.73015873015873,-2.7777777777777777,-3.095238095238095,-5.317460317460317,-6.587301587301587,-166.26984126984127
201,2.9365079365079363,-95.31746031746032,5.0,-2.3015873015873014,-325.0,-325.0,2.3015873015873014,-325.0,2.7777777777777777,-121.03174603174602,-325.0,-325.0,10.079365079365079,-3.095238095238095,4.523809523809524,325.0,-185.95238095238093,325.0,-3.73015873015873,-2.7777777777777777,-3.095238095238095,-5.317460317460317,-6.587301587301587,-166.26984126984127
202,2.9365079365079363,-93.57142857142857,4.841269841269841,-2.3015873015873014,-325.0,-325.0,2.142857142857143,-325.0,2.619047619047619,-118.96825396825396,-325.0,-325.0,9.603174603174603,-2.7777777777777777,4.523809523809524,126.1111111111111,-182.93650793650792,325.0,-3.571428571428571,-2.9365079365079363,-2.9365079365079363,4.682539682539682,6.428571428571428,-166.26984126984127
203,2.9365079365079363,-93.57142857142857,4.841269841269841,-2.3015873015873014,-325.0,-325.0,2.142857142857143,-325.0,2.619047619047619,-118.96825396825396,-325.0,-325.0,9.603174603174603,-2.7777777777777777,4.523809523809524,126.1111111111111,-182.93650793650792,325.0,-3.571428571428571,-2.9365079365079363,-2.9365079365079363,4.682539682539682,6.428571428571428,-166.26984126984127
204,2.9365079365079363,-91.19047619047619,4.841269841269841,-2.3015873015873014,-325.0,-325.0,2.142857142857143,-325.0,2.7777777777777777,-115.95238095238095,-325.0,-325.0,9.444444444444445,-2.7777777777777777,4.365079365079365,220.2380952380952,-178.4920634920635,238.96825396825395,-3.571428571428571,-2.9365079365079363,-2.7777777777777777,3.095238095238095,-0.07936507936507936,-166.26984126984127
205,2.9365079365079363,-91.19047619047619,4.841269841269841,-2.3015873015873014,-325.0,-325.0,2.142857142857143,-325.0,2.7777777777777777,-115.95238095238095,-325.0,-325.0,9.444444444444445,-2.7777777777777777,4.365079365079365,220.2380952380952,-178.4920634920635,238.96825396825395,-3.571428571428571,-2.9365079365079363,-2.7777777777777777,3.095238095238095,-0.07936507936507936,-166.26984126984127
206,2.619047619047619,-89.76190476190476,4.841269841269841,-2.142857142857143,-325.0,-325.0,2.142857142857143,-325.0,2.7777777777777777,-114.2063492063492,-325.0,-325.0,9.444444444444445,-2.619047619047619,4.523809523809524,259.2857142857143,-175.79365079365078,217.38095238095238,-3.571428571428571,-2.619047619047619,-2.7777777777777777,1.1904761904761905,6.111111111111111,-166.26984126984127
207,2.619047619047619,-89.76190476190476,4.841269841269841,-2.142857142857143,-325.0,-325.0,2.142857142857143,-325.0,2.7777777777777777,-114.2063492063492,-325.0,-325.0,9.444444444444445,-2.619047619047619,4.523809523809524,259.2857142857143,-175.79365079365078,217.38095238095238,-3.571428571428571,-2.619047619047619,-2.7777777777777777,1.1904761904761905,6.111111111111111,-166.26984126984127
208,2.619047619047619,-86.1111111111111,4.523809523809524,-2.3015873015873014,-325.0,-325.0,1.984126984126984,-325.0,2.619047619047619,-109.76190476190476,-322.46031746031747,-325.0,8.968253968253968,-2.619047619047619,4.0476190476190474,292.1428571428571,-168.8095238095238,91.66666666666666,-3.571428571428571,-2.7777777777777777,-2.7777777777777777,-0.3968253968253968,-0.5555555555555556,-166.26984126984127
209,2.619047619047619,-86.1111111111111,4.523809523809524,-2.3015873015873014,-325.0,-325.0,1.984126984126984,-325.0,2.619047619047619,-109.76190476190476,-322.46031746031747,-325.0,8.968253968253968,-2.619047619047619,4.0476190476190474,292.1428571428571,-168.8095238095238,91.66666666666666,-3.571428571428571,-2.7777777777777777,-2.7777777777777777,-0.3968253968253968,-0.5555555555555556,-166.26984126984127
210,2.7777777777777777,-82.3015873015873,4.365079365079365,-2.3015873015873014,-325.0,-325.0,1.984126984126984,-325.0,2.46031746031746,-105.15873015873015,-319.76190476190476,-325.0,8.65079365079365,-2.619047619047619,3.73015873015873,325.0,-161.8253968253968,-34.047619047619044,-3.4126984126984126,-2.7777777777777777,-2.7777777777777777,-1.8253968253968254,-7.222222222222221,-321.8253968253968
211,2.7777777777777777,-82.3015873015873,4.365079365079365,-2.3015873015873014,-325.0,-325.0,1.984126984126984,-325.0,2.46031746031746,-105.15873015873015,-319.76190476190476,-325.0,8.65079365079365,-2.619047619047619,3.73015873015873,325.0,-161.8253968253968,-34.047619047619044,-3.4126984126984126,-2.7777777777777777,-2.7777777777777777,-1.8253968253968254,-7.222222222222221,-321.8253968253968
212,2.7777777777777777,-82.3015873015873,4.365079365079365,-2.3015873015873014,-325.0,-325.0,1.984126984126984,-325.0,2.46031746031746,-105.15873015873015,-319.76190476190476,-325.0,8.65079365079365,-2.619047619047619,3.73015873015873,325.0,-161.8253968253968,-34.047619047619044,-3.4126984126984126,-2.7777777777777777,-2.7777777777777777,-1.8253968253968254,-7.222222222222221,-321.8253968253968
213,2.7777777777777777,-82.3015873015873,4.365079365079365,-2.3015873015873014,-325.0,-325.0,1.984126984126984,-325.0,2.46031746031746,-105.15873015873015,-319.76190476190476,-325.0,8.65079365079365,-2.619047619047619,3.73015873015873,325.0,-161.8253968253968,-34.047619047619044,-3.4126984126984126,-2.7777777777777777,-2.7777777777777777,-1.8253968253968254,-7.222222222222221,-321.8253968253968
214,-161.19047619047618,-46.58730158730158,3.4126984126984126,-1.984126984126984,-306.58730158730157,-254.84126984126982,-161.5079365079365,-322.1428571428571,2.142857142857143,-80.39682539682539,-247.85714285714283,-325.0,6.746031746031746,161.19047619047618,2.9365079365079363,325.0,-124.04761904761904,-179.60317460317458,-2.9365079365079363,161.03174603174602,161.03174603174602,-1.0317460317460316,-1.6666666666666665,-321.8253968253968
215,-161.19047619047618,-46.58730158730158,3.4126984126984126,-1.984126984126984,-306.58730158730157,-254.84126984126982,-161.5079365079365,-322.1428571428571,2.142857142857143,-80.39682539682539,-247.85714285714283,-325.0,6.746031746031746,161.19047619047618,2.9365079365079363,325.0,-124.04761904761904,-179.60317460317458,-2.9365079365079363,161.03174603174602,161.03174603174602,-1.0317460317460316,-1.6666666666666665,-321.8253968253968
216,-325.0,-10.873015873015872,2.46031746031746,-1.507936507936508,-288.015873015873,-184.68253968253967,-325.0,-319.2857142857143,1.984126984126984,-55.476190476190474,-175.79365079365078,-325.0,5.0,325.0,2.142857142857143,325.0,-86.1111111111111,-325.0,-2.3015873015873014,325.0,325.0,-0.07936507936507936,3.888888888888889,-321.8253968253968
217,-325.0,-10.873015873015872,2.46031746031746,-1.507936507936508,-288.015873015873,-184.68253968253967,-325.0,-319.2857142857143,1.984126984126984,-55.476190476190474,-175.79365079365078,-325.0,5.0,325.0,2.142857142857143,325.0,-86.1111111111111,-325.0,-2.3015873015873014,325.0,325.0,-0.07936507936507936,3.888888888888889,-321.8253968253968
218,-325.0,-10.873015873015872,2.46031746031746,-1.507936507936508,-288.015873015873,-184.68253968253967,-325.0,-319.2857142857143,1.984126984126984,-55.476190476190474,-175.79365079365078,-325.0,5.0,325.0,2.142857142857143,325.0,-86.1111111111111,-325.0,-2.3015873015873014,325.0,325.0,-0.07936507936507936,3.888888888888889,-321.8253968253968
219,-325.0,-10.873015873015872,2.46031746031746,-1.507936507936508,-288.015873015873,-184.68253968253967,-325.0,-319.2857142857143,1.984126984126984,-55.476190476190474,-175.79365079365078,-325.0,5.0,325.0,2.142857142857143,325.0,-86.1111111111111,-325.0,-2.3015873015873014,325.0,325.0,-0.07936507936507936,3.888888888888889,-321.8253968253968
220,-325.0,157.06349206349205,-161.34920634920633,161.66666666666666,-213.25396825396825,-123.57142857142857,-307.69841269841265,-215.3174603174603,-161.5079365079365,-0.5555555555555556,-127.53968253968253,-220.2380952380952,-160.07936507936506,252.77777777777777,-161.5079365079365,237.53968253968253,-155.47619047619048,-223.4126984126984,161.34920634920633,275.0,325.0,3.73015873015873,6.111111111111111,-166.26984126984127
221,-325.0,157.06349206349205,-161.34920634920633,161.66666666666666,-213.25396825396825,-123.57142857142857,-307.69841269841265,-215.3174603174603,-161.5079365079365,-0.5555555555555556,-127.53968253968253,-220.2380952380952,-160.07936507936506,252.77777777777777,-161.5079365079365,237.53968253968253,-155.47619047619048,-223.4126984126984,161.34920634920633,275.0,325.0,3.73015873015873,6.111111111111111,-166.26984126984127
222,-323.73015873015873,325.0,-325.0,325.0,-133.0952380952381,-59.92063492063492,-278.8095238095238,-106.74603174603175,-325.0,325.0,-76.26984126984127,-110.71428571428571,-325.0,172.93650793650792,-325.0,196.74603174603175,-154.52380952380952,-117.06349206349206,325.0,215.79365079365078,324.36507936507934,-2.46031746031746,2.142857142857143,-166.26984126984127
223,-323.73015873015873,325.0,-325.0,325.0,-133.0952380952381,-59.92063492063492,-278.8095238095238,-106.74603174603175,-325.0,325.0,-76.26984126984127,-110.71428571428571,-325.0,172.93650793650792,-325.0,196.74603174603175,-154.52380952380952,-117.06349206349206,325.0,215.79365079365078,324.36507936507934,-2.46031746031746,2.142857142857143,-166.26984126984127
224,-322.3015873015873,325.0,-325.0,325.0,-128.8095238095238,-57.857142857142854,-269.2857142857143,-103.25396825396825,-325.0,325.0,-73.73015873015872,-106.58730158730158,-325.0,166.9047619047619,-325.0,189.76190476190476,-139.9206349206349,-113.25396825396825,325.0,208.65079365079364,323.73015873015873,-2.7777777777777777,1.349206349206349,-166.26984126984127
225,-322.3015873015873,325.0,-325.0,325.0,-128.8095238095238,-57.857142857142854,-269.2857142857143,-103.25396825396825,-325.0,325.0,-73.73015873015872,-106.58730158730158,-325.0,166.9047619047619,-325.0,189.76190476190476,-139.9206349206349,-113.25396825396825,325.0,208.65079365079364,323.73015873015873,-2.7777777777777777,1.349206349206349,-166.26984126984127
226,-322.3015873015873,325.0,-325.0,325.0,-128.8095238095238,-57.857142857142854,-269.2857142857143,-103.25396825396825,-325.0,325.0,-73.73015873015872,-106.58730158730158,-325.0,166.9047619047619,-325.0,189.76190476190476,-139.9206349206349,-113.25396825396825,325.0,208.65079365079364,323.73015873015873,-2.7777777777777777,1.349206349206349,-166.26984126984127
227,-322.3015873015873,325.0,-325.0,325.0,-128.8095238095238,-57.857142857142854,-269.2857142857143,-103.25396825396825,-325.0,325.0,-73.73015873015872,-106.58730158730158,-325.0,166.9047619047619,-325.0,189.76190476190476,-139.9206349206349,-113.25396825396825,325.0,208.65079365079364,323.73015873015873,-2.7777777777777777,1.349206349206349,-166.26984126984127
228,-310.55555555555554,325.0,-325.0,325.0,-124.36507936507935,-55.95238095238095,-259.6031746031746,-99.76190476190476,-325.0,325.0,-71.19047619047619,-102.93650793650794,-325.0,160.55555555555554,-325.0,195.63492063492063,-30.87301587301587,-109.28571428571428,325.0,201.19047619047618,311.5079365079365,-5.7936507936507935,-4.841269841269841,-166.26984126984127
229,-310.55555555555554,325.0,-325.0,325.0,-124.36507936507935,-55.95238095238095,-259.6031746031746,-99.76190476190476,-325.0,325.0,-71.19047619047619,-102.93650793650794,-325.0,160.55555555555554,-325.0,195.63492063492063,-30.87301587301587,-109.28571428571428,325.0,201.19047619047618,311.5079365079365,-5.7936507936507935,-4.841269841269841,-166.26984126984127
230,-298.6507936507936,325.0,-325.0,325.0,-119.76190476190476,-53.888888888888886,-249.9206349206349,-96.26984126984127,-325.0,325.0,-68.65079365079364,-99.28571428571428,-325.0,154.2063492063492,-325.0,201.5079365079365,78.17460317460316,-105.15873015873015,325.0,193.7301587301587,299.4444444444444,-8.65079365079365,-11.031746031746032,-321.8253968253968
231,-298.6507936507936,325.0,-325.0,325.0,-119.76190476190476,-53.888888888888886,-249.9206349206349,-96.26984126984127,-325.0,325.0,-68.65079365079364,-99.28571428571428,-325.0,154.2063492063492,-325.0,201.5079365079365,78.17460317460316,-105.15873015873015,325.0,193.7301587301587,299.4444444444444,-8.65079365079365,-11.031746031746032,-321.8253968253968
232,-298.6507936507936,325.0,-325.0,325.0,-119.76190476190476,-53.888888888888886,-249.9206349206349,-96.26984126984127,-325.0,325.0,-68.65079365079364,-99.28571428571428,-325.0,154.2063492063492,-325.0,201.5079365079365,78.17460317460316,-105.15873015873015,325.0,193.7301587301587,299.4444444444444,-8.65079365079365,-11.031746031746032,-321.8253968253968
233,-298.6507936507936,325.0,-325.0,325.0,-119.76190476190476,-53.888888888888886,-249.9206349206349,-96.26984126984127,-325.0,325.0,-68.65079365079364,-99.28571428571428,-325.0,154.2063492063492,-325.0,201.5079365079365,78.17460317460316,-105.15873015873015,325.0,193.7301587301587,299.4444444444444,-8.65079365079365,-11.031746031746032,-321.8253968253968
234,-298.6507936507936,325.0,-325.0,325.0,-119.76190476190476,-53.888888888888886,-249.9206349206349,-96.26984126984127,-325.0,325.0,-68.65079365079364,-99.28571428571428,-325.0,154.2063492063492,-325.0,201.5079365079365,78.17460317460316,-105.15873015873015,325.0,193.7301587301587,299.4444444444444,-8.65079365079365,-11.031746031746032,-321.8253968253968
235,-298.6507936507936,325.0,-325.0,325.0,-119.76190476190476,-53.888888888888886,-249.9206349206349,-96.26984126984127,-325.0,325.0,-68.65079365079364,-99.28571428571428,-325.0,154.2063492063492,-325.0,201.5079365079365,78.17460317460316,-105.15873015873015,325.0,193.7301587301587,299.4444444444444,-8.65079365079365,-11.031746031746032,-321.8253968253968
236,-51.666666666666664,176.42857142857142,-119.92063492063491,56.11111111111111,-7.857142857142857,199.28571428571428,-45.15873015873016,-14.206349206349206,-87.85714285714285,187.53968253968253,225.15873015873015,-17.698412698412696,-123.25396825396825,25.317460317460316,-114.52380952380952,76.74603174603175,268.6507936507936,-325.0,143.73015873015873,34.36507936507936,50.238095238095234,-2.46031746031746,-5.952380952380952,-321.8253968253968
237,-51.666666666666664,176.42857142857142,-119.92063492063491,56.11111111111111,-7.857142857142857,199.28571428571428,-45.15873015873016,-14.206349206349206,-87.85714285714285,187.53968253968253,225.15873015873015,-17.698412698412696,-123.25396825396825,25.317460317460316,-114.52380952380952,76.74603174603175,268.6507936507936,-325.0,143.73015873015873,34.36507936507936,50.238095238095234,-2.46031746031746,-5.952380952380952,-321.8253968253968
238,-51.03174603174603,154.52380952380952,-118.33333333333333,55.476190476190474,-4.2063492063492065,103.09523809523809,-44.52380952380952,-18.174603174603174,-86.74603174603175,124.36507936507935,121.98412698412697,-17.857142857142858,-121.5079365079365,25.0,-113.09523809523809,46.11111111111111,223.25396825396825,-325.0,141.8253968253968,34.047619047619044,49.6031746031746,-0.7142857142857142,-0.7142857142857142,-321.8253968253968
239,-51.03174603174603,154.52380952380952,-118.33333333333333,55.476190476190474,-4.2063492063492065,103.09523809523809,-44.52380952380952,-18.174603174603174,-86.74603174603175,124.36507936507935,121.98412698412697,-17.857142857142858,-121.5079365079365,25.0,-113.09523809523809,46.11111111111111,223.25396825396825,-325.0,141.8253968253968,34.047619047619044,49.6031746031746,-0.7142857142857142,-0.7142857142857142,-321.8253968253968
240,-49.92063492063492,143.09523809523807,-115.79365079365078,54.36507936507936,21.507936507936506,113.73015873015872,-43.73015873015873,-18.65079365079365,-84.84126984126983,90.55555555555556,105.63492063492063,-17.698412698412696,-119.28571428571428,24.523809523809522,-110.87301587301587,-6.746031746031746,191.98412698412696,-325.0,138.96825396825395,33.095238095238095,48.650793650793645,-2.46031746031746,-5.7936507936507935,-166.26984126984127
241,-49.92063492063492,143.09523809523807,-115.79365079365078,54.36507936507936,21.507936507936506,113.73015873015872,-43.73015873015873,-18.65079365079365,-84.84126984126983,90.55555555555556,105.63492063492063,-17.698412698412696,-119.28571428571428,24.523809523809522,-110.87301587301587,-6.746031746031746,191.98412698412696,-325.0,138.96825396825395,33.095238095238095,48.650793650793645,-2.46031746031746,-5.7936507936507935,-166.26984126984127
242,-49.12698412698413,101.66666666666666,-114.2063492063492,53.73015873015873,-4.365079365079365,62.14285714285714,-42.93650793650794,-18.65079365079365,-83.73015873015872,18.96825396825397,34.047619047619044,-17.38095238095238,-117.53968253968253,24.206349206349206,-109.28571428571428,-46.42857142857142,102.61904761904762,-325.0,137.38095238095238,32.61904761904762,47.857142857142854,-1.349206349206349,-0.5555555555555556,-166.26984126984127
243,-49.12698412698413,101.66666666666666,-114.2063492063492,53.73015873015873,-4.365079365079365,62.14285714285714,-42.93650793650794,-18.65079365079365,-83.73015873015872,18.96825396825397,34.047619047619044,-17.38095238095238,-117.53968253968253,24.206349206349206,-109.28571428571428,-46.42857142857142,102.61904761904762,-325.0,137.38095238095238,32.61904761904762,47.857142857142854,-1.349206349206349,-0.5555555555555556,-166.26984126984127
244,-48.650793650793645,128.96825396825395,-113.09523809523809,53.25396825396825,0.23809523809523808,113.73015873015872,-42.3015873015873,-18.49206349206349,-82.77777777777777,138.65079365079364,53.57142857142857,-16.904761904761905,-116.42857142857142,24.047619047619047,-108.17460317460316,47.857142857142854,136.42857142857142,-325.0,136.26984126984127,32.460317460317455,47.22222222222222,-6.746031746031746,-1.507936507936508,-166.26984126984127
245,-48.650793650793645,128.96825396825395,-113.09523809523809,53.25396825396825,0.23809523809523808,113.73015873015872,-42.3015873015873,-18.49206349206349,-82.77777777777777,138.65079365079364,53.57142857142857,-16.904761904761905,-116.42857142857142,24.047619047619047,-108.17460317460316,47.857142857142854,136.42857142857142,-325.0,136.26984126984127,32.460317460317455,47.22222222222222,-6.746031746031746,-1.507936507936508,-166.26984126984127
246,-9.603174603174603,21.825396825396822,-20.71428571428571,9.444444444444445,64.68253968253968,83.09523809523809,12.777777777777777,58.650793650793645,-15.476190476190474,-51.19047619047619,103.25396825396825,58.01587301587301,-20.396825396825395,-18.96825396825397,-20.873015873015873,-141.984126984127,20.238095238095237,325.0,23.57142857142857,-241.34920634920633,5.158730158730158,0.873015873015873,-2.142857142857143,-166.26984126984127
247,-9.603174603174603,21.825396825396822,-20.71428571428571,9.444444444444445,64.68253968253968,83.09523809523809,12.777777777777777,58.650793650793645,-15.476190476190474,-51.19047619047619,103.25396825396825,58.01587301587301,-20.396825396825395,-18.96825396825397,-20.873015873015873,-141.984126984127,20.238095238095237,325.0,23.57142857142857,-241.34920634920633,5.158730158730158,0.873015873015873,-2.142857142857143,-166.26984126984127
248,-9.126984126984127,7.857142857142857,-20.238095238095237,9.285714285714285,79.92063492063491,101.66666666666666,31.666666666666664,85.63492063492063,-15.317460317460316,-20.238095238095237,100.23809523809523,95.31746031746032,-19.285714285714285,-20.555555555555554,-20.555555555555554,-104.68253968253968,10.079365079365079,325.0,23.253968253968253,-242.14285714285714,-2.3015873015873014,-1.8253968253968254,-0.3968253968253968,-166.26984126984127
249,-9.126984126984127,7.857142857142857,-20.238095238095237,9.285714285714285,79.92063492063491,101.66666666666666,31.666666666666664,85.63492063492063,-15.317460317460316,-20.238095238095237,100.23809523809523,95.31746031746032,-19.285714285714285,-20.555555555555554,-20.555555555555554,-104.68253968253968,10.079365079365079,325.0,23.253968253968253,-242.14285714285714,-2.3015873015873014,-1.8253968253968254,-0.3968253968253968,-166.26984126984127
250,-9.126984126984127,42.3015873015873,-19.92063492063492,9.126984126984127,64.2063492063492,89.76190476190476,12.777777777777777,66.9047619047619,-15.158730158730158,-40.238095238095234,105.31746031746032,60.079365079365076,-19.285714285714285,-24.523809523809522,-20.396825396825395,-133.88888888888889,16.746031746031743,325.0,22.777777777777775,-249.60317460317458,4.523809523809524,2.142857142857143,-1.984126984126984,-321.8253968253968
251,-9.126984126984127,42.3015873015873,-19.92063492063492,9.126984126984127,64.2063492063492,89.76190476190476,12.777777777777777,66.9047619047619,-15.158730158730158,-40.238095238095234,105.31746031746032,60.079365079365076,-19.285714285714285,-24.523809523809522,-20.396825396825395,-133.88888888888889,16.746031746031743,325.0,22.777777777777775,-249.60317460317458,4.523809523809524,2.142857142857143,-1.984126984126984,-321.8253968253968
252,-9.126984126984127,-136.26984126984127,-19.76190476190476,9.126984126984127,-39.12698412698413,-117.6984126984127,-15.476190476190474,-41.82539682539682,-15.0,-233.7301587301587,-59.6031746031746,-50.39682539682539,-19.444444444444443,-56.904761904761905,-20.396825396825395,-295.95238095238096,-103.88888888888889,325.0,22.777777777777775,-174.2063492063492,9.285714285714285,9.444444444444445,5.476190476190476,-321.8253968253968
253,-9.126984126984127,-136.26984126984127,-19.76190476190476,9.126984126984127,-39.12698412698413,-117.6984126984127,-15.476190476190474,-41.82539682539682,-15.0,-233.7301587301587,-59.6031746031746,-50.39682539682539,-19.444444444444443,-56.904761904761905,-20.396825396825395,-295.95238095238096,-103.88888888888889,325.0,22.777777777777775,-174.2063492063492,9.285714285714285,9.444444444444445,5.476190476190476,-321.8253968253968
254,-8.968253968253968,39.76190476190476,-19.285714285714285,8.809523809523808,62.93650793650793,95.47619047619047,12.936507936507935,69.12698412698413,-14.84126984126984,-29.444444444444443,109.28571428571428,61.03174603174603,-18.80952380952381,-18.333333333333332,-19.76190476190476,-126.58730158730158,27.539682539682538,325.0,21.984126984126984,-245.47619047619045,1.984126984126984,1.507936507936508,-1.6666666666666665,-321.8253968253968
255,-8.968253968253968,39.76190476190476,-19.285714285714285,8.809523809523808,62.93650793650793,95.47619047619047,12.936507936507935,69.12698412698413,-14.84126984126984,-29.444444444444443,109.28571428571428,61.03174603174603,-18.80952380952381,-18.333333333333332,-19.76190476190476,-126.58730158730158,27.539682539682538,325.0,21.984126984126984,-245.47619047619045,1.984126984126984,1.507936507936508,-1.6666666666666665,-321.8253968253968
256,-8.174603174603174,9.603174603174603,-18.80952380952381,8.809523809523808,82.77777777777777,105.95238095238095,37.06349206349206,92.14285714285714,-14.523809523809524,-2.142857142857143,106.58730158730158,98.65079365079364,-18.174603174603174,-19.6031746031746,-19.444444444444443,-93.25396825396825,20.396825396825395,325.0,21.825396825396822,-245.47619047619045,-8.492063492063492,-2.3015873015873014,-1.349206349206349,-321.8253968253968
257,-8.174603174603174,9.603174603174603,-18.80952380952381,8.809523809523808,82.77777777777777,105.95238095238095,37.06349206349206,92.14285714285714,-14.523809523809524,-2.142857142857143,106.58730158730158,98.65079365079364,-18.174603174603174,-19.6031746031746,-19.444444444444443,-93.25396825396825,20.396825396825395,325.0,21.825396825396822,-245.47619047619045,-8.492063492063492,-2.3015873015873014,-1.349206349206349,-321.8253968253968
258,-8.174603174603174,66.11111111111111,-18.80952380952381,8.492063492063492,64.84126984126983,90.39682539682539,13.571428571428571,68.33333333333333,-14.365079365079364,-32.3015873015873,100.71428571428571,58.49206349206349,-18.333333333333332,-26.9047619047619,-18.96825396825397,-133.88888888888889,15.317460317460316,325.0,21.349206349206348,-252.46031746031744,1.0317460317460316,1.1904761904761905,-2.619047619047619,-321.8253968253968
259,-8.174603174603174,66.11111111111111,-18.80952380952381,8.492063492063492,64.84126984126983,90.39682539682539,13.571428571428571,68.33333333333333,-14.365079365079364,-32.3015873015873,100.71428571428571,58.49206349206349,-18.333333333333332,-26.9047619047619,-18.96825396825397,-133.88888888888889,15.317460317460316,325.0,21.349206349206348,-252.46031746031744,1.0317460317460316,1.1904761904761905,-2.619047619047619,-321.8253968253968
260,-8.492063492063492,43.25396825396825,-18.333333333333332,8.492063492063492,52.3015873015873,103.4126984126984,35.476190476190474,96.9047619047619,-13.888888888888888,3.095238095238095,101.66666666666666,101.19047619047619,-16.746031746031743,-28.333333333333332,-18.65079365079365,-105.47619047619047,11.031746031746032,325.0,21.03174603174603,-252.46031746031744,-6.746031746031746,-1.8253968253968254,-1.1904761904761905,-166.26984126984127
261,-8.492063492063492,43.25396825396825,-18.333333333333332,8.492063492063492,52.3015873015873,103.4126984126984,35.476190476190474,96.9047619047619,-13.888888888888888,3.095238095238095,101.66666666666666,101.19047619047619,-16.746031746031743,-28.333333333333332,-18.65079365079365,-105.47619047619047,11.031746031746032,325.0,21.03174603174603,-252.46031746031744,-6.746031746031746,-1.8253968253968254,-1.1904761904761905,-166.26984126984127
262,-8.809523809523808,212.93650793650792,-18.333333333333332,8.333333333333332,103.25396825396825,293.0952380952381,44.84126984126984,181.984126984127,-14.047619047619047,161.66666666666666,260.23809523809524,168.96825396825395,-15.95238095238095,4.365079365079365,-18.65079365079365,-5.0,140.87301587301587,325.0,20.873015873015873,-325.0,-4.2063492063492065,-4.523809523809524,-9.126984126984127,-166.26984126984127
263,-8.809523809523808,212.93650793650792,-18.333333333333332,8.333333333333332,103.25396825396825,293.0952380952381,44.84126984126984,181.984126984127,-14.047619047619047,161.66666666666666,260.23809523809524,168.96825396825395,-15.95238095238095,4.365079365079365,-18.65079365079365,-5.0,140.87301587301587,325.0,20.873015873015873,-325.0,-4.2063492063492065,-4.523809523809524,-9.126984126984127,-166.26984126984127
264,-8.809523809523808,212.93650793650792,-18.333333333333332,8.333333333333332,103.25396825396825,293.0952380952381,44.84126984126984,181.984126984127,-14.047619047619047,161.66666666666666,260.23809523809524,168.96825396825395,-15.95238095238095,4.365079365079365,-18.65079365079365,-5.0,140.87301587301587,325.0,20.873015873015873,-325.0,-4.2063492063492065,-4.523809523809524,-9.126984126984127,-166.26984126984127
265,-8.809523809523808,212.93650793650792,-18.333333333333332,8.333333333333332,103.25396825396825,293.0952380952381,44.84126984126984,181.984126984127,-14.047619047619047,161.66666666666666,260.23809523809524,168.96825396825395,-15.95238095238095,4.365079365079365,-18.65079365079365,-5.0,140.87301587301587,325.0,20.873015873015873,-325.0,-4.2063492063492065,-4.523809523809524,-9.126984126984127,-166.26984126984127
266,-1.6666666666666665,-1.6666666666666665,-8.333333333333332,-22.619047619047617,240.7142857142857,31.507936507936506,214.84126984126982,82.93650793650794,57.857142857142854,60.873015873015866,294.36507936507934,16.587301587301585,-3.253968253968254,156.42857142857142,-165.15873015873015,203.7301587301587,179.28571428571428,175.63492063492063,12.3015873015873,-143.57142857142856,-176.9047619047619,0.3968253968253968,154.84126984126982,-166.26984126984127
267,-1.6666666666666665,-1.6666666666666665,-8.333333333333332,-22.619047619047617,240.7142857142857,31.507936507936506,214.84126984126982,82.93650793650794,57.857142857142854,60.873015873015866,294.36507936507934,16.587301587301585,-3.253968253968254,156.42857142857142,-165.15873015873015,203.7301587301587,179.28571428571428,175.63492063492063,12.3015873015873,-143.57142857142856,-176.9047619047619,0.3968253968253968,154.84126984126982,-166.26984126984127
268,162.46031746031744,-142.14285714285714,162.46031746031744,-188.96825396825395,322.3015873015873,-156.74603174603175,325.0,-61.666666666666664,225.47619047619045,-130.07936507936506,325.0,-139.44444444444443,162.46031746031744,138.4920634920635,5.952380952380952,88.01587301587301,278.4920634920635,168.4920634920635,8.492063492063492,181.34920634920633,-322.9365079365079,7.857142857142857,162.77777777777777,-166.26984126984127
269,162.46031746031744,-142.14285714285714,162.46031746031744,-188.96825396825395,322.3015873015873,-156.74603174603175,325.0,-61.666666666666664,225.47619047619045,-130.07936507936506,325.0,-139.44444444444443,162.46031746031744,138.4920634920635,5.952380952380952,88.01587301587301,278.4920634920635,168.4920634920635,8.492063492063492,181.34920634920633,-322.9365079365079,7.857142857142857,162.77777777777777,-166.26984126984127
270,169.9206349206349,14.523809523809524,169.28571428571428,-170.3968253968254,265.0,136.74603174603175,250.2380952380952,143.57142857142856,171.34920634920633,56.904761904761905,295.0,147.69841269841268,190.3968253968254,9.126984126984127,137.38095238095238,23.253968253968253,226.1111111111111,207.06349206349205,8.015873015873016,41.03174603174603,-255.95238095238093,-6.111111111111111,-1.6666666666666665,-321.8253968253968
271,169.9206349206349,14.523809523809524,169.28571428571428,-170.3968253968254,265.0,136.74603174603175,250.2380952380952,143.57142857142856,171.34920634920633,56.904761904761905,295.0,147.69841269841268,190.3968253968254,9.126984126984127,137.38095238095238,23.253968253968253,226.1111111111111,207.06349206349205,8.015873015873016,41.03174603174603,-255.95238095238093,-6.111111111111111,-1.6666666666666665,-321.8253968253968
272,15.0,160.7142857142857,13.571428571428571,-15.634920634920634,205.15873015873015,325.0,175.47619047619045,310.07936507936506,17.698412698412696,256.1111111111111,265.1587301587301,325.0,55.95238095238095,44.047619047619044,-50.238095238095234,175.3174603174603,127.38095238095238,103.4126984126984,4.523809523809524,-242.93650793650792,-186.74603174603175,-15.634920634920634,-11.666666666666666,-321.8253968253968
273,15.0,160.7142857142857,13.571428571428571,-15.634920634920634,205.15873015873015,325.0,175.47619047619045,310.07936507936506,17.698412698412696,256.1111111111111,265.1587301587301,325.0,55.95238095238095,44.047619047619044,-50.238095238095234,175.3174603174603,127.38095238095238,103.4126984126984,4.523809523809524,-242.93650793650792,-186.74603174603175,-15.634920634920634,-11.666666666666666,-321.8253968253968
274,15.0,160.7142857142857,13.571428571428571,-15.634920634920634,205.15873015873015,325.0,175.47619047619045,310.07936507936506,17.698412698412696,256.1111111111111,265.1587301587301,325.0,55.95238095238095,44.047619047619044,-50.238095238095234,175.3174603174603,127.38095238095238,103.4126984126984,4.523809523809524,-242.93650793650792,-186.74603174603175,-15.634920634920634,-11.666666666666666,-321.8253968253968
275,15.0,160.7142857142857,13.571428571428571,-15.634920634920634,205.15873015873015,325.0,175.47619047619045,310.07936507936506,17.698412698412696,256.1111111111111,265.1587301587301,325.0,55.95238095238095,44.047619047619044,-50.238095238095234,175.3174603174603,127.38095238095238,103.4126984126984,4.523809523809524,-242.93650793650792,-186.74603174603175,-15.634920634920634,-11.666666666666666,-321.8253968253968
276,15.0,160.7142857142857,13.571428571428571,-15.634920634920634,205.15873015873015,325.0,175.47619047619045,310.07936507936506,17.698412698412696,256.1111111111111,265.1587301587301,325.0,55.95238095238095,44.047619047619044,-50.238095238095234,175.3174603174603,127.38095238095238,103.4126984126984,4.523809523809524,-242.93650793650792,-186.74603174603175,-15.634920634920634,-11.666666666666666,-321.8253968253968
277,15.0,160.7142857142857,13.571428571428571,-15.634920634920634,205.15873015873015,325.0,175.47619047619045,310.07936507936506,17.698412698412696,256.1111111111111,265.1587301587301,325.0,55.95238095238095,44.047619047619044,-50.238095238095234,175.3174603174603,127.38095238095238,103.4126984126984,4.523809523809524,-242.93650793650792,-186.74603174603175,-15.634920634920634,-11.666666666666666,-321.8253968253968
278,-9.920634920634921,148.33333333333331,-27.38095238095238,-17.22222222222222,52.3015873015873,127.85714285714285,16.904761904761905,138.65079365079364,-36.74603174603175,32.93650793650794,139.6031746031746,109.44444444444444,-18.015873015873016,-146.42857142857142,-56.58730158730158,-28.96825396825397,60.079365079365076,96.1111111111111,4.365079365079365,-86.26984126984127,-16.26984126984127,0.5555555555555556,-5.0,-321.8253968253968
279,-9.920634920634921,148.33333333333331,-27.38095238095238,-17.22222222222222,52.3015873015873,127.85714285714285,16.904761904761905,138.65079365079364,-36.74603174603175,32.93650793650794,139.6031746031746,109.44444444444444,-18.015873015873016,-146.42857142857142,-56.58730158730158,-28.96825396825397,60.079365079365076,96.1111111111111,4.365079365079365,-86.26984126984127,-16.26984126984127,0.5555555555555556,-5.0,-321.8253968253968
280,-9.920634920634921,148.33333333333331,-27.38095238095238,-17.22222222222222,52.3015873015873,127.85714285714285,16.904761904761905,138.65079365079364,-36.74603174603175,32.93650793650794,139.6031746031746,109.44444444444444,-18.015873015873016,-146.42857142857142,-56.58730158730158,-28.96825396825397,60.079365079365076,96.1111111111111,4.365079365079365,-86.26984126984127,-16.26984126984127,0.5555555555555556,-5.0,-166.26984126984127
281,-9.920634920634921,148.33333333333331,-27.38095238095238,-17.22222222222222,52.3015873015873,127.85714285714285,16.904761904761905,138.65079365079364,-36.74603174603175,32.93650793650794,139.6031746031746,109.44444444444444,-18.015873015873016,-146.42857142857142,-56.58730158730158,-28.96825396825397,60.079365079365076,96.1111111111111,4.365079365079365,-86.26984126984127,-16.26984126984127,0.5555555555555556,-5.0,-166.26984126984127
282,-9.920634920634921,148.33333333333331,-27.38095238095238,-17.22222222222222,52.3015873015873,127.85714285714285,16.904761904761905,138.65079365079364,-36.74603174603175,32.93650793650794,139.6031746031746,109.44444444444444,-18.015873015873016,-146.42857142857142,-56.58730158730158,-28.96825396825397,60.079365079365076,96.1111111111111,4.365079365079365,-86.26984126984127,-16.26984126984127,0.5555555555555556,-5.0,-166.26984126984127
283,-9.920634920634921,148.33333333333331,-27.38095238095238,-17.22222222222222,52.3015873015873,127.85714285714285,16.904761904761905,138.65079365079364,-36.74603174603175,32.93650793650794,139.6031746031746,109.44444444444444,-18.015873015873016,-146.42857142857142,-56.58730158730158,-28.96825396825397,60.079365079365076,96.1111111111111,4.365079365079365,-86.26984126984127,-16.26984126984127,0.5555555555555556,-5.0,-166.26984126984127
284,-9.920634920634921,148.33333333333331,-27.38095238095238,-17.22222222222222,52.3015873015873,127.85714285714285,16.904761904761905,138.65079365079364,-36.74603174603175,32.93650793650794,139.6031746031746,109.44444444444444,-18.015873015873016,-146.42857142857142,-56.58730158730158,-28.96825396825397,60.079365079365076,96.1111111111111,4.365079365079365,-86.26984126984127,-16.26984126984127,0.5555555555555556,-5.0,-166.26984126984127
285,-9.920634920634921,148.33333333333331,-27.38095238095238,-17.22222222222222,52.3015873015873,127.85714285714285,16.904761904761905,138.65079365079364,-36.74603174603175,32.93650793650794,139.6031746031746,109.44444444444444,-18.015873015873016,-146.42857142857142,-56.58730158730158,-28.96825396825397,60.079365079365076,96.1111111111111,4.365079365079365,-86.26984126984127,-16.26984126984127,0.5555555555555556,-5.0,-166.26984126984127
286,-9.920634920634921,148.33333333333331,-27.38095238095238,-17.22222222222222,52.3015873015873,127.85714285714285,16.904761904761905,138.65079365079364,-36.74603174603175,32.93650793650794,139.6031746031746,109.44444444444444,-18.015873015873016,-146.42857142857142,-56.58730158730158,-28.96825396825397,60.079365079365076,96.1111111111111,4.365079365079365,-86.26984126984127,-16.26984126984127,0.5555555555555556,-5.0,-166.26984126984127
287,-9.920634920634921,148.33333333333331,-27.38095238095238,-17.22222222222222,52.3015873015873,127.85714285714285,16.904761904761905,138.65079365079364,-36.74603174603175,32.93650793650794,139.6031746031746,109.44444444444444,-18.015873015873016,-146.42857142857142,-56.58730158730158,-28.96825396825397,60.079365079365076,96.1111111111111,4.365079365079365,-86.26984126984127,-16.26984126984127,0.5555555555555556,-5.0,-166.26984126984127
288,-9.920634920634921,148.33333333333331,-27.38095238095238,-17.22222222222222,52.3015873015873,127.85714285714285,16.904761904761905,138.65079365079364,-36.74603174603175,32.93650793650794,139.6031746031746,109.44444444444444,-18.015873015873016,-146.42857142857142,-56.58730158730158,-28.96825396825397,60.079365079365076,96.1111111111111,4.365079365079365,-86.26984126984127,-16.26984126984127,0.5555555555555556,-5.0,-166.26984126984127
289,-9.920634920634921,148.33333333333331,-27.38095238095238,-17.22222222222222,52.3015873015873,127.85714285714285,16.904761904761905,138.65079365079364,-36.74603174603175,32.93650793650794,139.6031746031746,109.44444444444444,-18.015873015873016,-146.42857142857142,-56.58730158730158,-28.96825396825397,60.079365079365076,96.1111111111111,4.365079365079365,-86.26984126984127,-16.26984126984127,0.5555555555555556,-5.0,-166.26984126984127
290,-9.920634920634921,148.33333333333331,-27.38095238095238,-17.22222222222222,52.3015873015873,127.85714285714285,16.904761904761905,138.65079365079364,-36.74603174603175,32.93650793650794,139.6031746031746,109.44444444444444,-18.015873015873016,-146.42857142857142,-56.58730158730158,-28.96825396825397,60.079365079365076,96.1111111111111,4.365079365079365,-86.26984126984127,-16.26984126984127,0.5555555555555556,-5.0,-321.8253968253968
