,Fp1[1],Fp2[2],F3[3],F4[4],C3[5],C4[6],P3[7],P4[8],O1[9],O2[10],F7[11],F8[12],T3[13],T4[14],T5[15],T6[16],Fz[17],Pz[18],Cz[19],Pg1[20],Pg2[21],EOGR[22],EOOGL[23],EMG[24]
0,325.0,325.0,-0.07936507936507936,-325.0,325.0,325.0,325.0,325.0,325.0,325.0,325.0,325.0,-325.0,-325.0,325.0,325.0,-0.07936507936507936,325.0,7.3809523809523805,-325.0,-325.0,-4.523809523809524,-4.682539682539682,-166.26984126984127
1,325.0,325.0,-0.07936507936507936,-325.0,325.0,325.0,325.0,325.0,325.0,325.0,325.0,325.0,-325.0,-325.0,325.0,325.0,-0.07936507936507936,325.0,7.3809523809523805,-325.0,-325.0,-4.523809523809524,-4.682539682539682,-166.26984126984127
2,325.0,325.0,325.0,-325.0,325.0,325.0,325.0,325.0,325.0,325.0,325.0,325.0,-325.0,-325.0,325.0,325.0,-325.0,325.0,30.71428571428571,-325.0,-325.0,7.222222222222221,10.396825396825395,-166.26984126984127
3,325.0,325.0,325.0,-325.0,325.0,325.0,325.0,325.0,325.0,325.0,325.0,325.0,-325.0,-325.0,325.0,325.0,-325.0,325.0,30.71428571428571,-325.0,-325.0,7.222222222222221,10.396825396825395,-166.26984126984127
4,325.0,325.0,325.0,-325.0,325.0,325.0,325.0,325.0,325.0,325.0,325.0,325.0,37.698412698412696,-325.0,325.0,325.0,-325.0,325.0,38.49206349206349,-325.0,-325.0,-7.857142857142857,-11.984126984126984,-166.26984126984127
5,325.0,325.0,325.0,-325.0,325.0,325.0,325.0,325.0,325.0,325.0,325.0,325.0,37.698412698412696,-325.0,325.0,325.0,-325.0,325.0,38.49206349206349,-325.0,-325.0,-7.857142857142857,-11.984126984126984,-166.26984126984127
6,325.0,325.0,325.0,-325.0,325.0,325.0,325.0,325.0,325.0,325.0,325.0,325.0,325.0,-325.0,325.0,-325.0,-325.0,325.0,56.74603174603174,-325.0,-325.0,5.0,4.365079365079365,-166.26984126984127
7,325.0,325.0,325.0,-325.0,325.0,325.0,325.0,325.0,325.0,325.0,325.0,325.0,325.0,-325.0,325.0,-325.0,-325.0,325.0,56.74603174603174,-325.0,-325.0,5.0,4.365079365079365,-166.26984126984127
8,325.0,325.0,325.0,-325.0,325.0,325.0,325.0,325.0,325.0,325.0,325.0,325.0,325.0,-325.0,325.0,-325.0,-325.0,325.0,74.84126984126983,-325.0,-325.0,-2.9365079365079363,-6.111111111111111,-166.26984126984127
9,325.0,325.0,325.0,-325.0,325.0,325.0,325.0,325.0,325.0,325.0,325.0,325.0,325.0,-325.0,325.0,-325.0,-325.0,325.0,74.84126984126983,-325.0,-325.0,-2.9365079365079363,-6.111111111111111,-166.26984126984127
10,325.0,325.0,325.0,-325.0,325.0,325.0,325.0,325.0,325.0,325.0,325.0,325.0,325.0,-325.0,325.0,-325.0,-325.0,325.0,77.38095238095238,-325.0,-325.0,1.8253968253968254,-0.873015873015873,-321.8253968253968
11,325.0,325.0,325.0,-325.0,325.0,325.0,325.0,325.0,325.0,325.0,325.0,325.0,325.0,-325.0,325.0,-325.0,-325.0,325.0,77.38095238095238,-325.0,-325.0,1.8253968253968254,-0.873015873015873,-321.8253968253968
12,314.2063492063492,301.19047619047615,325.0,-270.07936507936506,323.88888888888886,300.23809523809524,320.23809523809524,298.8095238095238,269.9206349206349,271.3492063492063,324.2063492063492,291.66666666666663,325.0,-277.6984126984127,299.1269841269841,-325.0,-321.3492063492063,297.38095238095235,75.95238095238095,-280.55555555555554,-276.1111111111111,-5.0,-6.587301587301587,-321.8253968253968
13,314.2063492063492,301.19047619047615,325.0,-270.07936507936506,323.88888888888886,300.23809523809524,320.23809523809524,298.8095238095238,269.9206349206349,271.3492063492063,324.2063492063492,291.66666666666663,325.0,-277.6984126984127,299.1269841269841,-325.0,-321.3492063492063,297.38095238095235,75.95238095238095,-280.55555555555554,-276.1111111111111,-5.0,-6.587301587301587,-321.8253968253968
14,304.68253968253964,292.46031746031747,319.1269841269841,-261.8253968253968,314.8412698412698,291.66666666666663,310.55555555555554,290.23809523809524,261.984126984127,-166.26984126984127,315.3174603174603,282.9365079365079,325.0,-269.2857142857143,290.39682539682536,-325.0,-311.984126984127,288.8095238095238,67.06349206349206,-272.3015873015873,-267.53968253968253,-0.23809523809523808,-0.5555555555555556,-321.8253968253968
15,304.68253968253964,292.46031746031747,319.1269841269841,-261.8253968253968,314.8412698412698,291.66666666666663,310.55555555555554,290.23809523809524,261.984126984127,-166.26984126984127,315.3174603174603,282.9365079365079,325.0,-269.2857142857143,290.39682539682536,-325.0,-311.984126984127,288.8095238095238,67.06349206349206,-272.3015873015873,-267.53968253968253,-0.23809523809523808,-0.5555555555555556,-321.8253968253968
16,294.2063492063492,33.57142857142857,308.3333333333333,-252.77777777777777,304.2063492063492,282.1428571428571,300.23809523809524,281.031746031746,253.4126984126984,-227.69841269841268,271.984126984127,273.4126984126984,325.0,-259.9206349206349,280.87301587301585,-325.0,-301.5079365079365,279.44444444444446,62.14285714285714,-263.0952380952381,-258.17460317460313,-1.1904761904761905,-0.7142857142857142,-321.8253968253968
17,294.2063492063492,33.57142857142857,308.3333333333333,-252.77777777777777,304.2063492063492,282.1428571428571,300.23809523809524,281.031746031746,253.4126984126984,-227.69841269841268,271.984126984127,273.4126984126984,325.0,-259.9206349206349,280.87301587301585,-325.0,-301.5079365079365,279.44444444444446,62.14285714285714,-263.0952380952381,-258.17460317460313,-1.1904761904761905,-0.7142857142857142,-321.8253968253968
18,278.968253968254,-325.0,292.6190476190476,-239.44444444444443,-311.66666666666663,268.015873015873,285.0,267.22222222222223,240.87301587301587,-325.0,-325.0,259.44444444444446,325.0,-246.26984126984127,267.06349206349205,-325.0,-285.95238095238096,265.95238095238096,47.22222222222222,-249.60317460317458,-244.36507936507934,5.158730158730158,1.349206349206349,-321.8253968253968
19,278.968253968254,-325.0,292.6190476190476,-239.44444444444443,-311.66666666666663,268.015873015873,285.0,267.22222222222223,240.87301587301587,-325.0,-325.0,259.44444444444446,325.0,-246.26984126984127,267.06349206349205,-325.0,-285.95238095238096,265.95238095238096,47.22222222222222,-249.60317460317458,-244.36507936507934,5.158730158730158,1.349206349206349,-321.8253968253968
20,271.8253968253968,-325.0,285.1587301587301,-233.4126984126984,-154.84126984126982,261.3492063492063,277.85714285714283,260.55555555555554,235.0,-325.0,-325.0,253.09523809523807,325.0,-240.07936507936506,260.55555555555554,-325.0,-278.8095238095238,259.44444444444446,47.38095238095238,-243.4126984126984,-238.17460317460316,0.07936507936507936,-0.3968253968253968,-166.26984126984127
21,271.8253968253968,-325.0,285.1587301587301,-233.4126984126984,-154.84126984126982,261.3492063492063,277.85714285714283,260.55555555555554,235.0,-325.0,-325.0,253.09523809523807,325.0,-240.07936507936506,260.55555555555554,-325.0,-278.8095238095238,259.44444444444446,47.38095238095238,-243.4126984126984,-238.17460317460316,0.07936507936507936,-0.3968253968253968,-166.26984126984127
22,259.76190476190476,-325.0,272.9365079365079,-223.25396825396825,-325.0,250.3968253968254,266.26984126984127,250.07936507936506,225.3174603174603,-325.0,-325.0,242.46031746031744,325.0,-229.44444444444443,249.9206349206349,-325.0,-266.74603174603175,248.8095238095238,37.857142857142854,-232.77777777777777,-227.53968253968253,5.158730158730158,2.7777777777777777,-166.26984126984127
23,259.76190476190476,-325.0,272.9365079365079,-223.25396825396825,-325.0,250.3968253968254,266.26984126984127,250.07936507936506,225.3174603174603,-325.0,-325.0,242.46031746031744,325.0,-229.44444444444443,249.9206349206349,-325.0,-266.74603174603175,248.8095238095238,37.857142857142854,-232.77777777777777,-227.53968253968253,5.158730158730158,2.7777777777777777,-166.26984126984127
24,259.76190476190476,-325.0,272.9365079365079,-223.25396825396825,-325.0,250.3968253968254,266.26984126984127,250.07936507936506,225.3174603174603,-325.0,-325.0,242.46031746031744,325.0,-229.44444444444443,249.9206349206349,-325.0,-266.74603174603175,248.8095238095238,37.857142857142854,-232.77777777777777,-227.53968253968253,5.158730158730158,2.7777777777777777,-166.26984126984127
25,259.76190476190476,-325.0,272.9365079365079,-223.25396825396825,-325.0,250.3968253968254,266.26984126984127,250.07936507936506,225.3174603174603,-325.0,-325.0,242.46031746031744,325.0,-229.44444444444443,249.9206349206349,-325.0,-266.74603174603175,248.8095238095238,37.857142857142854,-232.77777777777777,-227.53968253968253,5.158730158730158,2.7777777777777777,-166.26984126984127
26,245.3174603174603,-325.0,257.85714285714283,-211.03174603174602,-325.0,237.2222222222222,251.8253968253968,237.06349206349205,213.09523809523807,-325.0,-325.0,229.12698412698413,323.0952380952381,-216.9047619047619,236.58730158730157,-325.0,-252.3015873015873,235.63492063492063,30.07936507936508,-220.2380952380952,-215.0,-6.428571428571428,-6.111111111111111,-166.26984126984127
27,245.3174603174603,-325.0,257.85714285714283,-211.03174603174602,-325.0,237.2222222222222,251.8253968253968,237.06349206349205,213.09523809523807,-325.0,-325.0,229.12698412698413,323.0952380952381,-216.9047619047619,236.58730158730157,-325.0,-252.3015873015873,235.63492063492063,30.07936507936508,-220.2380952380952,-215.0,-6.428571428571428,-6.111111111111111,-166.26984126984127
28,244.36507936507934,-325.0,256.74603174603175,-209.9206349206349,-325.0,236.26984126984127,250.7142857142857,235.95238095238093,212.3015873015873,-325.0,-325.0,228.33333333333331,321.66666666666663,-215.79365079365078,235.63492063492063,-325.0,-251.19047619047618,234.68253968253967,29.76190476190476,-219.28571428571428,-214.04761904761904,-5.7936507936507935,-9.444444444444445,-166.26984126984127
29,244.36507936507934,-325.0,256.74603174603175,-209.9206349206349,-325.0,236.26984126984127,250.7142857142857,235.95238095238093,212.3015873015873,-325.0,-325.0,228.33333333333331,321.66666666666663,-215.79365079365078,235.63492063492063,-325.0,-251.19047619047618,234.68253968253967,29.76190476190476,-219.28571428571428,-214.04761904761904,-5.7936507936507935,-9.444444444444445,-166.26984126984127
30,237.85714285714283,-325.0,250.07936507936506,-204.52380952380952,-325.0,230.2380952380952,244.2063492063492,230.2380952380952,206.74603174603175,-325.0,-325.0,222.14285714285714,313.73015873015873,-210.07936507936506,229.76190476190476,-325.0,-244.68253968253967,228.96825396825395,28.809523809523807,-213.57142857142856,-208.33333333333331,-7.063492063492063,-4.365079365079365,-321.8253968253968
31,237.85714285714283,-325.0,250.07936507936506,-204.52380952380952,-325.0,230.2380952380952,244.2063492063492,230.2380952380952,206.74603174603175,-325.0,-325.0,222.14285714285714,313.73015873015873,-210.07936507936506,229.76190476190476,-325.0,-244.68253968253967,228.96825396825395,28.809523809523807,-213.57142857142856,-208.33333333333331,-7.063492063492063,-4.365079365079365,-321.8253968253968
32,227.38095238095238,-325.0,239.60317460317458,-196.11111111111111,-325.0,220.87301587301587,233.88888888888889,221.03174603174602,198.17460317460316,-325.0,-325.0,212.77777777777777,300.87301587301585,-201.34920634920633,220.2380952380952,-325.0,-234.52380952380952,219.9206349206349,22.936507936507937,-204.68253968253967,-199.12698412698413,-4.523809523809524,-8.809523809523808,-321.8253968253968
33,227.38095238095238,-325.0,239.60317460317458,-196.11111111111111,-325.0,220.87301587301587,233.88888888888889,221.03174603174602,198.17460317460316,-325.0,-325.0,212.77777777777777,300.87301587301585,-201.34920634920633,220.2380952380952,-325.0,-234.52380952380952,219.9206349206349,22.936507936507937,-204.68253968253967,-199.12698412698413,-4.523809523809524,-8.809523809523808,-321.8253968253968
34,227.38095238095238,-325.0,239.60317460317458,-196.11111111111111,-325.0,220.87301587301587,233.88888888888889,221.03174603174602,198.17460317460316,-325.0,-325.0,212.77777777777777,300.87301587301585,-201.34920634920633,220.2380952380952,-325.0,-234.52380952380952,219.9206349206349,22.936507936507937,-204.68253968253967,-199.12698412698413,-4.523809523809524,-8.809523809523808,-321.8253968253968
35,227.38095238095238,-325.0,239.60317460317458,-196.11111111111111,-325.0,220.87301587301587,233.88888888888889,221.03174603174602,198.17460317460316,-325.0,-325.0,212.77777777777777,300.87301587301585,-201.34920634920633,220.2380952380952,-325.0,-234.52380952380952,219.9206349206349,22.936507936507937,-204.68253968253967,-199.12698412698413,-4.523809523809524,-8.809523809523808,-321.8253968253968
36,-325.0,181.8253968253968,-133.0952380952381,182.3015873015873,-161.8253968253968,-304.68253968253964,-325.0,174.68253968253967,-78.33333333333333,-184.68253968253967,-143.57142857142856,-281.19047619047615,-192.46031746031744,201.5079365079365,-316.74603174603175,-188.65079365079364,183.09523809523807,-28.49206349206349,-26.11111111111111,-2.46031746031746,-303.88888888888886,-31.98412698412698,316.26984126984127,-321.8253968253968
37,-325.0,181.8253968253968,-133.0952380952381,182.3015873015873,-161.8253968253968,-304.68253968253964,-325.0,174.68253968253967,-78.33333333333333,-184.68253968253967,-143.57142857142856,-281.19047619047615,-192.46031746031744,201.5079365079365,-316.74603174603175,-188.65079365079364,183.09523809523807,-28.49206349206349,-26.11111111111111,-2.46031746031746,-303.88888888888886,-31.98412698412698,316.26984126984127,-321.8253968253968
38,-325.0,181.8253968253968,-133.0952380952381,182.3015873015873,-161.8253968253968,-304.68253968253964,-325.0,174.68253968253967,-78.33333333333333,-184.68253968253967,-143.57142857142856,-281.19047619047615,-192.46031746031744,201.5079365079365,-316.74603174603175,-188.65079365079364,183.09523809523807,-28.49206349206349,-26.11111111111111,-2.46031746031746,-303.88888888888886,-31.98412698412698,316.26984126984127,-321.8253968253968
39,-325.0,181.8253968253968,-133.0952380952381,182.3015873015873,-161.8253968253968,-304.68253968253964,-325.0,174.68253968253967,-78.33333333333333,-184.68253968253967,-143.57142857142856,-281.19047619047615,-192.46031746031744,201.5079365079365,-316.74603174603175,-188.65079365079364,183.09523809523807,-28.49206349206349,-26.11111111111111,-2.46031746031746,-303.88888888888886,-31.98412698412698,316.26984126984127,-321.8253968253968
40,175.15873015873015,-325.0,185.15873015873015,-151.34920634920633,-325.0,171.984126984127,181.34920634920633,172.61904761904762,154.36507936507937,-325.0,-325.0,165.0,233.4126984126984,-155.15873015873015,171.66666666666666,-266.26984126984127,-181.984126984127,171.5079365079365,0.23809523809523808,-159.12698412698413,-153.25396825396825,5.158730158730158,5.952380952380952,-166.26984126984127
41,175.15873015873015,-325.0,185.15873015873015,-151.34920634920633,-325.0,171.984126984127,181.34920634920633,172.61904761904762,154.36507936507937,-325.0,-325.0,165.0,233.4126984126984,-155.15873015873015,171.66666666666666,-266.26984126984127,-181.984126984127,171.5079365079365,0.23809523809523808,-159.12698412698413,-153.25396825396825,5.158730158730158,5.952380952380952,-166.26984126984127
42,171.5079365079365,-325.0,181.19047619047618,-148.17460317460316,-325.0,168.33333333333331,177.53968253968253,169.28571428571428,151.03174603174602,-325.0,-325.0,161.34920634920633,228.49206349206347,-151.984126984127,168.015873015873,-260.7142857142857,-178.33333333333331,168.17460317460316,-2.3015873015873014,-155.95238095238093,-149.76190476190476,-0.5555555555555556,0.07936507936507936,-166.26984126984127
43,171.5079365079365,-325.0,181.19047619047618,-148.17460317460316,-325.0,168.33333333333331,177.53968253968253,169.28571428571428,151.03174603174602,-325.0,-325.0,161.34920634920633,228.49206349206347,-151.984126984127,168.015873015873,-260.7142857142857,-178.33333333333331,168.17460317460316,-2.3015873015873014,-155.95238095238093,-149.76190476190476,-0.5555555555555556,0.07936507936507936,-166.26984126984127
44,170.07936507936506,-325.0,179.60317460317458,-146.74603174603175,-325.0,166.9047619047619,175.95238095238093,167.85714285714286,149.76190476190476,-325.0,-325.0,159.9206349206349,226.42857142857142,-150.55555555555554,166.42857142857142,-258.4920634920635,-176.74603174603175,166.74603174603175,-3.571428571428571,-154.68253968253967,-148.33333333333331,7.222222222222221,5.634920634920634,-166.26984126984127
45,170.07936507936506,-325.0,179.60317460317458,-146.74603174603175,-325.0,166.9047619047619,175.95238095238093,167.85714285714286,149.76190476190476,-325.0,-325.0,159.9206349206349,226.42857142857142,-150.55555555555554,166.42857142857142,-258.4920634920635,-176.74603174603175,166.74603174603175,-3.571428571428571,-154.68253968253967,-148.33333333333331,7.222222222222221,5.634920634920634,-166.26984126984127
46,163.88888888888889,-325.0,173.25396825396825,-141.66666666666666,-325.0,161.5079365079365,170.07936507936506,162.3015873015873,144.68253968253967,-325.0,-325.0,154.36507936507937,218.8095238095238,-145.47619047619048,160.87301587301587,-250.07936507936506,-170.7142857142857,161.03174603174602,-7.5396825396825395,-149.28571428571428,-143.09523809523807,-0.7142857142857142,-0.7142857142857142,-166.26984126984127
47,163.88888888888889,-325.0,173.25396825396825,-141.66666666666666,-325.0,161.5079365079365,170.07936507936506,162.3015873015873,144.68253968253967,-325.0,-325.0,154.36507936507937,218.8095238095238,-145.47619047619048,160.87301587301587,-250.07936507936506,-170.7142857142857,161.03174603174602,-7.5396825396825395,-149.28571428571428,-143.09523809523807,-0.7142857142857142,-0.7142857142857142,-166.26984126984127
48,158.96825396825395,-325.0,168.015873015873,-137.53968253968253,-325.0,156.58730158730157,165.0,157.53968253968253,140.3968253968254,-325.0,-325.0,149.76190476190476,212.3015873015873,-141.03174603174602,156.42857142857142,-242.77777777777777,-165.47619047619045,156.42857142857142,-11.349206349206348,-144.68253968253967,-138.8095238095238,1.984126984126984,-0.7142857142857142,-166.26984126984127
49,158.96825396825395,-325.0,168.015873015873,-137.53968253968253,-325.0,156.58730158730157,165.0,157.53968253968253,140.3968253968254,-325.0,-325.0,149.76190476190476,212.3015873015873,-141.03174603174602,156.42857142857142,-242.77777777777777,-165.47619047619045,156.42857142857142,-11.349206349206348,-144.68253968253967,-138.8095238095238,1.984126984126984,-0.7142857142857142,-166.26984126984127
50,155.95238095238093,-325.0,165.15873015873015,-135.0,-325.0,154.04761904761904,161.984126984127,155.0,137.85714285714286,-325.0,-325.0,147.06349206349205,208.8095238095238,-138.65079365079364,153.57142857142856,-238.8095238095238,-162.77777777777777,153.88888888888889,-15.0,-142.3015873015873,-136.26984126984127,-4.682539682539682,-0.23809523809523808,-321.8253968253968
51,155.95238095238093,-325.0,165.15873015873015,-135.0,-325.0,154.04761904761904,161.984126984127,155.0,137.85714285714286,-325.0,-325.0,147.06349206349205,208.8095238095238,-138.65079365079364,153.57142857142856,-238.8095238095238,-162.77777777777777,153.88888888888889,-15.0,-142.3015873015873,-136.26984126984127,-4.682539682539682,-0.23809523809523808,-321.8253968253968
52,154.04761904761904,-325.0,162.93650793650792,-133.0952380952381,-325.0,152.14285714285714,159.9206349206349,153.09523809523807,136.26984126984127,-325.0,-325.0,145.15873015873015,206.26984126984127,-136.9047619047619,151.66666666666666,-235.79365079365078,-160.7142857142857,151.984126984127,-14.523809523809524,-140.3968253968254,-134.52380952380952,-0.873015873015873,-0.07936507936507936,-321.8253968253968
53,154.04761904761904,-325.0,162.93650793650792,-133.0952380952381,-325.0,152.14285714285714,159.9206349206349,153.09523809523807,136.26984126984127,-325.0,-325.0,145.15873015873015,206.26984126984127,-136.9047619047619,151.66666666666666,-235.79365079365078,-160.7142857142857,151.984126984127,-14.523809523809524,-140.3968253968254,-134.52380952380952,-0.873015873015873,-0.07936507936507936,-321.8253968253968
54,150.7142857142857,-325.0,159.28571428571428,-130.3968253968254,-325.0,148.8095238095238,156.58730158730157,149.9206349206349,133.4126984126984,-325.0,-325.0,142.14285714285714,201.66666666666666,-133.88888888888889,148.65079365079364,-231.03174603174602,-157.38095238095238,148.65079365079364,-9.920634920634921,-137.53968253968253,-131.66666666666666,-4.0476190476190474,-0.07936507936507936,-321.8253968253968
55,150.7142857142857,-325.0,159.28571428571428,-130.3968253968254,-325.0,148.8095238095238,156.58730158730157,149.9206349206349,133.4126984126984,-325.0,-325.0,142.14285714285714,201.66666666666666,-133.88888888888889,148.65079365079364,-231.03174603174602,-157.38095238095238,148.65079365079364,-9.920634920634921,-137.53968253968253,-131.66666666666666,-4.0476190476190474,-0.07936507936507936,-321.8253968253968
56,146.58730158730157,-325.0,155.15873015873015,-127.06349206349206,-325.0,145.0,152.61904761904762,145.95238095238093,130.07936507936506,-325.0,-325.0,138.4920634920635,196.42857142857142,-130.3968253968254,144.84126984126982,-225.3174603174603,-153.4126984126984,145.0,-8.968253968253968,-134.04761904761904,-128.17460317460316,4.2063492063492065,6.111111111111111,-321.8253968253968
57,146.58730158730157,-325.0,155.15873015873015,-127.06349206349206,-325.0,145.0,152.61904761904762,145.95238095238093,130.07936507936506,-325.0,-325.0,138.4920634920635,196.42857142857142,-130.3968253968254,144.84126984126982,-225.3174603174603,-153.4126984126984,145.0,-8.968253968253968,-134.04761904761904,-128.17460317460316,4.2063492063492065,6.111111111111111,-321.8253968253968
58,143.88888888888889,-325.0,152.61904761904762,-124.84126984126983,-325.0,142.77777777777777,149.9206349206349,143.73015873015873,127.85714285714285,-325.0,-325.0,136.11111111111111,193.09523809523807,-128.17460317460316,142.3015873015873,-221.5079365079365,-150.87301587301587,142.61904761904762,-14.365079365079364,-131.66666666666666,-125.95238095238095,-5.0,-6.587301587301587,-321.8253968253968
59,143.88888888888889,-325.0,152.61904761904762,-124.84126984126983,-325.0,142.77777777777777,149.9206349206349,143.73015873015873,127.85714285714285,-325.0,-325.0,136.11111111111111,193.09523809523807,-128.17460317460316,142.3015873015873,-221.5079365079365,-150.87301587301587,142.61904761904762,-14.365079365079364,-131.66666666666666,-125.95238095238095,-5.0,-6.587301587301587,-321.8253968253968
60,141.5079365079365,-325.0,149.9206349206349,-122.77777777777777,-325.0,140.23809523809524,147.2222222222222,141.34920634920636,125.63492063492063,-325.0,-325.0,133.73015873015873,189.76190476190476,-125.95238095238095,140.07936507936506,-217.85714285714283,-148.4920634920635,140.23809523809524,-11.349206349206348,-129.6031746031746,-123.73015873015872,4.523809523809524,6.111111111111111,-166.26984126984127
61,141.5079365079365,-325.0,149.9206349206349,-122.77777777777777,-325.0,140.23809523809524,147.2222222222222,141.34920634920636,125.63492063492063,-325.0,-325.0,133.73015873015873,189.76190476190476,-125.95238095238095,140.07936507936506,-217.85714285714283,-148.4920634920635,140.23809523809524,-11.349206349206348,-129.6031746031746,-123.73015873015872,4.523809523809524,6.111111111111111,-166.26984126984127
62,138.33333333333331,-325.0,146.58730158730157,-120.07936507936508,-325.0,137.38095238095238,144.04761904761904,138.17460317460316,123.09523809523809,-325.0,-325.0,130.87301587301587,185.79365079365078,-123.09523809523809,137.22222222222223,-213.4126984126984,-145.0,137.38095238095238,-11.666666666666666,-126.58730158730158,-121.03174603174602,-0.3968253968253968,0.07936507936507936,-166.26984126984127
63,138.33333333333331,-325.0,146.58730158730157,-120.07936507936508,-325.0,137.38095238095238,144.04761904761904,138.17460317460316,123.09523809523809,-325.0,-325.0,130.87301587301587,185.79365079365078,-123.09523809523809,137.22222222222223,-213.4126984126984,-145.0,137.38095238095238,-11.666666666666666,-126.58730158730158,-121.03174603174602,-0.3968253968253968,0.07936507936507936,-166.26984126984127
64,135.3174603174603,-325.0,143.25396825396825,-117.38095238095238,-325.0,134.36507936507937,141.19047619047618,135.3174603174603,120.39682539682539,-325.0,-325.0,128.015873015873,181.8253968253968,-120.55555555555554,134.2063492063492,-208.96825396825395,-141.984126984127,134.36507936507937,-12.142857142857142,-124.04761904761904,-118.33333333333333,-4.0476190476190474,-0.873015873015873,-166.26984126984127
65,135.3174603174603,-325.0,143.25396825396825,-117.38095238095238,-325.0,134.36507936507937,141.19047619047618,135.3174603174603,120.39682539682539,-325.0,-325.0,128.015873015873,181.8253968253968,-120.55555555555554,134.2063492063492,-208.96825396825395,-141.984126984127,134.36507936507937,-12.142857142857142,-124.04761904761904,-118.33333333333333,-4.0476190476190474,-0.873015873015873,-166.26984126984127
66,133.57142857142856,-325.0,141.5079365079365,-115.95238095238095,-325.0,132.61904761904762,139.28571428571428,133.73015873015873,118.96825396825396,-325.0,-325.0,126.42857142857142,179.44444444444443,-118.96825396825396,132.46031746031744,-206.42857142857142,-140.07936507936506,132.46031746031744,-16.11111111111111,-122.46031746031746,-116.74603174603173,-0.07936507936507936,-0.7142857142857142,-166.26984126984127
67,133.57142857142856,-325.0,141.5079365079365,-115.95238095238095,-325.0,132.61904761904762,139.28571428571428,133.73015873015873,118.96825396825396,-325.0,-325.0,126.42857142857142,179.44444444444443,-118.96825396825396,132.46031746031744,-206.42857142857142,-140.07936507936506,132.46031746031744,-16.11111111111111,-122.46031746031746,-116.74603174603173,-0.07936507936507936,-0.7142857142857142,-166.26984126984127
68,130.7142857142857,-325.0,138.33333333333331,-113.25396825396825,-325.0,129.9206349206349,136.26984126984127,130.87301587301587,116.42857142857142,-325.0,-325.0,123.73015873015872,175.79365079365078,-116.26984126984127,129.6031746031746,-202.14285714285714,-136.9047619047619,129.9206349206349,-21.03174603174603,-119.92063492063491,-114.04761904761904,-3.73015873015873,-0.5555555555555556,-166.26984126984127
69,130.7142857142857,-325.0,138.33333333333331,-113.25396825396825,-325.0,129.9206349206349,136.26984126984127,130.87301587301587,116.42857142857142,-325.0,-325.0,123.73015873015872,175.79365079365078,-116.26984126984127,129.6031746031746,-202.14285714285714,-136.9047619047619,129.9206349206349,-21.03174603174603,-119.92063492063491,-114.04761904761904,-3.73015873015873,-0.5555555555555556,-166.26984126984127
70,128.33333333333331,-325.0,135.95238095238093,-111.5079365079365,-325.0,55.15873015873016,133.88888888888889,128.8095238095238,114.36507936507935,-325.0,-325.0,121.66666666666666,172.61904761904762,-114.36507936507935,127.53968253968253,-198.96825396825395,-134.68253968253967,127.85714285714285,-21.03174603174603,-117.85714285714285,-112.30158730158729,2.619047619047619,-0.3968253968253968,-321.8253968253968
71,128.33333333333331,-325.0,135.95238095238093,-111.5079365079365,-325.0,55.15873015873016,133.88888888888889,128.8095238095238,114.36507936507935,-325.0,-325.0,121.66666666666666,172.61904761904762,-114.36507936507935,127.53968253968253,-198.96825396825395,-134.68253968253967,127.85714285714285,-21.03174603174603,-117.85714285714285,-112.30158730158729,2.619047619047619,-0.3968253968253968,-321.8253968253968
72,125.95238095238095,-325.0,133.73015873015873,-109.6031746031746,-325.0,78.33333333333333,131.5079365079365,126.74603174603173,112.14285714285714,-325.0,-325.0,119.28571428571428,169.9206349206349,-112.30158730158729,125.15873015873015,-195.47619047619045,-132.46031746031744,125.79365079365078,-15.793650793650793,-115.95238095238095,-110.07936507936508,-3.73015873015873,-1.0317460317460316,-321.8253968253968
73,125.95238095238095,-325.0,133.73015873015873,-109.6031746031746,-325.0,78.33333333333333,131.5079365079365,126.74603174603173,112.14285714285714,-325.0,-325.0,119.28571428571428,169.9206349206349,-112.30158730158729,125.15873015873015,-195.47619047619045,-132.46031746031744,125.79365079365078,-15.793650793650793,-115.95238095238095,-110.07936507936508,-3.73015873015873,-1.0317460317460316,-321.8253968253968
74,123.88888888888889,-325.0,131.5079365079365,-107.6984126984127,-325.0,-155.0,129.28571428571428,124.52380952380952,110.55555555555554,-325.0,-325.0,117.38095238095238,166.9047619047619,-110.23809523809523,123.25396825396825,-192.3015873015873,-130.07936507936506,123.4126984126984,-17.22222222222222,-113.88888888888889,-108.33333333333333,4.2063492063492065,0.5555555555555556,-321.8253968253968
75,123.88888888888889,-325.0,131.5079365079365,-107.6984126984127,-325.0,-155.0,129.28571428571428,124.52380952380952,110.55555555555554,-325.0,-325.0,117.38095238095238,166.9047619047619,-110.23809523809523,123.25396825396825,-192.3015873015873,-130.07936507936506,123.4126984126984,-17.22222222222222,-113.88888888888889,-108.33333333333333,4.2063492063492065,0.5555555555555556,-321.8253968253968
76,121.5079365079365,-325.0,128.96825396825395,-105.79365079365078,-325.0,-164.84126984126982,126.9047619047619,122.46031746031746,108.49206349206348,-324.68253968253964,-325.0,115.31746031746032,163.88888888888889,-108.49206349206348,121.03174603174602,-189.12698412698413,-127.85714285714285,121.5079365079365,-31.507936507936506,-111.82539682539682,-106.26984126984127,-4.841269841269841,-0.23809523809523808,-321.8253968253968
77,121.5079365079365,-325.0,128.96825396825395,-105.79365079365078,-325.0,-164.84126984126982,126.9047619047619,122.46031746031746,108.49206349206348,-324.68253968253964,-325.0,115.31746031746032,163.88888888888889,-108.49206349206348,121.03174603174602,-189.12698412698413,-127.85714285714285,121.5079365079365,-31.507936507936506,-111.82539682539682,-106.26984126984127,-4.841269841269841,-0.23809523809523808,-321.8253968253968
78,119.28571428571428,-325.0,126.9047619047619,-103.88888888888889,-325.0,-285.3174603174603,124.84126984126983,120.39682539682539,106.58730158730158,-319.9206349206349,-325.0,113.09523809523809,161.34920634920633,-106.42857142857142,118.96825396825396,-185.79365079365078,-125.63492063492063,119.44444444444444,-37.857142857142854,-110.07936507936508,-104.2063492063492,2.9365079365079363,-0.07936507936507936,-321.8253968253968
79,119.28571428571428,-325.0,126.9047619047619,-103.88888888888889,-325.0,-285.3174603174603,124.84126984126983,120.39682539682539,106.58730158730158,-319.9206349206349,-325.0,113.09523809523809,161.34920634920633,-106.42857142857142,118.96825396825396,-185.79365079365078,-125.63492063492063,119.44444444444444,-37.857142857142854,-110.07936507936508,-104.2063492063492,2.9365079365079363,-0.07936507936507936,-321.8253968253968
80,117.85714285714285,-325.0,125.0,-102.14285714285714,-325.0,-325.0,123.25396825396825,118.8095238095238,105.47619047619047,-315.7936507936508,-325.0,112.14285714285714,158.96825396825395,-105.0,117.53968253968253,-183.7301587301587,-123.73015873015872,117.85714285714285,-36.58730158730159,-108.33333333333333,-103.09523809523809,0.5555555555555556,5.158730158730158,-166.26984126984127
81,117.85714285714285,-325.0,125.0,-102.14285714285714,-325.0,-325.0,123.25396825396825,118.8095238095238,105.47619047619047,-315.7936507936508,-325.0,112.14285714285714,158.96825396825395,-105.0,117.53968253968253,-183.7301587301587,-123.73015873015872,117.85714285714285,-36.58730158730159,-108.33333333333333,-103.09523809523809,0.5555555555555556,5.158730158730158,-166.26984126984127
82,115.15873015873015,-325.0,122.30158730158729,-100.39682539682539,-325.0,-325.0,120.55555555555554,116.42857142857142,103.09523809523809,-309.2857142857143,-325.0,109.44444444444444,155.63492063492063,-102.77777777777777,115.0,-179.76190476190476,-121.5079365079365,115.47619047619047,-32.61904761904762,-106.1111111111111,-100.87301587301587,3.095238095238095,-0.3968253968253968,-166.26984126984127
83,115.15873015873015,-325.0,122.30158730158729,-100.39682539682539,-325.0,-325.0,120.55555555555554,116.42857142857142,103.09523809523809,-309.2857142857143,-325.0,109.44444444444444,155.63492063492063,-102.77777777777777,115.0,-179.76190476190476,-121.5079365079365,115.47619047619047,-32.61904761904762,-106.1111111111111,-100.87301587301587,3.095238095238095,-0.3968253968253968,-166.26984126984127
84,55.63492063492063,-74.04761904761904,30.07936507936508,-68.96825396825396,-40.55555555555555,-91.34920634920634,118.01587301587301,114.04761904761904,-61.82539682539682,-312.77777777777777,-162.46031746031744,106.9047619047619,152.46031746031744,-100.55555555555554,-49.92063492063492,-175.95238095238093,53.888888888888886,113.25396825396825,131.5079365079365,-93.73015873015872,-98.49206349206348,-8.174603174603174,153.73015873015873,-166.26984126984127
85,55.63492063492063,-74.04761904761904,30.07936507936508,-68.96825396825396,-40.55555555555555,-91.34920634920634,118.01587301587301,114.04761904761904,-61.82539682539682,-312.77777777777777,-162.46031746031744,106.9047619047619,152.46031746031744,-100.55555555555554,-49.92063492063492,-175.95238095238093,53.888888888888886,113.25396825396825,131.5079365079365,-93.73015873015872,-98.49206349206348,-8.174603174603174,153.73015873015873,-166.26984126984127
86,109.12698412698413,-325.0,116.1111111111111,-95.0,-325.0,-325.0,114.2063492063492,110.55555555555554,97.85714285714285,-293.88888888888886,-325.0,103.73015873015872,147.69841269841268,-97.53968253968253,109.28571428571428,-170.87301587301587,-115.31746031746032,109.76190476190476,-32.14285714285714,-100.87301587301587,-95.47619047619047,-4.682539682539682,-1.1904761904761905,-166.26984126984127
87,109.12698412698413,-325.0,116.1111111111111,-95.0,-325.0,-325.0,114.2063492063492,110.55555555555554,97.85714285714285,-293.88888888888886,-325.0,103.73015873015872,147.69841269841268,-97.53968253968253,109.28571428571428,-170.87301587301587,-115.31746031746032,109.76190476190476,-32.14285714285714,-100.87301587301587,-95.47619047619047,-4.682539682539682,-1.1904761904761905,-166.26984126984127
88,106.26984126984127,-323.88888888888886,112.93650793650794,-92.46031746031746,-325.0,-325.0,111.34920634920634,107.6984126984127,95.47619047619047,-286.58730158730157,-320.7142857142857,101.19047619047619,143.88888888888889,-95.0,106.58730158730158,-166.58730158730157,-112.46031746031746,106.9047619047619,-34.52380952380952,-98.01587301587301,-92.93650793650794,3.095238095238095,5.7936507936507935,-166.26984126984127
89,106.26984126984127,-323.88888888888886,112.93650793650794,-92.46031746031746,-325.0,-325.0,111.34920634920634,107.6984126984127,95.47619047619047,-286.58730158730157,-320.7142857142857,101.19047619047619,143.88888888888889,-95.0,106.58730158730158,-166.58730158730157,-112.46031746031746,106.9047619047619,-34.52380952380952,-98.01587301587301,-92.93650793650794,3.095238095238095,5.7936507936507935,-166.26984126984127
90,104.84126984126983,-320.07936507936506,111.5079365079365,-91.34920634920634,-325.0,-325.0,109.92063492063491,106.42857142857142,94.2063492063492,-282.9365079365079,-316.90476190476187,99.76190476190476,142.3015873015873,-93.88888888888889,105.15873015873015,-164.36507936507937,-110.87301587301587,105.47619047619047,-36.269841269841265,-96.74603174603175,-91.66666666666666,0.23809523809523808,-0.3968253968253968,-321.8253968253968
91,104.84126984126983,-320.07936507936506,111.5079365079365,-91.34920634920634,-325.0,-325.0,109.92063492063491,106.42857142857142,94.2063492063492,-282.9365079365079,-316.90476190476187,99.76190476190476,142.3015873015873,-93.88888888888889,105.15873015873015,-164.36507936507937,-110.87301587301587,105.47619047619047,-36.269841269841265,-96.74603174603175,-91.66666666666666,0.23809523809523808,-0.3968253968253968,-321.8253968253968
92,102.46031746031746,-313.25396825396825,109.12698412698413,-89.28571428571428,-325.0,-325.0,107.53968253968253,104.2063492063492,92.30158730158729,-276.90476190476187,-310.39682539682536,97.53968253968253,139.12698412698413,-91.66666666666666,102.93650793650794,-161.03174603174602,-108.49206349206348,103.25396825396825,-41.03174603174603,-94.84126984126983,-89.6031746031746,4.2063492063492065,7.5396825396825395,-321.8253968253968
93,102.46031746031746,-313.25396825396825,109.12698412698413,-89.28571428571428,-325.0,-325.0,107.53968253968253,104.2063492063492,92.30158730158729,-276.90476190476187,-310.39682539682536,97.53968253968253,139.12698412698413,-91.66666666666666,102.93650793650794,-161.03174603174602,-108.49206349206348,103.25396825396825,-41.03174603174603,-94.84126984126983,-89.6031746031746,4.2063492063492065,7.5396825396825395,-321.8253968253968
94,100.23809523809523,-307.06349206349205,106.74603174603175,-87.22222222222221,-325.0,-325.0,105.15873015873015,102.14285714285714,90.39682539682539,-271.19047619047615,-303.88888888888886,95.63492063492063,136.11111111111111,-89.76190476190476,100.71428571428571,-157.69841269841268,-106.26984126984127,101.19047619047619,-39.76190476190476,-92.93650793650794,-87.53968253968253,-0.3968253968253968,-0.5555555555555556,-321.8253968253968
95,100.23809523809523,-307.06349206349205,106.74603174603175,-87.22222222222221,-325.0,-325.0,105.15873015873015,102.14285714285714,90.39682539682539,-271.19047619047615,-303.88888888888886,95.63492063492063,136.11111111111111,-89.76190476190476,100.71428571428571,-157.69841269841268,-106.26984126984127,101.19047619047619,-39.76190476190476,-92.93650793650794,-87.53968253968253,-0.3968253968253968,-0.5555555555555556,-321.8253968253968
96,98.49206349206348,-301.984126984127,104.84126984126983,-85.63492063492063,-325.0,-325.0,103.4126984126984,100.23809523809523,88.80952380952381,-266.58730158730157,-299.1269841269841,93.88888888888889,133.88888888888889,-88.17460317460316,99.12698412698413,-155.15873015873015,-104.36507936507935,99.44444444444444,-36.58730158730159,-91.19047619047619,-86.1111111111111,-0.5555555555555556,-0.3968253968253968,-321.8253968253968
97,98.49206349206348,-301.984126984127,104.84126984126983,-85.63492063492063,-325.0,-325.0,103.4126984126984,100.23809523809523,88.80952380952381,-266.58730158730157,-299.1269841269841,93.88888888888889,133.88888888888889,-88.17460317460316,99.12698412698413,-155.15873015873015,-104.36507936507935,99.44444444444444,-36.58730158730159,-91.19047619047619,-86.1111111111111,-0.5555555555555556,-0.3968253968253968,-321.8253968253968
98,96.26984126984127,-295.7936507936508,102.46031746031746,-83.88888888888889,-325.0,-325.0,101.03174603174602,98.17460317460316,86.74603174603175,-261.031746031746,-293.0952380952381,91.66666666666666,131.03174603174602,-86.26984126984127,96.74603174603175,-151.66666666666666,-102.14285714285714,97.38095238095238,-37.53968253968254,-89.28571428571428,-84.2063492063492,2.9365079365079363,1.8253968253968254,-321.8253968253968
99,96.26984126984127,-295.7936507936508,102.46031746031746,-83.88888888888889,-325.0,-325.0,101.03174603174602,98.17460317460316,86.74603174603175,-261.031746031746,-293.0952380952381,91.66666666666666,131.03174603174602,-86.26984126984127,96.74603174603175,-151.66666666666666,-102.14285714285714,97.38095238095238,-37.53968253968254,-89.28571428571428,-84.2063492063492,2.9365079365079363,1.8253968253968254,-321.8253968253968
100,94.52380952380952,-290.87301587301585,100.71428571428571,-82.46031746031746,-325.0,-325.0,99.44444444444444,96.42857142857142,85.31746031746032,-256.4285714285714,-288.3333333333333,90.07936507936508,128.65079365079364,-84.84126984126983,95.31746031746032,-149.28571428571428,-100.55555555555554,95.63492063492063,-38.96825396825397,-87.6984126984127,-82.61904761904762,-4.2063492063492065,-1.507936507936508,-166.26984126984127
101,94.52380952380952,-290.87301587301585,100.71428571428571,-82.46031746031746,-325.0,-325.0,99.44444444444444,96.42857142857142,85.31746031746032,-256.4285714285714,-288.3333333333333,90.07936507936508,128.65079365079364,-84.84126984126983,95.31746031746032,-149.28571428571428,-100.55555555555554,95.63492063492063,-38.96825396825397,-87.6984126984127,-82.61904761904762,-4.2063492063492065,-1.507936507936508,-166.26984126984127
102,92.77777777777777,-285.95238095238096,98.96825396825396,-81.03174603174602,-325.0,-325.0,97.22222222222221,95.0,83.88888888888889,-251.98412698412696,-283.73015873015873,88.33333333333333,126.42857142857142,-83.4126984126984,93.57142857142857,-146.58730158730157,-98.65079365079364,94.2063492063492,-40.238095238095234,-85.95238095238095,-81.03174603174602,4.2063492063492065,0.7142857142857142,-166.26984126984127
103,92.77777777777777,-285.95238095238096,98.96825396825396,-81.03174603174602,-325.0,-325.0,97.22222222222221,95.0,83.88888888888889,-251.98412698412696,-283.73015873015873,88.33333333333333,126.42857142857142,-83.4126984126984,93.57142857142857,-146.58730158730157,-98.65079365079364,94.2063492063492,-40.238095238095234,-85.95238095238095,-81.03174603174602,4.2063492063492065,0.7142857142857142,-166.26984126984127
104,92.46031746031746,-284.8412698412698,98.49206349206348,-80.55555555555556,-325.0,-325.0,96.9047619047619,94.52380952380952,83.57142857142857,-250.87301587301585,-282.6190476190476,88.17460317460316,125.95238095238095,-82.93650793650794,93.25396825396825,-146.11111111111111,-98.17460317460316,93.73015873015872,-39.12698412698413,-85.47619047619047,-80.71428571428571,8.015873015873016,7.063492063492063,-166.26984126984127
105,92.46031746031746,-284.8412698412698,98.49206349206348,-80.55555555555556,-325.0,-325.0,96.9047619047619,94.52380952380952,83.57142857142857,-250.87301587301585,-282.6190476190476,88.17460317460316,125.95238095238095,-82.93650793650794,93.25396825396825,-146.11111111111111,-98.17460317460316,93.73015873015872,-39.12698412698413,-85.47619047619047,-80.71428571428571,8.015873015873016,7.063492063492063,-166.26984126984127
106,92.46031746031746,-284.8412698412698,98.49206349206348,-80.55555555555556,-325.0,-325.0,96.9047619047619,94.52380952380952,83.57142857142857,-250.87301587301585,-282.6190476190476,88.17460317460316,125.95238095238095,-82.93650793650794,93.25396825396825,-146.11111111111111,-98.17460317460316,93.73015873015872,-39.12698412698413,-85.47619047619047,-80.71428571428571,8.015873015873016,7.063492063492063,-166.26984126984127
107,92.46031746031746,-284.8412698412698,98.49206349206348,-80.55555555555556,-325.0,-325.0,96.9047619047619,94.52380952380952,83.57142857142857,-250.87301587301585,-282.6190476190476,88.17460317460316,125.95238095238095,-82.93650793650794,93.25396825396825,-146.11111111111111,-98.17460317460316,93.73015873015872,-39.12698412698413,-85.47619047619047,-80.71428571428571,8.015873015873016,7.063492063492063,-166.26984126984127
108,92.46031746031746,-284.8412698412698,98.49206349206348,-80.55555555555556,-325.0,-325.0,96.9047619047619,94.52380952380952,83.57142857142857,-250.87301587301585,-282.6190476190476,88.17460317460316,125.95238095238095,-82.93650793650794,93.25396825396825,-146.11111111111111,-98.17460317460316,93.73015873015872,-39.12698412698413,-85.47619047619047,-80.71428571428571,8.015873015873016,7.063492063492063,-166.26984126984127
109,92.46031746031746,-284.8412698412698,98.49206349206348,-80.55555555555556,-325.0,-325.0,96.9047619047619,94.52380952380952,83.57142857142857,-250.87301587301585,-282.6190476190476,88.17460317460316,125.95238095238095,-82.93650793650794,93.25396825396825,-146.11111111111111,-98.17460317460316,93.73015873015872,-39.12698412698413,-85.47619047619047,-80.71428571428571,8.015873015873016,7.063492063492063,-166.26984126984127
110,92.46031746031746,-284.8412698412698,98.49206349206348,-80.55555555555556,-325.0,-325.0,96.9047619047619,94.52380952380952,83.57142857142857,-250.87301587301585,-282.6190476190476,88.17460317460316,125.95238095238095,-82.93650793650794,93.25396825396825,-146.11111111111111,-98.17460317460316,93.73015873015872,-39.12698412698413,-85.47619047619047,-80.71428571428571,8.015873015873016,7.063492063492063,-321.8253968253968
111,92.46031746031746,-284.8412698412698,98.49206349206348,-80.55555555555556,-325.0,-325.0,96.9047619047619,94.52380952380952,83.57142857142857,-250.87301587301585,-282.6190476190476,88.17460317460316,125.95238095238095,-82.93650793650794,93.25396825396825,-146.11111111111111,-98.17460317460316,93.73015873015872,-39.12698412698413,-85.47619047619047,-80.71428571428571,8.015873015873016,7.063492063492063,-321.8253968253968
112,92.46031746031746,-284.8412698412698,98.49206349206348,-80.55555555555556,-325.0,-325.0,96.9047619047619,94.52380952380952,83.57142857142857,-250.87301587301585,-282.6190476190476,88.17460317460316,125.95238095238095,-82.93650793650794,93.25396825396825,-146.11111111111111,-98.17460317460316,93.73015873015872,-39.12698412698413,-85.47619047619047,-80.71428571428571,8.015873015873016,7.063492063492063,-321.8253968253968
113,92.46031746031746,-284.8412698412698,98.49206349206348,-80.55555555555556,-325.0,-325.0,96.9047619047619,94.52380952380952,83.57142857142857,-250.87301587301585,-282.6190476190476,88.17460317460316,125.95238095238095,-82.93650793650794,93.25396825396825,-146.11111111111111,-98.17460317460316,93.73015873015872,-39.12698412698413,-85.47619047619047,-80.71428571428571,8.015873015873016,7.063492063492063,-321.8253968253968
114,92.46031746031746,-284.8412698412698,98.49206349206348,-80.55555555555556,-325.0,-325.0,96.9047619047619,94.52380952380952,83.57142857142857,-250.87301587301585,-282.6190476190476,88.17460317460316,125.95238095238095,-82.93650793650794,93.25396825396825,-146.11111111111111,-98.17460317460316,93.73015873015872,-39.12698412698413,-85.47619047619047,-80.71428571428571,8.015873015873016,7.063492063492063,-321.8253968253968
115,92.46031746031746,-284.8412698412698,98.49206349206348,-80.55555555555556,-325.0,-325.0,96.9047619047619,94.52380952380952,83.57142857142857,-250.87301587301585,-282.6190476190476,88.17460317460316,125.95238095238095,-82.93650793650794,93.25396825396825,-146.11111111111111,-98.17460317460316,93.73015873015872,-39.12698412698413,-85.47619047619047,-80.71428571428571,8.015873015873016,7.063492063492063,-321.8253968253968
116,81.98412698412697,-254.84126984126982,87.53968253968253,-71.66666666666666,-304.04761904761904,-325.0,86.42857142857143,84.2063492063492,74.52380952380952,-223.7301587301587,-252.77777777777777,78.33333333333333,111.82539682539682,-73.73015873015872,82.93650793650794,-130.3968253968254,-87.38095238095238,83.4126984126984,-325.0,-76.42857142857143,-71.5079365079365,-5.0,-2.619047619047619,-321.8253968253968
117,81.98412698412697,-254.84126984126982,87.53968253968253,-71.66666666666666,-304.04761904761904,-325.0,86.42857142857143,84.2063492063492,74.52380952380952,-223.7301587301587,-252.77777777777777,78.33333333333333,111.82539682539682,-73.73015873015872,82.93650793650794,-130.3968253968254,-87.38095238095238,83.4126984126984,-325.0,-76.42857142857143,-71.5079365079365,-5.0,-2.619047619047619,-321.8253968253968
118,-12.142857142857142,-250.2380952380952,85.79365079365078,-70.39682539682539,-298.968253968254,-325.0,-238.65079365079364,82.77777777777777,73.09523809523809,-219.60317460317458,-248.49206349206347,77.06349206349206,109.92063492063491,-72.46031746031746,81.5079365079365,-128.015873015873,-85.79365079365078,81.98412698412697,-325.0,-75.0,-70.23809523809524,5.7936507936507935,3.095238095238095,-321.8253968253968
119,-12.142857142857142,-250.2380952380952,85.79365079365078,-70.39682539682539,-298.968253968254,-325.0,-238.65079365079364,82.77777777777777,73.09523809523809,-219.60317460317458,-248.49206349206347,77.06349206349206,109.92063492063491,-72.46031746031746,81.5079365079365,-128.015873015873,-85.79365079365078,81.98412698412697,-325.0,-75.0,-70.23809523809524,5.7936507936507935,3.095238095238095,-321.8253968253968
120,-68.80952380952381,-249.12698412698413,85.47619047619047,-69.92063492063491,-297.6984126984127,-325.0,-249.28571428571428,82.3015873015873,72.93650793650794,-218.8095238095238,-247.38095238095238,76.74603174603175,109.28571428571428,-71.82539682539682,81.19047619047619,-127.38095238095238,-85.47619047619047,81.66666666666666,-325.0,-74.52380952380952,-69.76190476190476,8.492063492063492,9.920634920634921,-166.26984126984127
121,-68.80952380952381,-249.12698412698413,85.47619047619047,-69.92063492063491,-297.6984126984127,-325.0,-249.28571428571428,82.3015873015873,72.93650793650794,-218.8095238095238,-247.38095238095238,76.74603174603175,109.28571428571428,-71.82539682539682,81.19047619047619,-127.38095238095238,-85.47619047619047,81.66666666666666,-325.0,-74.52380952380952,-69.76190476190476,8.492063492063492,9.920634920634921,-166.26984126984127
122,10.396825396825395,-238.015873015873,81.5079365079365,-66.74603174603175,-284.5238095238095,-325.0,-212.61904761904762,78.80952380952381,69.44444444444444,-208.65079365079364,-236.58730158730157,73.09523809523809,104.2063492063492,-68.65079365079364,77.38095238095238,-121.82539682539682,-81.5079365079365,78.01587301587301,-325.0,-71.19047619047619,-66.42857142857143,-5.952380952380952,-2.9365079365079363,-166.26984126984127
123,10.396825396825395,-238.015873015873,81.5079365079365,-66.74603174603175,-284.5238095238095,-325.0,-212.61904761904762,78.80952380952381,69.44444444444444,-208.65079365079364,-236.58730158730157,73.09523809523809,104.2063492063492,-68.65079365079364,77.38095238095238,-121.82539682539682,-81.5079365079365,78.01587301587301,-325.0,-71.19047619047619,-66.42857142857143,-5.952380952380952,-2.9365079365079363,-166.26984126984127
124,-184.52380952380952,-233.25396825396825,79.76190476190476,-65.31746031746032,-278.968253968254,-325.0,-325.0,77.06349206349206,68.01587301587301,-204.2063492063492,-231.66666666666666,71.34920634920634,102.14285714285714,-67.06349206349206,75.79365079365078,-119.12698412698413,-79.76190476190476,76.26984126984127,-325.0,-69.6031746031746,-64.84126984126983,0.5555555555555556,0.23809523809523808,-166.26984126984127
125,-184.52380952380952,-233.25396825396825,79.76190476190476,-65.31746031746032,-278.968253968254,-325.0,-325.0,77.06349206349206,68.01587301587301,-204.2063492063492,-231.66666666666666,71.34920634920634,102.14285714285714,-67.06349206349206,75.79365079365078,-119.12698412698413,-79.76190476190476,76.26984126984127,-325.0,-69.6031746031746,-64.84126984126983,0.5555555555555556,0.23809523809523808,-166.26984126984127
126,-325.0,-226.26984126984127,77.22222222222221,-63.095238095238095,-271.031746031746,-325.0,-325.0,74.68253968253968,65.95238095238095,-198.015873015873,-225.15873015873015,69.28571428571428,98.96825396825396,-65.0,73.57142857142857,-115.63492063492063,-77.22222222222221,74.04761904761904,-325.0,-67.38095238095238,-62.77777777777777,5.7936507936507935,2.619047619047619,-166.26984126984127
127,-325.0,-226.26984126984127,77.22222222222221,-63.095238095238095,-271.031746031746,-325.0,-325.0,74.68253968253968,65.95238095238095,-198.015873015873,-225.15873015873015,69.28571428571428,98.96825396825396,-65.0,73.57142857142857,-115.63492063492063,-77.22222222222221,74.04761904761904,-325.0,-67.38095238095238,-62.77777777777777,5.7936507936507935,2.619047619047619,-166.26984126984127
128,-45.15873015873016,-108.17460317460316,122.6190476190476,18.49206349206349,-267.85714285714283,-50.238095238095234,-92.14285714285714,-113.25396825396825,20.555555555555554,-24.523809523809522,-233.25396825396825,13.73015873015873,83.25396825396825,-53.57142857142857,-100.39682539682539,-113.73015873015872,-75.95238095238095,72.61904761904762,-152.3015873015873,-66.26984126984127,100.71428571428571,3.73015873015873,11.507936507936508,-166.26984126984127
129,-45.15873015873016,-108.17460317460316,122.6190476190476,18.49206349206349,-267.85714285714283,-50.238095238095234,-92.14285714285714,-113.25396825396825,20.555555555555554,-24.523809523809522,-233.25396825396825,13.73015873015873,83.25396825396825,-53.57142857142857,-100.39682539682539,-113.73015873015872,-75.95238095238095,72.61904761904762,-152.3015873015873,-66.26984126984127,100.71428571428571,3.73015873015873,11.507936507936508,-166.26984126984127
130,-76.74603174603175,-218.015873015873,74.2063492063492,-60.71428571428571,-261.3492063492063,-325.0,-261.984126984127,66.58730158730158,63.57142857142857,-190.7142857142857,-217.06349206349205,66.58730158730158,95.15873015873015,-62.460317460317455,70.71428571428571,-111.34920634920634,-74.36507936507937,71.19047619047619,-325.0,-65.0,-60.55555555555555,-1.6666666666666665,-1.6666666666666665,-321.8253968253968
131,-76.74603174603175,-218.015873015873,74.2063492063492,-60.71428571428571,-261.3492063492063,-325.0,-261.984126984127,66.58730158730158,63.57142857142857,-190.7142857142857,-217.06349206349205,66.58730158730158,95.15873015873015,-62.460317460317455,70.71428571428571,-111.34920634920634,-74.36507936507937,71.19047619047619,-325.0,-65.0,-60.55555555555555,-1.6666666666666665,-1.6666666666666665,-321.8253968253968
132,-303.4126984126984,-213.57142857142856,72.61904761904762,-59.6031746031746,-256.1111111111111,-325.0,-325.0,20.71428571428571,62.14285714285714,-186.74603174603175,-212.61904761904762,65.15873015873015,93.09523809523809,-61.19047619047619,69.28571428571428,-108.17460317460316,-72.93650793650794,69.76190476190476,-325.0,-63.73015873015873,-59.12698412698413,-1.984126984126984,-6.428571428571428,-321.8253968253968
133,-303.4126984126984,-213.57142857142856,72.61904761904762,-59.6031746031746,-256.1111111111111,-325.0,-325.0,20.71428571428571,62.14285714285714,-186.74603174603175,-212.61904761904762,65.15873015873015,93.09523809523809,-61.19047619047619,69.28571428571428,-108.17460317460316,-72.93650793650794,69.76190476190476,-325.0,-63.73015873015873,-59.12698412698413,-1.984126984126984,-6.428571428571428,-321.8253968253968
134,-214.52380952380952,-210.87301587301587,71.66666666666666,-58.650793650793645,-252.93650793650792,-325.0,-325.0,-17.857142857142858,61.34920634920635,-184.36507936507937,-209.9206349206349,64.2063492063492,91.82539682539682,-60.39682539682539,68.4920634920635,-107.22222222222221,-1.1904761904761905,68.96825396825396,-325.0,-62.93650793650793,-58.17460317460317,-0.23809523809523808,-1.0317460317460316,-321.8253968253968
135,-214.52380952380952,-210.87301587301587,71.66666666666666,-58.650793650793645,-252.93650793650792,-325.0,-325.0,-17.857142857142858,61.34920634920635,-184.36507936507937,-209.9206349206349,64.2063492063492,91.82539682539682,-60.39682539682539,68.4920634920635,-107.22222222222221,-1.1904761904761905,68.96825396825396,-325.0,-62.93650793650793,-58.17460317460317,-0.23809523809523808,-1.0317460317460316,-321.8253968253968
136,-4.0476190476190474,-204.68253968253967,69.28571428571428,-56.904761904761905,-245.79365079365078,-325.0,-199.76190476190476,-235.15873015873015,59.6031746031746,-179.12698412698413,-204.2063492063492,62.460317460317455,89.28571428571428,-58.8095238095238,66.42857142857143,-103.25396825396825,289.2857142857143,66.9047619047619,-325.0,-60.873015873015866,-56.74603174603174,6.26984126984127,2.619047619047619,-321.8253968253968
137,-4.0476190476190474,-204.68253968253967,69.28571428571428,-56.904761904761905,-245.79365079365078,-325.0,-199.76190476190476,-235.15873015873015,59.6031746031746,-179.12698412698413,-204.2063492063492,62.460317460317455,89.28571428571428,-58.8095238095238,66.42857142857143,-103.25396825396825,289.2857142857143,66.9047619047619,-325.0,-60.873015873015866,-56.74603174603174,6.26984126984127,2.619047619047619,-321.8253968253968
138,-239.12698412698413,-198.8095238095238,67.22222222222221,-55.0,-238.8095238095238,-325.0,-325.0,-189.9206349206349,57.698412698412696,-173.57142857142856,-198.17460317460316,57.53968253968254,86.58730158730158,-52.93650793650794,64.36507936507937,-85.79365079365078,52.460317460317455,64.52380952380952,-325.0,-58.96825396825397,-54.68253968253968,0.3968253968253968,-0.5555555555555556,-321.8253968253968
139,-239.12698412698413,-198.8095238095238,67.22222222222221,-55.0,-238.8095238095238,-325.0,-325.0,-189.9206349206349,57.698412698412696,-173.57142857142856,-198.17460317460316,57.53968253968254,86.58730158730158,-52.93650793650794,64.36507936507937,-85.79365079365078,52.460317460317455,64.52380952380952,-325.0,-58.96825396825397,-54.68253968253968,0.3968253968253968,-0.5555555555555556,-321.8253968253968
140,-325.0,-197.2222222222222,66.74603174603175,-54.36507936507936,-236.74603174603175,-325.0,-325.0,-325.0,57.22222222222222,-171.984126984127,-196.42857142857142,53.888888888888886,85.95238095238095,-56.42857142857142,63.73015873015873,-101.34920634920634,-85.0,63.57142857142857,-325.0,-58.33333333333333,-53.888888888888886,9.603174603174603,9.444444444444445,-166.26984126984127
141,-325.0,-197.2222222222222,66.74603174603175,-54.36507936507936,-236.74603174603175,-325.0,-325.0,-325.0,57.22222222222222,-171.984126984127,-196.42857142857142,53.888888888888886,85.95238095238095,-56.42857142857142,63.73015873015873,-101.34920634920634,-85.0,63.57142857142857,-325.0,-58.33333333333333,-53.888888888888886,9.603174603174603,9.444444444444445,-166.26984126984127
142,-325.0,-192.3015873015873,65.0,-52.93650793650794,-231.03174603174602,-325.0,-325.0,-325.0,55.63492063492063,-167.38095238095238,-191.5079365079365,-13.571428571428571,83.73015873015872,49.285714285714285,62.14285714285714,-79.6031746031746,-86.74603174603175,29.76190476190476,-325.0,-56.74603174603174,-52.460317460317455,2.619047619047619,-2.9365079365079363,-166.26984126984127
143,-325.0,-192.3015873015873,65.0,-52.93650793650794,-231.03174603174602,-325.0,-325.0,-325.0,55.63492063492063,-167.38095238095238,-191.5079365079365,-13.571428571428571,83.73015873015872,49.285714285714285,62.14285714285714,-79.6031746031746,-86.74603174603175,29.76190476190476,-325.0,-56.74603174603174,-52.460317460317455,2.619047619047619,-2.9365079365079363,-166.26984126984127
144,-325.0,-188.17460317460316,63.41269841269841,-51.666666666666664,-226.26984126984127,-325.0,-325.0,-325.0,54.52380952380952,-163.88888888888889,-187.69841269841268,54.047619047619044,81.82539682539682,285.4761904761905,60.873015873015866,-18.80952380952381,-84.36507936507937,58.8095238095238,-325.0,-55.476190476190474,-51.34920634920635,-6.26984126984127,-4.365079365079365,-166.26984126984127
145,-325.0,-188.17460317460316,63.41269841269841,-51.666666666666664,-226.26984126984127,-325.0,-325.0,-325.0,54.52380952380952,-163.88888888888889,-187.69841269841268,54.047619047619044,81.82539682539682,285.4761904761905,60.873015873015866,-18.80952380952381,-84.36507936507937,58.8095238095238,-325.0,-55.476190476190474,-51.34920634920635,-6.26984126984127,-4.365079365079365,-166.26984126984127
146,-132.46031746031744,-112.93650793650794,14.047619047619047,-51.666666666666664,-99.76190476190476,-200.07936507936506,-25.476190476190474,-150.87301587301587,24.84126984126984,-77.06349206349206,-89.12698412698413,-6.587301587301587,-71.98412698412697,325.0,69.92063492063491,-3.888888888888889,-70.07936507936508,17.857142857142858,-152.3015873015873,-54.68253968253968,111.98412698412697,-16.428571428571427,148.17460317460316,-166.26984126984127
147,-132.46031746031744,-112.93650793650794,14.047619047619047,-51.666666666666664,-99.76190476190476,-200.07936507936506,-25.476190476190474,-150.87301587301587,24.84126984126984,-77.06349206349206,-89.12698412698413,-6.587301587301587,-71.98412698412697,325.0,69.92063492063491,-3.888888888888889,-70.07936507936508,17.857142857142858,-152.3015873015873,-54.68253968253968,111.98412698412697,-16.428571428571427,148.17460317460316,-166.26984126984127
148,-325.0,-180.3968253968254,60.71428571428571,-49.76190476190476,-217.2222222222222,-325.0,-325.0,-325.0,52.3015873015873,-157.06349206349205,-180.3968253968254,-118.49206349206348,78.17460317460316,325.0,58.33333333333333,54.841269841269835,126.42857142857142,-86.1111111111111,-325.0,-53.41269841269841,-49.285714285714285,-2.619047619047619,-6.904761904761904,-166.26984126984127
149,-325.0,-180.3968253968254,60.71428571428571,-49.76190476190476,-217.2222222222222,-325.0,-325.0,-325.0,52.3015873015873,-157.06349206349205,-180.3968253968254,-118.49206349206348,78.17460317460316,325.0,58.33333333333333,54.841269841269835,126.42857142857142,-86.1111111111111,-325.0,-53.41269841269841,-49.285714285714285,-2.619047619047619,-6.904761904761904,-166.26984126984127
150,-325.0,-176.74603174603175,59.285714285714285,-48.650793650793645,-212.93650793650792,-325.0,-325.0,-325.0,51.19047619047619,-153.73015873015873,-176.58730158730157,-121.03174603174602,76.58730158730158,325.0,57.06349206349206,69.76190476190476,126.58730158730158,-121.66666666666666,-325.0,-52.14285714285714,-48.17460317460317,0.3968253968253968,-0.3968253968253968,-321.8253968253968
151,-325.0,-176.74603174603175,59.285714285714285,-48.650793650793645,-212.93650793650792,-325.0,-325.0,-325.0,51.19047619047619,-153.73015873015873,-176.58730158730157,-121.03174603174602,76.58730158730158,325.0,57.06349206349206,69.76190476190476,126.58730158730158,-121.66666666666666,-325.0,-52.14285714285714,-48.17460317460317,0.3968253968253968,-0.3968253968253968,-321.8253968253968
152,-325.0,-172.93650793650792,58.01587301587301,-47.698412698412696,-208.65079365079364,-325.0,-325.0,-325.0,50.079365079365076,-150.23809523809524,-172.93650793650792,-325.0,75.0,325.0,55.79365079365079,-21.19047619047619,120.55555555555554,-325.0,-325.0,-51.03174603174603,-47.06349206349206,7.063492063492063,2.7777777777777777,-321.8253968253968
153,-325.0,-172.93650793650792,58.01587301587301,-47.698412698412696,-208.65079365079364,-325.0,-325.0,-325.0,50.079365079365076,-150.23809523809524,-172.93650793650792,-325.0,75.0,325.0,55.79365079365079,-21.19047619047619,120.55555555555554,-325.0,-325.0,-51.03174603174603,-47.06349206349206,7.063492063492063,2.7777777777777777,-321.8253968253968
154,-325.0,-165.63492063492063,57.22222222222222,-46.58730158730158,-205.95238095238093,-325.0,-325.0,-325.0,49.6031746031746,-148.4920634920635,-170.7142857142857,-310.07936507936506,74.04761904761904,325.0,55.0,117.53968253968253,-9.285714285714285,-305.4761904761905,-325.0,-50.238095238095234,-46.269841269841265,-2.7777777777777777,0.873015873015873,-321.8253968253968
155,-325.0,-165.63492063492063,57.22222222222222,-46.58730158730158,-205.95238095238093,-325.0,-325.0,-325.0,49.6031746031746,-148.4920634920635,-170.7142857142857,-310.07936507936506,74.04761904761904,325.0,55.0,117.53968253968253,-9.285714285714285,-305.4761904761905,-325.0,-50.238095238095234,-46.269841269841265,-2.7777777777777777,0.873015873015873,-321.8253968253968
156,-325.0,-163.73015873015873,56.269841269841265,-46.11111111111111,-202.61904761904762,-325.0,-325.0,-325.0,48.650793650793645,-145.79365079365078,-168.17460317460316,-325.0,72.61904761904762,325.0,54.2063492063492,71.03174603174602,-57.06349206349206,-325.0,-325.0,-49.6031746031746,-45.63492063492063,4.2063492063492065,-1.984126984126984,-321.8253968253968
157,-325.0,-163.73015873015873,56.269841269841265,-46.11111111111111,-202.61904761904762,-325.0,-325.0,-325.0,48.650793650793645,-145.79365079365078,-168.17460317460316,-325.0,72.61904761904762,325.0,54.2063492063492,71.03174603174602,-57.06349206349206,-325.0,-325.0,-49.6031746031746,-45.63492063492063,4.2063492063492065,-1.984126984126984,-321.8253968253968
158,-325.0,-163.09523809523807,55.15873015873016,-45.317460317460316,-199.44444444444443,-325.0,-325.0,-325.0,47.698412698412696,-143.4126984126984,-165.3174603174603,-325.0,71.34920634920634,325.0,53.25396825396825,54.36507936507936,-59.12698412698413,-325.0,-325.0,-48.650793650793645,-44.84126984126984,4.0476190476190474,-2.46031746031746,-321.8253968253968
159,-325.0,-163.09523809523807,55.15873015873016,-45.317460317460316,-199.44444444444443,-325.0,-325.0,-325.0,47.698412698412696,-143.4126984126984,-165.3174603174603,-325.0,71.34920634920634,325.0,53.25396825396825,54.36507936507936,-59.12698412698413,-325.0,-325.0,-48.650793650793645,-44.84126984126984,4.0476190476190474,-2.46031746031746,-321.8253968253968
160,-325.0,-160.23809523809524,53.57142857142857,-43.73015873015873,-193.7301587301587,-325.0,-325.0,-325.0,46.42857142857142,-139.12698412698413,-160.3968253968254,-325.0,69.28571428571428,325.0,51.666666666666664,11.666666666666666,29.126984126984127,-325.0,-325.0,-47.22222222222222,-43.25396825396825,1.984126984126984,5.634920634920634,-166.26984126984127
161,-325.0,-160.23809523809524,53.57142857142857,-43.73015873015873,-193.7301587301587,-325.0,-325.0,-325.0,46.42857142857142,-139.12698412698413,-160.3968253968254,-325.0,69.28571428571428,325.0,51.666666666666664,11.666666666666666,29.126984126984127,-325.0,-325.0,-47.22222222222222,-43.25396825396825,1.984126984126984,5.634920634920634,-166.26984126984127
162,-325.0,-156.42857142857142,52.77777777777777,-43.25396825396825,-191.34920634920633,-325.0,-325.0,-325.0,45.79365079365079,-137.22222222222223,-158.4920634920635,-325.0,68.33333333333333,325.0,50.87301587301587,90.39682539682539,88.17460317460316,-325.0,-325.0,-46.74603174603175,-42.77777777777778,0.23809523809523808,0.07936507936507936,-166.26984126984127
163,-325.0,-156.42857142857142,52.77777777777777,-43.25396825396825,-191.34920634920633,-325.0,-325.0,-325.0,45.79365079365079,-137.22222222222223,-158.4920634920635,-325.0,68.33333333333333,325.0,50.87301587301587,90.39682539682539,88.17460317460316,-325.0,-325.0,-46.74603174603175,-42.77777777777778,0.23809523809523808,0.07936507936507936,-166.26984126984127
164,-325.0,-141.66666666666666,51.82539682539682,-42.460317460317455,-188.33333333333331,-325.0,-325.0,-325.0,45.0,-135.0,-155.95238095238093,-325.0,67.06349206349206,325.0,49.92063492063492,114.84126984126983,58.8095238095238,-325.0,-325.0,-45.95238095238095,-41.98412698412698,0.23809523809523808,-0.873015873015873,-166.26984126984127
165,-325.0,-141.66666666666666,51.82539682539682,-42.460317460317455,-188.33333333333331,-325.0,-325.0,-325.0,45.0,-135.0,-155.95238095238093,-325.0,67.06349206349206,325.0,49.92063492063492,114.84126984126983,58.8095238095238,-325.0,-325.0,-45.95238095238095,-41.98412698412698,0.23809523809523808,-0.873015873015873,-166.26984126984127
166,-325.0,-125.79365079365078,50.71428571428571,-41.82539682539682,-184.52380952380952,-325.0,-325.0,-325.0,44.047619047619044,-132.14285714285714,-152.77777777777777,-325.0,65.79365079365078,325.0,48.80952380952381,216.58730158730157,296.4285714285714,-325.0,-325.0,-45.0,-41.19047619047619,-2.9365079365079363,-6.746031746031746,-166.26984126984127
167,-325.0,-125.79365079365078,50.71428571428571,-41.82539682539682,-184.52380952380952,-325.0,-325.0,-325.0,44.047619047619044,-132.14285714285714,-152.77777777777777,-325.0,65.79365079365078,325.0,48.80952380952381,216.58730158730157,296.4285714285714,-325.0,-325.0,-45.0,-41.19047619047619,-2.9365079365079363,-6.746031746031746,-166.26984126984127
168,-325.0,-147.53968253968253,50.079365079365076,-41.19047619047619,-182.3015873015873,-325.0,-325.0,-325.0,43.57142857142857,-130.55555555555554,-150.87301587301587,-325.0,65.0,325.0,48.33333333333333,160.23809523809524,325.0,-325.0,-323.4126984126984,-44.36507936507936,-40.714285714285715,-1.0317460317460316,-0.873015873015873,-166.26984126984127
169,-325.0,-147.53968253968253,50.079365079365076,-41.19047619047619,-182.3015873015873,-325.0,-325.0,-325.0,43.57142857142857,-130.55555555555554,-150.87301587301587,-325.0,65.0,325.0,48.33333333333333,160.23809523809524,325.0,-325.0,-323.4126984126984,-44.36507936507936,-40.714285714285715,-1.0317460317460316,-0.873015873015873,-166.26984126984127
170,-325.0,-147.85714285714286,48.96825396825397,-40.55555555555555,-178.8095238095238,-325.0,-325.0,-325.0,42.61904761904761,-127.85714285714285,-148.015873015873,-325.0,63.41269841269841,325.0,47.38095238095238,268.3333333333333,325.0,-325.0,-318.015873015873,-43.73015873015873,-39.92063492063492,-2.142857142857143,-5.7936507936507935,-321.8253968253968
171,-325.0,-147.85714285714286,48.96825396825397,-40.55555555555555,-178.8095238095238,-325.0,-325.0,-325.0,42.61904761904761,-127.85714285714285,-148.015873015873,-325.0,63.41269841269841,325.0,47.38095238095238,268.3333333333333,325.0,-325.0,-318.015873015873,-43.73015873015873,-39.92063492063492,-2.142857142857143,-5.7936507936507935,-321.8253968253968
172,-325.0,-145.95238095238093,48.17460317460317,-39.92063492063492,-175.95238095238093,-325.0,-325.0,-325.0,41.666666666666664,-125.63492063492063,-145.47619047619048,-325.0,62.61904761904761,325.0,46.42857142857142,193.4126984126984,325.0,-325.0,-312.46031746031747,-42.93650793650794,-39.12698412698413,2.3015873015873014,4.841269841269841,-321.8253968253968
173,-325.0,-145.95238095238093,48.17460317460317,-39.92063492063492,-175.95238095238093,-325.0,-325.0,-325.0,41.666666666666664,-125.63492063492063,-145.47619047619048,-325.0,62.61904761904761,325.0,46.42857142857142,193.4126984126984,325.0,-325.0,-312.46031746031747,-42.93650793650794,-39.12698412698413,2.3015873015873014,4.841269841269841,-321.8253968253968
174,-325.0,-127.85714285714285,47.06349206349206,-39.12698412698413,-172.3015873015873,-325.0,-325.0,-325.0,40.87301587301587,-123.09523809523809,-142.61904761904762,-325.0,61.19047619047619,325.0,45.63492063492063,226.26984126984127,325.0,-325.0,-305.95238095238096,-41.98412698412698,-38.49206349206349,-0.3968253968253968,-0.23809523809523808,-321.8253968253968
175,-325.0,-127.85714285714285,47.06349206349206,-39.12698412698413,-172.3015873015873,-325.0,-325.0,-325.0,40.87301587301587,-123.09523809523809,-142.61904761904762,-325.0,61.19047619047619,325.0,45.63492063492063,226.26984126984127,325.0,-325.0,-305.95238095238096,-41.98412698412698,-38.49206349206349,-0.3968253968253968,-0.23809523809523808,-321.8253968253968
176,-325.0,-142.46031746031744,46.74603174603175,-38.80952380952381,-170.87301587301587,-325.0,-325.0,-325.0,40.55555555555555,-121.98412698412697,-141.5079365079365,-325.0,60.71428571428571,325.0,45.317460317460316,127.53968253968253,325.0,-325.0,-303.4126984126984,-41.507936507936506,-38.01587301587301,7.3809523809523805,9.603174603174603,-321.8253968253968
177,-325.0,-142.46031746031744,46.74603174603175,-38.80952380952381,-170.87301587301587,-325.0,-325.0,-325.0,40.55555555555555,-121.98412698412697,-141.5079365079365,-325.0,60.71428571428571,325.0,45.317460317460316,127.53968253968253,325.0,-325.0,-303.4126984126984,-41.507936507936506,-38.01587301587301,7.3809523809523805,9.603174603174603,-321.8253968253968
178,-325.0,-142.46031746031744,46.74603174603175,-38.80952380952381,-170.87301587301587,-325.0,-325.0,-325.0,40.55555555555555,-121.98412698412697,-141.5079365079365,-325.0,60.71428571428571,325.0,45.317460317460316,127.53968253968253,325.0,-325.0,-303.4126984126984,-41.507936507936506,-38.01587301587301,7.3809523809523805,9.603174603174603,-321.8253968253968
179,-325.0,-142.46031746031744,46.74603174603175,-38.80952380952381,-170.87301587301587,-325.0,-325.0,-325.0,40.55555555555555,-121.98412698412697,-141.5079365079365,-325.0,60.71428571428571,325.0,45.317460317460316,127.53968253968253,325.0,-325.0,-303.4126984126984,-41.507936507936506,-38.01587301587301,7.3809523809523805,9.603174603174603,-321.8253968253968
180,-325.0,325.0,43.57142857142857,-36.42857142857142,-161.5079365079365,-313.0952380952381,-325.0,-325.0,38.17460317460317,-114.84126984126983,-133.57142857142856,-325.0,57.38095238095238,325.0,45.0,325.0,325.0,-325.0,-285.7936507936508,-39.285714285714285,-35.79365079365079,5.952380952380952,-0.873015873015873,-166.26984126984127
181,-325.0,325.0,43.57142857142857,-36.42857142857142,-161.5079365079365,-313.0952380952381,-325.0,-325.0,38.17460317460317,-114.84126984126983,-133.57142857142856,-325.0,57.38095238095238,325.0,45.0,325.0,325.0,-325.0,-285.7936507936508,-39.285714285714285,-35.79365079365079,5.952380952380952,-0.873015873015873,-166.26984126984127
182,-325.0,325.0,42.93650793650794,-35.95238095238095,-159.6031746031746,-309.4444444444444,-325.0,-325.0,37.857142857142854,-113.4126984126984,-131.984126984127,-325.0,56.42857142857142,325.0,39.44444444444444,325.0,291.19047619047615,-325.0,-282.1428571428571,-38.80952380952381,-35.317460317460316,-0.5555555555555556,-5.634920634920634,-166.26984126984127
183,-325.0,325.0,42.93650793650794,-35.95238095238095,-159.6031746031746,-309.4444444444444,-325.0,-325.0,37.857142857142854,-113.4126984126984,-131.984126984127,-325.0,56.42857142857142,325.0,39.44444444444444,325.0,291.19047619047615,-325.0,-282.1428571428571,-38.80952380952381,-35.317460317460316,-0.5555555555555556,-5.634920634920634,-166.26984126984127
184,-325.0,325.0,42.3015873015873,-34.84126984126984,-156.11111111111111,-303.0952380952381,-325.0,-325.0,36.904761904761905,-110.87301587301587,-129.12698412698413,-325.0,55.476190476190474,325.0,33.095238095238095,325.0,325.0,-325.0,-276.26984126984127,-38.01587301587301,-34.52380952380952,4.365079365079365,0.07936507936507936,-166.26984126984127
185,-325.0,325.0,42.3015873015873,-34.84126984126984,-156.11111111111111,-303.0952380952381,-325.0,-325.0,36.904761904761905,-110.87301587301587,-129.12698412698413,-325.0,55.476190476190474,325.0,33.095238095238095,325.0,325.0,-325.0,-276.26984126984127,-38.01587301587301,-34.52380952380952,4.365079365079365,0.07936507936507936,-166.26984126984127
186,-325.0,325.0,41.34920634920635,-34.36507936507936,-153.25396825396825,-297.06349206349205,-325.0,-325.0,36.269841269841265,-108.80952380952381,-126.58730158730158,-325.0,53.888888888888886,325.0,43.888888888888886,325.0,325.0,-325.0,-270.39682539682536,-37.38095238095238,-33.888888888888886,-5.7936507936507935,-5.158730158730158,-166.26984126984127
187,-325.0,325.0,41.34920634920635,-34.36507936507936,-153.25396825396825,-297.06349206349205,-325.0,-325.0,36.269841269841265,-108.80952380952381,-126.58730158730158,-325.0,53.888888888888886,325.0,43.888888888888886,325.0,325.0,-325.0,-270.39682539682536,-37.38095238095238,-33.888888888888886,-5.7936507936507935,-5.158730158730158,-166.26984126984127
188,-325.0,266.58730158730157,40.87301587301587,-34.2063492063492,-151.34920634920633,-293.4126984126984,-325.0,-325.0,33.888888888888886,-107.22222222222221,-125.15873015873015,-325.0,53.25396825396825,325.0,24.523809523809522,325.0,325.0,-325.0,-267.22222222222223,-36.74603174603175,-33.41269841269841,5.158730158730158,-1.1904761904761905,-166.26984126984127
189,-325.0,266.58730158730157,40.87301587301587,-34.2063492063492,-151.34920634920633,-293.4126984126984,-325.0,-325.0,33.888888888888886,-107.22222222222221,-125.15873015873015,-325.0,53.25396825396825,325.0,24.523809523809522,325.0,325.0,-325.0,-267.22222222222223,-36.74603174603175,-33.41269841269841,5.158730158730158,-1.1904761904761905,-166.26984126984127
190,-325.0,266.58730158730157,40.87301587301587,-34.2063492063492,-151.34920634920633,-293.4126984126984,-325.0,-325.0,33.888888888888886,-107.22222222222221,-125.15873015873015,-325.0,53.25396825396825,325.0,24.523809523809522,325.0,325.0,-325.0,-267.22222222222223,-36.74603174603175,-33.41269841269841,5.158730158730158,-1.1904761904761905,-321.8253968253968
191,-325.0,266.58730158730157,40.87301587301587,-34.2063492063492,-151.34920634920633,-293.4126984126984,-325.0,-325.0,33.888888888888886,-107.22222222222221,-125.15873015873015,-325.0,53.25396825396825,325.0,24.523809523809522,325.0,325.0,-325.0,-267.22222222222223,-36.74603174603175,-33.41269841269841,5.158730158730158,-1.1904761904761905,-321.8253968253968
192,-325.0,266.58730158730157,40.87301587301587,-34.2063492063492,-151.34920634920633,-293.4126984126984,-325.0,-325.0,33.888888888888886,-107.22222222222221,-125.15873015873015,-325.0,53.25396825396825,325.0,24.523809523809522,325.0,325.0,-325.0,-267.22222222222223,-36.74603174603175,-33.41269841269841,5.158730158730158,-1.1904761904761905,-321.8253968253968
193,-325.0,266.58730158730157,40.87301587301587,-34.2063492063492,-151.34920634920633,-293.4126984126984,-325.0,-325.0,33.888888888888886,-107.22222222222221,-125.15873015873015,-325.0,53.25396825396825,325.0,24.523809523809522,325.0,325.0,-325.0,-267.22222222222223,-36.74603174603175,-33.41269841269841,5.158730158730158,-1.1904761904761905,-321.8253968253968
194,-325.0,295.7936507936508,39.76190476190476,-33.095238095238095,-147.2222222222222,-285.3174603174603,-325.0,-325.0,27.539682539682538,-104.2063492063492,-121.66666666666666,-325.0,52.460317460317455,325.0,-5.476190476190476,325.0,325.0,-325.0,-259.44444444444446,-35.79365079365079,6.26984126984127,-0.3968253968253968,-6.111111111111111,-321.8253968253968
195,-325.0,295.7936507936508,39.76190476190476,-33.095238095238095,-147.2222222222222,-285.3174603174603,-325.0,-325.0,27.539682539682538,-104.2063492063492,-121.66666666666666,-325.0,52.460317460317455,325.0,-5.476190476190476,325.0,325.0,-325.0,-259.44444444444446,-35.79365079365079,6.26984126984127,-0.3968253968253968,-6.111111111111111,-321.8253968253968
196,-325.0,66.74603174603175,-73.25396825396825,-31.349206349206348,-141.66666666666666,-274.68253968253964,-325.0,-325.0,-264.36507936507934,-99.92063492063491,-116.9047619047619,-325.0,-90.39682539682539,325.0,-288.8095238095238,325.0,325.0,-325.0,-249.12698412698413,-34.2063492063492,196.58730158730157,9.444444444444445,0.5555555555555556,-321.8253968253968
197,-325.0,66.74603174603175,-73.25396825396825,-31.349206349206348,-141.66666666666666,-274.68253968253964,-325.0,-325.0,-264.36507936507934,-99.92063492063491,-116.9047619047619,-325.0,-90.39682539682539,325.0,-288.8095238095238,325.0,325.0,-325.0,-249.12698412698413,-34.2063492063492,196.58730158730157,9.444444444444445,0.5555555555555556,-321.8253968253968
198,-325.0,-80.55555555555556,-27.38095238095238,-31.19047619047619,-140.23809523809524,-271.5079365079365,-325.0,-325.0,-161.66666666666666,-98.80952380952381,-115.63492063492063,-325.0,-34.36507936507936,325.0,-207.2222222222222,325.0,325.0,-325.0,-246.1111111111111,-33.888888888888886,179.44444444444443,1.349206349206349,-4.365079365079365,-321.8253968253968
199,-325.0,-80.55555555555556,-27.38095238095238,-31.19047619047619,-140.23809523809524,-271.5079365079365,-325.0,-325.0,-161.66666666666666,-98.80952380952381,-115.63492063492063,-325.0,-34.36507936507936,325.0,-207.2222222222222,325.0,325.0,-325.0,-246.1111111111111,-33.888888888888886,179.44444444444443,1.349206349206349,-4.365079365079365,-321.8253968253968
200,-325.0,-218.015873015873,-72.3015873015873,-29.76190476190476,-134.36507936507937,-261.66666666666663,-325.0,-325.0,-272.9365079365079,-94.84126984126983,-111.19047619047619,-325.0,-72.3015873015873,325.0,-294.8412698412698,325.0,73.25396825396825,-325.0,-236.58730158730157,-32.14285714285714,325.0,-1.0317460317460316,-1.349206349206349,-166.26984126984127
201,-325.0,-218.015873015873,-72.3015873015873,-29.76190476190476,-134.36507936507937,-261.66666666666663,-325.0,-325.0,-272.9365079365079,-94.84126984126983,-111.19047619047619,-325.0,-72.3015873015873,325.0,-294.8412698412698,325.0,73.25396825396825,-325.0,-236.58730158730157,-32.14285714285714,325.0,-1.0317460317460316,-1.349206349206349,-166.26984126984127
202,-325.0,-212.93650793650792,-259.76190476190476,-28.96825396825397,-131.8253968253968,-256.1111111111111,-325.0,-325.0,-325.0,-92.93650793650794,-108.80952380952381,-325.0,-247.38095238095238,325.0,-325.0,325.0,21.03174603174603,-325.0,-231.5079365079365,-31.507936507936506,325.0,7.857142857142857,5.7936507936507935,-166.26984126984127
203,-325.0,-212.93650793650792,-259.76190476190476,-28.96825396825397,-131.8253968253968,-256.1111111111111,-325.0,-325.0,-325.0,-92.93650793650794,-108.80952380952381,-325.0,-247.38095238095238,325.0,-325.0,325.0,21.03174603174603,-325.0,-231.5079365079365,-31.507936507936506,325.0,7.857142857142857,5.7936507936507935,-166.26984126984127
204,-325.0,-206.26984126984127,-40.714285714285715,-28.333333333333332,-128.17460317460316,-249.28571428571428,-325.0,-325.0,-257.38095238095235,-90.39682539682539,-105.95238095238095,-325.0,-20.07936507936508,325.0,-212.77777777777777,325.0,325.0,-325.0,-225.0,-30.71428571428571,325.0,-2.142857142857143,-1.1904761904761905,-166.26984126984127
205,-325.0,-206.26984126984127,-40.714285714285715,-28.333333333333332,-128.17460317460316,-249.28571428571428,-325.0,-325.0,-257.38095238095235,-90.39682539682539,-105.95238095238095,-325.0,-20.07936507936508,325.0,-212.77777777777777,325.0,325.0,-325.0,-225.0,-30.71428571428571,325.0,-2.142857142857143,-1.1904761904761905,-166.26984126984127
206,-325.0,-201.98412698412696,-37.857142857142854,-28.015873015873016,-125.79365079365078,-244.2063492063492,-325.0,-325.0,-278.3333333333333,-88.4920634920635,-103.73015873015872,-325.0,-18.65079365079365,325.0,-212.3015873015873,325.0,325.0,-325.0,-220.3968253968254,-30.238095238095237,325.0,-5.317460317460317,-4.841269841269841,-166.26984126984127
207,-325.0,-201.98412698412696,-37.857142857142854,-28.015873015873016,-125.79365079365078,-244.2063492063492,-325.0,-325.0,-278.3333333333333,-88.4920634920635,-103.73015873015872,-325.0,-18.65079365079365,325.0,-212.3015873015873,325.0,325.0,-325.0,-220.3968253968254,-30.238095238095237,325.0,-5.317460317460317,-4.841269841269841,-166.26984126984127
208,-325.0,-198.96825396825395,-325.0,-27.698412698412696,-124.04761904761904,-241.03174603174602,-325.0,-325.0,-325.0,-87.22222222222221,-102.46031746031746,-325.0,-312.9365079365079,325.0,-325.0,325.0,325.0,-325.0,-217.53968253968253,-29.920634920634917,325.0,8.333333333333332,1.349206349206349,-166.26984126984127
209,-325.0,-198.96825396825395,-325.0,-27.698412698412696,-124.04761904761904,-241.03174603174602,-325.0,-325.0,-325.0,-87.22222222222221,-102.46031746031746,-325.0,-312.9365079365079,325.0,-325.0,325.0,325.0,-325.0,-217.53968253968253,-29.920634920634917,325.0,8.333333333333332,1.349206349206349,-166.26984126984127
210,-325.0,-194.52380952380952,-121.34920634920634,-26.746031746031743,-121.5079365079365,-236.1111111111111,-325.0,-325.0,-325.0,-85.31746031746032,-100.23809523809523,-325.0,-82.93650793650794,325.0,-325.0,325.0,309.2857142857143,-325.0,-212.77777777777777,-29.126984126984127,325.0,-7.222222222222221,-5.634920634920634,-321.8253968253968
211,-325.0,-194.52380952380952,-121.34920634920634,-26.746031746031743,-121.5079365079365,-236.1111111111111,-325.0,-325.0,-325.0,-85.31746031746032,-100.23809523809523,-325.0,-82.93650793650794,325.0,-325.0,325.0,309.2857142857143,-325.0,-212.77777777777777,-29.126984126984127,325.0,-7.222222222222221,-5.634920634920634,-321.8253968253968
212,-325.0,-190.87301587301587,-200.23809523809524,63.41269841269841,-119.28571428571428,-232.3015873015873,-325.0,-325.0,-325.0,-83.73015873015872,-98.80952380952381,-325.0,-180.7142857142857,325.0,-325.0,325.0,190.55555555555554,-325.0,-209.12698412698413,-28.49206349206349,325.0,-6.111111111111111,-6.111111111111111,-321.8253968253968
213,-325.0,-190.87301587301587,-200.23809523809524,63.41269841269841,-119.28571428571428,-232.3015873015873,-325.0,-325.0,-325.0,-83.73015873015872,-98.80952380952381,-325.0,-180.7142857142857,325.0,-325.0,325.0,190.55555555555554,-325.0,-209.12698412698413,-28.49206349206349,325.0,-6.111111111111111,-6.111111111111111,-321.8253968253968
214,-325.0,-184.68253968253967,-325.0,325.0,-115.95238095238095,-225.47619047619045,-325.0,-325.0,-325.0,-81.03174603174602,-95.79365079365078,-325.0,-325.0,325.0,-325.0,325.0,-216.26984126984127,-325.0,-202.77777777777777,-27.539682539682538,325.0,6.428571428571428,1.984126984126984,-321.8253968253968
215,-325.0,-184.68253968253967,-325.0,325.0,-115.95238095238095,-225.47619047619045,-325.0,-325.0,-325.0,-81.03174603174602,-95.79365079365078,-325.0,-325.0,325.0,-325.0,325.0,-216.26984126984127,-325.0,-202.77777777777777,-27.539682539682538,325.0,6.428571428571428,1.984126984126984,-321.8253968253968
216,-325.0,-179.76190476190476,-325.0,325.0,-113.09523809523809,-220.07936507936506,-325.0,-325.0,-325.0,-78.96825396825396,-93.4126984126984,-325.0,-325.0,325.0,-325.0,325.0,-221.98412698412696,-325.0,-197.69841269841268,-26.9047619047619,325.0,-6.111111111111111,-10.714285714285714,-321.8253968253968
217,-325.0,-179.76190476190476,-325.0,325.0,-113.09523809523809,-220.07936507936506,-325.0,-325.0,-325.0,-78.96825396825396,-93.4126984126984,-325.0,-325.0,325.0,-325.0,325.0,-221.98412698412696,-325.0,-197.69841269841268,-26.9047619047619,325.0,-6.111111111111111,-10.714285714285714,-321.8253968253968
218,-325.0,-170.3968253968254,-325.0,325.0,-108.01587301587301,-209.76190476190476,-325.0,-325.0,-325.0,-75.47619047619047,-88.96825396825396,-325.0,-325.0,325.0,-325.0,325.0,325.0,-325.0,-187.85714285714283,161.03174603174602,325.0,1.349206349206349,-0.23809523809523808,-321.8253968253968
219,-325.0,-170.3968253968254,-325.0,325.0,-108.01587301587301,-209.76190476190476,-325.0,-325.0,-325.0,-75.47619047619047,-88.96825396825396,-325.0,-325.0,325.0,-325.0,325.0,325.0,-325.0,-187.85714285714283,161.03174603174602,325.0,1.349206349206349,-0.23809523809523808,-321.8253968253968
220,-325.0,-165.0,-325.0,325.0,-104.84126984126983,-203.7301587301587,-325.0,-325.0,-325.0,-73.09523809523809,-86.58730158730158,-325.0,-325.0,325.0,-325.0,325.0,325.0,-325.0,-182.46031746031744,325.0,325.0,5.634920634920634,4.682539682539682,-166.26984126984127
221,-325.0,-165.0,-325.0,325.0,-104.84126984126983,-203.7301587301587,-325.0,-325.0,-325.0,-73.09523809523809,-86.58730158730158,-325.0,-325.0,325.0,-325.0,325.0,325.0,-325.0,-182.46031746031744,325.0,325.0,5.634920634920634,4.682539682539682,-166.26984126984127
222,-325.0,-161.984126984127,-325.0,325.0,-103.25396825396825,-200.3968253968254,-325.0,-325.0,-325.0,-71.82539682539682,-85.15873015873015,-325.0,-325.0,325.0,-325.0,325.0,325.0,-325.0,-179.28571428571428,325.0,325.0,6.587301587301587,5.158730158730158,-166.26984126984127
223,-325.0,-161.984126984127,-325.0,325.0,-103.25396825396825,-200.3968253968254,-325.0,-325.0,-325.0,-71.82539682539682,-85.15873015873015,-325.0,-325.0,325.0,-325.0,325.0,325.0,-325.0,-179.28571428571428,325.0,325.0,6.587301587301587,5.158730158730158,-166.26984126984127
224,-322.1428571428571,-157.69841269841268,-325.0,325.0,-100.87301587301587,-195.63492063492063,-321.8253968253968,-325.0,-325.0,-70.07936507936508,-83.09523809523809,-325.0,-325.0,325.0,-325.0,325.0,325.0,-325.0,-174.84126984126982,325.0,325.0,0.3968253968253968,-3.888888888888889,-166.26984126984127
225,-322.1428571428571,-157.69841269841268,-325.0,325.0,-100.87301587301587,-195.63492063492063,-321.8253968253968,-325.0,-325.0,-70.07936507936508,-83.09523809523809,-325.0,-325.0,325.0,-325.0,325.0,325.0,-325.0,-174.84126984126982,325.0,325.0,0.3968253968253968,-3.888888888888889,-166.26984126984127
226,-316.58730158730157,-154.36507936507937,-325.0,325.0,-98.65079365079364,-191.66666666666666,-316.26984126984127,-325.0,-325.0,-68.65079365079364,-81.34920634920634,-325.0,-325.0,325.0,-325.0,325.0,325.0,-325.0,-171.34920634920633,325.0,325.0,6.111111111111111,2.46031746031746,-166.26984126984127
227,-316.58730158730157,-154.36507936507937,-325.0,325.0,-98.65079365079364,-191.66666666666666,-316.26984126984127,-325.0,-325.0,-68.65079365079364,-81.34920634920634,-325.0,-325.0,325.0,-325.0,325.0,325.0,-325.0,-171.34920634920633,325.0,325.0,6.111111111111111,2.46031746031746,-166.26984126984127
228,-316.58730158730157,-154.36507936507937,-325.0,325.0,-98.65079365079364,-191.66666666666666,-316.26984126984127,-325.0,-325.0,-68.65079365079364,-81.34920634920634,-325.0,-325.0,325.0,-325.0,325.0,325.0,-325.0,-171.34920634920633,325.0,325.0,6.111111111111111,2.46031746031746,-166.26984126984127
229,-316.58730158730157,-154.36507936507937,-325.0,325.0,-98.65079365079364,-191.66666666666666,-316.26984126984127,-325.0,-325.0,-68.65079365079364,-81.34920634920634,-325.0,-325.0,325.0,-325.0,325.0,325.0,-325.0,-171.34920634920633,325.0,325.0,6.111111111111111,2.46031746031746,-166.26984126984127
230,-298.4920634920635,-145.0,-325.0,325.0,-93.25396825396825,-181.19047619047618,-298.3333333333333,-325.0,-325.0,-64.68253968253968,-77.06349206349206,-325.0,-312.6190476190476,325.0,-325.0,325.0,325.0,-325.0,-161.5079365079365,325.0,325.0,-5.158730158730158,-8.968253968253968,-321.8253968253968
231,-298.4920634920635,-145.0,-325.0,325.0,-93.25396825396825,-181.19047619047618,-298.3333333333333,-325.0,-325.0,-64.68253968253968,-77.06349206349206,-325.0,-312.6190476190476,325.0,-325.0,325.0,325.0,-325.0,-161.5079365079365,325.0,325.0,-5.158730158730158,-8.968253968253968,-321.8253968253968
232,-294.68253968253964,-142.61904761904762,-325.0,325.0,-92.14285714285714,-178.96825396825395,-294.5238095238095,-325.0,-325.0,-63.73015873015873,-76.1111111111111,-325.0,-318.8095238095238,325.0,-325.0,325.0,325.0,-325.0,-159.44444444444443,325.0,325.0,-5.952380952380952,-6.111111111111111,-321.8253968253968
233,-294.68253968253964,-142.61904761904762,-325.0,325.0,-92.14285714285714,-178.96825396825395,-294.5238095238095,-325.0,-325.0,-63.73015873015873,-76.1111111111111,-325.0,-318.8095238095238,325.0,-325.0,325.0,325.0,-325.0,-159.44444444444443,325.0,325.0,-5.952380952380952,-6.111111111111111,-321.8253968253968
234,-285.95238095238096,-138.33333333333331,-325.0,325.0,-89.44444444444444,-173.73015873015873,-285.7936507936508,-325.0,-325.0,-61.82539682539682,-73.88888888888889,-325.0,-325.0,325.0,-325.0,325.0,325.0,-325.0,-154.68253968253967,325.0,325.0,-1.0317460317460316,-1.349206349206349,-321.8253968253968
235,-285.95238095238096,-138.33333333333331,-325.0,325.0,-89.44444444444444,-173.73015873015873,-285.7936507936508,-325.0,-325.0,-61.82539682539682,-73.88888888888889,-325.0,-325.0,325.0,-325.0,325.0,325.0,-325.0,-154.68253968253967,325.0,325.0,-1.0317460317460316,-1.349206349206349,-321.8253968253968
236,-283.57142857142856,-137.38095238095238,-325.0,325.0,-88.65079365079364,-172.3015873015873,-283.4126984126984,-325.0,-325.0,-61.34920634920635,-73.25396825396825,-325.0,-325.0,325.0,-325.0,325.0,325.0,-325.0,-153.4126984126984,325.0,325.0,4.682539682539682,7.698412698412698,-321.8253968253968
237,-283.57142857142856,-137.38095238095238,-325.0,325.0,-88.65079365079364,-172.3015873015873,-283.4126984126984,-325.0,-325.0,-61.34920634920635,-73.25396825396825,-325.0,-325.0,325.0,-325.0,325.0,325.0,-325.0,-153.4126984126984,325.0,325.0,4.682539682539682,7.698412698412698,-321.8253968253968
238,-283.57142857142856,-137.38095238095238,-325.0,325.0,-88.65079365079364,-172.3015873015873,-283.4126984126984,-325.0,-325.0,-61.34920634920635,-73.25396825396825,-325.0,-325.0,325.0,-325.0,325.0,325.0,-325.0,-153.4126984126984,325.0,325.0,4.682539682539682,7.698412698412698,-321.8253968253968
239,-283.57142857142856,-137.38095238095238,-325.0,325.0,-88.65079365079364,-172.3015873015873,-283.4126984126984,-325.0,-325.0,-61.34920634920635,-73.25396825396825,-325.0,-325.0,325.0,-325.0,325.0,325.0,-325.0,-153.4126984126984,325.0,325.0,4.682539682539682,7.698412698412698,-321.8253968253968
240,-283.57142857142856,-137.38095238095238,-325.0,325.0,-88.65079365079364,-172.3015873015873,-283.4126984126984,-325.0,-325.0,-61.34920634920635,-73.25396825396825,-325.0,-325.0,325.0,-325.0,325.0,325.0,-325.0,-153.4126984126984,325.0,325.0,4.682539682539682,7.698412698412698,-166.26984126984127
241,-283.57142857142856,-137.38095238095238,-325.0,325.0,-88.65079365079364,-172.3015873015873,-283.4126984126984,-325.0,-325.0,-61.34920634920635,-73.25396825396825,-325.0,-325.0,325.0,-325.0,325.0,325.0,-325.0,-153.4126984126984,325.0,325.0,4.682539682539682,7.698412698412698,-166.26984126984127
242,-283.57142857142856,-137.38095238095238,-325.0,325.0,-88.65079365079364,-172.3015873015873,-283.4126984126984,-325.0,-325.0,-61.34920634920635,-73.25396825396825,-325.0,-325.0,325.0,-325.0,325.0,325.0,-325.0,-153.4126984126984,325.0,325.0,4.682539682539682,7.698412698412698,-166.26984126984127
243,-283.57142857142856,-137.38095238095238,-325.0,325.0,-88.65079365079364,-172.3015873015873,-283.4126984126984,-325.0,-325.0,-61.34920634920635,-73.25396825396825,-325.0,-325.0,325.0,-325.0,325.0,325.0,-325.0,-153.4126984126984,325.0,325.0,4.682539682539682,7.698412698412698,-166.26984126984127
244,-262.6190476190476,-127.06349206349206,-325.0,325.0,-82.61904761904762,-159.9206349206349,-262.9365079365079,-304.5238095238095,-325.0,-55.15873015873016,-68.17460317460318,-325.0,-325.0,320.07936507936506,-325.0,325.0,325.0,-325.0,-141.984126984127,325.0,325.0,-6.428571428571428,-2.9365079365079363,-166.26984126984127
245,-262.6190476190476,-127.06349206349206,-325.0,325.0,-82.61904761904762,-159.9206349206349,-262.9365079365079,-304.5238095238095,-325.0,-55.15873015873016,-68.17460317460318,-325.0,-325.0,320.07936507936506,-325.0,325.0,325.0,-325.0,-141.984126984127,325.0,325.0,-6.428571428571428,-2.9365079365079363,-166.26984126984127
246,-262.6190476190476,-127.06349206349206,-325.0,325.0,-82.61904761904762,-159.9206349206349,-262.9365079365079,-304.5238095238095,-325.0,-55.15873015873016,-68.17460317460318,-325.0,-325.0,320.07936507936506,-325.0,325.0,325.0,-325.0,-141.984126984127,325.0,325.0,-6.428571428571428,-2.9365079365079363,-166.26984126984127
247,-262.6190476190476,-127.06349206349206,-325.0,325.0,-82.61904761904762,-159.9206349206349,-262.9365079365079,-304.5238095238095,-325.0,-55.15873015873016,-68.17460317460318,-325.0,-325.0,320.07936507936506,-325.0,325.0,325.0,-325.0,-141.984126984127,325.0,325.0,-6.428571428571428,-2.9365079365079363,-166.26984126984127
248,-234.84126984126982,-113.88888888888889,-23.253968253968253,325.0,-47.22222222222222,-143.88888888888889,-235.79365079365078,-274.8412698412698,-325.0,-28.174603174603174,54.047619047619044,-307.38095238095235,50.39682539682539,286.1111111111111,-287.06349206349205,325.0,325.0,-318.3333333333333,-127.06349206349206,325.0,325.0,-6.26984126984127,-11.19047619047619,-166.26984126984127
249,-234.84126984126982,-113.88888888888889,-23.253968253968253,325.0,-47.22222222222222,-143.88888888888889,-235.79365079365078,-274.8412698412698,-325.0,-28.174603174603174,54.047619047619044,-307.38095238095235,50.39682539682539,286.1111111111111,-287.06349206349205,325.0,325.0,-318.3333333333333,-127.06349206349206,325.0,325.0,-6.26984126984127,-11.19047619047619,-166.26984126984127
250,-234.84126984126982,-113.88888888888889,-23.253968253968253,325.0,-47.22222222222222,-143.88888888888889,-235.79365079365078,-274.8412698412698,-325.0,-28.174603174603174,54.047619047619044,-307.38095238095235,50.39682539682539,286.1111111111111,-287.06349206349205,325.0,325.0,-318.3333333333333,-127.06349206349206,325.0,325.0,-6.26984126984127,-11.19047619047619,-321.8253968253968
251,-234.84126984126982,-113.88888888888889,-23.253968253968253,325.0,-47.22222222222222,-143.88888888888889,-235.79365079365078,-274.8412698412698,-325.0,-28.174603174603174,54.047619047619044,-307.38095238095235,50.39682539682539,286.1111111111111,-287.06349206349205,325.0,325.0,-318.3333333333333,-127.06349206349206,325.0,325.0,-6.26984126984127,-11.19047619047619,-321.8253968253968
252,-212.93650793650792,-106.9047619047619,-174.2063492063492,325.0,-55.317460317460316,-130.87301587301587,-214.36507936507937,-250.87301587301585,-325.0,36.42857142857142,-1.8253968253968254,-279.6031746031746,-137.38095238095238,259.1269841269841,-306.1111111111111,325.0,325.0,-290.55555555555554,-115.31746031746032,325.0,325.0,-4.523809523809524,-9.920634920634921,-321.8253968253968
253,-212.93650793650792,-106.9047619047619,-174.2063492063492,325.0,-55.317460317460316,-130.87301587301587,-214.36507936507937,-250.87301587301585,-325.0,36.42857142857142,-1.8253968253968254,-279.6031746031746,-137.38095238095238,259.1269841269841,-306.1111111111111,325.0,325.0,-290.55555555555554,-115.31746031746032,325.0,325.0,-4.523809523809524,-9.920634920634921,-321.8253968253968
254,-191.03174603174602,-99.76190476190476,-325.0,325.0,-63.25396825396825,-117.85714285714285,-192.77777777777777,-226.74603174603175,-325.0,101.03174603174602,-57.53968253968254,-251.66666666666666,-325.0,232.14285714285714,-325.0,325.0,325.0,-262.77777777777777,-103.4126984126984,325.0,325.0,-2.7777777777777777,-8.65079365079365,-321.8253968253968
255,-191.03174603174602,-99.76190476190476,-325.0,325.0,-63.25396825396825,-117.85714285714285,-192.77777777777777,-226.74603174603175,-325.0,101.03174603174602,-57.53968253968254,-251.66666666666666,-325.0,232.14285714285714,-325.0,325.0,325.0,-262.77777777777777,-103.4126984126984,325.0,325.0,-2.7777777777777777,-8.65079365079365,-321.8253968253968
256,-191.03174603174602,-99.76190476190476,-325.0,325.0,-63.25396825396825,-117.85714285714285,-192.77777777777777,-226.74603174603175,-325.0,101.03174603174602,-57.53968253968254,-251.66666666666666,-325.0,232.14285714285714,-325.0,325.0,325.0,-262.77777777777777,-103.4126984126984,325.0,325.0,-2.7777777777777777,-8.65079365079365,-321.8253968253968
257,-191.03174603174602,-99.76190476190476,-325.0,325.0,-63.25396825396825,-117.85714285714285,-192.77777777777777,-226.74603174603175,-325.0,101.03174603174602,-57.53968253968254,-251.66666666666666,-325.0,232.14285714285714,-325.0,325.0,325.0,-262.77777777777777,-103.4126984126984,325.0,325.0,-2.7777777777777777,-8.65079365079365,-321.8253968253968
258,-191.03174603174602,-99.76190476190476,-325.0,325.0,-63.25396825396825,-117.85714285714285,-192.77777777777777,-226.74603174603175,-325.0,101.03174603174602,-57.53968253968254,-251.66666666666666,-325.0,232.14285714285714,-325.0,325.0,325.0,-262.77777777777777,-103.4126984126984,325.0,325.0,-2.7777777777777777,-8.65079365079365,-321.8253968253968
259,-191.03174603174602,-99.76190476190476,-325.0,325.0,-63.25396825396825,-117.85714285714285,-192.77777777777777,-226.74603174603175,-325.0,101.03174603174602,-57.53968253968254,-251.66666666666666,-325.0,232.14285714285714,-325.0,325.0,325.0,-262.77777777777777,-103.4126984126984,325.0,325.0,-2.7777777777777777,-8.65079365079365,-321.8253968253968
260,-191.03174603174602,-99.76190476190476,-325.0,325.0,-63.25396825396825,-117.85714285714285,-192.77777777777777,-226.74603174603175,-325.0,101.03174603174602,-57.53968253968254,-251.66666666666666,-325.0,232.14285714285714,-325.0,325.0,325.0,-262.77777777777777,-103.4126984126984,325.0,325.0,-2.7777777777777777,-8.65079365079365,-166.26984126984127
261,-191.03174603174602,-99.76190476190476,-325.0,325.0,-63.25396825396825,-117.85714285714285,-192.77777777777777,-226.74603174603175,-325.0,101.03174603174602,-57.53968253968254,-251.66666666666666,-325.0,232.14285714285714,-325.0,325.0,325.0,-262.77777777777777,-103.4126984126984,325.0,325.0,-2.7777777777777777,-8.65079365079365,-166.26984126984127
262,-191.03174603174602,-99.76190476190476,-325.0,325.0,-63.25396825396825,-117.85714285714285,-192.77777777777777,-226.74603174603175,-325.0,101.03174603174602,-57.53968253968254,-251.66666666666666,-325.0,232.14285714285714,-325.0,325.0,325.0,-262.77777777777777,-103.4126984126984,325.0,325.0,-2.7777777777777777,-8.65079365079365,-166.26984126984127
263,-191.03174603174602,-99.76190476190476,-325.0,325.0,-63.25396825396825,-117.85714285714285,-192.77777777777777,-226.74603174603175,-325.0,101.03174603174602,-57.53968253968254,-251.66666666666666,-325.0,232.14285714285714,-325.0,325.0,325.0,-262.77777777777777,-103.4126984126984,325.0,325.0,-2.7777777777777777,-8.65079365079365,-166.26984126984127
264,-191.03174603174602,-99.76190476190476,-325.0,325.0,-63.25396825396825,-117.85714285714285,-192.77777777777777,-226.74603174603175,-325.0,101.03174603174602,-57.53968253968254,-251.66666666666666,-325.0,232.14285714285714,-325.0,325.0,325.0,-262.77777777777777,-103.4126984126984,325.0,325.0,-2.7777777777777777,-8.65079365079365,-166.26984126984127
265,-191.03174603174602,-99.76190476190476,-325.0,325.0,-63.25396825396825,-117.85714285714285,-192.77777777777777,-226.74603174603175,-325.0,101.03174603174602,-57.53968253968254,-251.66666666666666,-325.0,232.14285714285714,-325.0,325.0,325.0,-262.77777777777777,-103.4126984126984,325.0,325.0,-2.7777777777777777,-8.65079365079365,-166.26984126984127
266,-191.03174603174602,-99.76190476190476,-325.0,325.0,-63.25396825396825,-117.85714285714285,-192.77777777777777,-226.74603174603175,-325.0,101.03174603174602,-57.53968253968254,-251.66666666666666,-325.0,232.14285714285714,-325.0,325.0,325.0,-262.77777777777777,-103.4126984126984,325.0,325.0,-2.7777777777777777,-8.65079365079365,-166.26984126984127
267,-191.03174603174602,-99.76190476190476,-325.0,325.0,-63.25396825396825,-117.85714285714285,-192.77777777777777,-226.74603174603175,-325.0,101.03174603174602,-57.53968253968254,-251.66666666666666,-325.0,232.14285714285714,-325.0,325.0,325.0,-262.77777777777777,-103.4126984126984,325.0,325.0,-2.7777777777777777,-8.65079365079365,-166.26984126984127
268,-191.03174603174602,-99.76190476190476,-325.0,325.0,-63.25396825396825,-117.85714285714285,-192.77777777777777,-226.74603174603175,-325.0,101.03174603174602,-57.53968253968254,-251.66666666666666,-325.0,232.14285714285714,-325.0,325.0,325.0,-262.77777777777777,-103.4126984126984,325.0,325.0,-2.7777777777777777,-8.65079365079365,-166.26984126984127
269,-191.03174603174602,-99.76190476190476,-325.0,325.0,-63.25396825396825,-117.85714285714285,-192.77777777777777,-226.74603174603175,-325.0,101.03174603174602,-57.53968253968254,-251.66666666666666,-325.0,232.14285714285714,-325.0,325.0,325.0,-262.77777777777777,-103.4126984126984,325.0,325.0,-2.7777777777777777,-8.65079365079365,-166.26984126984127
270,-191.03174603174602,-99.76190476190476,-325.0,325.0,-63.25396825396825,-117.85714285714285,-192.77777777777777,-226.74603174603175,-325.0,101.03174603174602,-57.53968253968254,-251.66666666666666,-325.0,232.14285714285714,-325.0,325.0,325.0,-262.77777777777777,-103.4126984126984,325.0,325.0,-2.7777777777777777,-8.65079365079365,-321.8253968253968
271,-191.03174603174602,-99.76190476190476,-325.0,325.0,-63.25396825396825,-117.85714285714285,-192.77777777777777,-226.74603174603175,-325.0,101.03174603174602,-57.53968253968254,-251.66666666666666,-325.0,232.14285714285714,-325.0,325.0,325.0,-262.77777777777777,-103.4126984126984,325.0,325.0,-2.7777777777777777,-8.65079365079365,-321.8253968253968
272,-191.03174603174602,-99.76190476190476,-325.0,325.0,-63.25396825396825,-117.85714285714285,-192.77777777777777,-226.74603174603175,-325.0,101.03174603174602,-57.53968253968254,-251.66666666666666,-325.0,232.14285714285714,-325.0,325.0,325.0,-262.77777777777777,-103.4126984126984,325.0,325.0,-2.7777777777777777,-8.65079365079365,-321.8253968253968
273,-191.03174603174602,-99.76190476190476,-325.0,325.0,-63.25396825396825,-117.85714285714285,-192.77777777777777,-226.74603174603175,-325.0,101.03174603174602,-57.53968253968254,-251.66666666666666,-325.0,232.14285714285714,-325.0,325.0,325.0,-262.77777777777777,-103.4126984126984,325.0,325.0,-2.7777777777777777,-8.65079365079365,-321.8253968253968
274,-191.03174603174602,-99.76190476190476,-325.0,325.0,-63.25396825396825,-117.85714285714285,-192.77777777777777,-226.74603174603175,-325.0,101.03174603174602,-57.53968253968254,-251.66666666666666,-325.0,232.14285714285714,-325.0,325.0,325.0,-262.77777777777777,-103.4126984126984,325.0,325.0,-2.7777777777777777,-8.65079365079365,-321.8253968253968
275,-191.03174603174602,-99.76190476190476,-325.0,325.0,-63.25396825396825,-117.85714285714285,-192.77777777777777,-226.74603174603175,-325.0,101.03174603174602,-57.53968253968254,-251.66666666666666,-325.0,232.14285714285714,-325.0,325.0,325.0,-262.77777777777777,-103.4126984126984,325.0,325.0,-2.7777777777777777,-8.65079365079365,-321.8253968253968
276,-191.03174603174602,-99.76190476190476,-325.0,325.0,-63.25396825396825,-117.85714285714285,-192.77777777777777,-226.74603174603175,-325.0,101.03174603174602,-57.53968253968254,-251.66666666666666,-325.0,232.14285714285714,-325.0,325.0,325.0,-262.77777777777777,-103.4126984126984,325.0,325.0,-2.7777777777777777,-8.65079365079365,-321.8253968253968
277,-191.03174603174602,-99.76190476190476,-325.0,325.0,-63.25396825396825,-117.85714285714285,-192.77777777777777,-226.74603174603175,-325.0,101.03174603174602,-57.53968253968254,-251.66666666666666,-325.0,232.14285714285714,-325.0,325.0,325.0,-262.77777777777777,-103.4126984126984,325.0,325.0,-2.7777777777777777,-8.65079365079365,-321.8253968253968
278,-191.03174603174602,-99.76190476190476,-325.0,325.0,-63.25396825396825,-117.85714285714285,-192.77777777777777,-226.74603174603175,-325.0,101.03174603174602,-57.53968253968254,-251.66666666666666,-325.0,232.14285714285714,-325.0,325.0,325.0,-262.77777777777777,-103.4126984126984,325.0,325.0,-2.7777777777777777,-8.65079365079365,-321.8253968253968
279,-191.03174603174602,-99.76190476190476,-325.0,325.0,-63.25396825396825,-117.85714285714285,-192.77777777777777,-226.74603174603175,-325.0,101.03174603174602,-57.53968253968254,-251.66666666666666,-325.0,232.14285714285714,-325.0,325.0,325.0,-262.77777777777777,-103.4126984126984,325.0,325.0,-2.7777777777777777,-8.65079365079365,-321.8253968253968
280,-191.03174603174602,-99.76190476190476,-325.0,325.0,-63.25396825396825,-117.85714285714285,-192.77777777777777,-226.74603174603175,-325.0,101.03174603174602,-57.53968253968254,-251.66666666666666,-325.0,232.14285714285714,-325.0,325.0,325.0,-262.77777777777777,-103.4126984126984,325.0,325.0,-2.7777777777777777,-8.65079365079365,-166.26984126984127
281,-191.03174603174602,-99.76190476190476,-325.0,325.0,-63.25396825396825,-117.85714285714285,-192.77777777777777,-226.74603174603175,-325.0,101.03174603174602,-57.53968253968254,-251.66666666666666,-325.0,232.14285714285714,-325.0,325.0,325.0,-262.77777777777777,-103.4126984126984,325.0,325.0,-2.7777777777777777,-8.65079365079365,-166.26984126984127
282,-191.03174603174602,-99.76190476190476,-325.0,325.0,-63.25396825396825,-117.85714285714285,-192.77777777777777,-226.74603174603175,-325.0,101.03174603174602,-57.53968253968254,-251.66666666666666,-325.0,232.14285714285714,-325.0,325.0,325.0,-262.77777777777777,-103.4126984126984,325.0,325.0,-2.7777777777777777,-8.65079365079365,-166.26984126984127
283,-191.03174603174602,-99.76190476190476,-325.0,325.0,-63.25396825396825,-117.85714285714285,-192.77777777777777,-226.74603174603175,-325.0,101.03174603174602,-57.53968253968254,-251.66666666666666,-325.0,232.14285714285714,-325.0,325.0,325.0,-262.77777777777777,-103.4126984126984,325.0,325.0,-2.7777777777777777,-8.65079365079365,-166.26984126984127
284,-25.158730158730158,125.63492063492063,-164.68253968253967,-105.95238095238095,-241.98412698412696,83.09523809523809,3.253968253968254,-323.4126984126984,187.2222222222222,244.36507936507934,-293.0952380952381,-287.06349206349205,283.0952380952381,-24.047619047619047,-173.57142857142856,-323.73015873015873,104.04761904761904,-80.07936507936508,94.2063492063492,223.4126984126984,304.68253968253964,-23.095238095238095,-8.65079365079365,-166.26984126984127
285,-25.158730158730158,125.63492063492063,-164.68253968253967,-105.95238095238095,-241.98412698412696,83.09523809523809,3.253968253968254,-323.4126984126984,187.2222222222222,244.36507936507934,-293.0952380952381,-287.06349206349205,283.0952380952381,-24.047619047619047,-173.57142857142856,-323.73015873015873,104.04761904761904,-80.07936507936508,94.2063492063492,223.4126984126984,304.68253968253964,-23.095238095238095,-8.65079365079365,-166.26984126984127
286,-117.06349206349206,155.47619047619048,-325.0,281.3492063492063,-46.42857142857142,-73.57142857142857,-119.44444444444444,-143.4126984126984,-268.3333333333333,169.28571428571428,-52.77777777777777,-156.42857142857142,-325.0,141.03174603174602,-284.36507936507934,195.3174603174603,-325.0,-166.74603174603175,-63.41269841269841,314.68253968253964,243.7301587301587,3.095238095238095,-1.349206349206349,-166.26984126984127
287,-117.06349206349206,155.47619047619048,-325.0,281.3492063492063,-46.42857142857142,-73.57142857142857,-119.44444444444444,-143.4126984126984,-268.3333333333333,169.28571428571428,-52.77777777777777,-156.42857142857142,-325.0,141.03174603174602,-284.36507936507934,195.3174603174603,-325.0,-166.74603174603175,-63.41269841269841,314.68253968253964,243.7301587301587,3.095238095238095,-1.349206349206349,-166.26984126984127
288,-116.42857142857142,-14.047619047619047,-325.0,280.07936507936506,-46.269841269841265,-73.09523809523809,-118.96825396825396,-142.61904761904762,-267.22222222222223,13.73015873015873,-52.460317460317455,-155.79365079365078,-325.0,140.3968253968254,-283.0952380952381,91.03174603174602,-325.0,-165.95238095238093,-63.095238095238095,313.25396825396825,242.77777777777777,7.857142857142857,5.158730158730158,-166.26984126984127
289,-116.42857142857142,-14.047619047619047,-325.0,280.07936507936506,-46.269841269841265,-73.09523809523809,-118.96825396825396,-142.61904761904762,-267.22222222222223,13.73015873015873,-52.460317460317455,-155.79365079365078,-325.0,140.3968253968254,-283.0952380952381,91.03174603174602,-325.0,-165.95238095238093,-63.095238095238095,313.25396825396825,242.77777777777777,7.857142857142857,5.158730158730158,-166.26984126984127
290,-113.73015873015872,325.0,-325.0,272.9365079365079,-45.476190476190474,-71.5079365079365,-116.26984126984127,-139.44444444444443,-260.87301587301585,325.0,-51.507936507936506,-152.14285714285714,-325.0,136.74603174603175,-276.4285714285714,288.6507936507936,-325.0,-162.3015873015873,-61.666666666666664,305.7936507936508,236.58730158730157,-1.0317460317460316,-7.063492063492063,-321.8253968253968
291,-113.73015873015872,325.0,-325.0,272.9365079365079,-45.476190476190474,-71.5079365079365,-116.26984126984127,-139.44444444444443,-260.87301587301585,325.0,-51.507936507936506,-152.14285714285714,-325.0,136.74603174603175,-276.4285714285714,288.6507936507936,-325.0,-162.3015873015873,-61.666666666666664,305.7936507936508,236.58730158730157,-1.0317460317460316,-7.063492063492063,-321.8253968253968
292,-113.73015873015872,325.0,-325.0,272.9365079365079,-45.476190476190474,-71.5079365079365,-116.26984126984127,-139.44444444444443,-260.87301587301585,325.0,-51.507936507936506,-152.14285714285714,-325.0,136.74603174603175,-276.4285714285714,288.6507936507936,-325.0,-162.3015873015873,-61.666666666666664,305.7936507936508,236.58730158730157,-1.0317460317460316,-7.063492063492063,-321.8253968253968
293,-113.73015873015872,325.0,-325.0,272.9365079365079,-45.476190476190474,-71.5079365079365,-116.26984126984127,-139.44444444444443,-260.87301587301585,325.0,-51.507936507936506,-152.14285714285714,-325.0,136.74603174603175,-276.4285714285714,288.6507936507936,-325.0,-162.3015873015873,-61.666666666666664,305.7936507936508,236.58730158730157,-1.0317460317460316,-7.063492063492063,-321.8253968253968
294,-111.19047619047619,166.26984126984127,-325.0,267.38095238095235,-44.52380952380952,-70.07936507936508,-113.73015873015872,-136.58730158730157,-255.63492063492063,173.57142857142856,-50.39682539682539,-148.8095238095238,-325.0,133.73015873015873,-271.031746031746,183.57142857142856,-325.0,-158.96825396825395,-60.39682539682539,299.6031746031746,231.5079365079365,4.0476190476190474,0.07936507936507936,-321.8253968253968
295,-111.19047619047619,166.26984126984127,-325.0,267.38095238095235,-44.52380952380952,-70.07936507936508,-113.73015873015872,-136.58730158730157,-255.63492063492063,173.57142857142856,-50.39682539682539,-148.8095238095238,-325.0,133.73015873015873,-271.031746031746,183.57142857142856,-325.0,-158.96825396825395,-60.39682539682539,299.6031746031746,231.5079365079365,4.0476190476190474,0.07936507936507936,-321.8253968253968
296,-107.38095238095238,156.26984126984127,-325.0,258.4920634920635,-43.25396825396825,-67.85714285714285,-109.92063492063491,-132.3015873015873,-247.38095238095238,173.57142857142856,-48.650793650793645,-143.88888888888889,-325.0,129.12698412698413,-262.46031746031747,178.015873015873,-214.84126984126982,-153.88888888888889,-58.33333333333333,289.76190476190476,223.57142857142856,4.365079365079365,0.23809523809523808,-321.8253968253968
297,-107.38095238095238,156.26984126984127,-325.0,258.4920634920635,-43.25396825396825,-67.85714285714285,-109.92063492063491,-132.3015873015873,-247.38095238095238,173.57142857142856,-48.650793650793645,-143.88888888888889,-325.0,129.12698412698413,-262.46031746031747,178.015873015873,-214.84126984126982,-153.88888888888889,-58.33333333333333,289.76190476190476,223.57142857142856,4.365079365079365,0.23809523809523808,-321.8253968253968
298,-103.88888888888889,-225.47619047619045,-320.55555555555554,249.9206349206349,-41.98412698412698,-65.95238095238095,-106.1111111111111,-128.17460317460316,-239.44444444444443,249.28571428571428,-47.22222222222222,-139.12698412698413,-325.0,124.52380952380952,-254.2063492063492,237.85714285714283,169.76190476190476,-149.12698412698413,-56.42857142857142,280.39682539682536,215.79365079365078,-3.888888888888889,-1.6666666666666665,-321.8253968253968
299,-103.88888888888889,-225.47619047619045,-320.55555555555554,249.9206349206349,-41.98412698412698,-65.95238095238095,-106.1111111111111,-128.17460317460316,-239.44444444444443,249.28571428571428,-47.22222222222222,-139.12698412698413,-325.0,124.52380952380952,-254.2063492063492,237.85714285714283,169.76190476190476,-149.12698412698413,-56.42857142857142,280.39682539682536,215.79365079365078,-3.888888888888889,-1.6666666666666665,-321.8253968253968
300,-101.82539682539682,-82.61904761904762,-314.04761904761904,244.68253968253967,-41.34920634920635,-64.68253968253968,-104.04761904761904,-125.63492063492063,-234.84126984126982,255.15873015873015,-46.269841269841265,-136.26984126984127,-325.0,121.82539682539682,-249.28571428571428,216.58730158730157,325.0,-146.26984126984127,-55.476190476190474,274.5238095238095,211.34920634920633,0.23809523809523808,0.07936507936507936,-166.26984126984127
301,-101.82539682539682,-82.61904761904762,-314.04761904761904,244.68253968253967,-41.34920634920635,-64.68253968253968,-104.04761904761904,-125.63492063492063,-234.84126984126982,255.15873015873015,-46.269841269841265,-136.26984126984127,-325.0,121.82539682539682,-249.28571428571428,216.58730158730157,325.0,-146.26984126984127,-55.476190476190474,274.5238095238095,211.34920634920633,0.23809523809523808,0.07936507936507936,-166.26984126984127
302,-99.92063492063491,91.34920634920634,-307.69841269841265,239.28571428571428,-40.55555555555555,-63.57142857142857,-101.98412698412697,-123.25396825396825,-230.2380952380952,325.0,-45.476190476190474,-133.57142857142856,-323.0952380952381,119.12698412698413,-244.2063492063492,279.44444444444446,325.0,-143.4126984126984,-54.52380952380952,268.968253968254,206.58730158730157,-5.158730158730158,-8.174603174603174,-166.26984126984127
303,-99.92063492063491,91.34920634920634,-307.69841269841265,239.28571428571428,-40.55555555555555,-63.57142857142857,-101.98412698412697,-123.25396825396825,-230.2380952380952,325.0,-45.476190476190474,-133.57142857142856,-323.0952380952381,119.12698412698413,-244.2063492063492,279.44444444444446,325.0,-143.4126984126984,-54.52380952380952,268.968253968254,206.58730158730157,-5.158730158730158,-8.174603174603174,-166.26984126984127
304,-98.33333333333333,-261.5079365079365,-303.73015873015873,236.42857142857142,-40.238095238095234,-62.460317460317455,-100.71428571428571,-121.82539682539682,-227.06349206349205,49.44444444444444,-44.84126984126984,-131.66666666666666,-318.968253968254,117.6984126984127,-241.34920634920633,96.42857142857142,325.0,-141.66666666666666,-53.57142857142857,265.6349206349206,204.2063492063492,8.968253968253968,6.746031746031746,-166.26984126984127
305,-98.33333333333333,-261.5079365079365,-303.73015873015873,236.42857142857142,-40.238095238095234,-62.460317460317455,-100.71428571428571,-121.82539682539682,-227.06349206349205,49.44444444444444,-44.84126984126984,-131.66666666666666,-318.968253968254,117.6984126984127,-241.34920634920633,96.42857142857142,325.0,-141.66666666666666,-53.57142857142857,265.6349206349206,204.2063492063492,8.968253968253968,6.746031746031746,-166.26984126984127
306,-96.42857142857142,-325.0,-297.6984126984127,231.34920634920633,-34.84126984126984,-61.19047619047619,-98.80952380952381,-119.44444444444444,-222.61904761904762,325.0,56.42857142857142,-129.12698412698413,-312.6190476190476,115.0,-236.58730158730157,273.57142857142856,325.0,-138.96825396825395,-52.61904761904761,260.23809523809524,199.60317460317458,-4.523809523809524,-7.5396825396825395,-166.26984126984127
307,-96.42857142857142,-325.0,-297.6984126984127,231.34920634920633,-34.84126984126984,-61.19047619047619,-98.80952380952381,-119.44444444444444,-222.61904761904762,325.0,56.42857142857142,-129.12698412698413,-312.6190476190476,115.0,-236.58730158730157,273.57142857142856,325.0,-138.96825396825395,-52.61904761904761,260.23809523809524,199.60317460317458,-4.523809523809524,-7.5396825396825395,-166.26984126984127
308,-95.15873015873015,-320.07936507936506,-293.88888888888886,228.17460317460316,-35.317460317460316,-60.55555555555555,-97.53968253968253,-117.6984126984127,-219.76190476190476,55.63492063492063,134.04761904761904,-127.38095238095238,-308.6507936507936,113.25396825396825,-233.57142857142856,87.6984126984127,325.0,-137.22222222222223,-52.14285714285714,256.90476190476187,197.06349206349205,9.285714285714285,7.3809523809523805,-166.26984126984127
309,-95.15873015873015,-320.07936507936506,-293.88888888888886,228.17460317460316,-35.317460317460316,-60.55555555555555,-97.53968253968253,-117.6984126984127,-219.76190476190476,55.63492063492063,134.04761904761904,-127.38095238095238,-308.6507936507936,113.25396825396825,-233.57142857142856,87.6984126984127,325.0,-137.22222222222223,-52.14285714285714,256.90476190476187,197.06349206349205,9.285714285714285,7.3809523809523805,-166.26984126984127
310,-94.2063492063492,-315.95238095238096,-290.39682539682536,225.3174603174603,135.95238095238093,-59.92063492063492,-96.42857142857142,-116.58730158730158,-217.2222222222222,190.23809523809524,229.44444444444443,-125.95238095238095,-304.8412698412698,111.82539682539682,-230.87301587301587,168.4920634920635,325.0,-135.63492063492063,-51.507936507936506,253.7301587301587,194.52380952380952,4.682539682539682,0.873015873015873,-321.8253968253968
311,-94.2063492063492,-315.95238095238096,-290.39682539682536,225.3174603174603,135.95238095238093,-59.92063492063492,-96.42857142857142,-116.58730158730158,-217.2222222222222,190.23809523809524,229.44444444444443,-125.95238095238095,-304.8412698412698,111.82539682539682,-230.87301587301587,168.4920634920635,325.0,-135.63492063492063,-51.507936507936506,253.7301587301587,194.52380952380952,4.682539682539682,0.873015873015873,-321.8253968253968
312,-91.66666666666666,-297.53968253968253,-282.9365079365079,219.9206349206349,88.65079365079364,-58.33333333333333,-94.04761904761904,-113.88888888888889,-211.8253968253968,122.6190476190476,325.0,-123.09523809523809,-297.06349206349205,109.12698412698413,-225.3174603174603,123.25396825396825,325.0,-132.3015873015873,-50.079365079365076,247.69841269841268,189.44444444444443,5.0,6.746031746031746,-321.8253968253968
313,-91.66666666666666,-297.53968253968253,-282.9365079365079,219.9206349206349,88.65079365079364,-58.33333333333333,-94.04761904761904,-113.88888888888889,-211.8253968253968,122.6190476190476,325.0,-123.09523809523809,-297.06349206349205,109.12698412698413,-225.3174603174603,123.25396825396825,325.0,-132.3015873015873,-50.079365079365076,247.69841269841268,189.44444444444443,5.0,6.746031746031746,-321.8253968253968
314,-89.76190476190476,-226.74603174603175,-277.22222222222223,215.3174603174603,167.2222222222222,-57.38095238095238,-91.98412698412697,-111.66666666666666,-207.53968253968253,191.5079365079365,303.88888888888886,-120.39682539682539,-291.031746031746,106.74603174603175,-220.7142857142857,170.87301587301587,325.0,-129.76190476190476,-49.12698412698413,242.6190476190476,185.47619047619045,-0.23809523809523808,-0.873015873015873,-321.8253968253968
315,-89.76190476190476,-226.74603174603175,-277.22222222222223,215.3174603174603,167.2222222222222,-57.38095238095238,-91.98412698412697,-111.66666666666666,-207.53968253968253,191.5079365079365,303.88888888888886,-120.39682539682539,-291.031746031746,106.74603174603175,-220.7142857142857,170.87301587301587,325.0,-129.76190476190476,-49.12698412698413,242.6190476190476,185.47619047619045,-0.23809523809523808,-0.873015873015873,-321.8253968253968
