,Fp1[1],Fp2[2],F3[3],F4[4],C3[5],C4[6],P3[7],P4[8],O1[9],O2[10],F7[11],F8[12],T3[13],T4[14],T5[15],T6[16],Fz[17],Pz[18],Cz[19],Pg1[20],Pg2[21],EOGR[22],EOOGL[23],EMG[24]
0,169.60317460317458,61.34920634920635,-117.06349206349206,-16.428571428571427,20.238095238095237,213.25396825396825,314.8412698412698,325.0,325.0,314.8412698412698,152.3015873015873,314.8412698412698,53.888888888888886,-6.26984126984127,10.396825396825395,96.42857142857142,325.0,110.55555555555554,164.84126984126982,-10.079365079365079,-10.079365079365079,-84.2063492063492,-162.77777777777777,-166.26984126984127
1,169.60317460317458,61.34920634920635,-117.06349206349206,-16.428571428571427,20.238095238095237,213.25396825396825,314.8412698412698,325.0,325.0,314.8412698412698,152.3015873015873,314.8412698412698,53.888888888888886,-6.26984126984127,10.396825396825395,96.42857142857142,325.0,110.55555555555554,164.84126984126982,-10.079365079365079,-10.079365079365079,-84.2063492063492,-162.77777777777777,-166.26984126984127
2,325.0,141.8253968253968,-177.2222222222222,-325.0,325.0,325.0,325.0,325.0,325.0,325.0,325.0,325.0,-178.96825396825395,-325.0,-183.7301587301587,325.0,325.0,298.6507936507936,25.158730158730158,-325.0,-325.0,3.4126984126984126,-0.5555555555555556,-166.26984126984127
3,325.0,141.8253968253968,-177.2222222222222,-325.0,325.0,325.0,325.0,325.0,325.0,325.0,325.0,325.0,-178.96825396825395,-325.0,-183.7301587301587,325.0,325.0,298.6507936507936,25.158730158730158,-325.0,-325.0,3.4126984126984126,-0.5555555555555556,-166.26984126984127
4,318.6507936507936,134.2063492063492,-189.60317460317458,-325.0,325.0,325.0,324.8412698412698,325.0,325.0,325.0,324.36507936507934,325.0,-189.12698412698413,-325.0,-196.26984126984127,325.0,317.85714285714283,283.4126984126984,47.857142857142854,-325.0,-325.0,8.015873015873016,6.587301587301587,-166.26984126984127
5,318.6507936507936,134.2063492063492,-189.60317460317458,-325.0,325.0,325.0,324.8412698412698,325.0,325.0,325.0,324.36507936507934,325.0,-189.12698412698413,-325.0,-196.26984126984127,325.0,317.85714285714283,283.4126984126984,47.857142857142854,-325.0,-325.0,8.015873015873016,6.587301587301587,-166.26984126984127
6,296.1111111111111,121.03174603174602,-195.0,-325.0,317.06349206349205,325.0,308.8095238095238,325.0,325.0,325.0,307.85714285714283,325.0,-192.61904761904762,-325.0,-201.03174603174602,325.0,295.3174603174603,256.1111111111111,77.38095238095238,-325.0,-325.0,0.3968253968253968,-0.23809523809523808,-166.26984126984127
7,296.1111111111111,121.03174603174602,-195.0,-325.0,317.06349206349205,325.0,308.8095238095238,325.0,325.0,325.0,307.85714285714283,325.0,-192.61904761904762,-325.0,-201.03174603174602,325.0,295.3174603174603,256.1111111111111,77.38095238095238,-325.0,-325.0,0.3968253968253968,-0.23809523809523808,-166.26984126984127
8,289.76190476190476,118.65079365079364,-186.42857142857142,-325.0,310.55555555555554,325.0,302.3015873015873,325.0,325.0,325.0,301.66666666666663,325.0,-184.84126984126982,-325.0,-192.61904761904762,325.0,288.968253968254,250.87301587301585,79.76190476190476,-325.0,-325.0,3.571428571428571,6.26984126984127,-166.26984126984127
9,289.76190476190476,118.65079365079364,-186.42857142857142,-325.0,310.55555555555554,325.0,302.3015873015873,325.0,325.0,325.0,301.66666666666663,325.0,-184.84126984126982,-325.0,-192.61904761904762,325.0,288.968253968254,250.87301587301585,79.76190476190476,-325.0,-325.0,3.571428571428571,6.26984126984127,-166.26984126984127
10,285.95238095238096,117.22222222222221,-190.3968253968254,-325.0,306.74603174603175,325.0,298.3333333333333,325.0,325.0,325.0,298.015873015873,325.0,-189.44444444444443,-325.0,-195.95238095238093,325.0,285.1587301587301,248.015873015873,82.93650793650794,-325.0,-325.0,-7.698412698412698,-7.3809523809523805,-321.8253968253968
11,285.95238095238096,117.22222222222221,-190.3968253968254,-325.0,306.74603174603175,325.0,298.3333333333333,325.0,325.0,325.0,298.015873015873,325.0,-189.44444444444443,-325.0,-195.95238095238093,325.0,285.1587301587301,248.015873015873,82.93650793650794,-325.0,-325.0,-7.698412698412698,-7.3809523809523805,-321.8253968253968
12,279.76190476190476,114.52380952380952,-126.42857142857142,-325.0,300.55555555555554,325.0,291.984126984127,325.0,325.0,325.0,291.984126984127,325.0,-124.36507936507935,-325.0,-131.5079365079365,-254.2063492063492,279.1269841269841,242.77777777777777,83.73015873015872,-325.0,-325.0,3.888888888888889,5.476190476190476,-321.8253968253968
13,279.76190476190476,114.52380952380952,-126.42857142857142,-325.0,300.55555555555554,325.0,291.984126984127,325.0,325.0,325.0,291.984126984127,325.0,-124.36507936507935,-325.0,-131.5079365079365,-254.2063492063492,279.1269841269841,242.77777777777777,83.73015873015872,-325.0,-325.0,3.888888888888889,5.476190476190476,-321.8253968253968
14,276.1111111111111,113.25396825396825,-121.82539682539682,-325.0,296.90476190476187,325.0,288.6507936507936,325.0,325.0,325.0,288.3333333333333,325.0,-122.30158730158729,-325.0,-128.65079365079364,-139.12698412698413,275.6349206349206,239.60317460317458,86.74603174603175,-325.0,-325.0,-8.492063492063492,-9.603174603174603,-321.8253968253968
15,276.1111111111111,113.25396825396825,-121.82539682539682,-325.0,296.90476190476187,325.0,288.6507936507936,325.0,325.0,325.0,288.3333333333333,325.0,-122.30158730158729,-325.0,-128.65079365079364,-139.12698412698413,275.6349206349206,239.60317460317458,86.74603174603175,-325.0,-325.0,-8.492063492063492,-9.603174603174603,-321.8253968253968
16,270.23809523809524,110.71428571428571,-98.33333333333333,-325.0,290.87301587301585,325.0,282.46031746031747,325.0,325.0,325.0,282.46031746031747,325.0,-97.6984126984127,-325.0,-104.04761904761904,-325.0,269.76190476190476,234.68253968253967,88.80952380952381,-325.0,-325.0,3.888888888888889,5.7936507936507935,-321.8253968253968
17,270.23809523809524,110.71428571428571,-98.33333333333333,-325.0,290.87301587301585,325.0,282.46031746031747,325.0,325.0,325.0,282.46031746031747,325.0,-97.6984126984127,-325.0,-104.04761904761904,-325.0,269.76190476190476,234.68253968253967,88.80952380952381,-325.0,-325.0,3.888888888888889,5.7936507936507935,-321.8253968253968
18,265.4761904761905,108.80952380952381,-76.42857142857143,-325.0,286.1111111111111,325.0,277.6984126984127,325.0,325.0,325.0,277.6984126984127,325.0,-77.22222222222221,-325.0,-82.93650793650794,-325.0,265.0,230.87301587301587,88.65079365079364,-325.0,-325.0,-4.682539682539682,-7.3809523809523805,-321.8253968253968
19,265.4761904761905,108.80952380952381,-76.42857142857143,-325.0,286.1111111111111,325.0,277.6984126984127,325.0,325.0,325.0,277.6984126984127,325.0,-77.22222222222221,-325.0,-82.93650793650794,-325.0,265.0,230.87301587301587,88.65079365079364,-325.0,-325.0,-4.682539682539682,-7.3809523809523805,-321.8253968253968
20,261.031746031746,107.06349206349206,-85.15873015873015,-325.0,281.5079365079365,325.0,273.0952380952381,325.0,325.0,325.0,273.0952380952381,325.0,-85.95238095238095,-325.0,-92.61904761904762,-325.0,260.55555555555554,227.06349206349205,87.6984126984127,-325.0,-325.0,3.253968253968254,6.26984126984127,-166.26984126984127
21,261.031746031746,107.06349206349206,-85.15873015873015,-325.0,281.5079365079365,325.0,273.0952380952381,325.0,325.0,325.0,273.0952380952381,325.0,-85.95238095238095,-325.0,-92.61904761904762,-325.0,260.55555555555554,227.06349206349205,87.6984126984127,-325.0,-325.0,3.253968253968254,6.26984126984127,-166.26984126984127
22,255.15873015873015,104.84126984126983,-77.85714285714285,-325.0,275.7936507936508,325.0,267.22222222222223,325.0,325.0,325.0,267.53968253968253,325.0,-79.12698412698413,-325.0,-84.68253968253968,-325.0,255.0,222.3015873015873,89.12698412698413,-325.0,-325.0,-0.5555555555555556,-1.1904761904761905,-166.26984126984127
23,255.15873015873015,104.84126984126983,-77.85714285714285,-325.0,275.7936507936508,325.0,267.22222222222223,325.0,325.0,325.0,267.53968253968253,325.0,-79.12698412698413,-325.0,-84.68253968253968,-325.0,255.0,222.3015873015873,89.12698412698413,-325.0,-325.0,-0.5555555555555556,-1.1904761904761905,-166.26984126984127
24,240.2380952380952,98.80952380952381,6.26984126984127,-325.0,260.23809523809524,325.0,251.8253968253968,325.0,325.0,325.0,252.46031746031744,324.2063492063492,6.111111111111111,-325.0,1.349206349206349,-325.0,-248.65079365079364,209.60317460317458,84.36507936507937,-325.0,-325.0,-1.0317460317460316,-0.7142857142857142,-166.26984126984127
25,240.2380952380952,98.80952380952381,6.26984126984127,-325.0,260.23809523809524,325.0,251.8253968253968,325.0,325.0,325.0,252.46031746031744,324.2063492063492,6.111111111111111,-325.0,1.349206349206349,-325.0,-248.65079365079364,209.60317460317458,84.36507936507937,-325.0,-325.0,-1.0317460317460316,-0.7142857142857142,-166.26984126984127
26,227.69841269841268,94.04761904761904,56.74603174603174,-315.4761904761905,247.85714285714283,311.984126984127,239.28571428571428,320.87301587301585,325.0,325.0,239.9206349206349,309.76190476190476,56.58730158730158,-311.031746031746,51.507936507936506,-325.0,-325.0,199.28571428571428,73.57142857142857,-325.0,-323.57142857142856,7.857142857142857,7.3809523809523805,-166.26984126984127
27,227.69841269841268,94.04761904761904,56.74603174603174,-315.4761904761905,247.85714285714283,311.984126984127,239.28571428571428,320.87301587301585,325.0,325.0,239.9206349206349,309.76190476190476,56.58730158730158,-311.031746031746,51.507936507936506,-325.0,-325.0,199.28571428571428,73.57142857142857,-325.0,-323.57142857142856,7.857142857142857,7.3809523809523805,-166.26984126984127
28,131.34920634920636,-57.857142857142854,130.55555555555554,-182.46031746031744,-38.65079365079365,-6.587301587301587,138.96825396825395,-2.142857142857143,196.9047619047619,80.23809523809523,-42.61904761904761,161.8253968253968,189.28571428571428,6.904761904761904,130.55555555555554,-63.095238095238095,-223.88888888888889,-62.93650793650793,-46.74603174603175,-189.12698412698413,-186.58730158730157,0.5555555555555556,-1.507936507936508,-166.26984126984127
29,131.34920634920636,-57.857142857142854,130.55555555555554,-182.46031746031744,-38.65079365079365,-6.587301587301587,138.96825396825395,-2.142857142857143,196.9047619047619,80.23809523809523,-42.61904761904761,161.8253968253968,189.28571428571428,6.904761904761904,130.55555555555554,-63.095238095238095,-223.88888888888889,-62.93650793650793,-46.74603174603175,-189.12698412698413,-186.58730158730157,0.5555555555555556,-1.507936507936508,-166.26984126984127
30,35.15873015873016,-209.60317460317458,204.52380952380952,-49.44444444444444,-325.0,-325.0,38.65079365079365,-325.0,68.96825396825396,-164.52380952380952,-325.0,13.888888888888888,321.984126984127,325.0,209.60317460317458,198.8095238095238,-122.6190476190476,-325.0,-166.9047619047619,-53.25396825396825,-49.44444444444444,-6.587301587301587,-10.238095238095237,-321.8253968253968
31,35.15873015873016,-209.60317460317458,204.52380952380952,-49.44444444444444,-325.0,-325.0,38.65079365079365,-325.0,68.96825396825396,-164.52380952380952,-325.0,13.888888888888888,321.984126984127,325.0,209.60317460317458,198.8095238095238,-122.6190476190476,-325.0,-166.9047619047619,-53.25396825396825,-49.44444444444444,-6.587301587301587,-10.238095238095237,-321.8253968253968
32,33.57142857142857,-201.03174603174602,195.79365079365078,-47.53968253968254,-325.0,-325.0,37.06349206349206,-325.0,65.95238095238095,-157.38095238095238,-325.0,-215.47619047619045,308.17460317460313,325.0,201.03174603174602,-18.49206349206349,-117.38095238095238,-325.0,-159.9206349206349,-50.87301587301587,-47.06349206349206,6.746031746031746,1.349206349206349,-321.8253968253968
33,33.57142857142857,-201.03174603174602,195.79365079365078,-47.53968253968254,-325.0,-325.0,37.06349206349206,-325.0,65.95238095238095,-157.38095238095238,-325.0,-215.47619047619045,308.17460317460313,325.0,201.03174603174602,-18.49206349206349,-117.38095238095238,-325.0,-159.9206349206349,-50.87301587301587,-47.06349206349206,6.746031746031746,1.349206349206349,-321.8253968253968
34,33.095238095238095,-196.9047619047619,191.5079365079365,-46.74603174603175,-325.0,-325.0,36.269841269841265,-325.0,64.36507936507937,-154.36507936507937,-325.0,-102.61904761904762,301.66666666666663,325.0,196.58730158730157,247.2222222222222,-114.84126984126983,-325.0,-156.74603174603175,-49.92063492063492,-46.11111111111111,-6.111111111111111,-6.587301587301587,-321.8253968253968
35,33.095238095238095,-196.9047619047619,191.5079365079365,-46.74603174603175,-325.0,-325.0,36.269841269841265,-325.0,64.36507936507937,-154.36507936507937,-325.0,-102.61904761904762,301.66666666666663,325.0,196.58730158730157,247.2222222222222,-114.84126984126983,-325.0,-156.74603174603175,-49.92063492063492,-46.11111111111111,-6.111111111111111,-6.587301587301587,-321.8253968253968
36,32.460317460317455,-194.36507936507937,188.96825396825395,-45.95238095238095,-325.0,-325.0,35.79365079365079,-325.0,63.888888888888886,-152.3015873015873,-325.0,-325.0,297.6984126984127,325.0,194.36507936507937,-4.365079365079365,-113.25396825396825,-325.0,-154.52380952380952,-49.12698412698413,-45.79365079365079,6.904761904761904,2.3015873015873014,-321.8253968253968
37,32.460317460317455,-194.36507936507937,188.96825396825395,-45.95238095238095,-325.0,-325.0,35.79365079365079,-325.0,63.888888888888886,-152.3015873015873,-325.0,-325.0,297.6984126984127,325.0,194.36507936507937,-4.365079365079365,-113.25396825396825,-325.0,-154.52380952380952,-49.12698412698413,-45.79365079365079,6.904761904761904,2.3015873015873014,-321.8253968253968
38,31.825396825396822,-190.55555555555554,185.0,-44.84126984126984,-325.0,-325.0,34.84126984126984,-325.0,62.460317460317455,-149.12698412698413,-325.0,-207.85714285714283,291.5079365079365,325.0,190.23809523809524,279.2857142857143,-111.03174603174602,-325.0,-151.34920634920633,-48.17460317460317,-44.52380952380952,-6.587301587301587,-6.746031746031746,-321.8253968253968
39,31.825396825396822,-190.55555555555554,185.0,-44.84126984126984,-325.0,-325.0,34.84126984126984,-325.0,62.460317460317455,-149.12698412698413,-325.0,-207.85714285714283,291.5079365079365,325.0,190.23809523809524,279.2857142857143,-111.03174603174602,-325.0,-151.34920634920633,-48.17460317460317,-44.52380952380952,-6.587301587301587,-6.746031746031746,-321.8253968253968
40,31.349206349206348,-188.17460317460316,182.61904761904762,-44.2063492063492,-325.0,-325.0,34.52380952380952,-325.0,61.666666666666664,-147.2222222222222,-325.0,-325.0,287.85714285714283,325.0,187.69841269841268,15.793650793650793,-109.6031746031746,-325.0,-149.28571428571428,-47.698412698412696,-43.73015873015873,6.746031746031746,1.349206349206349,-166.26984126984127
41,31.349206349206348,-188.17460317460316,182.61904761904762,-44.2063492063492,-325.0,-325.0,34.52380952380952,-325.0,61.666666666666664,-147.2222222222222,-325.0,-325.0,287.85714285714283,325.0,187.69841269841268,15.793650793650793,-109.6031746031746,-325.0,-149.28571428571428,-47.698412698412696,-43.73015873015873,6.746031746031746,1.349206349206349,-166.26984126984127
42,30.71428571428571,-71.34920634920634,179.28571428571428,-43.25396825396825,-325.0,-325.0,34.2063492063492,-325.0,60.55555555555555,-144.36507936507937,-325.0,-301.19047619047615,282.77777777777777,325.0,184.68253968253967,272.6190476190476,-107.6984126984127,-325.0,-146.74603174603175,-46.58730158730158,-43.095238095238095,-5.952380952380952,-2.3015873015873014,-166.26984126984127
43,30.71428571428571,-71.34920634920634,179.28571428571428,-43.25396825396825,-325.0,-325.0,34.2063492063492,-325.0,60.55555555555555,-144.36507936507937,-325.0,-301.19047619047615,282.77777777777777,325.0,184.68253968253967,272.6190476190476,-107.6984126984127,-325.0,-146.74603174603175,-46.58730158730158,-43.095238095238095,-5.952380952380952,-2.3015873015873014,-166.26984126984127
44,29.76190476190476,-134.84126984126982,171.66666666666666,-41.82539682539682,-325.0,-325.0,32.460317460317455,-325.0,57.857142857142854,-138.4920634920635,-325.0,-325.0,271.19047619047615,325.0,176.74603174603175,325.0,-103.09523809523809,-325.0,-140.7142857142857,-45.0,-41.34920634920635,-6.26984126984127,-9.761904761904761,-166.26984126984127
45,29.76190476190476,-134.84126984126982,171.66666666666666,-41.82539682539682,-325.0,-325.0,32.460317460317455,-325.0,57.857142857142854,-138.4920634920635,-325.0,-325.0,271.19047619047615,325.0,176.74603174603175,325.0,-103.09523809523809,-325.0,-140.7142857142857,-45.0,-41.34920634920635,-6.26984126984127,-9.761904761904761,-166.26984126984127
46,29.76190476190476,-134.84126984126982,171.66666666666666,-41.82539682539682,-325.0,-325.0,32.460317460317455,-325.0,57.857142857142854,-138.4920634920635,-325.0,-325.0,271.19047619047615,325.0,176.74603174603175,325.0,-103.09523809523809,-325.0,-140.7142857142857,-45.0,-41.34920634920635,-6.26984126984127,-9.761904761904761,-166.26984126984127
47,29.76190476190476,-134.84126984126982,171.66666666666666,-41.82539682539682,-325.0,-325.0,32.460317460317455,-325.0,57.857142857142854,-138.4920634920635,-325.0,-325.0,271.19047619047615,325.0,176.74603174603175,325.0,-103.09523809523809,-325.0,-140.7142857142857,-45.0,-41.34920634920635,-6.26984126984127,-9.761904761904761,-166.26984126984127
48,29.76190476190476,-134.84126984126982,171.66666666666666,-41.82539682539682,-325.0,-325.0,32.460317460317455,-325.0,57.857142857142854,-138.4920634920635,-325.0,-325.0,271.19047619047615,325.0,176.74603174603175,325.0,-103.09523809523809,-325.0,-140.7142857142857,-45.0,-41.34920634920635,-6.26984126984127,-9.761904761904761,-166.26984126984127
49,29.76190476190476,-134.84126984126982,171.66666666666666,-41.82539682539682,-325.0,-325.0,32.460317460317455,-325.0,57.857142857142854,-138.4920634920635,-325.0,-325.0,271.19047619047615,325.0,176.74603174603175,325.0,-103.09523809523809,-325.0,-140.7142857142857,-45.0,-41.34920634920635,-6.26984126984127,-9.761904761904761,-166.26984126984127
50,-147.69841269841268,-151.19047619047618,13.253968253968253,141.5079365079365,-275.1587301587301,-241.66666666666666,-146.26984126984127,-312.9365079365079,-133.57142857142856,-96.9047619047619,-232.14285714285714,-325.0,189.12698412698413,301.8253968253968,-74.2063492063492,325.0,-71.98412698412697,-266.74603174603175,-98.01587301587301,139.9206349206349,141.8253968253968,-8.174603174603174,-8.333333333333332,-321.8253968253968
51,-147.69841269841268,-151.19047619047618,13.253968253968253,141.5079365079365,-275.1587301587301,-241.66666666666666,-146.26984126984127,-312.9365079365079,-133.57142857142856,-96.9047619047619,-232.14285714285714,-325.0,189.12698412698413,301.8253968253968,-74.2063492063492,325.0,-71.98412698412697,-266.74603174603175,-98.01587301587301,139.9206349206349,141.8253968253968,-8.174603174603174,-8.333333333333332,-321.8253968253968
52,-325.0,-167.53968253968253,-145.15873015873015,325.0,-225.3174603174603,-158.33333333333331,-325.0,-300.87301587301585,-325.0,-55.15873015873016,-139.12698412698413,-325.0,107.22222222222221,278.8095238095238,-325.0,325.0,-40.714285714285715,-208.4920634920635,-55.317460317460316,325.0,325.0,-9.920634920634921,-6.746031746031746,-321.8253968253968
53,-325.0,-167.53968253968253,-145.15873015873015,325.0,-225.3174603174603,-158.33333333333331,-325.0,-300.87301587301585,-325.0,-55.15873015873016,-139.12698412698413,-325.0,107.22222222222221,278.8095238095238,-325.0,325.0,-40.714285714285715,-208.4920634920635,-55.317460317460316,325.0,325.0,-9.920634920634921,-6.746031746031746,-321.8253968253968
54,-325.0,-167.53968253968253,-145.15873015873015,325.0,-225.3174603174603,-158.33333333333331,-325.0,-300.87301587301585,-325.0,-55.15873015873016,-139.12698412698413,-325.0,107.22222222222221,278.8095238095238,-325.0,325.0,-40.714285714285715,-208.4920634920635,-55.317460317460316,325.0,325.0,-9.920634920634921,-6.746031746031746,-321.8253968253968
55,-325.0,-167.53968253968253,-145.15873015873015,325.0,-225.3174603174603,-158.33333333333331,-325.0,-300.87301587301585,-325.0,-55.15873015873016,-139.12698412698413,-325.0,107.22222222222221,278.8095238095238,-325.0,325.0,-40.714285714285715,-208.4920634920635,-55.317460317460316,325.0,325.0,-9.920634920634921,-6.746031746031746,-321.8253968253968
56,-325.0,-167.53968253968253,-145.15873015873015,325.0,-225.3174603174603,-158.33333333333331,-325.0,-300.87301587301585,-325.0,-55.15873015873016,-139.12698412698413,-325.0,107.22222222222221,278.8095238095238,-325.0,325.0,-40.714285714285715,-208.4920634920635,-55.317460317460316,325.0,325.0,-9.920634920634921,-6.746031746031746,-321.8253968253968
57,-325.0,-167.53968253968253,-145.15873015873015,325.0,-225.3174603174603,-158.33333333333331,-325.0,-300.87301587301585,-325.0,-55.15873015873016,-139.12698412698413,-325.0,107.22222222222221,278.8095238095238,-325.0,325.0,-40.714285714285715,-208.4920634920635,-55.317460317460316,325.0,325.0,-9.920634920634921,-6.746031746031746,-321.8253968253968
58,-325.0,-167.53968253968253,-145.15873015873015,325.0,-225.3174603174603,-158.33333333333331,-325.0,-300.87301587301585,-325.0,-55.15873015873016,-139.12698412698413,-325.0,107.22222222222221,278.8095238095238,-325.0,325.0,-40.714285714285715,-208.4920634920635,-55.317460317460316,325.0,325.0,-9.920634920634921,-6.746031746031746,-321.8253968253968
59,-325.0,-167.53968253968253,-145.15873015873015,325.0,-225.3174603174603,-158.33333333333331,-325.0,-300.87301587301585,-325.0,-55.15873015873016,-139.12698412698413,-325.0,107.22222222222221,278.8095238095238,-325.0,325.0,-40.714285714285715,-208.4920634920635,-55.317460317460316,325.0,325.0,-9.920634920634921,-6.746031746031746,-321.8253968253968
60,-325.0,-167.53968253968253,-145.15873015873015,325.0,-225.3174603174603,-158.33333333333331,-325.0,-300.87301587301585,-325.0,-55.15873015873016,-139.12698412698413,-325.0,107.22222222222221,278.8095238095238,-325.0,325.0,-40.714285714285715,-208.4920634920635,-55.317460317460316,325.0,325.0,-9.920634920634921,-6.746031746031746,-166.26984126984127
61,-325.0,-167.53968253968253,-145.15873015873015,325.0,-225.3174603174603,-158.33333333333331,-325.0,-300.87301587301585,-325.0,-55.15873015873016,-139.12698412698413,-325.0,107.22222222222221,278.8095238095238,-325.0,325.0,-40.714285714285715,-208.4920634920635,-55.317460317460316,325.0,325.0,-9.920634920634921,-6.746031746031746,-166.26984126984127
62,-300.87301587301585,-72.14285714285714,89.92063492063491,275.6349206349206,-7.3809523809523805,-107.6984126984127,-257.22222222222223,-205.95238095238093,-138.17460317460316,134.84126984126982,92.93650793650794,-222.3015873015873,79.12698412698413,185.95238095238093,-0.07936507936507936,278.8095238095238,142.14285714285714,-142.46031746031744,134.84126984126982,255.63492063492063,270.07936507936506,-3.888888888888889,-5.634920634920634,-166.26984126984127
63,-300.87301587301585,-72.14285714285714,89.92063492063491,275.6349206349206,-7.3809523809523805,-107.6984126984127,-257.22222222222223,-205.95238095238093,-138.17460317460316,134.84126984126982,92.93650793650794,-222.3015873015873,79.12698412698413,185.95238095238093,-0.07936507936507936,278.8095238095238,142.14285714285714,-142.46031746031744,134.84126984126982,255.63492063492063,270.07936507936506,-3.888888888888889,-5.634920634920634,-166.26984126984127
64,-276.74603174603175,23.253968253968253,325.0,226.26984126984127,210.55555555555554,-56.904761904761905,-189.44444444444443,-110.87301587301587,48.80952380952381,325.0,325.0,-119.6031746031746,51.03174603174603,93.09523809523809,325.0,232.77777777777777,325.0,-76.42857142857143,325.0,186.42857142857142,215.15873015873015,2.142857142857143,-4.365079365079365,-166.26984126984127
65,-276.74603174603175,23.253968253968253,325.0,226.26984126984127,210.55555555555554,-56.904761904761905,-189.44444444444443,-110.87301587301587,48.80952380952381,325.0,325.0,-119.6031746031746,51.03174603174603,93.09523809523809,325.0,232.77777777777777,325.0,-76.42857142857143,325.0,186.42857142857142,215.15873015873015,2.142857142857143,-4.365079365079365,-166.26984126984127
66,-276.74603174603175,23.253968253968253,325.0,226.26984126984127,210.55555555555554,-56.904761904761905,-189.44444444444443,-110.87301587301587,48.80952380952381,325.0,325.0,-119.6031746031746,51.03174603174603,93.09523809523809,325.0,232.77777777777777,325.0,-76.42857142857143,325.0,186.42857142857142,215.15873015873015,2.142857142857143,-4.365079365079365,-166.26984126984127
67,-276.74603174603175,23.253968253968253,325.0,226.26984126984127,210.55555555555554,-56.904761904761905,-189.44444444444443,-110.87301587301587,48.80952380952381,325.0,325.0,-119.6031746031746,51.03174603174603,93.09523809523809,325.0,232.77777777777777,325.0,-76.42857142857143,325.0,186.42857142857142,215.15873015873015,2.142857142857143,-4.365079365079365,-166.26984126984127
68,-199.12698412698413,47.06349206349206,20.71428571428571,152.46031746031744,49.6031746031746,-38.96825396825397,-134.2063492063492,-76.1111111111111,-91.19047619047619,325.0,66.9047619047619,-81.03174603174602,-130.55555555555554,62.3015873015873,24.206349206349206,163.09523809523807,321.5079365079365,-52.61904761904761,311.031746031746,126.26984126984127,144.52380952380952,-1.8253968253968254,-2.3015873015873014,-166.26984126984127
69,-199.12698412698413,47.06349206349206,20.71428571428571,152.46031746031744,49.6031746031746,-38.96825396825397,-134.2063492063492,-76.1111111111111,-91.19047619047619,325.0,66.9047619047619,-81.03174603174602,-130.55555555555554,62.3015873015873,24.206349206349206,163.09523809523807,321.5079365079365,-52.61904761904761,311.031746031746,126.26984126984127,144.52380952380952,-1.8253968253968254,-2.3015873015873014,-166.26984126984127
70,-121.34920634920634,71.03174603174602,-283.57142857142856,78.80952380952381,-111.34920634920634,-20.873015873015873,-78.80952380952381,-41.19047619047619,-231.19047619047618,325.0,-191.19047619047618,-42.460317460317455,-311.984126984127,31.666666666666664,-276.4285714285714,93.57142857142857,318.17460317460313,-28.809523809523807,297.22222222222223,66.11111111111111,74.04761904761904,-5.634920634920634,-0.07936507936507936,-321.8253968253968
71,-121.34920634920634,71.03174603174602,-283.57142857142856,78.80952380952381,-111.34920634920634,-20.873015873015873,-78.80952380952381,-41.19047619047619,-231.19047619047618,325.0,-191.19047619047618,-42.460317460317455,-311.984126984127,31.666666666666664,-276.4285714285714,93.57142857142857,318.17460317460313,-28.809523809523807,297.22222222222223,66.11111111111111,74.04761904761904,-5.634920634920634,-0.07936507936507936,-321.8253968253968
72,-121.34920634920634,71.03174603174602,-283.57142857142856,78.80952380952381,-111.34920634920634,-20.873015873015873,-78.80952380952381,-41.19047619047619,-231.19047619047618,325.0,-191.19047619047618,-42.460317460317455,-311.984126984127,31.666666666666664,-276.4285714285714,93.57142857142857,318.17460317460313,-28.809523809523807,297.22222222222223,66.11111111111111,74.04761904761904,-5.634920634920634,-0.07936507936507936,-321.8253968253968
73,-121.34920634920634,71.03174603174602,-283.57142857142856,78.80952380952381,-111.34920634920634,-20.873015873015873,-78.80952380952381,-41.19047619047619,-231.19047619047618,325.0,-191.19047619047618,-42.460317460317455,-311.984126984127,31.666666666666664,-276.4285714285714,93.57142857142857,318.17460317460313,-28.809523809523807,297.22222222222223,66.11111111111111,74.04761904761904,-5.634920634920634,-0.07936507936507936,-321.8253968253968
74,-121.34920634920634,71.03174603174602,-283.57142857142856,78.80952380952381,-111.34920634920634,-20.873015873015873,-78.80952380952381,-41.19047619047619,-231.19047619047618,325.0,-191.19047619047618,-42.460317460317455,-311.984126984127,31.666666666666664,-276.4285714285714,93.57142857142857,318.17460317460313,-28.809523809523807,297.22222222222223,66.11111111111111,74.04761904761904,-5.634920634920634,-0.07936507936507936,-321.8253968253968
75,-121.34920634920634,71.03174603174602,-283.57142857142856,78.80952380952381,-111.34920634920634,-20.873015873015873,-78.80952380952381,-41.19047619047619,-231.19047619047618,325.0,-191.19047619047618,-42.460317460317455,-311.984126984127,31.666666666666664,-276.4285714285714,93.57142857142857,318.17460317460313,-28.809523809523807,297.22222222222223,66.11111111111111,74.04761904761904,-5.634920634920634,-0.07936507936507936,-321.8253968253968
76,-121.34920634920634,71.03174603174602,-283.57142857142856,78.80952380952381,-111.34920634920634,-20.873015873015873,-78.80952380952381,-41.19047619047619,-231.19047619047618,325.0,-191.19047619047618,-42.460317460317455,-311.984126984127,31.666666666666664,-276.4285714285714,93.57142857142857,318.17460317460313,-28.809523809523807,297.22222222222223,66.11111111111111,74.04761904761904,-5.634920634920634,-0.07936507936507936,-321.8253968253968
77,-121.34920634920634,71.03174603174602,-283.57142857142856,78.80952380952381,-111.34920634920634,-20.873015873015873,-78.80952380952381,-41.19047619047619,-231.19047619047618,325.0,-191.19047619047618,-42.460317460317455,-311.984126984127,31.666666666666664,-276.4285714285714,93.57142857142857,318.17460317460313,-28.809523809523807,297.22222222222223,66.11111111111111,74.04761904761904,-5.634920634920634,-0.07936507936507936,-321.8253968253968
78,-223.25396825396825,-30.396825396825395,-304.36507936507934,67.06349206349206,-218.17460317460316,-22.777777777777775,-201.98412698412696,-33.095238095238095,-278.17460317460313,132.14285714285714,-258.17460317460313,-33.73015873015873,-318.4920634920635,25.0,-300.7142857142857,-115.79365079365078,-3.4126984126984126,29.285714285714285,236.58730158730157,52.460317460317455,64.04761904761905,0.5555555555555556,5.0,-321.8253968253968
79,-223.25396825396825,-30.396825396825395,-304.36507936507934,67.06349206349206,-218.17460317460316,-22.777777777777775,-201.98412698412696,-33.095238095238095,-278.17460317460313,132.14285714285714,-258.17460317460313,-33.73015873015873,-318.4920634920635,25.0,-300.7142857142857,-115.79365079365078,-3.4126984126984126,29.285714285714285,236.58730158730157,52.460317460317455,64.04761904761905,0.5555555555555556,5.0,-321.8253968253968
80,-325.0,-131.8253968253968,-325.0,55.317460317460316,-325.0,-24.68253968253968,-325.0,-25.0,-325.0,-60.55555555555555,-325.0,-24.84126984126984,-325.0,18.49206349206349,-325.0,-325.0,-325.0,87.38095238095238,175.95238095238093,38.80952380952381,54.047619047619044,6.746031746031746,10.079365079365079,-166.26984126984127
81,-325.0,-131.8253968253968,-325.0,55.317460317460316,-325.0,-24.68253968253968,-325.0,-25.0,-325.0,-60.55555555555555,-325.0,-24.84126984126984,-325.0,18.49206349206349,-325.0,-325.0,-325.0,87.38095238095238,175.95238095238093,38.80952380952381,54.047619047619044,6.746031746031746,10.079365079365079,-166.26984126984127
82,-325.0,-131.8253968253968,-325.0,55.317460317460316,-325.0,-24.68253968253968,-325.0,-25.0,-325.0,-60.55555555555555,-325.0,-24.84126984126984,-325.0,18.49206349206349,-325.0,-325.0,-325.0,87.38095238095238,175.95238095238093,38.80952380952381,54.047619047619044,6.746031746031746,10.079365079365079,-166.26984126984127
83,-325.0,-131.8253968253968,-325.0,55.317460317460316,-325.0,-24.68253968253968,-325.0,-25.0,-325.0,-60.55555555555555,-325.0,-24.84126984126984,-325.0,18.49206349206349,-325.0,-325.0,-325.0,87.38095238095238,175.95238095238093,38.80952380952381,54.047619047619044,6.746031746031746,10.079365079365079,-166.26984126984127
84,-325.0,-131.8253968253968,-325.0,55.317460317460316,-325.0,-24.68253968253968,-325.0,-25.0,-325.0,-60.55555555555555,-325.0,-24.84126984126984,-325.0,18.49206349206349,-325.0,-325.0,-325.0,87.38095238095238,175.95238095238093,38.80952380952381,54.047619047619044,6.746031746031746,10.079365079365079,-166.26984126984127
85,-325.0,-131.8253968253968,-325.0,55.317460317460316,-325.0,-24.68253968253968,-325.0,-25.0,-325.0,-60.55555555555555,-325.0,-24.84126984126984,-325.0,18.49206349206349,-325.0,-325.0,-325.0,87.38095238095238,175.95238095238093,38.80952380952381,54.047619047619044,6.746031746031746,10.079365079365079,-166.26984126984127
86,-325.0,-131.8253968253968,-325.0,55.317460317460316,-325.0,-24.68253968253968,-325.0,-25.0,-325.0,-60.55555555555555,-325.0,-24.84126984126984,-325.0,18.49206349206349,-325.0,-325.0,-325.0,87.38095238095238,175.95238095238093,38.80952380952381,54.047619047619044,6.746031746031746,10.079365079365079,-166.26984126984127
87,-325.0,-131.8253968253968,-325.0,55.317460317460316,-325.0,-24.68253968253968,-325.0,-25.0,-325.0,-60.55555555555555,-325.0,-24.84126984126984,-325.0,18.49206349206349,-325.0,-325.0,-325.0,87.38095238095238,175.95238095238093,38.80952380952381,54.047619047619044,6.746031746031746,10.079365079365079,-166.26984126984127
88,-325.0,-131.8253968253968,-325.0,55.317460317460316,-325.0,-24.68253968253968,-325.0,-25.0,-325.0,-60.55555555555555,-325.0,-24.84126984126984,-325.0,18.49206349206349,-325.0,-325.0,-325.0,87.38095238095238,175.95238095238093,38.80952380952381,54.047619047619044,6.746031746031746,10.079365079365079,-166.26984126984127
89,-325.0,-131.8253968253968,-325.0,55.317460317460316,-325.0,-24.68253968253968,-325.0,-25.0,-325.0,-60.55555555555555,-325.0,-24.84126984126984,-325.0,18.49206349206349,-325.0,-325.0,-325.0,87.38095238095238,175.95238095238093,38.80952380952381,54.047619047619044,6.746031746031746,10.079365079365079,-166.26984126984127
90,-325.0,-131.8253968253968,-325.0,55.317460317460316,-325.0,-24.68253968253968,-325.0,-25.0,-325.0,-60.55555555555555,-325.0,-24.84126984126984,-325.0,18.49206349206349,-325.0,-325.0,-325.0,87.38095238095238,175.95238095238093,38.80952380952381,54.047619047619044,6.746031746031746,10.079365079365079,-321.8253968253968
91,-325.0,-131.8253968253968,-325.0,55.317460317460316,-325.0,-24.68253968253968,-325.0,-25.0,-325.0,-60.55555555555555,-325.0,-24.84126984126984,-325.0,18.49206349206349,-325.0,-325.0,-325.0,87.38095238095238,175.95238095238093,38.80952380952381,54.047619047619044,6.746031746031746,10.079365079365079,-321.8253968253968
92,-325.0,-131.8253968253968,-325.0,55.317460317460316,-325.0,-24.68253968253968,-325.0,-25.0,-325.0,-60.55555555555555,-325.0,-24.84126984126984,-325.0,18.49206349206349,-325.0,-325.0,-325.0,87.38095238095238,175.95238095238093,38.80952380952381,54.047619047619044,6.746031746031746,10.079365079365079,-321.8253968253968
93,-325.0,-131.8253968253968,-325.0,55.317460317460316,-325.0,-24.68253968253968,-325.0,-25.0,-325.0,-60.55555555555555,-325.0,-24.84126984126984,-325.0,18.49206349206349,-325.0,-325.0,-325.0,87.38095238095238,175.95238095238093,38.80952380952381,54.047619047619044,6.746031746031746,10.079365079365079,-321.8253968253968
94,-325.0,-131.8253968253968,-325.0,55.317460317460316,-325.0,-24.68253968253968,-325.0,-25.0,-325.0,-60.55555555555555,-325.0,-24.84126984126984,-325.0,18.49206349206349,-325.0,-325.0,-325.0,87.38095238095238,175.95238095238093,38.80952380952381,54.047619047619044,6.746031746031746,10.079365079365079,-321.8253968253968
95,-325.0,-131.8253968253968,-325.0,55.317460317460316,-325.0,-24.68253968253968,-325.0,-25.0,-325.0,-60.55555555555555,-325.0,-24.84126984126984,-325.0,18.49206349206349,-325.0,-325.0,-325.0,87.38095238095238,175.95238095238093,38.80952380952381,54.047619047619044,6.746031746031746,10.079365079365079,-321.8253968253968
96,-325.0,-131.8253968253968,-325.0,55.317460317460316,-325.0,-24.68253968253968,-325.0,-25.0,-325.0,-60.55555555555555,-325.0,-24.84126984126984,-325.0,18.49206349206349,-325.0,-325.0,-325.0,87.38095238095238,175.95238095238093,38.80952380952381,54.047619047619044,6.746031746031746,10.079365079365079,-321.8253968253968
97,-325.0,-131.8253968253968,-325.0,55.317460317460316,-325.0,-24.68253968253968,-325.0,-25.0,-325.0,-60.55555555555555,-325.0,-24.84126984126984,-325.0,18.49206349206349,-325.0,-325.0,-325.0,87.38095238095238,175.95238095238093,38.80952380952381,54.047619047619044,6.746031746031746,10.079365079365079,-321.8253968253968
98,-210.2380952380952,-325.0,-232.3015873015873,31.98412698412698,-221.03174603174602,2.142857142857143,-211.5079365079365,-15.634920634920634,-220.07936507936506,-40.39682539682539,-211.34920634920633,-15.317460317460316,-243.4126984126984,11.031746031746032,-237.38095238095238,-194.68253968253967,26.428571428571427,325.0,103.57142857142857,22.936507936507937,30.87301587301587,7.3809523809523805,3.095238095238095,-321.8253968253968
99,-210.2380952380952,-325.0,-232.3015873015873,31.98412698412698,-221.03174603174602,2.142857142857143,-211.5079365079365,-15.634920634920634,-220.07936507936506,-40.39682539682539,-211.34920634920633,-15.317460317460316,-243.4126984126984,11.031746031746032,-237.38095238095238,-194.68253968253967,26.428571428571427,325.0,103.57142857142857,22.936507936507937,30.87301587301587,7.3809523809523805,3.095238095238095,-321.8253968253968
100,-210.2380952380952,-325.0,-232.3015873015873,31.98412698412698,-221.03174603174602,2.142857142857143,-211.5079365079365,-15.634920634920634,-220.07936507936506,-40.39682539682539,-211.34920634920633,-15.317460317460316,-243.4126984126984,11.031746031746032,-237.38095238095238,-194.68253968253967,26.428571428571427,325.0,103.57142857142857,22.936507936507937,30.87301587301587,7.3809523809523805,3.095238095238095,-166.26984126984127
101,-210.2380952380952,-325.0,-232.3015873015873,31.98412698412698,-221.03174603174602,2.142857142857143,-211.5079365079365,-15.634920634920634,-220.07936507936506,-40.39682539682539,-211.34920634920633,-15.317460317460316,-243.4126984126984,11.031746031746032,-237.38095238095238,-194.68253968253967,26.428571428571427,325.0,103.57142857142857,22.936507936507937,30.87301587301587,7.3809523809523805,3.095238095238095,-166.26984126984127
102,-192.3015873015873,-194.52380952380952,-213.25396825396825,29.285714285714285,-204.36507936507937,-25.634920634920633,-193.88888888888889,-15.634920634920634,-202.46031746031744,-37.857142857142854,-207.53968253968253,-15.317460317460316,-224.52380952380952,10.079365079365079,-218.65079365079364,-151.66666666666666,33.095238095238095,325.0,95.0,21.349206349206348,28.333333333333332,6.26984126984127,5.476190476190476,-166.26984126984127
103,-192.3015873015873,-194.52380952380952,-213.25396825396825,29.285714285714285,-204.36507936507937,-25.634920634920633,-193.88888888888889,-15.634920634920634,-202.46031746031744,-37.857142857142854,-207.53968253968253,-15.317460317460316,-224.52380952380952,10.079365079365079,-218.65079365079364,-151.66666666666666,33.095238095238095,325.0,95.0,21.349206349206348,28.333333333333332,6.26984126984127,5.476190476190476,-166.26984126984127
104,-172.77777777777777,130.55555555555554,-192.77777777777777,26.428571428571427,-164.52380952380952,106.42857142857142,-174.68253968253967,-2.7777777777777777,-183.25396825396825,144.84126984126982,-72.77777777777777,-1.8253968253968254,-193.7301587301587,9.126984126984127,-198.4920634920635,54.36507936507936,182.46031746031744,325.0,85.79365079365078,17.539682539682538,25.476190476190474,-0.07936507936507936,-1.1904761904761905,-166.26984126984127
105,-172.77777777777777,130.55555555555554,-192.77777777777777,26.428571428571427,-164.52380952380952,106.42857142857142,-174.68253968253967,-2.7777777777777777,-183.25396825396825,144.84126984126982,-72.77777777777777,-1.8253968253968254,-193.7301587301587,9.126984126984127,-198.4920634920635,54.36507936507936,182.46031746031744,325.0,85.79365079365078,17.539682539682538,25.476190476190474,-0.07936507936507936,-1.1904761904761905,-166.26984126984127
106,-168.96825396825395,4.0476190476190474,-188.8095238095238,25.952380952380953,-178.65079365079364,-25.158730158730158,-170.7142857142857,-13.73015873015873,-179.60317460317458,-43.095238095238095,-167.38095238095238,-13.571428571428571,-198.015873015873,8.809523809523808,-194.2063492063492,-107.06349206349206,76.26984126984127,325.0,84.04761904761904,18.80952380952381,25.0,6.746031746031746,6.26984126984127,-166.26984126984127
107,-168.96825396825395,4.0476190476190474,-188.8095238095238,25.952380952380953,-178.65079365079364,-25.158730158730158,-170.7142857142857,-13.73015873015873,-179.60317460317458,-43.095238095238095,-167.38095238095238,-13.571428571428571,-198.015873015873,8.809523809523808,-194.2063492063492,-107.06349206349206,76.26984126984127,325.0,84.04761904761904,18.80952380952381,25.0,6.746031746031746,6.26984126984127,-166.26984126984127
108,-168.17460317460316,31.03174603174603,-187.85714285714283,25.79365079365079,-181.984126984127,-57.38095238095238,-169.76190476190476,-15.793650793650793,-178.65079365079364,-47.698412698412696,-195.0,-15.317460317460316,-199.12698412698413,8.809523809523808,-193.25396825396825,-103.73015873015872,50.238095238095234,325.0,83.73015873015872,19.126984126984127,24.84126984126984,5.476190476190476,8.809523809523808,-166.26984126984127
109,-168.17460317460316,31.03174603174603,-187.85714285714283,25.79365079365079,-181.984126984127,-57.38095238095238,-169.76190476190476,-15.793650793650793,-178.65079365079364,-47.698412698412696,-195.0,-15.317460317460316,-199.12698412698413,8.809523809523808,-193.25396825396825,-103.73015873015872,50.238095238095234,325.0,83.73015873015872,19.126984126984127,24.84126984126984,5.476190476190476,8.809523809523808,-166.26984126984127
110,-163.88888888888889,319.4444444444444,-183.4126984126984,24.84126984126984,-166.9047619047619,3.4126984126984126,-165.47619047619045,-11.666666666666666,-174.68253968253967,-42.460317460317455,-128.33333333333331,-11.984126984126984,-189.76190476190476,8.492063492063492,-188.96825396825395,-104.04761904761904,118.17460317460316,325.0,81.5079365079365,17.539682539682538,24.206349206349206,9.761904761904761,3.095238095238095,-321.8253968253968
111,-163.88888888888889,319.4444444444444,-183.4126984126984,24.84126984126984,-166.9047619047619,3.4126984126984126,-165.47619047619045,-11.666666666666666,-174.68253968253967,-42.460317460317455,-128.33333333333331,-11.984126984126984,-189.76190476190476,8.492063492063492,-188.96825396825395,-104.04761904761904,118.17460317460316,325.0,81.5079365079365,17.539682539682538,24.206349206349206,9.761904761904761,3.095238095238095,-321.8253968253968
112,-161.8253968253968,322.1428571428571,-181.03174603174602,24.523809523809522,-131.34920634920636,134.2063492063492,-163.57142857142856,-0.07936507936507936,-172.61904761904762,129.12698412698413,-5.634920634920634,-0.23809523809523808,-174.2063492063492,8.333333333333332,-186.74603174603175,59.285714285714285,221.5079365079365,325.0,80.39682539682539,13.253968253968253,23.88888888888889,1.984126984126984,-3.571428571428571,-321.8253968253968
113,-161.8253968253968,322.1428571428571,-181.03174603174602,24.523809523809522,-131.34920634920636,134.2063492063492,-163.57142857142856,-0.07936507936507936,-172.61904761904762,129.12698412698413,-5.634920634920634,-0.23809523809523808,-174.2063492063492,8.333333333333332,-186.74603174603175,59.285714285714285,221.5079365079365,325.0,80.39682539682539,13.253968253968253,23.88888888888889,1.984126984126984,-3.571428571428571,-321.8253968253968
114,-157.38095238095238,269.9206349206349,-176.42857142857142,24.047619047619047,-90.39682539682539,259.2857142857143,-159.28571428571428,14.523809523809524,-168.015873015873,290.07936507936506,93.57142857142857,14.84126984126984,-154.84126984126982,8.174603174603174,-181.984126984127,229.28571428571428,300.87301587301585,325.0,78.4920634920635,5.634920634920634,23.41269841269841,-7.698412698412698,-8.333333333333332,-321.8253968253968
115,-157.38095238095238,269.9206349206349,-176.42857142857142,24.047619047619047,-90.39682539682539,259.2857142857143,-159.28571428571428,14.523809523809524,-168.015873015873,290.07936507936506,93.57142857142857,14.84126984126984,-154.84126984126982,8.174603174603174,-181.984126984127,229.28571428571428,300.87301587301585,325.0,78.4920634920635,5.634920634920634,23.41269841269841,-7.698412698412698,-8.333333333333332,-321.8253968253968
116,-153.25396825396825,-43.25396825396825,-172.3015873015873,23.57142857142857,-121.82539682539682,121.98412698412697,-154.84126984126982,-0.23809523809523808,-163.88888888888889,113.25396825396825,-7.857142857142857,-1.8253968253968254,-166.9047619047619,8.015873015873016,-177.69841269841268,56.904761904761905,203.4126984126984,325.0,76.58730158730158,9.444444444444445,22.777777777777775,2.619047619047619,-2.9365079365079363,-321.8253968253968
117,-153.25396825396825,-43.25396825396825,-172.3015873015873,23.57142857142857,-121.82539682539682,121.98412698412697,-154.84126984126982,-0.23809523809523808,-163.88888888888889,113.25396825396825,-7.857142857142857,-1.8253968253968254,-166.9047619047619,8.015873015873016,-177.69841269841268,56.904761904761905,203.4126984126984,325.0,76.58730158730158,9.444444444444445,22.777777777777775,2.619047619047619,-2.9365079365079363,-321.8253968253968
118,-151.03174603174602,-142.3015873015873,-169.9206349206349,23.095238095238095,-117.22222222222221,124.84126984126983,-152.77777777777777,3.888888888888889,-161.66666666666666,104.2063492063492,-28.015873015873016,2.46031746031746,-161.66666666666666,7.857142857142857,-175.47619047619045,66.42857142857143,165.63492063492063,325.0,75.47619047619047,2.619047619047619,22.46031746031746,0.7142857142857142,-0.873015873015873,-321.8253968253968
119,-151.03174603174602,-142.3015873015873,-169.9206349206349,23.095238095238095,-117.22222222222221,124.84126984126983,-152.77777777777777,3.888888888888889,-161.66666666666666,104.2063492063492,-28.015873015873016,2.46031746031746,-161.66666666666666,7.857142857142857,-175.47619047619045,66.42857142857143,165.63492063492063,325.0,75.47619047619047,2.619047619047619,22.46031746031746,0.7142857142857142,-0.873015873015873,-321.8253968253968
120,-147.69841269841268,71.82539682539682,-166.42857142857142,22.777777777777775,-118.65079365079364,123.25396825396825,-149.6031746031746,0.07936507936507936,-158.33333333333331,107.38095238095238,-0.5555555555555556,-1.8253968253968254,-161.34920634920633,7.857142857142857,-171.984126984127,62.61904761904761,200.7142857142857,321.66666666666663,74.2063492063492,6.111111111111111,21.825396825396822,2.3015873015873014,-3.095238095238095,-166.26984126984127
121,-147.69841269841268,71.82539682539682,-166.42857142857142,22.777777777777775,-118.65079365079364,123.25396825396825,-149.6031746031746,0.07936507936507936,-158.33333333333331,107.38095238095238,-0.5555555555555556,-1.8253968253968254,-161.34920634920633,7.857142857142857,-171.984126984127,62.61904761904761,200.7142857142857,321.66666666666663,74.2063492063492,6.111111111111111,21.825396825396822,2.3015873015873014,-3.095238095238095,-166.26984126984127
122,-145.63492063492063,91.66666666666666,-164.2063492063492,22.46031746031746,-99.6031746031746,119.92063492063491,-145.79365079365078,4.365079365079365,-156.26984126984127,97.53968253968253,0.873015873015873,2.9365079365079363,-147.06349206349205,7.857142857142857,-169.76190476190476,65.31746031746032,177.69841269841268,321.66666666666663,73.25396825396825,-2.46031746031746,21.507936507936506,0.07936507936507936,-0.23809523809523808,-166.26984126984127
123,-145.63492063492063,91.66666666666666,-164.2063492063492,22.46031746031746,-99.6031746031746,119.92063492063491,-145.79365079365078,4.365079365079365,-156.26984126984127,97.53968253968253,0.873015873015873,2.9365079365079363,-147.06349206349205,7.857142857142857,-169.76190476190476,65.31746031746032,177.69841269841268,321.66666666666663,73.25396825396825,-2.46031746031746,21.507936507936506,0.07936507936507936,-0.23809523809523808,-166.26984126984127
124,-141.8253968253968,221.98412698412696,-160.07936507936506,21.984126984126984,-113.88888888888889,86.1111111111111,-142.77777777777777,-1.8253968253968254,-152.61904761904762,95.47619047619047,-12.46031746031746,-3.73015873015873,-151.66666666666666,7.5396825396825395,-165.63492063492063,63.57142857142857,169.9206349206349,275.3174603174603,71.34920634920634,1.984126984126984,21.03174603174603,0.23809523809523808,-0.23809523809523808,-166.26984126984127
125,-141.8253968253968,221.98412698412696,-160.07936507936506,21.984126984126984,-113.88888888888889,86.1111111111111,-142.77777777777777,-1.8253968253968254,-152.61904761904762,95.47619047619047,-12.46031746031746,-3.73015873015873,-151.66666666666666,7.5396825396825395,-165.63492063492063,63.57142857142857,169.9206349206349,275.3174603174603,71.34920634920634,1.984126984126984,21.03174603174603,0.23809523809523808,-0.23809523809523808,-166.26984126984127
126,-138.65079365079364,325.0,-156.74603174603175,21.507936507936506,-44.2063492063492,261.1904761904762,-136.58730158730157,22.936507936507937,-149.28571428571428,271.19047619047615,129.9206349206349,18.65079365079365,-125.31746031746032,7.3809523809523805,-162.3015873015873,225.15873015873015,283.25396825396825,325.0,69.76190476190476,-34.2063492063492,20.71428571428571,-7.3809523809523805,-8.174603174603174,-166.26984126984127
127,-138.65079365079364,325.0,-156.74603174603175,21.507936507936506,-44.2063492063492,261.1904761904762,-136.58730158730157,22.936507936507937,-149.28571428571428,271.19047619047615,129.9206349206349,18.65079365079365,-125.31746031746032,7.3809523809523805,-162.3015873015873,225.15873015873015,283.25396825396825,325.0,69.76190476190476,-34.2063492063492,20.71428571428571,-7.3809523809523805,-8.174603174603174,-166.26984126984127
128,-138.015873015873,325.0,-156.11111111111111,21.507936507936506,-52.14285714285714,253.4126984126984,-137.69841269841268,16.904761904761905,-148.96825396825395,271.66666666666663,147.85714285714286,11.507936507936508,-131.03174603174602,7.3809523809523805,-161.8253968253968,212.93650793650792,307.85714285714283,325.0,69.44444444444444,-27.698412698412696,20.71428571428571,-4.523809523809524,-9.444444444444445,-166.26984126984127
129,-138.015873015873,325.0,-156.11111111111111,21.507936507936506,-52.14285714285714,253.4126984126984,-137.69841269841268,16.904761904761905,-148.96825396825395,271.66666666666663,147.85714285714286,11.507936507936508,-131.03174603174602,7.3809523809523805,-161.8253968253968,212.93650793650792,307.85714285714283,325.0,69.44444444444444,-27.698412698412696,20.71428571428571,-4.523809523809524,-9.444444444444445,-166.26984126984127
130,-138.015873015873,325.0,-156.11111111111111,21.507936507936506,-52.14285714285714,253.4126984126984,-137.69841269841268,16.904761904761905,-148.96825396825395,271.66666666666663,147.85714285714286,11.507936507936508,-131.03174603174602,7.3809523809523805,-161.8253968253968,212.93650793650792,307.85714285714283,325.0,69.44444444444444,-27.698412698412696,20.71428571428571,-4.523809523809524,-9.444444444444445,-321.8253968253968
131,-138.015873015873,325.0,-156.11111111111111,21.507936507936506,-52.14285714285714,253.4126984126984,-137.69841269841268,16.904761904761905,-148.96825396825395,271.66666666666663,147.85714285714286,11.507936507936508,-131.03174603174602,7.3809523809523805,-161.8253968253968,212.93650793650792,307.85714285714283,325.0,69.44444444444444,-27.698412698412696,20.71428571428571,-4.523809523809524,-9.444444444444445,-321.8253968253968
132,-138.015873015873,325.0,-156.11111111111111,21.507936507936506,-52.14285714285714,253.4126984126984,-137.69841269841268,16.904761904761905,-148.96825396825395,271.66666666666663,147.85714285714286,11.507936507936508,-131.03174603174602,7.3809523809523805,-161.8253968253968,212.93650793650792,307.85714285714283,325.0,69.44444444444444,-27.698412698412696,20.71428571428571,-4.523809523809524,-9.444444444444445,-321.8253968253968
133,-138.015873015873,325.0,-156.11111111111111,21.507936507936506,-52.14285714285714,253.4126984126984,-137.69841269841268,16.904761904761905,-148.96825396825395,271.66666666666663,147.85714285714286,11.507936507936508,-131.03174603174602,7.3809523809523805,-161.8253968253968,212.93650793650792,307.85714285714283,325.0,69.44444444444444,-27.698412698412696,20.71428571428571,-4.523809523809524,-9.444444444444445,-321.8253968253968
134,-138.015873015873,325.0,-156.11111111111111,21.507936507936506,-52.14285714285714,253.4126984126984,-137.69841269841268,16.904761904761905,-148.96825396825395,271.66666666666663,147.85714285714286,11.507936507936508,-131.03174603174602,7.3809523809523805,-161.8253968253968,212.93650793650792,307.85714285714283,325.0,69.44444444444444,-27.698412698412696,20.71428571428571,-4.523809523809524,-9.444444444444445,-321.8253968253968
135,-138.015873015873,325.0,-156.11111111111111,21.507936507936506,-52.14285714285714,253.4126984126984,-137.69841269841268,16.904761904761905,-148.96825396825395,271.66666666666663,147.85714285714286,11.507936507936508,-131.03174603174602,7.3809523809523805,-161.8253968253968,212.93650793650792,307.85714285714283,325.0,69.44444444444444,-27.698412698412696,20.71428571428571,-4.523809523809524,-9.444444444444445,-321.8253968253968
136,-127.22222222222221,-230.87301587301587,-144.36507936507937,19.76190476190476,-135.63492063492063,-30.396825396825395,-129.28571428571428,-11.666666666666666,-137.85714285714286,-119.92063492063491,-110.87301587301587,-12.3015873015873,-153.57142857142856,3.888888888888889,-150.07936507936506,-111.19047619047619,49.76190476190476,-325.0,64.36507936507937,7.3809523809523805,19.126984126984127,8.174603174603174,4.682539682539682,-321.8253968253968
137,-127.22222222222221,-230.87301587301587,-144.36507936507937,19.76190476190476,-135.63492063492063,-30.396825396825395,-129.28571428571428,-11.666666666666666,-137.85714285714286,-119.92063492063491,-110.87301587301587,-12.3015873015873,-153.57142857142856,3.888888888888889,-150.07936507936506,-111.19047619047619,49.76190476190476,-325.0,64.36507936507937,7.3809523809523805,19.126984126984127,8.174603174603174,4.682539682539682,-321.8253968253968
138,-124.36507936507935,32.61904761904762,-141.19047619047618,19.285714285714285,-21.19047619047619,264.5238095238095,-117.85714285714285,30.396825396825395,-134.84126984126982,239.28571428571428,113.73015873015872,24.68253968253968,-107.53968253968253,6.904761904761904,-146.74603174603175,207.53968253968253,233.09523809523807,-325.0,63.095238095238095,-94.84126984126983,18.333333333333332,-7.063492063492063,-8.174603174603174,-321.8253968253968
139,-124.36507936507935,32.61904761904762,-141.19047619047618,19.285714285714285,-21.19047619047619,264.5238095238095,-117.85714285714285,30.396825396825395,-134.84126984126982,239.28571428571428,113.73015873015872,24.68253968253968,-107.53968253968253,6.904761904761904,-146.74603174603175,207.53968253968253,233.09523809523807,-325.0,63.095238095238095,-94.84126984126983,18.333333333333332,-7.063492063492063,-8.174603174603174,-321.8253968253968
140,-122.77777777777777,-232.46031746031744,-139.44444444444443,19.126984126984127,-126.1111111111111,-36.42857142857142,-124.68253968253967,-11.825396825396824,-133.4126984126984,-144.36507936507937,-129.28571428571428,-12.142857142857142,-147.38095238095238,-6.428571428571428,-145.0,-124.36507936507935,32.93650793650794,-325.0,62.3015873015873,10.079365079365079,18.49206349206349,8.333333333333332,4.365079365079365,-166.26984126984127
141,-122.77777777777777,-232.46031746031744,-139.44444444444443,19.126984126984127,-126.1111111111111,-36.42857142857142,-124.68253968253967,-11.825396825396824,-133.4126984126984,-144.36507936507937,-129.28571428571428,-12.142857142857142,-147.38095238095238,-6.428571428571428,-145.0,-124.36507936507935,32.93650793650794,-325.0,62.3015873015873,10.079365079365079,18.49206349206349,8.333333333333332,4.365079365079365,-166.26984126984127
142,-122.77777777777777,-232.46031746031744,-139.44444444444443,19.126984126984127,-126.1111111111111,-36.42857142857142,-124.68253968253967,-11.825396825396824,-133.4126984126984,-144.36507936507937,-129.28571428571428,-12.142857142857142,-147.38095238095238,-6.428571428571428,-145.0,-124.36507936507935,32.93650793650794,-325.0,62.3015873015873,10.079365079365079,18.49206349206349,8.333333333333332,4.365079365079365,-166.26984126984127
143,-122.77777777777777,-232.46031746031744,-139.44444444444443,19.126984126984127,-126.1111111111111,-36.42857142857142,-124.68253968253967,-11.825396825396824,-133.4126984126984,-144.36507936507937,-129.28571428571428,-12.142857142857142,-147.38095238095238,-6.428571428571428,-145.0,-124.36507936507935,32.93650793650794,-325.0,62.3015873015873,10.079365079365079,18.49206349206349,8.333333333333332,4.365079365079365,-166.26984126984127
144,325.0,-106.42857142857142,325.0,-325.0,325.0,-64.84126984126983,325.0,-15.95238095238095,325.0,-145.3174603174603,325.0,-15.0,325.0,-11.666666666666666,325.0,-105.95238095238095,325.0,-325.0,59.92063492063492,23.41269841269841,-325.0,7.063492063492063,7.5396825396825395,-166.26984126984127
145,325.0,-106.42857142857142,325.0,-325.0,325.0,-64.84126984126983,325.0,-15.95238095238095,325.0,-145.3174603174603,325.0,-15.0,325.0,-11.666666666666666,325.0,-105.95238095238095,325.0,-325.0,59.92063492063492,23.41269841269841,-325.0,7.063492063492063,7.5396825396825395,-166.26984126984127
146,325.0,157.85714285714286,325.0,-325.0,325.0,65.79365079365078,325.0,4.0476190476190474,325.0,38.17460317460317,325.0,0.3968253968253968,325.0,0.3968253968253968,325.0,49.44444444444444,325.0,-325.0,59.12698412698413,23.095238095238095,-325.0,0.7142857142857142,-0.5555555555555556,-166.26984126984127
147,325.0,157.85714285714286,325.0,-325.0,325.0,65.79365079365078,325.0,4.0476190476190474,325.0,38.17460317460317,325.0,0.3968253968253968,325.0,0.3968253968253968,325.0,49.44444444444444,325.0,-325.0,59.12698412698413,23.095238095238095,-325.0,0.7142857142857142,-0.5555555555555556,-166.26984126984127
148,325.0,156.26984126984127,325.0,-325.0,325.0,-48.17460317460317,325.0,-12.46031746031746,325.0,-167.85714285714286,325.0,-13.253968253968253,325.0,-31.03174603174603,325.0,-124.84126984126983,325.0,-325.0,58.17460317460317,22.777777777777775,-325.0,8.65079365079365,4.523809523809524,-166.26984126984127
149,325.0,156.26984126984127,325.0,-325.0,325.0,-48.17460317460317,325.0,-12.46031746031746,325.0,-167.85714285714286,325.0,-13.253968253968253,325.0,-31.03174603174603,325.0,-124.84126984126983,325.0,-325.0,58.17460317460317,22.777777777777775,-325.0,8.65079365079365,4.523809523809524,-166.26984126984127
150,325.0,240.55555555555554,325.0,-325.0,325.0,90.87301587301587,325.0,12.3015873015873,325.0,18.80952380952381,325.0,8.015873015873016,325.0,-11.507936507936508,325.0,31.349206349206348,325.0,-325.0,57.38095238095238,22.3015873015873,-325.0,2.9365079365079363,-1.8253968253968254,-321.8253968253968
151,325.0,240.55555555555554,325.0,-325.0,325.0,90.87301587301587,325.0,12.3015873015873,325.0,18.80952380952381,325.0,8.015873015873016,325.0,-11.507936507936508,325.0,31.349206349206348,325.0,-325.0,57.38095238095238,22.3015873015873,-325.0,2.9365079365079363,-1.8253968253968254,-321.8253968253968
152,325.0,98.96825396825396,325.0,-325.0,325.0,-48.33333333333333,325.0,-11.825396825396824,325.0,-170.55555555555554,325.0,-12.777777777777777,325.0,-38.96825396825397,325.0,-119.92063492063491,325.0,-325.0,56.269841269841265,21.666666666666664,-325.0,8.174603174603174,5.158730158730158,-321.8253968253968
153,325.0,98.96825396825396,325.0,-325.0,325.0,-48.33333333333333,325.0,-11.825396825396824,325.0,-170.55555555555554,325.0,-12.777777777777777,325.0,-38.96825396825397,325.0,-119.92063492063491,325.0,-325.0,56.269841269841265,21.666666666666664,-325.0,8.174603174603174,5.158730158730158,-321.8253968253968
154,325.0,325.0,325.0,-325.0,325.0,245.95238095238093,325.0,42.61904761904761,325.0,213.57142857142856,325.0,43.25396825396825,325.0,6.587301587301587,325.0,206.9047619047619,325.0,-325.0,55.0,21.03174603174603,-325.0,-5.7936507936507935,-7.222222222222221,-321.8253968253968
155,325.0,325.0,325.0,-325.0,325.0,245.95238095238093,325.0,42.61904761904761,325.0,213.57142857142856,325.0,43.25396825396825,325.0,6.587301587301587,325.0,206.9047619047619,325.0,-325.0,55.0,21.03174603174603,-325.0,-5.7936507936507935,-7.222222222222221,-321.8253968253968
156,325.0,325.0,325.0,-325.0,325.0,-51.98412698412698,325.0,-13.253968253968253,325.0,-190.3968253968254,325.0,-13.412698412698411,325.0,-48.650793650793645,325.0,-136.74603174603175,325.0,-325.0,54.36507936507936,21.03174603174603,-325.0,9.285714285714285,5.7936507936507935,-321.8253968253968
157,325.0,325.0,325.0,-325.0,325.0,-51.98412698412698,325.0,-13.253968253968253,325.0,-190.3968253968254,325.0,-13.412698412698411,325.0,-48.650793650793645,325.0,-136.74603174603175,325.0,-325.0,54.36507936507936,21.03174603174603,-325.0,9.285714285714285,5.7936507936507935,-321.8253968253968
158,325.0,325.0,325.0,-325.0,325.0,242.14285714285714,325.0,45.476190476190474,325.0,196.9047619047619,325.0,48.33333333333333,325.0,5.7936507936507935,325.0,190.7142857142857,325.0,-325.0,53.25396825396825,20.396825396825395,-325.0,-5.7936507936507935,-7.3809523809523805,-321.8253968253968
159,325.0,325.0,325.0,-325.0,325.0,242.14285714285714,325.0,45.476190476190474,325.0,196.9047619047619,325.0,48.33333333333333,325.0,5.7936507936507935,325.0,190.7142857142857,325.0,-325.0,53.25396825396825,20.396825396825395,-325.0,-5.7936507936507935,-7.3809523809523805,-321.8253968253968
160,325.0,325.0,325.0,-325.0,325.0,-57.857142857142854,325.0,-13.571428571428571,325.0,-213.57142857142856,325.0,-13.412698412698411,325.0,-62.14285714285714,325.0,-156.11111111111111,325.0,-325.0,52.61904761904761,20.07936507936508,-325.0,8.492063492063492,5.0,-166.26984126984127
161,325.0,325.0,325.0,-325.0,325.0,-57.857142857142854,325.0,-13.571428571428571,325.0,-213.57142857142856,325.0,-13.412698412698411,325.0,-62.14285714285714,325.0,-156.11111111111111,325.0,-325.0,52.61904761904761,20.07936507936508,-325.0,8.492063492063492,5.0,-166.26984126984127
162,325.0,325.0,325.0,-325.0,325.0,85.79365079365078,325.0,12.777777777777777,325.0,-13.571428571428571,325.0,10.555555555555555,325.0,-28.174603174603174,325.0,10.238095238095237,325.0,-325.0,51.82539682539682,19.76190476190476,-325.0,3.095238095238095,-1.349206349206349,-166.26984126984127
163,325.0,325.0,325.0,-325.0,325.0,85.79365079365078,325.0,12.777777777777777,325.0,-13.571428571428571,325.0,10.555555555555555,325.0,-28.174603174603174,325.0,10.238095238095237,325.0,-325.0,51.82539682539682,19.76190476190476,-325.0,3.095238095238095,-1.349206349206349,-166.26984126984127
164,325.0,325.0,325.0,-286.4285714285714,325.0,-56.269841269841265,325.0,-13.253968253968253,325.0,-201.5079365079365,325.0,-14.047619047619047,325.0,-71.82539682539682,325.0,-141.5079365079365,325.0,-325.0,50.71428571428571,19.444444444444443,-325.0,7.857142857142857,5.317460317460317,-166.26984126984127
165,325.0,325.0,325.0,-286.4285714285714,325.0,-56.269841269841265,325.0,-13.253968253968253,325.0,-201.5079365079365,325.0,-14.047619047619047,325.0,-71.82539682539682,325.0,-141.5079365079365,325.0,-325.0,50.71428571428571,19.444444444444443,-325.0,7.857142857142857,5.317460317460317,-166.26984126984127
166,325.0,325.0,325.0,-325.0,325.0,251.34920634920633,325.0,52.77777777777777,325.0,204.2063492063492,325.0,53.57142857142857,325.0,5.7936507936507935,325.0,195.95238095238093,325.0,-325.0,49.6031746031746,18.96825396825397,-325.0,-4.841269841269841,-7.5396825396825395,-166.26984126984127
167,325.0,325.0,325.0,-325.0,325.0,251.34920634920633,325.0,52.77777777777777,325.0,204.2063492063492,325.0,53.57142857142857,325.0,5.7936507936507935,325.0,195.95238095238093,325.0,-325.0,49.6031746031746,18.96825396825397,-325.0,-4.841269841269841,-7.5396825396825395,-166.26984126984127
168,325.0,325.0,325.0,-325.0,325.0,-61.03174603174603,325.0,-13.73015873015873,325.0,-208.8095238095238,325.0,-14.365079365079364,325.0,-86.42857142857143,325.0,-155.15873015873015,325.0,-325.0,49.12698412698413,18.333333333333332,-325.0,8.809523809523808,4.841269841269841,-166.26984126984127
169,325.0,325.0,325.0,-325.0,325.0,-61.03174603174603,325.0,-13.73015873015873,325.0,-208.8095238095238,325.0,-14.365079365079364,325.0,-86.42857142857143,325.0,-155.15873015873015,325.0,-325.0,49.12698412698413,18.333333333333332,-325.0,8.809523809523808,4.841269841269841,-166.26984126984127
170,325.0,325.0,325.0,-325.0,325.0,84.36507936507937,325.0,12.936507936507935,325.0,-14.047619047619047,325.0,9.285714285714285,325.0,-42.93650793650794,325.0,5.476190476190476,325.0,-325.0,48.49206349206349,18.174603174603174,-325.0,3.571428571428571,-1.349206349206349,-321.8253968253968
171,325.0,325.0,325.0,-325.0,325.0,84.36507936507937,325.0,12.936507936507935,325.0,-14.047619047619047,325.0,9.285714285714285,325.0,-42.93650793650794,325.0,5.476190476190476,325.0,-325.0,48.49206349206349,18.174603174603174,-325.0,3.571428571428571,-1.349206349206349,-321.8253968253968
172,325.0,188.015873015873,325.0,-325.0,325.0,-61.666666666666664,325.0,-14.365079365079364,325.0,-201.66666666666666,325.0,-15.793650793650793,325.0,-91.82539682539682,325.0,-149.12698412698413,325.0,-325.0,47.53968253968254,18.174603174603174,-273.88888888888886,8.015873015873016,4.841269841269841,-321.8253968253968
173,325.0,188.015873015873,325.0,-325.0,325.0,-61.666666666666664,325.0,-14.365079365079364,325.0,-201.66666666666666,325.0,-15.793650793650793,325.0,-91.82539682539682,325.0,-149.12698412698413,325.0,-325.0,47.53968253968254,18.174603174603174,-273.88888888888886,8.015873015873016,4.841269841269841,-321.8253968253968
174,325.0,256.4285714285714,325.0,-325.0,325.0,94.36507936507935,325.0,15.793650793650793,325.0,-4.682539682539682,325.0,11.984126984126984,325.0,-43.41269841269841,325.0,12.142857142857142,325.0,-325.0,46.904761904761905,17.857142857142858,-299.4444444444444,2.619047619047619,-1.8253968253968254,-321.8253968253968
175,325.0,256.4285714285714,325.0,-325.0,325.0,94.36507936507935,325.0,15.793650793650793,325.0,-4.682539682539682,325.0,11.984126984126984,325.0,-43.41269841269841,325.0,12.142857142857142,325.0,-325.0,46.904761904761905,17.857142857142858,-299.4444444444444,2.619047619047619,-1.8253968253968254,-321.8253968253968
176,325.0,63.41269841269841,325.0,-323.25396825396825,325.0,-57.22222222222222,325.0,-14.682539682539682,325.0,-197.38095238095238,325.0,-15.793650793650793,325.0,-97.53968253968253,325.0,-149.44444444444443,325.0,-325.0,45.95238095238095,17.38095238095238,-175.15873015873015,8.65079365079365,5.158730158730158,-321.8253968253968
177,325.0,63.41269841269841,325.0,-323.25396825396825,325.0,-57.22222222222222,325.0,-14.682539682539682,325.0,-197.38095238095238,325.0,-15.793650793650793,325.0,-97.53968253968253,325.0,-149.44444444444443,325.0,-325.0,45.95238095238095,17.38095238095238,-175.15873015873015,8.65079365079365,5.158730158730158,-321.8253968253968
178,325.0,63.41269841269841,325.0,-323.25396825396825,325.0,-57.22222222222222,325.0,-14.682539682539682,325.0,-197.38095238095238,325.0,-15.793650793650793,325.0,-97.53968253968253,325.0,-149.44444444444443,325.0,-325.0,45.95238095238095,17.38095238095238,-175.15873015873015,8.65079365079365,5.158730158730158,-321.8253968253968
179,325.0,63.41269841269841,325.0,-323.25396825396825,325.0,-57.22222222222222,325.0,-14.682539682539682,325.0,-197.38095238095238,325.0,-15.793650793650793,325.0,-97.53968253968253,325.0,-149.44444444444443,325.0,-325.0,45.95238095238095,17.38095238095238,-175.15873015873015,8.65079365079365,5.158730158730158,-321.8253968253968
180,325.0,-62.14285714285714,325.0,-296.58730158730157,325.0,-65.47619047619047,325.0,-16.11111111111111,325.0,-216.58730158730157,325.0,-16.746031746031743,325.0,-112.46031746031746,325.0,-166.26984126984127,325.0,-325.0,44.36507936507936,16.587301587301585,-133.73015873015873,8.174603174603174,6.111111111111111,-166.26984126984127
181,325.0,-62.14285714285714,325.0,-296.58730158730157,325.0,-65.47619047619047,325.0,-16.11111111111111,325.0,-216.58730158730157,325.0,-16.746031746031743,325.0,-112.46031746031746,325.0,-166.26984126984127,325.0,-325.0,44.36507936507936,16.587301587301585,-133.73015873015873,8.174603174603174,6.111111111111111,-166.26984126984127
182,325.0,74.2063492063492,325.0,-310.87301587301585,325.0,90.07936507936508,325.0,18.174603174603174,325.0,-18.174603174603174,325.0,12.46031746031746,325.0,-53.57142857142857,325.0,-2.7777777777777777,325.0,-325.0,43.73015873015873,16.428571428571427,-229.44444444444443,3.253968253968254,-0.7142857142857142,-166.26984126984127
183,325.0,74.2063492063492,325.0,-310.87301587301585,325.0,90.07936507936508,325.0,18.174603174603174,325.0,-18.174603174603174,325.0,12.46031746031746,325.0,-53.57142857142857,325.0,-2.7777777777777777,325.0,-325.0,43.73015873015873,16.428571428571427,-229.44444444444443,3.253968253968254,-0.7142857142857142,-166.26984126984127
184,325.0,-246.1111111111111,325.0,-262.46031746031747,325.0,-65.47619047619047,325.0,-15.476190476190474,325.0,-211.34920634920633,325.0,-18.015873015873016,325.0,-106.42857142857142,325.0,-162.77777777777777,325.0,-325.0,43.095238095238095,16.26984126984127,-70.07936507936508,8.492063492063492,5.7936507936507935,-166.26984126984127
185,325.0,-246.1111111111111,325.0,-262.46031746031747,325.0,-65.47619047619047,325.0,-15.476190476190474,325.0,-211.34920634920633,325.0,-18.015873015873016,325.0,-106.42857142857142,325.0,-162.77777777777777,325.0,-325.0,43.095238095238095,16.26984126984127,-70.07936507936508,8.492063492063492,5.7936507936507935,-166.26984126984127
186,325.0,184.2063492063492,325.0,-325.0,325.0,280.55555555555554,325.0,74.52380952380952,325.0,206.42857142857142,325.0,65.15873015873015,325.0,-0.07936507936507936,325.0,191.03174603174602,325.0,-325.0,42.14285714285714,15.793650793650793,-325.0,-5.952380952380952,-7.063492063492063,-166.26984126984127
187,325.0,184.2063492063492,325.0,-325.0,325.0,280.55555555555554,325.0,74.52380952380952,325.0,206.42857142857142,325.0,65.15873015873015,325.0,-0.07936507936507936,325.0,191.03174603174602,325.0,-325.0,42.14285714285714,15.793650793650793,-325.0,-5.952380952380952,-7.063492063492063,-166.26984126984127
188,325.0,-92.93650793650794,300.87301587301585,-325.0,325.0,-70.87301587301587,325.0,-18.015873015873016,325.0,-220.87301587301587,325.0,-19.444444444444443,322.1428571428571,-157.53968253968253,325.0,-168.8095238095238,325.0,-325.0,41.507936507936506,15.634920634920634,-17.539682539682538,8.968253968253968,7.698412698412698,-166.26984126984127
189,325.0,-92.93650793650794,300.87301587301585,-325.0,325.0,-70.87301587301587,325.0,-18.015873015873016,325.0,-220.87301587301587,325.0,-19.444444444444443,322.1428571428571,-157.53968253968253,325.0,-168.8095238095238,325.0,-325.0,41.507936507936506,15.634920634920634,-17.539682539682538,8.968253968253968,7.698412698412698,-166.26984126984127
190,325.0,325.0,325.0,-310.07936507936506,325.0,287.38095238095235,325.0,82.77777777777777,325.0,211.8253968253968,325.0,71.03174603174602,325.0,9.126984126984127,325.0,196.9047619047619,325.0,-325.0,40.714285714285715,15.317460317460316,-291.8253968253968,-6.746031746031746,-7.698412698412698,-321.8253968253968
191,325.0,325.0,325.0,-310.07936507936506,325.0,287.38095238095235,325.0,82.77777777777777,325.0,211.8253968253968,325.0,71.03174603174602,325.0,9.126984126984127,325.0,196.9047619047619,325.0,-325.0,40.714285714285715,15.317460317460316,-291.8253968253968,-6.746031746031746,-7.698412698412698,-321.8253968253968
192,325.0,118.96825396825396,196.58730158730157,-180.87301587301587,325.0,-71.03174603174602,325.0,-17.063492063492063,242.77777777777777,-207.38095238095238,325.0,-20.238095238095237,224.36507936507934,-112.14285714285714,325.0,-155.15873015873015,325.0,-325.0,39.92063492063492,15.158730158730158,75.31746031746032,9.444444444444445,5.7936507936507935,-321.8253968253968
193,325.0,118.96825396825396,196.58730158730157,-180.87301587301587,325.0,-71.03174603174602,325.0,-17.063492063492063,242.77777777777777,-207.38095238095238,325.0,-20.238095238095237,224.36507936507934,-112.14285714285714,325.0,-155.15873015873015,325.0,-325.0,39.92063492063492,15.158730158730158,75.31746031746032,9.444444444444445,5.7936507936507935,-321.8253968253968
194,325.0,325.0,325.0,-279.2857142857143,325.0,325.0,325.0,121.03174603174602,325.0,248.015873015873,325.0,117.38095238095238,325.0,16.11111111111111,325.0,237.69841269841268,325.0,-325.0,39.6031746031746,14.682539682539682,-325.0,-11.507936507936508,-8.174603174603174,-321.8253968253968
195,325.0,325.0,325.0,-279.2857142857143,325.0,325.0,325.0,121.03174603174602,325.0,248.015873015873,325.0,117.38095238095238,325.0,16.11111111111111,325.0,237.69841269841268,325.0,-325.0,39.6031746031746,14.682539682539682,-325.0,-11.507936507936508,-8.174603174603174,-321.8253968253968
196,325.0,325.0,83.57142857142857,-271.8253968253968,325.0,-77.06349206349206,325.0,-20.07936507936508,128.4920634920635,-220.3968253968254,325.0,-21.507936507936506,106.26984126984127,-123.4126984126984,251.19047619047618,-162.61904761904762,325.0,-325.0,38.96825396825397,14.523809523809524,116.9047619047619,9.920634920634921,5.7936507936507935,-321.8253968253968
197,325.0,325.0,83.57142857142857,-271.8253968253968,325.0,-77.06349206349206,325.0,-20.07936507936508,128.4920634920635,-220.3968253968254,325.0,-21.507936507936506,106.26984126984127,-123.4126984126984,251.19047619047618,-162.61904761904762,325.0,-325.0,38.96825396825397,14.523809523809524,116.9047619047619,9.920634920634921,5.7936507936507935,-321.8253968253968
198,325.0,325.0,204.2063492063492,-298.4920634920635,325.0,80.23809523809523,325.0,17.539682539682538,226.74603174603175,-35.79365079365079,325.0,12.619047619047619,215.63492063492063,-60.55555555555555,288.015873015873,-13.412698412698411,325.0,-325.0,38.49206349206349,14.365079365079364,-41.507936507936506,4.523809523809524,-0.3968253968253968,-321.8253968253968
199,325.0,325.0,204.2063492063492,-298.4920634920635,325.0,80.23809523809523,325.0,17.539682539682538,226.74603174603175,-35.79365079365079,325.0,12.619047619047619,215.63492063492063,-60.55555555555555,288.015873015873,-13.412698412698411,325.0,-325.0,38.49206349206349,14.365079365079364,-41.507936507936506,4.523809523809524,-0.3968253968253968,-321.8253968253968
200,122.6190476190476,325.0,-181.03174603174602,-42.3015873015873,325.0,-68.01587301587301,307.85714285714283,-21.825396825396822,-158.33333333333331,-173.73015873015873,325.0,-23.57142857142857,-150.87301587301587,-79.6031746031746,-115.79365079365078,-121.03174603174602,325.0,-325.0,37.53968253968254,12.3015873015873,165.15873015873015,8.015873015873016,8.174603174603174,-166.26984126984127
201,122.6190476190476,325.0,-181.03174603174602,-42.3015873015873,325.0,-68.01587301587301,307.85714285714283,-21.825396825396822,-158.33333333333331,-173.73015873015873,325.0,-23.57142857142857,-150.87301587301587,-79.6031746031746,-115.79365079365078,-121.03174603174602,325.0,-325.0,37.53968253968254,12.3015873015873,165.15873015873015,8.015873015873016,8.174603174603174,-166.26984126984127
202,-276.74603174603175,325.0,-277.53968253968253,90.87301587301587,268.968253968254,325.0,172.14285714285714,133.73015873015873,-290.39682539682536,247.2222222222222,288.968253968254,125.31746031746032,-142.3015873015873,19.76190476190476,-299.1269841269841,231.5079365079365,290.87301587301585,-325.0,36.904761904761905,-207.85714285714283,116.1111111111111,-11.507936507936508,-8.174603174603174,-166.26984126984127
203,-276.74603174603175,325.0,-277.53968253968253,90.87301587301587,268.968253968254,325.0,172.14285714285714,133.73015873015873,-290.39682539682536,247.2222222222222,288.968253968254,125.31746031746032,-142.3015873015873,19.76190476190476,-299.1269841269841,231.5079365079365,290.87301587301585,-325.0,36.904761904761905,-207.85714285714283,116.1111111111111,-11.507936507936508,-8.174603174603174,-166.26984126984127
204,-300.87301587301585,252.46031746031744,-301.3492063492063,186.74603174603175,-28.015873015873016,131.34920634920636,-76.42857142857143,55.63492063492063,-307.69841269841265,70.39682539682539,-18.015873015873016,51.34920634920635,-233.7301587301587,-4.682539682539682,-312.1428571428571,85.15873015873015,-17.063492063492063,-325.0,36.42857142857142,-266.4285714285714,220.55555555555554,-4.2063492063492065,-0.23809523809523808,-166.26984126984127
205,-300.87301587301585,252.46031746031744,-301.3492063492063,186.74603174603175,-28.015873015873016,131.34920634920636,-76.42857142857143,55.63492063492063,-307.69841269841265,70.39682539682539,-18.015873015873016,51.34920634920635,-233.7301587301587,-4.682539682539682,-312.1428571428571,85.15873015873015,-17.063492063492063,-325.0,36.42857142857142,-266.4285714285714,220.55555555555554,-4.2063492063492065,-0.23809523809523808,-166.26984126984127
206,-325.0,325.0,-325.0,274.5238095238095,-325.0,279.1269841269841,-325.0,108.01587301587301,-325.0,204.2063492063492,-325.0,95.95238095238095,-325.0,18.333333333333332,-325.0,185.95238095238093,-325.0,-325.0,35.63492063492063,-325.0,325.0,-6.428571428571428,-8.333333333333332,-166.26984126984127
207,-325.0,325.0,-325.0,274.5238095238095,-325.0,279.1269841269841,-325.0,108.01587301587301,-325.0,204.2063492063492,-325.0,95.95238095238095,-325.0,18.333333333333332,-325.0,185.95238095238093,-325.0,-325.0,35.63492063492063,-325.0,325.0,-6.428571428571428,-8.333333333333332,-166.26984126984127
208,-325.0,64.36507936507937,-325.0,268.6507936507936,-325.0,-73.57142857142857,-325.0,-20.07936507936508,-325.0,-156.11111111111111,-325.0,-24.047619047619047,-325.0,-52.77777777777777,-325.0,-111.5079365079365,-325.0,-325.0,35.0,-325.0,325.0,5.7936507936507935,7.063492063492063,-166.26984126984127
209,-325.0,64.36507936507937,-325.0,268.6507936507936,-325.0,-73.57142857142857,-325.0,-20.07936507936508,-325.0,-156.11111111111111,-325.0,-24.047619047619047,-325.0,-52.77777777777777,-325.0,-111.5079365079365,-325.0,-325.0,35.0,-325.0,325.0,5.7936507936507935,7.063492063492063,-166.26984126984127
210,-325.0,325.0,-325.0,263.73015873015873,-325.0,278.968253968254,-325.0,114.68253968253967,-325.0,208.65079365079364,-325.0,96.58730158730158,-325.0,19.126984126984127,-325.0,191.5079365079365,-325.0,-325.0,34.2063492063492,-325.0,325.0,-6.746031746031746,-8.174603174603174,-321.8253968253968
211,-325.0,325.0,-325.0,263.73015873015873,-325.0,278.968253968254,-325.0,114.68253968253967,-325.0,208.65079365079364,-325.0,96.58730158730158,-325.0,19.126984126984127,-325.0,191.5079365079365,-325.0,-325.0,34.2063492063492,-325.0,325.0,-6.746031746031746,-8.174603174603174,-321.8253968253968
212,-325.0,325.0,-325.0,259.9206349206349,-325.0,-93.25396825396825,-325.0,-20.555555555555554,-325.0,-220.7142857142857,-325.0,-24.047619047619047,-325.0,-72.3015873015873,-325.0,-166.74603174603175,-325.0,-325.0,33.888888888888886,-325.0,325.0,8.968253968253968,6.587301587301587,-321.8253968253968
213,-325.0,325.0,-325.0,259.9206349206349,-325.0,-93.25396825396825,-325.0,-20.555555555555554,-325.0,-220.7142857142857,-325.0,-24.047619047619047,-325.0,-72.3015873015873,-325.0,-166.74603174603175,-325.0,-325.0,33.888888888888886,-325.0,325.0,8.968253968253968,6.587301587301587,-321.8253968253968
214,-325.0,296.4285714285714,-325.0,253.57142857142856,-325.0,275.4761904761905,-325.0,108.80952380952381,-325.0,192.93650793650792,-325.0,100.07936507936508,-325.0,20.555555555555554,-325.0,179.9206349206349,-325.0,-325.0,33.25396825396825,-325.0,325.0,-6.111111111111111,-8.809523809523808,-321.8253968253968
215,-325.0,296.4285714285714,-325.0,253.57142857142856,-325.0,275.4761904761905,-325.0,108.80952380952381,-325.0,192.93650793650792,-325.0,100.07936507936508,-325.0,20.555555555555554,-325.0,179.9206349206349,-325.0,-325.0,33.25396825396825,-325.0,325.0,-6.111111111111111,-8.809523809523808,-321.8253968253968
216,-325.0,-206.1111111111111,-325.0,250.2380952380952,-325.0,-99.44444444444444,-325.0,-25.158730158730158,-325.0,-232.6190476190476,-325.0,-27.698412698412696,-325.0,-76.1111111111111,-325.0,-171.984126984127,-325.0,-325.0,33.095238095238095,-325.0,325.0,8.809523809523808,5.7936507936507935,-321.8253968253968
217,-325.0,-206.1111111111111,-325.0,250.2380952380952,-325.0,-99.44444444444444,-325.0,-25.158730158730158,-325.0,-232.6190476190476,-325.0,-27.698412698412696,-325.0,-76.1111111111111,-325.0,-171.984126984127,-325.0,-325.0,33.095238095238095,-325.0,325.0,8.809523809523808,5.7936507936507935,-321.8253968253968
218,-325.0,124.2063492063492,-325.0,245.47619047619045,-325.0,325.0,-325.0,145.79365079365078,-325.0,237.06349206349205,-325.0,149.9206349206349,-325.0,24.523809523809522,-325.0,224.36507936507934,-325.0,-325.0,32.3015873015873,-325.0,325.0,-11.825396825396824,-9.761904761904761,-321.8253968253968
219,-325.0,124.2063492063492,-325.0,245.47619047619045,-325.0,325.0,-325.0,145.79365079365078,-325.0,237.06349206349205,-325.0,149.9206349206349,-325.0,24.523809523809522,-325.0,224.36507936507934,-325.0,-325.0,32.3015873015873,-325.0,325.0,-11.825396825396824,-9.761904761904761,-321.8253968253968
220,-325.0,-279.1269841269841,-325.0,241.03174603174602,-325.0,-105.79365079365078,-325.0,-26.428571428571427,-325.0,-251.03174603174602,-325.0,-28.96825396825397,-325.0,-94.36507936507935,-325.0,-189.12698412698413,-325.0,-325.0,31.666666666666664,-325.0,325.0,9.285714285714285,7.222222222222221,-166.26984126984127
221,-325.0,-279.1269841269841,-325.0,241.03174603174602,-325.0,-105.79365079365078,-325.0,-26.428571428571427,-325.0,-251.03174603174602,-325.0,-28.96825396825397,-325.0,-94.36507936507935,-325.0,-189.12698412698413,-325.0,-325.0,31.666666666666664,-325.0,325.0,9.285714285714285,7.222222222222221,-166.26984126984127
222,-325.0,60.238095238095234,-325.0,235.3174603174603,-325.0,263.57142857142856,-325.0,97.38095238095238,-325.0,168.8095238095238,-325.0,98.65079365079364,-325.0,16.587301587301585,-325.0,159.6031746031746,-325.0,-325.0,31.19047619047619,-325.0,325.0,-6.587301587301587,-8.015873015873016,-166.26984126984127
223,-325.0,60.238095238095234,-325.0,235.3174603174603,-325.0,263.57142857142856,-325.0,97.38095238095238,-325.0,168.8095238095238,-325.0,98.65079365079364,-325.0,16.587301587301585,-325.0,159.6031746031746,-325.0,-325.0,31.19047619047619,-325.0,325.0,-6.587301587301587,-8.015873015873016,-166.26984126984127
224,-325.0,-325.0,-325.0,230.87301587301587,-325.0,-88.33333333333333,-325.0,-29.126984126984127,-325.0,-201.03174603174602,-325.0,-27.698412698412696,-325.0,-70.23809523809524,-325.0,-138.96825396825395,-325.0,-323.25396825396825,30.555555555555554,-325.0,320.39682539682536,5.952380952380952,7.857142857142857,-166.26984126984127
225,-325.0,-325.0,-325.0,230.87301587301587,-325.0,-88.33333333333333,-325.0,-29.126984126984127,-325.0,-201.03174603174602,-325.0,-27.698412698412696,-325.0,-70.23809523809524,-325.0,-138.96825396825395,-325.0,-323.25396825396825,30.555555555555554,-325.0,320.39682539682536,5.952380952380952,7.857142857142857,-166.26984126984127
226,-325.0,132.3015873015873,-325.0,226.26984126984127,-325.0,270.55555555555554,-325.0,107.53968253968253,-325.0,167.06349206349205,-325.0,106.58730158730158,-325.0,17.22222222222222,-325.0,160.07936507936506,-325.0,-318.17460317460313,29.920634920634917,-325.0,314.5238095238095,-6.746031746031746,-8.015873015873016,-166.26984126984127
227,-325.0,132.3015873015873,-325.0,226.26984126984127,-325.0,270.55555555555554,-325.0,107.53968253968253,-325.0,167.06349206349205,-325.0,106.58730158730158,-325.0,17.22222222222222,-325.0,160.07936507936506,-325.0,-318.17460317460313,29.920634920634917,-325.0,314.5238095238095,-6.746031746031746,-8.015873015873016,-166.26984126984127
228,-325.0,-94.04761904761904,-325.0,223.25396825396825,-325.0,-111.19047619047619,-325.0,-28.809523809523807,-325.0,-270.87301587301585,-325.0,-30.71428571428571,-325.0,-104.04761904761904,-325.0,-201.66666666666666,-325.0,-314.36507936507934,29.76190476190476,-325.0,310.23809523809524,10.238095238095237,7.3809523809523805,-166.26984126984127
229,-325.0,-94.04761904761904,-325.0,223.25396825396825,-325.0,-111.19047619047619,-325.0,-28.809523809523807,-325.0,-270.87301587301585,-325.0,-30.71428571428571,-325.0,-104.04761904761904,-325.0,-201.66666666666666,-325.0,-314.36507936507934,29.76190476190476,-325.0,310.23809523809524,10.238095238095237,7.3809523809523805,-166.26984126984127
230,-325.0,288.17460317460313,-325.0,217.85714285714283,-325.0,275.6349206349206,-325.0,119.12698412698413,-325.0,173.4126984126984,-325.0,115.79365079365078,-325.0,16.587301587301585,-325.0,165.79365079365078,-325.0,-307.85714285714283,29.126984126984127,-325.0,302.77777777777777,-6.111111111111111,-8.968253968253968,-321.8253968253968
231,-325.0,288.17460317460313,-325.0,217.85714285714283,-325.0,275.6349206349206,-325.0,119.12698412698413,-325.0,173.4126984126984,-325.0,115.79365079365078,-325.0,16.587301587301585,-325.0,165.79365079365078,-325.0,-307.85714285714283,29.126984126984127,-325.0,302.77777777777777,-6.111111111111111,-8.968253968253968,-321.8253968253968
232,-325.0,-202.46031746031744,-325.0,215.15873015873015,-325.0,-111.66666666666666,-325.0,-26.9047619047619,-325.0,-250.55555555555554,-325.0,-30.555555555555554,-325.0,-98.17460317460316,-325.0,-183.09523809523807,-325.0,-304.04761904761904,28.96825396825397,-325.0,298.8095238095238,9.761904761904761,7.222222222222221,-321.8253968253968
233,-325.0,-202.46031746031744,-325.0,215.15873015873015,-325.0,-111.66666666666666,-325.0,-26.9047619047619,-325.0,-250.55555555555554,-325.0,-30.555555555555554,-325.0,-98.17460317460316,-325.0,-183.09523809523807,-325.0,-304.04761904761904,28.96825396825397,-325.0,298.8095238095238,9.761904761904761,7.222222222222221,-321.8253968253968
234,-325.0,231.8253968253968,-325.0,209.9206349206349,-325.0,270.07936507936506,-325.0,118.01587301587301,-325.0,170.7142857142857,-325.0,111.34920634920634,-325.0,16.26984126984127,-325.0,163.09523809523807,-325.0,-298.015873015873,28.174603174603174,-325.0,291.984126984127,-5.634920634920634,-7.857142857142857,-321.8253968253968
235,-325.0,231.8253968253968,-325.0,209.9206349206349,-325.0,270.07936507936506,-325.0,118.01587301587301,-325.0,170.7142857142857,-325.0,111.34920634920634,-325.0,16.26984126984127,-325.0,163.09523809523807,-325.0,-298.015873015873,28.174603174603174,-325.0,291.984126984127,-5.634920634920634,-7.857142857142857,-321.8253968253968
236,-325.0,-253.88888888888889,-325.0,206.74603174603175,-325.0,-118.17460317460316,-325.0,-29.6031746031746,-325.0,-264.5238095238095,-325.0,-33.888888888888886,-325.0,-116.42857142857142,-325.0,-197.85714285714283,-325.0,-294.36507936507934,27.857142857142854,-325.0,288.17460317460313,10.555555555555555,8.015873015873016,-321.8253968253968
237,-325.0,-253.88888888888889,-325.0,206.74603174603175,-325.0,-118.17460317460316,-325.0,-29.6031746031746,-325.0,-264.5238095238095,-325.0,-33.888888888888886,-325.0,-116.42857142857142,-325.0,-197.85714285714283,-325.0,-294.36507936507934,27.857142857142854,-325.0,288.17460317460313,10.555555555555555,8.015873015873016,-321.8253968253968
238,-325.0,274.36507936507934,-325.0,201.98412698412696,-325.0,260.39682539682536,-325.0,111.82539682539682,-325.0,165.95238095238093,-325.0,110.39682539682539,-325.0,11.19047619047619,-325.0,151.5079365079365,-325.0,-288.4920634920635,27.22222222222222,-325.0,281.5079365079365,-6.111111111111111,-8.65079365079365,-321.8253968253968
239,-325.0,274.36507936507934,-325.0,201.98412698412696,-325.0,260.39682539682536,-325.0,111.82539682539682,-325.0,165.95238095238093,-325.0,110.39682539682539,-325.0,11.19047619047619,-325.0,151.5079365079365,-325.0,-288.4920634920635,27.22222222222222,-325.0,281.5079365079365,-6.111111111111111,-8.65079365079365,-321.8253968253968
240,-325.0,-94.2063492063492,-325.0,199.12698412698413,-325.0,-128.17460317460316,-325.0,-33.095238095238095,-325.0,-278.17460317460313,-325.0,-35.317460317460316,-325.0,-130.87301587301587,-325.0,-219.28571428571428,-325.0,-285.0,26.9047619047619,-325.0,277.38095238095235,10.238095238095237,6.904761904761904,-166.26984126984127
241,-325.0,-94.2063492063492,-325.0,199.12698412698413,-325.0,-128.17460317460316,-325.0,-33.095238095238095,-325.0,-278.17460317460313,-325.0,-35.317460317460316,-325.0,-130.87301587301587,-325.0,-219.28571428571428,-325.0,-285.0,26.9047619047619,-325.0,277.38095238095235,10.238095238095237,6.904761904761904,-166.26984126984127
242,-325.0,-94.2063492063492,-325.0,199.12698412698413,-325.0,-128.17460317460316,-325.0,-33.095238095238095,-325.0,-278.17460317460313,-325.0,-35.317460317460316,-325.0,-130.87301587301587,-325.0,-219.28571428571428,-325.0,-285.0,26.9047619047619,-325.0,277.38095238095235,10.238095238095237,6.904761904761904,-166.26984126984127
243,-325.0,-94.2063492063492,-325.0,199.12698412698413,-325.0,-128.17460317460316,-325.0,-33.095238095238095,-325.0,-278.17460317460313,-325.0,-35.317460317460316,-325.0,-130.87301587301587,-325.0,-219.28571428571428,-325.0,-285.0,26.9047619047619,-325.0,277.38095238095235,10.238095238095237,6.904761904761904,-166.26984126984127
244,-325.0,-325.0,-325.0,191.8253968253968,-325.0,-129.6031746031746,-325.0,-34.36507936507936,-325.0,-275.7936507936508,-325.0,-36.58730158730159,-325.0,-129.6031746031746,-325.0,-213.88888888888889,-325.0,-275.7936507936508,26.11111111111111,-325.0,267.22222222222223,10.555555555555555,7.698412698412698,-166.26984126984127
245,-325.0,-325.0,-325.0,191.8253968253968,-325.0,-129.6031746031746,-325.0,-34.36507936507936,-325.0,-275.7936507936508,-325.0,-36.58730158730159,-325.0,-129.6031746031746,-325.0,-213.88888888888889,-325.0,-275.7936507936508,26.11111111111111,-325.0,267.22222222222223,10.555555555555555,7.698412698412698,-166.26984126984127
246,-325.0,16.904761904761905,-325.0,187.06349206349205,-325.0,265.6349206349206,-325.0,122.46031746031746,-325.0,167.85714285714286,-325.0,121.03174603174602,-325.0,12.3015873015873,-325.0,151.34920634920633,-325.0,-270.23809523809524,25.476190476190474,-325.0,261.031746031746,-6.587301587301587,-7.698412698412698,-166.26984126984127
247,-325.0,16.904761904761905,-325.0,187.06349206349205,-325.0,265.6349206349206,-325.0,122.46031746031746,-325.0,167.85714285714286,-325.0,121.03174603174602,-325.0,12.3015873015873,-325.0,151.34920634920633,-325.0,-270.23809523809524,25.476190476190474,-325.0,261.031746031746,-6.587301587301587,-7.698412698412698,-166.26984126984127
248,-325.0,-262.6190476190476,-325.0,184.68253968253967,-325.0,-127.85714285714285,-325.0,-32.460317460317455,-325.0,-271.031746031746,-325.0,-36.74603174603175,-325.0,-144.2063492063492,-325.0,-214.52380952380952,-325.0,-266.90476190476187,25.476190476190474,-325.0,257.53968253968253,10.238095238095237,8.492063492063492,-166.26984126984127
249,-325.0,-262.6190476190476,-325.0,184.68253968253967,-325.0,-127.85714285714285,-325.0,-32.460317460317455,-325.0,-271.031746031746,-325.0,-36.74603174603175,-325.0,-144.2063492063492,-325.0,-214.52380952380952,-325.0,-266.90476190476187,25.476190476190474,-325.0,257.53968253968253,10.238095238095237,8.492063492063492,-166.26984126984127
250,-325.0,325.0,-325.0,180.3968253968254,-325.0,263.73015873015873,-325.0,127.38095238095238,-325.0,171.34920634920633,-325.0,121.34920634920634,-325.0,13.73015873015873,-325.0,151.5079365079365,-325.0,-261.66666666666663,24.84126984126984,-325.0,251.5079365079365,-6.428571428571428,-8.65079365079365,-321.8253968253968
251,-325.0,325.0,-325.0,180.3968253968254,-325.0,263.73015873015873,-325.0,127.38095238095238,-325.0,171.34920634920633,-325.0,121.34920634920634,-325.0,13.73015873015873,-325.0,151.5079365079365,-325.0,-261.66666666666663,24.84126984126984,-325.0,251.5079365079365,-6.428571428571428,-8.65079365079365,-321.8253968253968
252,-325.0,-53.25396825396825,-325.0,177.69841269841268,-325.0,-133.25396825396825,-325.0,-34.682539682539684,-325.0,-274.36507936507934,-325.0,-39.92063492063492,-325.0,-137.69841269841268,-325.0,-218.17460317460316,-325.0,-258.3333333333333,24.365079365079364,-325.0,248.17460317460316,11.031746031746032,7.222222222222221,-321.8253968253968
253,-325.0,-53.25396825396825,-325.0,177.69841269841268,-325.0,-133.25396825396825,-325.0,-34.682539682539684,-325.0,-274.36507936507934,-325.0,-39.92063492063492,-325.0,-137.69841269841268,-325.0,-218.17460317460316,-325.0,-258.3333333333333,24.365079365079364,-325.0,248.17460317460316,11.031746031746032,7.222222222222221,-321.8253968253968
254,-325.0,325.0,-325.0,173.4126984126984,-325.0,265.3174603174603,-325.0,128.17460317460316,-325.0,166.9047619047619,-325.0,129.44444444444443,-325.0,13.571428571428571,-325.0,145.3174603174603,-325.0,-253.09523809523807,23.88888888888889,-325.0,242.46031746031744,-6.111111111111111,-7.3809523809523805,-321.8253968253968
255,-325.0,325.0,-325.0,173.4126984126984,-325.0,265.3174603174603,-325.0,128.17460317460316,-325.0,166.9047619047619,-325.0,129.44444444444443,-325.0,13.571428571428571,-325.0,145.3174603174603,-325.0,-253.09523809523807,23.88888888888889,-325.0,242.46031746031744,-6.111111111111111,-7.3809523809523805,-321.8253968253968
256,-325.0,-65.95238095238095,-325.0,171.34920634920633,-325.0,-133.0952380952381,-325.0,-36.904761904761905,-325.0,-269.2857142857143,-325.0,-40.39682539682539,-325.0,-136.74603174603175,-325.0,-216.9047619047619,-325.0,-250.07936507936506,23.730158730158728,-325.0,239.12698412698413,9.761904761904761,7.857142857142857,-321.8253968253968
257,-325.0,-65.95238095238095,-325.0,171.34920634920633,-325.0,-133.0952380952381,-325.0,-36.904761904761905,-325.0,-269.2857142857143,-325.0,-40.39682539682539,-325.0,-136.74603174603175,-325.0,-216.9047619047619,-325.0,-250.07936507936506,23.730158730158728,-325.0,239.12698412698413,9.761904761904761,7.857142857142857,-321.8253968253968
258,-325.0,247.06349206349205,-325.0,167.06349206349205,-325.0,260.23809523809524,-325.0,130.3968253968254,-325.0,169.60317460317458,-325.0,125.31746031746032,-325.0,10.555555555555555,-325.0,144.36507936507937,-325.0,-245.15873015873015,23.095238095238095,-325.0,233.57142857142856,-6.111111111111111,-8.015873015873016,-321.8253968253968
259,-325.0,247.06349206349205,-325.0,167.06349206349205,-325.0,260.23809523809524,-325.0,130.3968253968254,-325.0,169.60317460317458,-325.0,125.31746031746032,-325.0,10.555555555555555,-325.0,144.36507936507937,-325.0,-245.15873015873015,23.095238095238095,-325.0,233.57142857142856,-6.111111111111111,-8.015873015873016,-321.8253968253968
260,-325.0,-267.53968253968253,-325.0,165.0,-325.0,-141.03174603174602,-325.0,-39.285714285714285,-325.0,-277.53968253968253,-325.0,-43.73015873015873,-325.0,-163.25396825396825,-325.0,-226.58730158730157,-325.0,-242.3015873015873,22.936507936507937,-325.0,230.3968253968254,10.714285714285714,8.492063492063492,-166.26984126984127
261,-325.0,-267.53968253968253,-325.0,165.0,-325.0,-141.03174603174602,-325.0,-39.285714285714285,-325.0,-277.53968253968253,-325.0,-43.73015873015873,-325.0,-163.25396825396825,-325.0,-226.58730158730157,-325.0,-242.3015873015873,22.936507936507937,-325.0,230.3968253968254,10.714285714285714,8.492063492063492,-166.26984126984127
262,-325.0,-180.07936507936506,-325.0,162.61904761904762,-325.0,34.682539682539684,-325.0,25.79365079365079,-325.0,-92.30158730158729,-325.0,16.746031746031743,-325.0,-91.19047619047619,-325.0,-77.53968253968253,-325.0,-239.28571428571428,22.619047619047617,-325.0,226.9047619047619,5.317460317460317,1.8253968253968254,-166.26984126984127
263,-325.0,-180.07936507936506,-325.0,162.61904761904762,-325.0,34.682539682539684,-325.0,25.79365079365079,-325.0,-92.30158730158729,-325.0,16.746031746031743,-325.0,-91.19047619047619,-325.0,-77.53968253968253,-325.0,-239.28571428571428,22.619047619047617,-325.0,226.9047619047619,5.317460317460317,1.8253968253968254,-166.26984126984127
264,-325.0,-325.0,-325.0,158.8095238095238,-325.0,-136.42857142857142,-325.0,-37.22222222222222,-325.0,-275.4761904761905,-325.0,-42.3015873015873,-325.0,-170.07936507936506,-325.0,-225.95238095238093,-325.0,-234.2063492063492,22.142857142857142,-325.0,221.98412698412696,9.444444444444445,8.809523809523808,-166.26984126984127
265,-325.0,-325.0,-325.0,158.8095238095238,-325.0,-136.42857142857142,-325.0,-37.22222222222222,-325.0,-275.4761904761905,-325.0,-42.3015873015873,-325.0,-170.07936507936506,-325.0,-225.95238095238093,-325.0,-234.2063492063492,22.142857142857142,-325.0,221.98412698412696,9.444444444444445,8.809523809523808,-166.26984126984127
266,-325.0,-88.80952380952381,-325.0,155.0,-325.0,265.4761904761905,-325.0,143.73015873015873,-325.0,164.84126984126982,-325.0,142.93650793650792,-325.0,9.126984126984127,-325.0,140.07936507936506,-325.0,-229.60317460317458,21.666666666666664,-325.0,215.63492063492063,-5.634920634920634,-7.5396825396825395,-166.26984126984127
267,-325.0,-88.80952380952381,-325.0,155.0,-325.0,265.4761904761905,-325.0,143.73015873015873,-325.0,164.84126984126982,-325.0,142.93650793650792,-325.0,9.126984126984127,-325.0,140.07936507936506,-325.0,-229.60317460317458,21.666666666666664,-325.0,215.63492063492063,-5.634920634920634,-7.5396825396825395,-166.26984126984127
268,-325.0,-241.98412698412696,-323.25396825396825,150.7142857142857,-325.0,151.19047619047618,-325.0,85.47619047619047,-325.0,70.07936507936508,-325.0,92.46031746031746,-325.0,-3.888888888888889,-325.0,66.74603174603175,-325.0,-223.7301587301587,21.19047619047619,-325.0,208.96825396825395,-5.158730158730158,-1.6666666666666665,-166.26984126984127
269,-325.0,-241.98412698412696,-323.25396825396825,150.7142857142857,-325.0,151.19047619047618,-325.0,85.47619047619047,-325.0,70.07936507936508,-325.0,92.46031746031746,-325.0,-3.888888888888889,-325.0,66.74603174603175,-325.0,-223.7301587301587,21.19047619047619,-325.0,208.96825396825395,-5.158730158730158,-1.6666666666666665,-166.26984126984127
270,-325.0,-318.4920634920635,-317.85714285714283,147.69841269841268,-325.0,20.71428571428571,-325.0,16.746031746031743,-322.77777777777777,-107.6984126984127,-325.0,9.920634920634921,-321.8253968253968,-98.65079365079364,-325.0,-96.1111111111111,-325.0,-220.2380952380952,20.873015873015873,-297.6984126984127,206.42857142857142,5.158730158730158,1.1904761904761905,-321.8253968253968
271,-325.0,-318.4920634920635,-317.85714285714283,147.69841269841268,-325.0,20.71428571428571,-325.0,16.746031746031743,-322.77777777777777,-107.6984126984127,-325.0,9.920634920634921,-321.8253968253968,-98.65079365079364,-325.0,-96.1111111111111,-325.0,-220.2380952380952,20.873015873015873,-297.6984126984127,206.42857142857142,5.158730158730158,1.1904761904761905,-321.8253968253968
272,-325.0,-325.0,-316.4285714285714,147.06349206349205,-325.0,-148.4920634920635,-325.0,-44.84126984126984,-321.19047619047615,-284.68253968253964,-325.0,-48.80952380952381,-320.23809523809524,-173.4126984126984,-325.0,-237.85714285714283,-325.0,-219.28571428571428,20.71428571428571,-270.23809523809524,206.1111111111111,10.396825396825395,8.015873015873016,-321.8253968253968
273,-325.0,-325.0,-316.4285714285714,147.06349206349205,-325.0,-148.4920634920635,-325.0,-44.84126984126984,-321.19047619047615,-284.68253968253964,-325.0,-48.80952380952381,-320.23809523809524,-173.4126984126984,-325.0,-237.85714285714283,-325.0,-219.28571428571428,20.71428571428571,-270.23809523809524,206.1111111111111,10.396825396825395,8.015873015873016,-321.8253968253968
274,-319.1269841269841,-318.17460317460313,-307.22222222222223,142.3015873015873,-325.0,28.015873015873016,-325.0,23.88888888888889,-311.984126984127,-99.44444444444444,-325.0,11.984126984126984,-310.87301587301585,-101.34920634920634,-321.5079365079365,-87.53968253968253,-325.0,-213.25396825396825,20.07936507936508,-279.1269841269841,198.8095238095238,4.682539682539682,0.7142857142857142,-321.8253968253968
275,-319.1269841269841,-318.17460317460313,-307.22222222222223,142.3015873015873,-325.0,28.015873015873016,-325.0,23.88888888888889,-311.984126984127,-99.44444444444444,-325.0,11.984126984126984,-310.87301587301585,-101.34920634920634,-321.5079365079365,-87.53968253968253,-325.0,-213.25396825396825,20.07936507936508,-279.1269841269841,198.8095238095238,4.682539682539682,0.7142857142857142,-321.8253968253968
276,-314.8412698412698,-254.68253968253967,-303.0952380952381,140.23809523809524,-325.0,89.28571428571428,-323.4126984126984,81.5079365079365,-308.17460317460313,-14.047619047619047,-325.0,80.23809523809523,-306.74603174603175,-67.22222222222221,-317.53968253968253,-11.19047619047619,-308.015873015873,-209.44444444444443,19.76190476190476,-279.1269841269841,193.88888888888889,-1.1904761904761905,-0.873015873015873,-321.8253968253968
277,-314.8412698412698,-254.68253968253967,-303.0952380952381,140.23809523809524,-325.0,89.28571428571428,-323.4126984126984,81.5079365079365,-308.17460317460313,-14.047619047619047,-325.0,80.23809523809523,-306.74603174603175,-67.22222222222221,-317.53968253968253,-11.19047619047619,-308.015873015873,-209.44444444444443,19.76190476190476,-279.1269841269841,193.88888888888889,-1.1904761904761905,-0.873015873015873,-321.8253968253968
278,-308.015873015873,-324.36507936507934,-296.74603174603175,136.9047619047619,-322.77777777777777,20.555555555555554,-317.85714285714283,22.142857142857142,-301.66666666666663,-105.31746031746032,-325.0,9.444444444444445,-300.39682539682536,-102.30158730158729,-311.031746031746,-94.84126984126983,-325.0,-205.95238095238093,19.6031746031746,-269.2857142857143,191.5079365079365,4.841269841269841,1.0317460317460316,-321.8253968253968
279,-308.015873015873,-324.36507936507934,-296.74603174603175,136.9047619047619,-322.77777777777777,20.555555555555554,-317.85714285714283,22.142857142857142,-301.66666666666663,-105.31746031746032,-325.0,9.444444444444445,-300.39682539682536,-102.30158730158729,-311.031746031746,-94.84126984126983,-325.0,-205.95238095238093,19.6031746031746,-269.2857142857143,191.5079365079365,4.841269841269841,1.0317460317460316,-321.8253968253968
280,-306.58730158730157,-325.0,-295.3174603174603,136.26984126984127,-321.3492063492063,-152.46031746031744,-316.4285714285714,-46.58730158730158,-300.23809523809524,-286.26984126984127,-325.0,-52.93650793650794,-298.968253968254,-180.07936507936506,-309.76190476190476,-239.60317460317458,-325.0,-205.3174603174603,19.6031746031746,-213.57142857142856,191.66666666666666,9.603174603174603,8.174603174603174,-166.26984126984127
281,-306.58730158730157,-325.0,-295.3174603174603,136.26984126984127,-321.3492063492063,-152.46031746031744,-316.4285714285714,-46.58730158730158,-300.23809523809524,-286.26984126984127,-325.0,-52.93650793650794,-298.968253968254,-180.07936507936506,-309.76190476190476,-239.60317460317458,-325.0,-205.3174603174603,19.6031746031746,-213.57142857142856,191.66666666666666,9.603174603174603,8.174603174603174,-166.26984126984127
282,-301.3492063492063,-144.2063492063492,-290.39682539682536,133.73015873015873,-316.1111111111111,-156.42857142857142,-311.19047619047615,-49.285714285714285,-295.3174603174603,-293.4126984126984,-320.55555555555554,-54.52380952380952,-294.04761904761904,-184.84126984126982,-304.68253968253964,-244.04761904761904,-325.0,-202.14285714285714,19.126984126984127,-204.04761904761904,188.17460317460316,9.761904761904761,8.333333333333332,-166.26984126984127
283,-301.3492063492063,-144.2063492063492,-290.39682539682536,133.73015873015873,-316.1111111111111,-156.42857142857142,-311.19047619047615,-49.285714285714285,-295.3174603174603,-293.4126984126984,-320.55555555555554,-54.52380952380952,-294.04761904761904,-184.84126984126982,-304.68253968253964,-244.04761904761904,-325.0,-202.14285714285714,19.126984126984127,-204.04761904761904,188.17460317460316,9.761904761904761,8.333333333333332,-166.26984126984127
284,-296.1111111111111,36.74603174603175,-285.3174603174603,131.34920634920636,-310.87301587301585,-160.23809523809524,-305.7936507936508,-51.82539682539682,-290.23809523809524,-300.55555555555554,-316.1111111111111,-55.95238095238095,-288.968253968254,-189.60317460317458,-299.6031746031746,-248.33333333333331,-325.0,-198.8095238095238,18.80952380952381,-194.52380952380952,184.84126984126982,10.079365079365079,8.65079365079365,-166.26984126984127
285,-296.1111111111111,36.74603174603175,-285.3174603174603,131.34920634920636,-310.87301587301585,-160.23809523809524,-305.7936507936508,-51.82539682539682,-290.23809523809524,-300.55555555555554,-316.1111111111111,-55.95238095238095,-288.968253968254,-189.60317460317458,-299.6031746031746,-248.33333333333331,-325.0,-198.8095238095238,18.80952380952381,-194.52380952380952,184.84126984126982,10.079365079365079,8.65079365079365,-166.26984126984127
286,-291.031746031746,180.87301587301587,-280.55555555555554,128.65079365079364,-305.7936507936508,-158.96825396825395,-300.7142857142857,-51.507936507936506,-285.4761904761905,-298.6507936507936,-311.031746031746,-56.269841269841265,-284.2063492063492,-193.7301587301587,-294.68253968253964,-246.42857142857142,-325.0,-195.63492063492063,18.49206349206349,-180.07936507936506,181.34920634920633,10.396825396825395,8.492063492063492,-166.26984126984127
287,-291.031746031746,180.87301587301587,-280.55555555555554,128.65079365079364,-305.7936507936508,-158.96825396825395,-300.7142857142857,-51.507936507936506,-285.4761904761905,-298.6507936507936,-311.031746031746,-56.269841269841265,-284.2063492063492,-193.7301587301587,-294.68253968253964,-246.42857142857142,-325.0,-195.63492063492063,18.49206349206349,-180.07936507936506,181.34920634920633,10.396825396825395,8.492063492063492,-166.26984126984127
288,-285.7936507936508,325.0,-275.7936507936508,126.1111111111111,-300.7142857142857,-157.53968253968253,-295.4761904761905,-51.03174603174603,-280.7142857142857,-296.58730158730157,-305.7936507936508,-56.42857142857142,-279.2857142857143,-197.69841269841268,-289.6031746031746,-244.52380952380952,-325.0,-192.3015873015873,18.174603174603174,-165.47619047619045,178.015873015873,10.714285714285714,8.492063492063492,-166.26984126984127
289,-285.7936507936508,325.0,-275.7936507936508,126.1111111111111,-300.7142857142857,-157.53968253968253,-295.4761904761905,-51.03174603174603,-280.7142857142857,-296.58730158730157,-305.7936507936508,-56.42857142857142,-279.2857142857143,-197.69841269841268,-289.6031746031746,-244.52380952380952,-325.0,-192.3015873015873,18.174603174603174,-165.47619047619045,178.015873015873,10.714285714285714,8.492063492063492,-166.26984126984127
290,-285.7936507936508,325.0,-275.7936507936508,126.1111111111111,-300.7142857142857,-157.53968253968253,-295.4761904761905,-51.03174603174603,-280.7142857142857,-296.58730158730157,-305.7936507936508,-56.42857142857142,-279.2857142857143,-197.69841269841268,-289.6031746031746,-244.52380952380952,-325.0,-192.3015873015873,18.174603174603174,-165.47619047619045,178.015873015873,10.714285714285714,8.492063492063492,-321.8253968253968
291,-285.7936507936508,325.0,-275.7936507936508,126.1111111111111,-300.7142857142857,-157.53968253968253,-295.4761904761905,-51.03174603174603,-280.7142857142857,-296.58730158730157,-305.7936507936508,-56.42857142857142,-279.2857142857143,-197.69841269841268,-289.6031746031746,-244.52380952380952,-325.0,-192.3015873015873,18.174603174603174,-165.47619047619045,178.015873015873,10.714285714285714,8.492063492063492,-321.8253968253968
292,-285.7936507936508,325.0,-275.7936507936508,126.1111111111111,-300.7142857142857,-157.53968253968253,-295.4761904761905,-51.03174603174603,-280.7142857142857,-296.58730158730157,-305.7936507936508,-56.42857142857142,-279.2857142857143,-197.69841269841268,-289.6031746031746,-244.52380952380952,-325.0,-192.3015873015873,18.174603174603174,-165.47619047619045,178.015873015873,10.714285714285714,8.492063492063492,-321.8253968253968
293,-285.7936507936508,325.0,-275.7936507936508,126.1111111111111,-300.7142857142857,-157.53968253968253,-295.4761904761905,-51.03174603174603,-280.7142857142857,-296.58730158730157,-305.7936507936508,-56.42857142857142,-279.2857142857143,-197.69841269841268,-289.6031746031746,-244.52380952380952,-325.0,-192.3015873015873,18.174603174603174,-165.47619047619045,178.015873015873,10.714285714285714,8.492063492063492,-321.8253968253968
294,-254.84126984126982,325.0,-246.1111111111111,111.66666666666666,-270.55555555555554,12.142857142857142,-263.88888888888886,1.8253968253968254,-251.19047619047618,-77.06349206349206,-258.8095238095238,5.634920634920634,-249.44444444444443,-37.06349206349206,-259.6031746031746,-54.52380952380952,-177.06349206349205,-125.31746031746032,16.26984126984127,-218.65079365079364,158.33333333333331,0.23809523809523808,5.7936507936507935,-321.8253968253968
295,-254.84126984126982,325.0,-246.1111111111111,111.66666666666666,-270.55555555555554,12.142857142857142,-263.88888888888886,1.8253968253968254,-251.19047619047618,-77.06349206349206,-258.8095238095238,5.634920634920634,-249.44444444444443,-37.06349206349206,-259.6031746031746,-54.52380952380952,-177.06349206349205,-125.31746031746032,16.26984126984127,-218.65079365079364,158.33333333333331,0.23809523809523808,5.7936507936507935,-321.8253968253968
296,-229.60317460317458,325.0,-220.3968253968254,98.49206349206348,-164.04761904761904,168.4920634920635,-210.2380952380952,124.36507936507935,-227.38095238095238,90.87301587301587,28.65079365079365,136.42857142857142,-207.69841269841268,15.317460317460316,-235.47619047619045,71.03174603174602,73.88888888888889,99.76190476190476,14.84126984126984,-226.74603174603175,104.36507936507935,-5.476190476190476,-2.46031746031746,-321.8253968253968
297,-229.60317460317458,325.0,-220.3968253968254,98.49206349206348,-164.04761904761904,168.4920634920635,-210.2380952380952,124.36507936507935,-227.38095238095238,90.87301587301587,28.65079365079365,136.42857142857142,-207.69841269841268,15.317460317460316,-235.47619047619045,71.03174603174602,73.88888888888889,99.76190476190476,14.84126984126984,-226.74603174603175,104.36507936507935,-5.476190476190476,-2.46031746031746,-321.8253968253968
298,-204.36507936507937,325.0,-194.68253968253967,85.31746031746032,-57.53968253968254,325.0,-156.42857142857142,247.06349206349205,-203.4126984126984,258.968253968254,316.1111111111111,267.38095238095235,-165.95238095238093,67.6984126984127,-211.19047619047618,196.58730158730157,325.0,325.0,13.571428571428571,-234.68253968253967,50.55555555555555,-11.19047619047619,-10.714285714285714,-321.8253968253968
299,-204.36507936507937,325.0,-194.68253968253967,85.31746031746032,-57.53968253968254,325.0,-156.42857142857142,247.06349206349205,-203.4126984126984,258.968253968254,316.1111111111111,267.38095238095235,-165.95238095238093,67.6984126984127,-211.19047619047618,196.58730158730157,325.0,325.0,13.571428571428571,-234.68253968253967,50.55555555555555,-11.19047619047619,-10.714285714285714,-321.8253968253968
300,-204.36507936507937,325.0,-194.68253968253967,85.31746031746032,-57.53968253968254,325.0,-156.42857142857142,247.06349206349205,-203.4126984126984,258.968253968254,316.1111111111111,267.38095238095235,-165.95238095238093,67.6984126984127,-211.19047619047618,196.58730158730157,325.0,325.0,13.571428571428571,-234.68253968253967,50.55555555555555,-11.19047619047619,-10.714285714285714,-166.26984126984127
301,-204.36507936507937,325.0,-194.68253968253967,85.31746031746032,-57.53968253968254,325.0,-156.42857142857142,247.06349206349205,-203.4126984126984,258.968253968254,316.1111111111111,267.38095238095235,-165.95238095238093,67.6984126984127,-211.19047619047618,196.58730158730157,325.0,325.0,13.571428571428571,-234.68253968253967,50.55555555555555,-11.19047619047619,-10.714285714285714,-166.26984126984127
302,-148.015873015873,117.38095238095238,-145.79365079365078,31.03174603174603,-15.476190476190474,143.57142857142856,-99.44444444444444,122.30158730158729,-153.73015873015873,62.77777777777777,255.0,122.77777777777777,-118.17460317460316,-60.238095238095234,-168.65079365079364,27.698412698412696,285.6349206349206,5.0,8.809523809523808,-50.39682539682539,65.47619047619047,-2.619047619047619,-5.634920634920634,-166.26984126984127
303,-148.015873015873,117.38095238095238,-145.79365079365078,31.03174603174603,-15.476190476190474,143.57142857142856,-99.44444444444444,122.30158730158729,-153.73015873015873,62.77777777777777,255.0,122.77777777777777,-118.17460317460316,-60.238095238095234,-168.65079365079364,27.698412698412696,285.6349206349206,5.0,8.809523809523808,-50.39682539682539,65.47619047619047,-2.619047619047619,-5.634920634920634,-166.26984126984127
304,22.142857142857142,33.25396825396825,66.42857142857143,-160.3968253968254,325.0,325.0,264.36507936507934,287.22222222222223,64.68253968253968,240.3968253968254,325.0,304.8412698412698,167.69841269841268,59.6031746031746,-36.904761904761905,178.4920634920635,325.0,-52.77777777777777,4.365079365079365,-54.52380952380952,-186.74603174603175,-11.825396825396824,-13.095238095238095,-166.26984126984127
305,22.142857142857142,33.25396825396825,66.42857142857143,-160.3968253968254,325.0,325.0,264.36507936507934,287.22222222222223,64.68253968253968,240.3968253968254,325.0,304.8412698412698,167.69841269841268,59.6031746031746,-36.904761904761905,178.4920634920635,325.0,-52.77777777777777,4.365079365079365,-54.52380952380952,-186.74603174603175,-11.825396825396824,-13.095238095238095,-166.26984126984127
306,22.142857142857142,33.25396825396825,66.42857142857143,-160.3968253968254,325.0,325.0,264.36507936507934,287.22222222222223,64.68253968253968,240.3968253968254,325.0,304.8412698412698,167.69841269841268,59.6031746031746,-36.904761904761905,178.4920634920635,325.0,-52.77777777777777,4.365079365079365,-54.52380952380952,-186.74603174603175,-11.825396825396824,-13.095238095238095,-166.26984126984127
307,22.142857142857142,33.25396825396825,66.42857142857143,-160.3968253968254,325.0,325.0,264.36507936507934,287.22222222222223,64.68253968253968,240.3968253968254,325.0,304.8412698412698,167.69841269841268,59.6031746031746,-36.904761904761905,178.4920634920635,325.0,-52.77777777777777,4.365079365079365,-54.52380952380952,-186.74603174603175,-11.825396825396824,-13.095238095238095,-166.26984126984127
308,-1.6666666666666665,-49.12698412698413,55.63492063492063,-130.55555555555554,325.0,325.0,240.07936507936506,293.4126984126984,40.714285714285715,235.95238095238093,325.0,304.2063492063492,135.3174603174603,75.95238095238095,-48.17460317460317,174.52380952380952,325.0,75.95238095238095,3.888888888888889,-88.65079365079364,-198.4920634920635,-12.3015873015873,-13.571428571428571,-166.26984126984127
309,-1.6666666666666665,-49.12698412698413,55.63492063492063,-130.55555555555554,325.0,325.0,240.07936507936506,293.4126984126984,40.714285714285715,235.95238095238093,325.0,304.2063492063492,135.3174603174603,75.95238095238095,-48.17460317460317,174.52380952380952,325.0,75.95238095238095,3.888888888888889,-88.65079365079364,-198.4920634920635,-12.3015873015873,-13.571428571428571,-166.26984126984127
310,-1.6666666666666665,-49.12698412698413,55.63492063492063,-130.55555555555554,325.0,325.0,240.07936507936506,293.4126984126984,40.714285714285715,235.95238095238093,325.0,304.2063492063492,135.3174603174603,75.95238095238095,-48.17460317460317,174.52380952380952,325.0,75.95238095238095,3.888888888888889,-88.65079365079364,-198.4920634920635,-12.3015873015873,-13.571428571428571,-321.8253968253968
311,-1.6666666666666665,-49.12698412698413,55.63492063492063,-130.55555555555554,325.0,325.0,240.07936507936506,293.4126984126984,40.714285714285715,235.95238095238093,325.0,304.2063492063492,135.3174603174603,75.95238095238095,-48.17460317460317,174.52380952380952,325.0,75.95238095238095,3.888888888888889,-88.65079365079364,-198.4920634920635,-12.3015873015873,-13.571428571428571,-321.8253968253968
312,79.12698412698413,-187.06349206349205,92.30158730158729,-14.84126984126984,299.4444444444444,261.3492063492063,242.46031746031744,245.3174603174603,92.61904761904762,185.0,293.73015873015873,265.7936507936508,145.95238095238093,-32.14285714285714,138.33333333333331,129.76190476190476,309.6031746031746,60.079365079365076,4.2063492063492065,-41.19047619047619,-215.3174603174603,-10.396825396825395,-8.333333333333332,-321.8253968253968
313,79.12698412698413,-187.06349206349205,92.30158730158729,-14.84126984126984,299.4444444444444,261.3492063492063,242.46031746031744,245.3174603174603,92.61904761904762,185.0,293.73015873015873,265.7936507936508,145.95238095238093,-32.14285714285714,138.33333333333331,129.76190476190476,309.6031746031746,60.079365079365076,4.2063492063492065,-41.19047619047619,-215.3174603174603,-10.396825396825395,-8.333333333333332,-321.8253968253968
314,231.34920634920633,-111.19047619047619,195.15873015873015,-79.76190476190476,299.4444444444444,249.28571428571428,284.8412698412698,228.49206349206347,207.06349206349205,160.55555555555554,286.90476190476187,240.2380952380952,233.88888888888889,-58.96825396825397,275.95238095238096,108.96825396825396,278.968253968254,-107.06349206349206,-29.285714285714285,-4.2063492063492065,-227.69841269841268,-8.333333333333332,-6.904761904761904,-321.8253968253968
315,231.34920634920633,-111.19047619047619,195.15873015873015,-79.76190476190476,299.4444444444444,249.28571428571428,284.8412698412698,228.49206349206347,207.06349206349205,160.55555555555554,286.90476190476187,240.2380952380952,233.88888888888889,-58.96825396825397,275.95238095238096,108.96825396825396,278.968253968254,-107.06349206349206,-29.285714285714285,-4.2063492063492065,-227.69841269841268,-8.333333333333332,-6.904761904761904,-321.8253968253968
316,-116.1111111111111,-273.25396825396825,-162.77777777777777,-138.015873015873,-85.47619047619047,-203.7301587301587,-145.47619047619048,-121.34920634920634,-148.8095238095238,-219.60317460317458,-24.365079365079364,-144.84126984126982,-189.44444444444443,-212.3015873015873,-109.44444444444444,-187.38095238095238,25.476190476190474,-255.3174603174603,9.444444444444445,130.3968253968254,55.476190476190474,8.968253968253968,12.3015873015873,-321.8253968253968
317,-116.1111111111111,-273.25396825396825,-162.77777777777777,-138.015873015873,-85.47619047619047,-203.7301587301587,-145.47619047619048,-121.34920634920634,-148.8095238095238,-219.60317460317458,-24.365079365079364,-144.84126984126982,-189.44444444444443,-212.3015873015873,-109.44444444444444,-187.38095238095238,25.476190476190474,-255.3174603174603,9.444444444444445,130.3968253968254,55.476190476190474,8.968253968253968,12.3015873015873,-321.8253968253968
318,112.93650793650794,-71.19047619047619,88.4920634920635,-152.14285714285714,170.07936507936506,50.87301587301587,134.36507936507937,69.44444444444444,92.30158730158729,-21.19047619047619,158.65079365079364,72.14285714285714,94.84126984126983,-96.26984126984127,85.79365079365078,-32.77777777777778,154.2063492063492,-173.4126984126984,-10.714285714285714,58.650793650793645,-81.34920634920634,-2.619047619047619,-1.1904761904761905,-321.8253968253968
319,112.93650793650794,-71.19047619047619,88.4920634920635,-152.14285714285714,170.07936507936506,50.87301587301587,134.36507936507937,69.44444444444444,92.30158730158729,-21.19047619047619,158.65079365079364,72.14285714285714,94.84126984126983,-96.26984126984127,85.79365079365078,-32.77777777777778,154.2063492063492,-173.4126984126984,-10.714285714285714,58.650793650793645,-81.34920634920634,-2.619047619047619,-1.1904761904761905,-321.8253968253968
320,183.57142857142856,104.04761904761904,232.14285714285714,-113.88888888888889,325.0,259.9206349206349,322.9365079365079,220.7142857142857,250.3968253968254,179.44444444444443,281.984126984127,255.95238095238093,261.66666666666663,82.14285714285714,248.17460317460316,141.34920634920636,228.96825396825395,-97.22222222222221,26.11111111111111,-60.238095238095234,-281.19047619047615,-14.047619047619047,-7.222222222222221,-166.26984126984127
321,183.57142857142856,104.04761904761904,232.14285714285714,-113.88888888888889,325.0,259.9206349206349,322.9365079365079,220.7142857142857,250.3968253968254,179.44444444444443,281.984126984127,255.95238095238093,261.66666666666663,82.14285714285714,248.17460317460316,141.34920634920636,228.96825396825395,-97.22222222222221,26.11111111111111,-60.238095238095234,-281.19047619047615,-14.047619047619047,-7.222222222222221,-166.26984126984127
