,Fp1[1],Fp2[2],F3[3],F4[4],C3[5],C4[6],P3[7],P4[8],O1[9],O2[10],F7[11],F8[12],T3[13],T4[14],T5[15],T6[16],Fz[17],Pz[18],Cz[19],Pg1[20],Pg2[21],EOGR[22],EOOGL[23],EMG[24]
0,16.26984126984127,30.07936507936508,10.873015873015872,23.095238095238095,16.904761904761905,5.476190476190476,-18.333333333333332,15.95238095238095,-2.46031746031746,25.0,-9.126984126984127,24.047619047619047,10.873015873015872,-2.46031746031746,15.95238095238095,16.904761904761905,-3.253968253968254,0.07936507936507936,-325.0,-325.0,-325.0,-325.0,-325.0,-7.5396825396825395
1,16.26984126984127,30.07936507936508,10.873015873015872,23.095238095238095,16.904761904761905,5.476190476190476,-18.333333333333332,15.95238095238095,-2.46031746031746,25.0,-9.126984126984127,24.047619047619047,10.873015873015872,-2.46031746031746,15.95238095238095,16.904761904761905,-3.253968253968254,0.07936507936507936,-325.0,-325.0,-325.0,-325.0,-325.0,-7.5396825396825395
2,13.095238095238095,26.428571428571427,15.0,26.428571428571427,21.03174603174603,13.571428571428571,-14.84126984126984,16.904761904761905,-5.0,11.507936507936508,-16.26984126984127,26.9047619047619,13.571428571428571,-5.634920634920634,19.285714285714285,18.65079365079365,-3.253968253968254,0.3968253968253968,-325.0,-325.0,-325.0,-325.0,-325.0,-7.5396825396825395
3,13.095238095238095,26.428571428571427,15.0,26.428571428571427,21.03174603174603,13.571428571428571,-14.84126984126984,16.904761904761905,-5.0,11.507936507936508,-16.26984126984127,26.9047619047619,13.571428571428571,-5.634920634920634,19.285714285714285,18.65079365079365,-3.253968253968254,0.3968253968253968,-325.0,-325.0,-325.0,-325.0,-325.0,-7.5396825396825395
4,5.476190476190476,22.777777777777775,14.84126984126984,26.428571428571427,21.03174603174603,5.0,-18.80952380952381,16.904761904761905,-8.174603174603174,9.285714285714285,-19.92063492063492,23.095238095238095,14.206349206349206,-7.222222222222221,19.126984126984127,18.96825396825397,-3.4126984126984126,0.07936507936507936,-325.0,-325.0,-325.0,-325.0,-325.0,-7.5396825396825395
5,5.476190476190476,22.777777777777775,14.84126984126984,26.428571428571427,21.03174603174603,5.0,-18.80952380952381,16.904761904761905,-8.174603174603174,9.285714285714285,-19.92063492063492,23.095238095238095,14.206349206349206,-7.222222222222221,19.126984126984127,18.96825396825397,-3.4126984126984126,0.07936507936507936,-325.0,-325.0,-325.0,-325.0,-325.0,-7.5396825396825395
6,-0.07936507936507936,22.936507936507937,14.365079365079364,25.952380952380953,20.07936507936508,8.492063492063492,-20.238095238095237,17.063492063492063,-11.031746031746032,6.904761904761904,-21.19047619047619,22.3015873015873,15.317460317460316,-5.317460317460317,19.92063492063492,20.71428571428571,-3.4126984126984126,-0.23809523809523808,-325.0,-325.0,-325.0,-325.0,-325.0,-7.5396825396825395
7,-0.07936507936507936,22.936507936507937,14.365079365079364,25.952380952380953,20.07936507936508,8.492063492063492,-20.238095238095237,17.063492063492063,-11.031746031746032,6.904761904761904,-21.19047619047619,22.3015873015873,15.317460317460316,-5.317460317460317,19.92063492063492,20.71428571428571,-3.4126984126984126,-0.23809523809523808,-325.0,-325.0,-325.0,-325.0,-325.0,-7.5396825396825395
8,14.047619047619047,31.98412698412698,16.587301587301585,29.444444444444443,20.873015873015873,4.2063492063492065,-18.80952380952381,17.698412698412696,-15.634920634920634,10.079365079365079,-21.507936507936506,38.80952380952381,15.793650793650793,1.507936507936508,17.698412698412696,20.07936507936508,-3.095238095238095,-0.5555555555555556,-325.0,-325.0,-325.0,-325.0,-325.0,-7.5396825396825395
9,14.047619047619047,31.98412698412698,16.587301587301585,29.444444444444443,20.873015873015873,4.2063492063492065,-18.80952380952381,17.698412698412696,-15.634920634920634,10.079365079365079,-21.507936507936506,38.80952380952381,15.793650793650793,1.507936507936508,17.698412698412696,20.07936507936508,-3.095238095238095,-0.5555555555555556,-325.0,-325.0,-325.0,-325.0,-325.0,-7.5396825396825395
10,9.761904761904761,27.063492063492063,13.253968253968253,28.65079365079365,20.07936507936508,15.634920634920634,-11.825396825396824,20.238095238095237,-25.634920634920633,11.349206349206348,-21.03174603174603,22.142857142857142,14.84126984126984,-12.619047619047619,16.428571428571427,19.444444444444443,-3.73015873015873,-0.23809523809523808,-325.0,-325.0,-325.0,-325.0,-325.0,-321.8253968253968
11,9.761904761904761,27.063492063492063,13.253968253968253,28.65079365079365,20.07936507936508,15.634920634920634,-11.825396825396824,20.238095238095237,-25.634920634920633,11.349206349206348,-21.03174603174603,22.142857142857142,14.84126984126984,-12.619047619047619,16.428571428571427,19.444444444444443,-3.73015873015873,-0.23809523809523808,-325.0,-325.0,-325.0,-325.0,-325.0,-321.8253968253968
12,6.587301587301587,21.19047619047619,10.873015873015872,21.19047619047619,18.65079365079365,6.746031746031746,-7.3809523809523805,20.238095238095237,-8.65079365079365,9.126984126984127,-17.38095238095238,18.174603174603174,13.412698412698411,-11.19047619047619,17.38095238095238,19.92063492063492,-3.095238095238095,0.07936507936507936,-325.0,-325.0,-325.0,-325.0,-325.0,-321.8253968253968
13,6.587301587301587,21.19047619047619,10.873015873015872,21.19047619047619,18.65079365079365,6.746031746031746,-7.3809523809523805,20.238095238095237,-8.65079365079365,9.126984126984127,-17.38095238095238,18.174603174603174,13.412698412698411,-11.19047619047619,17.38095238095238,19.92063492063492,-3.095238095238095,0.07936507936507936,-325.0,-325.0,-325.0,-325.0,-325.0,-321.8253968253968
14,4.841269841269841,25.476190476190474,10.079365079365079,28.174603174603174,18.015873015873016,10.079365079365079,-4.841269841269841,22.936507936507937,-11.507936507936508,13.095238095238095,-15.158730158730158,29.76190476190476,13.253968253968253,-4.2063492063492065,16.26984126984127,22.3015873015873,-3.253968253968254,0.23809523809523808,-325.0,-325.0,-325.0,-325.0,-325.0,-321.8253968253968
15,4.841269841269841,25.476190476190474,10.079365079365079,28.174603174603174,18.015873015873016,10.079365079365079,-4.841269841269841,22.936507936507937,-11.507936507936508,13.095238095238095,-15.158730158730158,29.76190476190476,13.253968253968253,-4.2063492063492065,16.26984126984127,22.3015873015873,-3.253968253968254,0.23809523809523808,-325.0,-325.0,-325.0,-325.0,-325.0,-321.8253968253968
16,16.428571428571427,16.904761904761905,11.507936507936508,18.015873015873016,19.6031746031746,-1.8253968253968254,-3.095238095238095,10.555555555555555,-5.634920634920634,-2.7777777777777777,-10.873015873015872,17.22222222222222,14.84126984126984,-8.809523809523808,16.904761904761905,14.84126984126984,-3.888888888888889,1.0317460317460316,-325.0,-325.0,-325.0,-325.0,-325.0,-321.8253968253968
17,16.428571428571427,16.904761904761905,11.507936507936508,18.015873015873016,19.6031746031746,-1.8253968253968254,-3.095238095238095,10.555555555555555,-5.634920634920634,-2.7777777777777777,-10.873015873015872,17.22222222222222,14.84126984126984,-8.809523809523808,16.904761904761905,14.84126984126984,-3.888888888888889,1.0317460317460316,-325.0,-325.0,-325.0,-325.0,-325.0,-321.8253968253968
18,20.07936507936508,7.063492063492063,11.031746031746032,15.158730158730158,17.063492063492063,-2.3015873015873014,-1.8253968253968254,5.952380952380952,-3.095238095238095,-9.285714285714285,-8.968253968253968,12.777777777777777,15.0,-9.126984126984127,15.158730158730158,12.3015873015873,-3.4126984126984126,0.23809523809523808,-325.0,-325.0,-325.0,-325.0,-325.0,-321.8253968253968
19,20.07936507936508,7.063492063492063,11.031746031746032,15.158730158730158,17.063492063492063,-2.3015873015873014,-1.8253968253968254,5.952380952380952,-3.095238095238095,-9.285714285714285,-8.968253968253968,12.777777777777777,15.0,-9.126984126984127,15.158730158730158,12.3015873015873,-3.4126984126984126,0.23809523809523808,-325.0,-325.0,-325.0,-325.0,-325.0,-321.8253968253968
20,2.7777777777777777,13.253968253968253,4.365079365079365,15.476190476190474,7.3809523809523805,0.3968253968253968,-10.079365079365079,10.238095238095237,-4.365079365079365,5.0,1.6666666666666665,17.698412698412696,7.5396825396825395,-4.365079365079365,7.063492063492063,18.49206349206349,-3.253968253968254,0.5555555555555556,-325.0,-325.0,-325.0,-325.0,-325.0,-7.5396825396825395
21,2.7777777777777777,13.253968253968253,4.365079365079365,15.476190476190474,7.3809523809523805,0.3968253968253968,-10.079365079365079,10.238095238095237,-4.365079365079365,5.0,1.6666666666666665,17.698412698412696,7.5396825396825395,-4.365079365079365,7.063492063492063,18.49206349206349,-3.253968253968254,0.5555555555555556,-325.0,-325.0,-325.0,-325.0,-325.0,-7.5396825396825395
22,6.746031746031746,13.571428571428571,5.0,18.333333333333332,9.603174603174603,3.095238095238095,-6.746031746031746,14.523809523809524,-4.682539682539682,5.952380952380952,-3.4126984126984126,15.793650793650793,7.5396825396825395,-2.7777777777777777,9.126984126984127,18.80952380952381,-3.571428571428571,0.5555555555555556,-325.0,-325.0,-325.0,-325.0,-325.0,-7.5396825396825395
23,6.746031746031746,13.571428571428571,5.0,18.333333333333332,9.603174603174603,3.095238095238095,-6.746031746031746,14.523809523809524,-4.682539682539682,5.952380952380952,-3.4126984126984126,15.793650793650793,7.5396825396825395,-2.7777777777777777,9.126984126984127,18.80952380952381,-3.571428571428571,0.5555555555555556,-325.0,-325.0,-325.0,-325.0,-325.0,-7.5396825396825395
24,5.634920634920634,22.936507936507937,3.095238095238095,24.206349206349206,12.46031746031746,7.3809523809523805,-3.4126984126984126,17.063492063492063,-8.492063492063492,17.063492063492063,18.333333333333332,21.03174603174603,7.857142857142857,0.873015873015873,8.968253968253968,19.6031746031746,-3.888888888888889,0.23809523809523808,-325.0,-325.0,-325.0,-325.0,-325.0,-7.5396825396825395
25,5.634920634920634,22.936507936507937,3.095238095238095,24.206349206349206,12.46031746031746,7.3809523809523805,-3.4126984126984126,17.063492063492063,-8.492063492063492,17.063492063492063,18.333333333333332,21.03174603174603,7.857142857142857,0.873015873015873,8.968253968253968,19.6031746031746,-3.888888888888889,0.23809523809523808,-325.0,-325.0,-325.0,-325.0,-325.0,-7.5396825396825395
26,5.634920634920634,15.158730158730158,4.0476190476190474,20.873015873015873,12.936507936507935,5.634920634920634,-2.46031746031746,13.571428571428571,-4.2063492063492065,9.761904761904761,5.158730158730158,18.96825396825397,9.761904761904761,-1.8253968253968254,13.571428571428571,17.698412698412696,-4.2063492063492065,0.7142857142857142,-325.0,-325.0,-325.0,-325.0,-325.0,-7.5396825396825395
27,5.634920634920634,15.158730158730158,4.0476190476190474,20.873015873015873,12.936507936507935,5.634920634920634,-2.46031746031746,13.571428571428571,-4.2063492063492065,9.761904761904761,5.158730158730158,18.96825396825397,9.761904761904761,-1.8253968253968254,13.571428571428571,17.698412698412696,-4.2063492063492065,0.7142857142857142,-325.0,-325.0,-325.0,-325.0,-325.0,-7.5396825396825395
28,8.333333333333332,10.079365079365079,7.222222222222221,18.174603174603174,14.682539682539682,7.222222222222221,-2.46031746031746,16.746031746031743,-2.619047619047619,9.603174603174603,-12.619047619047619,11.666666666666666,10.555555555555555,-3.253968253968254,14.047619047619047,17.857142857142858,-3.4126984126984126,0.5555555555555556,-325.0,-325.0,-325.0,-325.0,-325.0,-7.5396825396825395
29,8.333333333333332,10.079365079365079,7.222222222222221,18.174603174603174,14.682539682539682,7.222222222222221,-2.46031746031746,16.746031746031743,-2.619047619047619,9.603174603174603,-12.619047619047619,11.666666666666666,10.555555555555555,-3.253968253968254,14.047619047619047,17.857142857142858,-3.4126984126984126,0.5555555555555556,-325.0,-325.0,-325.0,-325.0,-325.0,-7.5396825396825395
30,21.349206349206348,18.015873015873016,12.777777777777777,23.41269841269841,17.22222222222222,8.65079365079365,-11.666666666666666,17.38095238095238,-6.904761904761904,6.587301587301587,-8.333333333333332,17.698412698412696,10.714285714285714,-2.46031746031746,13.095238095238095,16.26984126984127,-3.571428571428571,0.873015873015873,-325.0,-325.0,-325.0,-325.0,-325.0,-321.8253968253968
31,21.349206349206348,18.015873015873016,12.777777777777777,23.41269841269841,17.22222222222222,8.65079365079365,-11.666666666666666,17.38095238095238,-6.904761904761904,6.587301587301587,-8.333333333333332,17.698412698412696,10.714285714285714,-2.46031746031746,13.095238095238095,16.26984126984127,-3.571428571428571,0.873015873015873,-325.0,-325.0,-325.0,-325.0,-325.0,-321.8253968253968
32,16.904761904761905,14.047619047619047,11.825396825396824,21.507936507936506,17.063492063492063,0.23809523809523808,-22.3015873015873,10.238095238095237,-13.571428571428571,1.984126984126984,-14.84126984126984,17.539682539682538,11.031746031746032,-7.698412698412698,12.936507936507935,16.26984126984127,-3.095238095238095,0.873015873015873,-325.0,-325.0,-325.0,-325.0,-325.0,-321.8253968253968
33,16.904761904761905,14.047619047619047,11.825396825396824,21.507936507936506,17.063492063492063,0.23809523809523808,-22.3015873015873,10.238095238095237,-13.571428571428571,1.984126984126984,-14.84126984126984,17.539682539682538,11.031746031746032,-7.698412698412698,12.936507936507935,16.26984126984127,-3.095238095238095,0.873015873015873,-325.0,-325.0,-325.0,-325.0,-325.0,-321.8253968253968
34,3.571428571428571,16.587301587301585,8.015873015873016,21.349206349206348,16.587301587301585,8.015873015873016,-26.428571428571427,13.888888888888888,-3.095238095238095,-1.984126984126984,-20.07936507936508,17.22222222222222,11.031746031746032,-10.238095238095237,14.365079365079364,16.11111111111111,-3.4126984126984126,1.0317460317460316,-325.0,-325.0,-325.0,-325.0,-325.0,-321.8253968253968
35,3.571428571428571,16.587301587301585,8.015873015873016,21.349206349206348,16.587301587301585,8.015873015873016,-26.428571428571427,13.888888888888888,-3.095238095238095,-1.984126984126984,-20.07936507936508,17.22222222222222,11.031746031746032,-10.238095238095237,14.365079365079364,16.11111111111111,-3.4126984126984126,1.0317460317460316,-325.0,-325.0,-325.0,-325.0,-325.0,-321.8253968253968
36,13.412698412698411,24.365079365079364,10.555555555555555,24.84126984126984,19.92063492063492,10.555555555555555,-26.587301587301585,16.428571428571427,-8.65079365079365,-9.126984126984127,-18.174603174603174,25.634920634920633,15.317460317460316,-12.46031746031746,19.76190476190476,16.587301587301585,-4.523809523809524,0.7142857142857142,-325.0,-325.0,-325.0,-325.0,-325.0,-321.8253968253968
37,13.412698412698411,24.365079365079364,10.555555555555555,24.84126984126984,19.92063492063492,10.555555555555555,-26.587301587301585,16.428571428571427,-8.65079365079365,-9.126984126984127,-18.174603174603174,25.634920634920633,15.317460317460316,-12.46031746031746,19.76190476190476,16.587301587301585,-4.523809523809524,0.7142857142857142,-325.0,-325.0,-325.0,-325.0,-325.0,-321.8253968253968
38,22.3015873015873,28.49206349206349,17.22222222222222,26.9047619047619,23.88888888888889,9.444444444444445,-31.03174603174603,15.793650793650793,-11.507936507936508,-7.857142857142857,-6.746031746031746,31.507936507936506,17.698412698412696,-14.365079365079364,19.6031746031746,17.38095238095238,-4.0476190476190474,0.7142857142857142,-325.0,-325.0,-325.0,-325.0,-325.0,-321.8253968253968
39,22.3015873015873,28.49206349206349,17.22222222222222,26.9047619047619,23.88888888888889,9.444444444444445,-31.03174603174603,15.793650793650793,-11.507936507936508,-7.857142857142857,-6.746031746031746,31.507936507936506,17.698412698412696,-14.365079365079364,19.6031746031746,17.38095238095238,-4.0476190476190474,0.7142857142857142,-325.0,-325.0,-325.0,-325.0,-325.0,-321.8253968253968
40,16.587301587301585,31.666666666666664,20.873015873015873,28.333333333333332,25.952380952380953,14.682539682539682,-30.555555555555554,17.38095238095238,-10.396825396825395,-6.587301587301587,-11.825396825396824,24.68253968253968,17.857142857142858,-15.95238095238095,20.555555555555554,19.92063492063492,-3.888888888888889,1.0317460317460316,-325.0,-325.0,-325.0,-325.0,-325.0,-7.5396825396825395
41,16.587301587301585,31.666666666666664,20.873015873015873,28.333333333333332,25.952380952380953,14.682539682539682,-30.555555555555554,17.38095238095238,-10.396825396825395,-6.587301587301587,-11.825396825396824,24.68253968253968,17.857142857142858,-15.95238095238095,20.555555555555554,19.92063492063492,-3.888888888888889,1.0317460317460316,-325.0,-325.0,-325.0,-325.0,-325.0,-7.5396825396825395
42,21.03174603174603,26.587301587301585,20.71428571428571,23.57142857142857,24.523809523809522,5.952380952380952,-22.777777777777775,12.936507936507935,-1.0317460317460316,-11.349206349206348,-14.523809523809524,20.07936507936508,15.317460317460316,-13.73015873015873,22.142857142857142,15.317460317460316,-3.888888888888889,0.7142857142857142,-325.0,-325.0,-325.0,-325.0,-325.0,-7.5396825396825395
43,21.03174603174603,26.587301587301585,20.71428571428571,23.57142857142857,24.523809523809522,5.952380952380952,-22.777777777777775,12.936507936507935,-1.0317460317460316,-11.349206349206348,-14.523809523809524,20.07936507936508,15.317460317460316,-13.73015873015873,22.142857142857142,15.317460317460316,-3.888888888888889,0.7142857142857142,-325.0,-325.0,-325.0,-325.0,-325.0,-7.5396825396825395
44,26.746031746031743,30.71428571428571,19.285714285714285,29.6031746031746,25.634920634920633,8.968253968253968,-20.396825396825395,15.317460317460316,-2.7777777777777777,-5.317460317460317,6.111111111111111,24.84126984126984,14.206349206349206,-7.698412698412698,16.587301587301585,18.49206349206349,-4.2063492063492065,0.873015873015873,-325.0,-325.0,-325.0,-325.0,-325.0,-7.5396825396825395
45,26.746031746031743,30.71428571428571,19.285714285714285,29.6031746031746,25.634920634920633,8.968253968253968,-20.396825396825395,15.317460317460316,-2.7777777777777777,-5.317460317460317,6.111111111111111,24.84126984126984,14.206349206349206,-7.698412698412698,16.587301587301585,18.49206349206349,-4.2063492063492065,0.873015873015873,-325.0,-325.0,-325.0,-325.0,-325.0,-7.5396825396825395
46,24.68253968253968,21.666666666666664,14.206349206349206,28.809523809523807,21.507936507936506,11.666666666666666,-17.857142857142858,16.746031746031743,-0.07936507936507936,-7.698412698412698,-8.015873015873016,23.41269841269841,15.0,-6.428571428571428,17.698412698412696,18.80952380952381,-4.365079365079365,0.873015873015873,-325.0,-325.0,-325.0,-325.0,-325.0,-7.5396825396825395
47,24.68253968253968,21.666666666666664,14.206349206349206,28.809523809523807,21.507936507936506,11.666666666666666,-17.857142857142858,16.746031746031743,-0.07936507936507936,-7.698412698412698,-8.015873015873016,23.41269841269841,15.0,-6.428571428571428,17.698412698412696,18.80952380952381,-4.365079365079365,0.873015873015873,-325.0,-325.0,-325.0,-325.0,-325.0,-7.5396825396825395
48,18.174603174603174,16.11111111111111,12.3015873015873,20.07936507936508,19.285714285714285,7.063492063492063,-14.84126984126984,14.682539682539682,-0.07936507936507936,-3.571428571428571,-3.253968253968254,12.3015873015873,13.73015873015873,-10.873015873015872,18.174603174603174,16.26984126984127,-3.73015873015873,1.1904761904761905,-325.0,-325.0,-325.0,-325.0,-325.0,-7.5396825396825395
49,18.174603174603174,16.11111111111111,12.3015873015873,20.07936507936508,19.285714285714285,7.063492063492063,-14.84126984126984,14.682539682539682,-0.07936507936507936,-3.571428571428571,-3.253968253968254,12.3015873015873,13.73015873015873,-10.873015873015872,18.174603174603174,16.26984126984127,-3.73015873015873,1.1904761904761905,-325.0,-325.0,-325.0,-325.0,-325.0,-7.5396825396825395
50,8.015873015873016,11.031746031746032,6.587301587301587,17.063492063492063,11.984126984126984,-4.841269841269841,-10.714285714285714,7.5396825396825395,-0.07936507936507936,-1.349206349206349,-3.571428571428571,11.507936507936508,8.809523809523808,-9.126984126984127,12.3015873015873,11.825396825396824,-3.4126984126984126,1.349206349206349,-325.0,-325.0,-325.0,-325.0,-325.0,-321.8253968253968
51,8.015873015873016,11.031746031746032,6.587301587301587,17.063492063492063,11.984126984126984,-4.841269841269841,-10.714285714285714,7.5396825396825395,-0.07936507936507936,-1.349206349206349,-3.571428571428571,11.507936507936508,8.809523809523808,-9.126984126984127,12.3015873015873,11.825396825396824,-3.4126984126984126,1.349206349206349,-325.0,-325.0,-325.0,-325.0,-325.0,-321.8253968253968
52,-4.523809523809524,8.65079365079365,3.095238095238095,16.26984126984127,6.746031746031746,10.555555555555555,-3.4126984126984126,9.126984126984127,-0.07936507936507936,3.4126984126984126,2.9365079365079363,12.46031746031746,5.0,-4.523809523809524,7.857142857142857,13.412698412698411,-3.571428571428571,1.349206349206349,-325.0,-325.0,-325.0,-325.0,-325.0,-321.8253968253968
53,-4.523809523809524,8.65079365079365,3.095238095238095,16.26984126984127,6.746031746031746,10.555555555555555,-3.4126984126984126,9.126984126984127,-0.07936507936507936,3.4126984126984126,2.9365079365079363,12.46031746031746,5.0,-4.523809523809524,7.857142857142857,13.412698412698411,-3.571428571428571,1.349206349206349,-325.0,-325.0,-325.0,-325.0,-325.0,-321.8253968253968
54,8.015873015873016,14.206349206349206,3.571428571428571,17.38095238095238,3.73015873015873,1.507936507936508,-0.07936507936507936,3.253968253968254,-0.07936507936507936,-0.7142857142857142,11.19047619047619,20.396825396825395,4.841269841269841,-1.0317460317460316,5.476190476190476,9.285714285714285,-3.888888888888889,1.1904761904761905,-325.0,-325.0,-325.0,-325.0,-325.0,-321.8253968253968
55,8.015873015873016,14.206349206349206,3.571428571428571,17.38095238095238,3.73015873015873,1.507936507936508,-0.07936507936507936,3.253968253968254,-0.07936507936507936,-0.7142857142857142,11.19047619047619,20.396825396825395,4.841269841269841,-1.0317460317460316,5.476190476190476,9.285714285714285,-3.888888888888889,1.1904761904761905,-325.0,-325.0,-325.0,-325.0,-325.0,-321.8253968253968
56,6.26984126984127,14.84126984126984,1.8253968253968254,21.666666666666664,7.3809523809523805,6.26984126984127,-0.07936507936507936,9.920634920634921,-0.07936507936507936,7.222222222222221,25.476190476190474,23.57142857142857,5.7936507936507935,0.5555555555555556,5.0,12.936507936507935,-4.365079365079365,1.6666666666666665,-325.0,-325.0,-325.0,-325.0,-325.0,-321.8253968253968
57,6.26984126984127,14.84126984126984,1.8253968253968254,21.666666666666664,7.3809523809523805,6.26984126984127,-0.07936507936507936,9.920634920634921,-0.07936507936507936,7.222222222222221,25.476190476190474,23.57142857142857,5.7936507936507935,0.5555555555555556,5.0,12.936507936507935,-4.365079365079365,1.6666666666666665,-325.0,-325.0,-325.0,-325.0,-325.0,-321.8253968253968
58,10.079365079365079,8.968253968253968,3.73015873015873,18.174603174603174,10.079365079365079,6.111111111111111,-0.07936507936507936,7.222222222222221,-0.07936507936507936,1.349206349206349,7.3809523809523805,18.333333333333332,8.174603174603174,-1.984126984126984,3.571428571428571,11.507936507936508,-4.2063492063492065,1.349206349206349,-325.0,-325.0,-325.0,-325.0,-325.0,-321.8253968253968
59,10.079365079365079,8.968253968253968,3.73015873015873,18.174603174603174,10.079365079365079,6.111111111111111,-0.07936507936507936,7.222222222222221,-0.07936507936507936,1.349206349206349,7.3809523809523805,18.333333333333332,8.174603174603174,-1.984126984126984,3.571428571428571,11.507936507936508,-4.2063492063492065,1.349206349206349,-325.0,-325.0,-325.0,-325.0,-325.0,-321.8253968253968
60,8.65079365079365,5.634920634920634,3.4126984126984126,11.666666666666666,11.666666666666666,7.063492063492063,-0.07936507936507936,9.444444444444445,-0.07936507936507936,5.317460317460317,6.111111111111111,20.555555555555554,8.968253968253968,-1.507936507936508,7.857142857142857,9.920634920634921,-4.2063492063492065,1.8253968253968254,-325.0,-325.0,-325.0,-325.0,-325.0,-7.5396825396825395
61,8.65079365079365,5.634920634920634,3.4126984126984126,11.666666666666666,11.666666666666666,7.063492063492063,-0.07936507936507936,9.444444444444445,-0.07936507936507936,5.317460317460317,6.111111111111111,20.555555555555554,8.968253968253968,-1.507936507936508,7.857142857142857,9.920634920634921,-4.2063492063492065,1.8253968253968254,-325.0,-325.0,-325.0,-325.0,-325.0,-7.5396825396825395
62,-41.507936507936506,-318.17460317460313,-300.39682539682536,-300.7142857142857,-313.0952380952381,-308.968253968254,325.0,-303.73015873015873,325.0,179.60317460317458,325.0,-254.52380952380952,-250.7142857142857,317.38095238095235,-257.53968253968253,-301.66666666666663,-4.2063492063492065,0.07936507936507936,-325.0,-325.0,-325.0,-325.0,-325.0,-7.5396825396825395
63,-41.507936507936506,-318.17460317460313,-300.39682539682536,-300.7142857142857,-313.0952380952381,-308.968253968254,325.0,-303.73015873015873,325.0,179.60317460317458,325.0,-254.52380952380952,-250.7142857142857,317.38095238095235,-257.53968253968253,-301.66666666666663,-4.2063492063492065,0.07936507936507936,-325.0,-325.0,-325.0,-325.0,-325.0,-7.5396825396825395
64,8.174603174603174,-0.07936507936507936,3.571428571428571,5.634920634920634,-0.07936507936507936,2.46031746031746,-0.07936507936507936,1.507936507936508,-0.07936507936507936,-9.603174603174603,-0.07936507936507936,13.253968253968253,9.603174603174603,-0.873015873015873,6.26984126984127,4.523809523809524,-3.571428571428571,1.507936507936508,-325.0,-325.0,-325.0,-325.0,-325.0,-7.5396825396825395
65,8.174603174603174,-0.07936507936507936,3.571428571428571,5.634920634920634,-0.07936507936507936,2.46031746031746,-0.07936507936507936,1.507936507936508,-0.07936507936507936,-9.603174603174603,-0.07936507936507936,13.253968253968253,9.603174603174603,-0.873015873015873,6.26984126984127,4.523809523809524,-3.571428571428571,1.507936507936508,-325.0,-325.0,-325.0,-325.0,-325.0,-7.5396825396825395
66,9.444444444444445,-0.07936507936507936,-0.07936507936507936,1.507936507936508,-0.07936507936507936,-0.07936507936507936,-0.07936507936507936,-0.07936507936507936,-0.07936507936507936,-8.015873015873016,-0.07936507936507936,20.555555555555554,7.857142857142857,-0.07936507936507936,1.984126984126984,-0.07936507936507936,-3.571428571428571,1.6666666666666665,-325.0,-325.0,-325.0,-325.0,-325.0,-7.5396825396825395
67,9.444444444444445,-0.07936507936507936,-0.07936507936507936,1.507936507936508,-0.07936507936507936,-0.07936507936507936,-0.07936507936507936,-0.07936507936507936,-0.07936507936507936,-8.015873015873016,-0.07936507936507936,20.555555555555554,7.857142857142857,-0.07936507936507936,1.984126984126984,-0.07936507936507936,-3.571428571428571,1.6666666666666665,-325.0,-325.0,-325.0,-325.0,-325.0,-7.5396825396825395
68,5.0,-0.07936507936507936,-0.07936507936507936,-0.07936507936507936,-0.07936507936507936,-0.07936507936507936,-0.07936507936507936,-0.07936507936507936,-0.07936507936507936,3.888888888888889,-0.07936507936507936,17.857142857142858,10.079365079365079,-0.07936507936507936,8.492063492063492,-0.07936507936507936,-3.571428571428571,1.8253968253968254,-325.0,-325.0,-325.0,-325.0,-325.0,-7.5396825396825395
69,5.0,-0.07936507936507936,-0.07936507936507936,-0.07936507936507936,-0.07936507936507936,-0.07936507936507936,-0.07936507936507936,-0.07936507936507936,-0.07936507936507936,3.888888888888889,-0.07936507936507936,17.857142857142858,10.079365079365079,-0.07936507936507936,8.492063492063492,-0.07936507936507936,-3.571428571428571,1.8253968253968254,-325.0,-325.0,-325.0,-325.0,-325.0,-7.5396825396825395
70,0.23809523809523808,-0.07936507936507936,-0.07936507936507936,-0.07936507936507936,-0.07936507936507936,-0.07936507936507936,-0.07936507936507936,-0.07936507936507936,-0.07936507936507936,-1.8253968253968254,-0.07936507936507936,12.936507936507935,7.5396825396825395,-0.07936507936507936,9.761904761904761,-0.07936507936507936,-3.73015873015873,1.6666666666666665,-325.0,-325.0,-325.0,-325.0,-325.0,-321.8253968253968
71,0.23809523809523808,-0.07936507936507936,-0.07936507936507936,-0.07936507936507936,-0.07936507936507936,-0.07936507936507936,-0.07936507936507936,-0.07936507936507936,-0.07936507936507936,-1.8253968253968254,-0.07936507936507936,12.936507936507935,7.5396825396825395,-0.07936507936507936,9.761904761904761,-0.07936507936507936,-3.73015873015873,1.6666666666666665,-325.0,-325.0,-325.0,-325.0,-325.0,-321.8253968253968
72,6.587301587301587,-0.07936507936507936,-0.07936507936507936,-0.07936507936507936,-0.07936507936507936,-0.07936507936507936,-0.07936507936507936,-0.07936507936507936,-0.07936507936507936,0.5555555555555556,-0.07936507936507936,13.571428571428571,1.1904761904761905,-0.07936507936507936,4.365079365079365,-0.07936507936507936,-3.888888888888889,1.349206349206349,-325.0,-325.0,-325.0,-325.0,-325.0,-321.8253968253968
73,6.587301587301587,-0.07936507936507936,-0.07936507936507936,-0.07936507936507936,-0.07936507936507936,-0.07936507936507936,-0.07936507936507936,-0.07936507936507936,-0.07936507936507936,0.5555555555555556,-0.07936507936507936,13.571428571428571,1.1904761904761905,-0.07936507936507936,4.365079365079365,-0.07936507936507936,-3.888888888888889,1.349206349206349,-325.0,-325.0,-325.0,-325.0,-325.0,-321.8253968253968
74,4.523809523809524,-0.07936507936507936,-0.07936507936507936,-0.07936507936507936,-0.07936507936507936,-0.07936507936507936,-0.07936507936507936,-0.07936507936507936,-0.07936507936507936,-3.571428571428571,-0.07936507936507936,10.555555555555555,-0.07936507936507936,-0.07936507936507936,-0.07936507936507936,-0.07936507936507936,-3.095238095238095,1.507936507936508,-325.0,-325.0,-325.0,-325.0,-325.0,-321.8253968253968
75,4.523809523809524,-0.07936507936507936,-0.07936507936507936,-0.07936507936507936,-0.07936507936507936,-0.07936507936507936,-0.07936507936507936,-0.07936507936507936,-0.07936507936507936,-3.571428571428571,-0.07936507936507936,10.555555555555555,-0.07936507936507936,-0.07936507936507936,-0.07936507936507936,-0.07936507936507936,-3.095238095238095,1.507936507936508,-325.0,-325.0,-325.0,-325.0,-325.0,-321.8253968253968
76,-6.111111111111111,-0.07936507936507936,-0.07936507936507936,-0.07936507936507936,-0.07936507936507936,-0.07936507936507936,-0.07936507936507936,-0.07936507936507936,-0.07936507936507936,-9.920634920634921,-0.07936507936507936,3.4126984126984126,-0.07936507936507936,-0.07936507936507936,-0.07936507936507936,-0.07936507936507936,-4.0476190476190474,1.349206349206349,-325.0,-325.0,-325.0,-325.0,-325.0,-321.8253968253968
77,-6.111111111111111,-0.07936507936507936,-0.07936507936507936,-0.07936507936507936,-0.07936507936507936,-0.07936507936507936,-0.07936507936507936,-0.07936507936507936,-0.07936507936507936,-9.920634920634921,-0.07936507936507936,3.4126984126984126,-0.07936507936507936,-0.07936507936507936,-0.07936507936507936,-0.07936507936507936,-4.0476190476190474,1.349206349206349,-325.0,-325.0,-325.0,-325.0,-325.0,-321.8253968253968
78,-3.095238095238095,-0.07936507936507936,-0.07936507936507936,-0.07936507936507936,-0.07936507936507936,-0.07936507936507936,-0.07936507936507936,-0.07936507936507936,-0.07936507936507936,-6.746031746031746,-0.07936507936507936,-2.619047619047619,-0.07936507936507936,-0.07936507936507936,-0.07936507936507936,-0.07936507936507936,-3.4126984126984126,1.349206349206349,-325.0,-325.0,-325.0,-325.0,-325.0,-321.8253968253968
79,-3.095238095238095,-0.07936507936507936,-0.07936507936507936,-0.07936507936507936,-0.07936507936507936,-0.07936507936507936,-0.07936507936507936,-0.07936507936507936,-0.07936507936507936,-6.746031746031746,-0.07936507936507936,-2.619047619047619,-0.07936507936507936,-0.07936507936507936,-0.07936507936507936,-0.07936507936507936,-3.4126984126984126,1.349206349206349,-325.0,-325.0,-325.0,-325.0,-325.0,-321.8253968253968
80,-20.873015873015873,-0.07936507936507936,-0.07936507936507936,-0.07936507936507936,-0.07936507936507936,-0.07936507936507936,-0.07936507936507936,-0.07936507936507936,-0.07936507936507936,-8.492063492063492,-0.07936507936507936,-3.095238095238095,-0.07936507936507936,-0.07936507936507936,-0.07936507936507936,-0.07936507936507936,-3.4126984126984126,1.1904761904761905,-325.0,-325.0,-325.0,-325.0,-325.0,-7.5396825396825395
81,-20.873015873015873,-0.07936507936507936,-0.07936507936507936,-0.07936507936507936,-0.07936507936507936,-0.07936507936507936,-0.07936507936507936,-0.07936507936507936,-0.07936507936507936,-8.492063492063492,-0.07936507936507936,-3.095238095238095,-0.07936507936507936,-0.07936507936507936,-0.07936507936507936,-0.07936507936507936,-3.4126984126984126,1.1904761904761905,-325.0,-325.0,-325.0,-325.0,-325.0,-7.5396825396825395
82,-26.26984126984127,-0.07936507936507936,-0.07936507936507936,-0.07936507936507936,-0.07936507936507936,-0.07936507936507936,-0.07936507936507936,-0.07936507936507936,-0.07936507936507936,3.888888888888889,-0.07936507936507936,-0.07936507936507936,-0.07936507936507936,-0.07936507936507936,-0.07936507936507936,-0.07936507936507936,-3.888888888888889,1.349206349206349,-325.0,-325.0,-325.0,-325.0,-325.0,-7.5396825396825395
83,-26.26984126984127,-0.07936507936507936,-0.07936507936507936,-0.07936507936507936,-0.07936507936507936,-0.07936507936507936,-0.07936507936507936,-0.07936507936507936,-0.07936507936507936,3.888888888888889,-0.07936507936507936,-0.07936507936507936,-0.07936507936507936,-0.07936507936507936,-0.07936507936507936,-0.07936507936507936,-3.888888888888889,1.349206349206349,-325.0,-325.0,-325.0,-325.0,-325.0,-7.5396825396825395
84,-73.73015873015872,-0.07936507936507936,-0.07936507936507936,-0.07936507936507936,-0.07936507936507936,-0.07936507936507936,-0.07936507936507936,-0.07936507936507936,-0.07936507936507936,-10.238095238095237,-0.07936507936507936,-1.8253968253968254,-0.07936507936507936,-0.07936507936507936,-0.07936507936507936,-0.07936507936507936,-4.0476190476190474,1.507936507936508,-325.0,-325.0,-325.0,-325.0,-325.0,-7.5396825396825395
85,-73.73015873015872,-0.07936507936507936,-0.07936507936507936,-0.07936507936507936,-0.07936507936507936,-0.07936507936507936,-0.07936507936507936,-0.07936507936507936,-0.07936507936507936,-10.238095238095237,-0.07936507936507936,-1.8253968253968254,-0.07936507936507936,-0.07936507936507936,-0.07936507936507936,-0.07936507936507936,-4.0476190476190474,1.507936507936508,-325.0,-325.0,-325.0,-325.0,-325.0,-7.5396825396825395
86,-138.17460317460316,-6.587301587301587,-0.07936507936507936,-0.07936507936507936,-0.07936507936507936,-0.07936507936507936,-0.07936507936507936,-0.07936507936507936,-0.07936507936507936,-9.126984126984127,-0.07936507936507936,-3.73015873015873,-0.07936507936507936,-0.07936507936507936,-0.07936507936507936,-0.07936507936507936,-4.0476190476190474,0.873015873015873,-325.0,-325.0,-325.0,-325.0,-325.0,-7.5396825396825395
87,-138.17460317460316,-6.587301587301587,-0.07936507936507936,-0.07936507936507936,-0.07936507936507936,-0.07936507936507936,-0.07936507936507936,-0.07936507936507936,-0.07936507936507936,-9.126984126984127,-0.07936507936507936,-3.73015873015873,-0.07936507936507936,-0.07936507936507936,-0.07936507936507936,-0.07936507936507936,-4.0476190476190474,0.873015873015873,-325.0,-325.0,-325.0,-325.0,-325.0,-7.5396825396825395
88,-155.47619047619048,-17.063492063492063,-0.07936507936507936,-0.07936507936507936,-0.07936507936507936,-0.07936507936507936,-0.07936507936507936,-0.07936507936507936,-0.07936507936507936,-15.793650793650793,-0.07936507936507936,-4.682539682539682,-0.07936507936507936,-0.07936507936507936,-0.07936507936507936,-0.07936507936507936,-3.253968253968254,1.6666666666666665,-325.0,-325.0,-325.0,-325.0,-325.0,-7.5396825396825395
89,-155.47619047619048,-17.063492063492063,-0.07936507936507936,-0.07936507936507936,-0.07936507936507936,-0.07936507936507936,-0.07936507936507936,-0.07936507936507936,-0.07936507936507936,-15.793650793650793,-0.07936507936507936,-4.682539682539682,-0.07936507936507936,-0.07936507936507936,-0.07936507936507936,-0.07936507936507936,-3.253968253968254,1.6666666666666665,-325.0,-325.0,-325.0,-325.0,-325.0,-7.5396825396825395
90,-132.3015873015873,-15.476190476190474,-0.07936507936507936,-0.07936507936507936,-0.07936507936507936,-0.07936507936507936,-0.07936507936507936,-0.07936507936507936,-0.07936507936507936,-4.2063492063492065,-0.07936507936507936,-4.523809523809524,-0.07936507936507936,-0.07936507936507936,-0.07936507936507936,-0.07936507936507936,-3.571428571428571,1.6666666666666665,-325.0,-325.0,-325.0,-325.0,-325.0,-321.8253968253968
91,-132.3015873015873,-15.476190476190474,-0.07936507936507936,-0.07936507936507936,-0.07936507936507936,-0.07936507936507936,-0.07936507936507936,-0.07936507936507936,-0.07936507936507936,-4.2063492063492065,-0.07936507936507936,-4.523809523809524,-0.07936507936507936,-0.07936507936507936,-0.07936507936507936,-0.07936507936507936,-3.571428571428571,1.6666666666666665,-325.0,-325.0,-325.0,-325.0,-325.0,-321.8253968253968
92,-83.73015873015872,-14.206349206349206,-0.07936507936507936,-0.07936507936507936,-0.07936507936507936,-0.07936507936507936,-0.07936507936507936,-0.07936507936507936,-0.07936507936507936,-13.571428571428571,-0.07936507936507936,-7.698412698412698,-0.07936507936507936,-0.07936507936507936,-0.07936507936507936,-0.07936507936507936,-3.888888888888889,1.349206349206349,-325.0,-325.0,-325.0,-325.0,-325.0,-321.8253968253968
93,-83.73015873015872,-14.206349206349206,-0.07936507936507936,-0.07936507936507936,-0.07936507936507936,-0.07936507936507936,-0.07936507936507936,-0.07936507936507936,-0.07936507936507936,-13.571428571428571,-0.07936507936507936,-7.698412698412698,-0.07936507936507936,-0.07936507936507936,-0.07936507936507936,-0.07936507936507936,-3.888888888888889,1.349206349206349,-325.0,-325.0,-325.0,-325.0,-325.0,-321.8253968253968
94,5.952380952380952,-0.07936507936507936,-0.07936507936507936,-0.07936507936507936,-0.07936507936507936,-0.07936507936507936,-0.07936507936507936,-0.07936507936507936,-0.07936507936507936,-3.571428571428571,-0.07936507936507936,-2.3015873015873014,-0.07936507936507936,-0.07936507936507936,-0.07936507936507936,-0.07936507936507936,-4.365079365079365,1.1904761904761905,-325.0,-325.0,-325.0,-325.0,-325.0,-321.8253968253968
95,5.952380952380952,-0.07936507936507936,-0.07936507936507936,-0.07936507936507936,-0.07936507936507936,-0.07936507936507936,-0.07936507936507936,-0.07936507936507936,-0.07936507936507936,-3.571428571428571,-0.07936507936507936,-2.3015873015873014,-0.07936507936507936,-0.07936507936507936,-0.07936507936507936,-0.07936507936507936,-4.365079365079365,1.1904761904761905,-325.0,-325.0,-325.0,-325.0,-325.0,-321.8253968253968
96,73.25396825396825,-0.07936507936507936,-0.07936507936507936,-0.07936507936507936,-0.07936507936507936,-0.07936507936507936,-0.07936507936507936,-0.07936507936507936,-0.07936507936507936,1.984126984126984,-0.07936507936507936,-2.619047619047619,-0.07936507936507936,-0.07936507936507936,-0.07936507936507936,-0.07936507936507936,-3.571428571428571,1.1904761904761905,-325.0,-325.0,-325.0,-325.0,-325.0,-321.8253968253968
97,73.25396825396825,-0.07936507936507936,-0.07936507936507936,-0.07936507936507936,-0.07936507936507936,-0.07936507936507936,-0.07936507936507936,-0.07936507936507936,-0.07936507936507936,1.984126984126984,-0.07936507936507936,-2.619047619047619,-0.07936507936507936,-0.07936507936507936,-0.07936507936507936,-0.07936507936507936,-3.571428571428571,1.1904761904761905,-325.0,-325.0,-325.0,-325.0,-325.0,-321.8253968253968
98,109.76190476190476,-0.07936507936507936,-0.07936507936507936,-0.07936507936507936,-0.07936507936507936,-0.07936507936507936,-0.07936507936507936,-0.07936507936507936,-0.07936507936507936,9.126984126984127,-0.07936507936507936,-0.07936507936507936,-0.07936507936507936,-0.07936507936507936,-0.07936507936507936,-0.07936507936507936,-3.253968253968254,1.1904761904761905,-325.0,-325.0,-325.0,-325.0,-325.0,-321.8253968253968
99,109.76190476190476,-0.07936507936507936,-0.07936507936507936,-0.07936507936507936,-0.07936507936507936,-0.07936507936507936,-0.07936507936507936,-0.07936507936507936,-0.07936507936507936,9.126984126984127,-0.07936507936507936,-0.07936507936507936,-0.07936507936507936,-0.07936507936507936,-0.07936507936507936,-0.07936507936507936,-3.253968253968254,1.1904761904761905,-325.0,-325.0,-325.0,-325.0,-325.0,-321.8253968253968
100,137.38095238095238,-0.07936507936507936,-0.07936507936507936,-0.07936507936507936,-0.07936507936507936,-0.07936507936507936,-0.07936507936507936,-0.07936507936507936,5.634920634920634,15.0,-0.07936507936507936,-0.7142857142857142,-0.07936507936507936,-0.07936507936507936,-0.07936507936507936,-0.07936507936507936,-3.73015873015873,1.6666666666666665,-325.0,-325.0,-325.0,-325.0,-325.0,-7.5396825396825395
101,137.38095238095238,-0.07936507936507936,-0.07936507936507936,-0.07936507936507936,-0.07936507936507936,-0.07936507936507936,-0.07936507936507936,-0.07936507936507936,5.634920634920634,15.0,-0.07936507936507936,-0.7142857142857142,-0.07936507936507936,-0.07936507936507936,-0.07936507936507936,-0.07936507936507936,-3.73015873015873,1.6666666666666665,-325.0,-325.0,-325.0,-325.0,-325.0,-7.5396825396825395
102,140.07936507936506,-0.07936507936507936,-0.07936507936507936,-0.07936507936507936,-0.07936507936507936,-0.07936507936507936,-0.07936507936507936,-0.07936507936507936,10.555555555555555,24.206349206349206,-0.07936507936507936,-1.349206349206349,-0.07936507936507936,-0.07936507936507936,-0.07936507936507936,-0.07936507936507936,-3.73015873015873,1.507936507936508,-325.0,-325.0,-325.0,-325.0,-325.0,-7.5396825396825395
103,140.07936507936506,-0.07936507936507936,-0.07936507936507936,-0.07936507936507936,-0.07936507936507936,-0.07936507936507936,-0.07936507936507936,-0.07936507936507936,10.555555555555555,24.206349206349206,-0.07936507936507936,-1.349206349206349,-0.07936507936507936,-0.07936507936507936,-0.07936507936507936,-0.07936507936507936,-3.73015873015873,1.507936507936508,-325.0,-325.0,-325.0,-325.0,-325.0,-7.5396825396825395
104,118.96825396825396,5.317460317460317,-0.07936507936507936,-0.07936507936507936,-0.07936507936507936,-0.07936507936507936,-0.07936507936507936,-0.07936507936507936,15.476190476190474,30.396825396825395,-0.07936507936507936,5.317460317460317,-0.07936507936507936,-0.07936507936507936,-0.07936507936507936,-0.07936507936507936,-3.73015873015873,1.0317460317460316,-325.0,-325.0,-325.0,-325.0,-325.0,-7.5396825396825395
105,118.96825396825396,5.317460317460317,-0.07936507936507936,-0.07936507936507936,-0.07936507936507936,-0.07936507936507936,-0.07936507936507936,-0.07936507936507936,15.476190476190474,30.396825396825395,-0.07936507936507936,5.317460317460317,-0.07936507936507936,-0.07936507936507936,-0.07936507936507936,-0.07936507936507936,-3.73015873015873,1.0317460317460316,-325.0,-325.0,-325.0,-325.0,-325.0,-7.5396825396825395
106,83.57142857142857,4.682539682539682,-0.07936507936507936,-0.07936507936507936,-0.07936507936507936,-0.07936507936507936,6.587301587301587,-0.07936507936507936,11.825396825396824,12.46031746031746,-0.07936507936507936,0.3968253968253968,-0.07936507936507936,-0.873015873015873,-0.07936507936507936,-0.07936507936507936,-3.888888888888889,1.1904761904761905,-325.0,-325.0,-325.0,-325.0,-325.0,-7.5396825396825395
107,83.57142857142857,4.682539682539682,-0.07936507936507936,-0.07936507936507936,-0.07936507936507936,-0.07936507936507936,6.587301587301587,-0.07936507936507936,11.825396825396824,12.46031746031746,-0.07936507936507936,0.3968253968253968,-0.07936507936507936,-0.873015873015873,-0.07936507936507936,-0.07936507936507936,-3.888888888888889,1.1904761904761905,-325.0,-325.0,-325.0,-325.0,-325.0,-7.5396825396825395
108,70.07936507936508,11.349206349206348,-0.07936507936507936,-0.07936507936507936,-0.07936507936507936,-0.07936507936507936,22.46031746031746,-0.07936507936507936,38.01587301587301,8.174603174603174,-0.07936507936507936,11.825396825396824,-0.07936507936507936,2.3015873015873014,-0.07936507936507936,-0.07936507936507936,-3.571428571428571,1.507936507936508,-325.0,-325.0,-325.0,-325.0,-325.0,-7.5396825396825395
109,70.07936507936508,11.349206349206348,-0.07936507936507936,-0.07936507936507936,-0.07936507936507936,-0.07936507936507936,22.46031746031746,-0.07936507936507936,38.01587301587301,8.174603174603174,-0.07936507936507936,11.825396825396824,-0.07936507936507936,2.3015873015873014,-0.07936507936507936,-0.07936507936507936,-3.571428571428571,1.507936507936508,-325.0,-325.0,-325.0,-325.0,-325.0,-7.5396825396825395
110,112.14285714285714,10.555555555555555,-0.07936507936507936,-0.07936507936507936,-0.07936507936507936,-0.07936507936507936,34.84126984126984,-0.07936507936507936,75.63492063492063,-4.0476190476190474,-0.07936507936507936,-0.07936507936507936,-0.07936507936507936,-1.8253968253968254,-0.07936507936507936,-0.07936507936507936,-3.571428571428571,0.873015873015873,-325.0,-325.0,-325.0,-325.0,-325.0,-321.8253968253968
111,112.14285714285714,10.555555555555555,-0.07936507936507936,-0.07936507936507936,-0.07936507936507936,-0.07936507936507936,34.84126984126984,-0.07936507936507936,75.63492063492063,-4.0476190476190474,-0.07936507936507936,-0.07936507936507936,-0.07936507936507936,-1.8253968253968254,-0.07936507936507936,-0.07936507936507936,-3.571428571428571,0.873015873015873,-325.0,-325.0,-325.0,-325.0,-325.0,-321.8253968253968
112,131.66666666666666,3.253968253968254,-0.07936507936507936,-0.07936507936507936,-0.07936507936507936,-0.07936507936507936,32.61904761904762,-0.07936507936507936,84.68253968253968,-16.26984126984127,-0.07936507936507936,-17.38095238095238,-0.07936507936507936,-4.365079365079365,-0.07936507936507936,-0.07936507936507936,-4.2063492063492065,0.3968253968253968,-325.0,-325.0,-325.0,-325.0,-325.0,-321.8253968253968
113,131.66666666666666,3.253968253968254,-0.07936507936507936,-0.07936507936507936,-0.07936507936507936,-0.07936507936507936,32.61904761904762,-0.07936507936507936,84.68253968253968,-16.26984126984127,-0.07936507936507936,-17.38095238095238,-0.07936507936507936,-4.365079365079365,-0.07936507936507936,-0.07936507936507936,-4.2063492063492065,0.3968253968253968,-325.0,-325.0,-325.0,-325.0,-325.0,-321.8253968253968
114,113.25396825396825,3.73015873015873,-0.07936507936507936,-0.07936507936507936,-0.07936507936507936,-1.1904761904761905,33.888888888888886,-3.095238095238095,90.23809523809523,0.5555555555555556,-0.07936507936507936,-24.365079365079364,-0.07936507936507936,-7.222222222222221,-0.07936507936507936,-0.07936507936507936,-4.0476190476190474,0.873015873015873,-325.0,-325.0,-325.0,-325.0,-325.0,-321.8253968253968
115,113.25396825396825,3.73015873015873,-0.07936507936507936,-0.07936507936507936,-0.07936507936507936,-1.1904761904761905,33.888888888888886,-3.095238095238095,90.23809523809523,0.5555555555555556,-0.07936507936507936,-24.365079365079364,-0.07936507936507936,-7.222222222222221,-0.07936507936507936,-0.07936507936507936,-4.0476190476190474,0.873015873015873,-325.0,-325.0,-325.0,-325.0,-325.0,-321.8253968253968
116,325.0,293.25396825396825,325.0,322.77777777777777,325.0,319.4444444444444,-252.77777777777777,312.77777777777777,-119.92063492063491,-170.7142857142857,-325.0,252.14285714285714,325.0,-296.26984126984127,325.0,325.0,-2.142857142857143,2.619047619047619,-325.0,-325.0,-325.0,-325.0,-325.0,-321.8253968253968
117,325.0,293.25396825396825,325.0,322.77777777777777,325.0,319.4444444444444,-252.77777777777777,312.77777777777777,-119.92063492063491,-170.7142857142857,-325.0,252.14285714285714,325.0,-296.26984126984127,325.0,325.0,-2.142857142857143,2.619047619047619,-325.0,-325.0,-325.0,-325.0,-325.0,-321.8253968253968
118,123.09523809523809,1.507936507936508,-0.07936507936507936,-5.952380952380952,-0.07936507936507936,-7.3809523809523805,44.68253968253968,-13.095238095238095,101.34920634920634,-16.904761904761905,1.8253968253968254,-17.22222222222222,-0.07936507936507936,-11.666666666666666,8.492063492063492,-0.07936507936507936,-3.253968253968254,0.23809523809523808,-325.0,-325.0,-325.0,-325.0,-325.0,-321.8253968253968
119,123.09523809523809,1.507936507936508,-0.07936507936507936,-5.952380952380952,-0.07936507936507936,-7.3809523809523805,44.68253968253968,-13.095238095238095,101.34920634920634,-16.904761904761905,1.8253968253968254,-17.22222222222222,-0.07936507936507936,-11.666666666666666,8.492063492063492,-0.07936507936507936,-3.253968253968254,0.23809523809523808,-325.0,-325.0,-325.0,-325.0,-325.0,-321.8253968253968
120,125.0,3.888888888888889,-0.07936507936507936,-11.349206349206348,1.6666666666666665,-14.682539682539682,45.63492063492063,-18.49206349206349,101.34920634920634,-27.698412698412696,2.7777777777777777,-20.396825396825395,-0.07936507936507936,-12.936507936507935,12.46031746031746,-0.873015873015873,-4.2063492063492065,0.5555555555555556,-325.0,-325.0,-325.0,-325.0,-325.0,-7.5396825396825395
121,125.0,3.888888888888889,-0.07936507936507936,-11.349206349206348,1.6666666666666665,-14.682539682539682,45.63492063492063,-18.49206349206349,101.34920634920634,-27.698412698412696,2.7777777777777777,-20.396825396825395,-0.07936507936507936,-12.936507936507935,12.46031746031746,-0.873015873015873,-4.2063492063492065,0.5555555555555556,-325.0,-325.0,-325.0,-325.0,-325.0,-7.5396825396825395
122,112.93650793650794,-13.253968253968253,-0.07936507936507936,-16.428571428571427,5.0,-22.619047619047617,48.96825396825397,-21.03174603174603,93.09523809523809,-24.206349206349206,11.507936507936508,-29.285714285714285,-0.07936507936507936,-13.888888888888888,14.682539682539682,-5.952380952380952,-3.571428571428571,0.07936507936507936,-325.0,-325.0,-325.0,-325.0,-325.0,-7.5396825396825395
123,112.93650793650794,-13.253968253968253,-0.07936507936507936,-16.428571428571427,5.0,-22.619047619047617,48.96825396825397,-21.03174603174603,93.09523809523809,-24.206349206349206,11.507936507936508,-29.285714285714285,-0.07936507936507936,-13.888888888888888,14.682539682539682,-5.952380952380952,-3.571428571428571,0.07936507936507936,-325.0,-325.0,-325.0,-325.0,-325.0,-7.5396825396825395
124,94.84126984126983,-33.73015873015873,-0.07936507936507936,-20.71428571428571,6.26984126984127,-18.96825396825397,53.57142857142857,-19.126984126984127,80.87301587301587,-23.730158730158728,15.158730158730158,-40.87301587301587,-0.07936507936507936,-19.444444444444443,10.555555555555555,-9.603174603174603,-4.0476190476190474,-0.23809523809523808,-325.0,-325.0,-325.0,-325.0,-325.0,-7.5396825396825395
125,94.84126984126983,-33.73015873015873,-0.07936507936507936,-20.71428571428571,6.26984126984127,-18.96825396825397,53.57142857142857,-19.126984126984127,80.87301587301587,-23.730158730158728,15.158730158730158,-40.87301587301587,-0.07936507936507936,-19.444444444444443,10.555555555555555,-9.603174603174603,-4.0476190476190474,-0.23809523809523808,-325.0,-325.0,-325.0,-325.0,-325.0,-7.5396825396825395
126,91.34920634920634,-24.206349206349206,-0.07936507936507936,-19.444444444444443,8.174603174603174,-17.539682539682538,55.95238095238095,-17.063492063492063,78.4920634920635,-20.555555555555554,15.476190476190474,-32.3015873015873,-0.07936507936507936,-13.571428571428571,6.587301587301587,-14.365079365079364,-3.888888888888889,-0.07936507936507936,-325.0,-325.0,-325.0,-325.0,-325.0,-7.5396825396825395
127,91.34920634920634,-24.206349206349206,-0.07936507936507936,-19.444444444444443,8.174603174603174,-17.539682539682538,55.95238095238095,-17.063492063492063,78.4920634920635,-20.555555555555554,15.476190476190474,-32.3015873015873,-0.07936507936507936,-13.571428571428571,6.587301587301587,-14.365079365079364,-3.888888888888889,-0.07936507936507936,-325.0,-325.0,-325.0,-325.0,-325.0,-7.5396825396825395
128,92.93650793650794,-9.444444444444445,0.23809523809523808,-12.936507936507935,9.444444444444445,-9.920634920634921,57.06349206349206,-16.11111111111111,76.74603174603175,-11.031746031746032,14.84126984126984,-23.095238095238095,1.984126984126984,-9.603174603174603,6.26984126984127,-17.22222222222222,-3.253968253968254,0.7142857142857142,-325.0,-325.0,-325.0,-325.0,-325.0,-7.5396825396825395
129,92.93650793650794,-9.444444444444445,0.23809523809523808,-12.936507936507935,9.444444444444445,-9.920634920634921,57.06349206349206,-16.11111111111111,76.74603174603175,-11.031746031746032,14.84126984126984,-23.095238095238095,1.984126984126984,-9.603174603174603,6.26984126984127,-17.22222222222222,-3.253968253968254,0.7142857142857142,-325.0,-325.0,-325.0,-325.0,-325.0,-7.5396825396825395
130,83.88888888888889,-2.3015873015873014,4.523809523809524,-6.26984126984127,9.761904761904761,-5.634920634920634,52.61904761904761,-11.507936507936508,70.71428571428571,4.0476190476190474,14.84126984126984,-18.65079365079365,5.0,-10.396825396825395,7.698412698412698,-14.206349206349206,-3.253968253968254,0.07936507936507936,-325.0,-325.0,-325.0,-325.0,-325.0,-321.8253968253968
131,83.88888888888889,-2.3015873015873014,4.523809523809524,-6.26984126984127,9.761904761904761,-5.634920634920634,52.61904761904761,-11.507936507936508,70.71428571428571,4.0476190476190474,14.84126984126984,-18.65079365079365,5.0,-10.396825396825395,7.698412698412698,-14.206349206349206,-3.253968253968254,0.07936507936507936,-325.0,-325.0,-325.0,-325.0,-325.0,-321.8253968253968
132,67.22222222222221,-7.3809523809523805,3.095238095238095,-9.126984126984127,7.063492063492063,-1.8253968253968254,42.3015873015873,-5.952380952380952,54.841269841269835,-1.0317460317460316,9.920634920634921,-13.412698412698411,3.4126984126984126,-6.26984126984127,7.063492063492063,-9.444444444444445,-3.4126984126984126,-0.07936507936507936,-325.0,-325.0,-325.0,-325.0,-325.0,-321.8253968253968
133,67.22222222222221,-7.3809523809523805,3.095238095238095,-9.126984126984127,7.063492063492063,-1.8253968253968254,42.3015873015873,-5.952380952380952,54.841269841269835,-1.0317460317460316,9.920634920634921,-13.412698412698411,3.4126984126984126,-6.26984126984127,7.063492063492063,-9.444444444444445,-3.4126984126984126,-0.07936507936507936,-325.0,-325.0,-325.0,-325.0,-325.0,-321.8253968253968
134,41.03174603174603,-8.015873015873016,0.23809523809523808,-10.079365079365079,5.317460317460317,-1.1904761904761905,35.95238095238095,-7.063492063492063,51.98412698412698,-6.111111111111111,11.666666666666666,-10.238095238095237,0.23809523809523808,2.142857142857143,6.746031746031746,-13.095238095238095,-3.73015873015873,-0.07936507936507936,-325.0,-325.0,-325.0,-325.0,-325.0,-321.8253968253968
135,41.03174603174603,-8.015873015873016,0.23809523809523808,-10.079365079365079,5.317460317460317,-1.1904761904761905,35.95238095238095,-7.063492063492063,51.98412698412698,-6.111111111111111,11.666666666666666,-10.238095238095237,0.23809523809523808,2.142857142857143,6.746031746031746,-13.095238095238095,-3.73015873015873,-0.07936507936507936,-325.0,-325.0,-325.0,-325.0,-325.0,-321.8253968253968
136,-204.36507936507937,-159.6031746031746,-284.04761904761904,-234.68253968253967,-256.58730158730157,-222.3015873015873,183.57142857142856,-228.17460317460316,116.9047619047619,79.44444444444444,244.68253968253967,-175.47619047619045,-294.8412698412698,154.2063492063492,-242.77777777777777,-270.23809523809524,-5.0,-0.7142857142857142,-325.0,-325.0,-325.0,-325.0,-325.0,-321.8253968253968
137,-204.36507936507937,-159.6031746031746,-284.04761904761904,-234.68253968253967,-256.58730158730157,-222.3015873015873,183.57142857142856,-228.17460317460316,116.9047619047619,79.44444444444444,244.68253968253967,-175.47619047619045,-294.8412698412698,154.2063492063492,-242.77777777777777,-270.23809523809524,-5.0,-0.7142857142857142,-325.0,-325.0,-325.0,-325.0,-325.0,-321.8253968253968
138,22.777777777777775,1.507936507936508,-1.349206349206349,-3.73015873015873,-0.7142857142857142,-13.73015873015873,17.698412698412696,-16.26984126984127,27.698412698412696,-14.523809523809524,15.95238095238095,-0.7142857142857142,-4.365079365079365,3.253968253968254,2.142857142857143,-14.206349206349206,-3.095238095238095,0.3968253968253968,-325.0,-325.0,-325.0,-325.0,-325.0,-321.8253968253968
139,22.777777777777775,1.507936507936508,-1.349206349206349,-3.73015873015873,-0.7142857142857142,-13.73015873015873,17.698412698412696,-16.26984126984127,27.698412698412696,-14.523809523809524,15.95238095238095,-0.7142857142857142,-4.365079365079365,3.253968253968254,2.142857142857143,-14.206349206349206,-3.095238095238095,0.3968253968253968,-325.0,-325.0,-325.0,-325.0,-325.0,-321.8253968253968
140,-52.61904761904761,11.19047619047619,-15.0,1.507936507936508,-18.80952380952381,-1.984126984126984,-2.142857142857143,-3.4126984126984126,-25.634920634920633,-0.7142857142857142,-1.8253968253968254,5.952380952380952,-24.206349206349206,7.222222222222221,-11.349206349206348,-8.174603174603174,-3.4126984126984126,0.3968253968253968,-325.0,-325.0,-325.0,-325.0,-325.0,-7.5396825396825395
141,-52.61904761904761,11.19047619047619,-15.0,1.507936507936508,-18.80952380952381,-1.984126984126984,-2.142857142857143,-3.4126984126984126,-25.634920634920633,-0.7142857142857142,-1.8253968253968254,5.952380952380952,-24.206349206349206,7.222222222222221,-11.349206349206348,-8.174603174603174,-3.4126984126984126,0.3968253968253968,-325.0,-325.0,-325.0,-325.0,-325.0,-7.5396825396825395
142,-92.77777777777777,13.253968253968253,-21.984126984126984,2.7777777777777777,-27.22222222222222,3.4126984126984126,-4.841269841269841,1.349206349206349,-53.888888888888886,6.428571428571428,-17.857142857142858,0.3968253968253968,-33.095238095238095,7.3809523809523805,-16.428571428571427,-3.73015873015873,-3.253968253968254,0.3968253968253968,-325.0,-325.0,-325.0,-325.0,-325.0,-7.5396825396825395
143,-92.77777777777777,13.253968253968253,-21.984126984126984,2.7777777777777777,-27.22222222222222,3.4126984126984126,-4.841269841269841,1.349206349206349,-53.888888888888886,6.428571428571428,-17.857142857142858,0.3968253968253968,-33.095238095238095,7.3809523809523805,-16.428571428571427,-3.73015873015873,-3.253968253968254,0.3968253968253968,-325.0,-325.0,-325.0,-325.0,-325.0,-7.5396825396825395
144,-126.42857142857142,2.9365079365079363,-27.38095238095238,1.1904761904761905,-33.41269841269841,-3.571428571428571,-16.11111111111111,1.984126984126984,-66.11111111111111,16.428571428571427,-20.396825396825395,-0.23809523809523808,-39.6031746031746,11.984126984126984,-22.619047619047617,1.8253968253968254,-3.73015873015873,0.7142857142857142,-325.0,-325.0,-325.0,-325.0,-325.0,-7.5396825396825395
145,-126.42857142857142,2.9365079365079363,-27.38095238095238,1.1904761904761905,-33.41269841269841,-3.571428571428571,-16.11111111111111,1.984126984126984,-66.11111111111111,16.428571428571427,-20.396825396825395,-0.23809523809523808,-39.6031746031746,11.984126984126984,-22.619047619047617,1.8253968253968254,-3.73015873015873,0.7142857142857142,-325.0,-325.0,-325.0,-325.0,-325.0,-7.5396825396825395
146,-151.34920634920633,-9.285714285714285,-36.74603174603175,-0.7142857142857142,-47.698412698412696,-3.888888888888889,-35.317460317460316,-0.07936507936507936,-99.28571428571428,7.5396825396825395,-32.61904761904762,-5.0,-51.507936507936506,11.984126984126984,-34.2063492063492,-1.1904761904761905,-3.095238095238095,0.23809523809523808,-325.0,-325.0,-325.0,-325.0,-325.0,-7.5396825396825395
147,-151.34920634920633,-9.285714285714285,-36.74603174603175,-0.7142857142857142,-47.698412698412696,-3.888888888888889,-35.317460317460316,-0.07936507936507936,-99.28571428571428,7.5396825396825395,-32.61904761904762,-5.0,-51.507936507936506,11.984126984126984,-34.2063492063492,-1.1904761904761905,-3.095238095238095,0.23809523809523808,-325.0,-325.0,-325.0,-325.0,-325.0,-7.5396825396825395
148,-162.14285714285714,8.333333333333332,-45.95238095238095,2.142857142857143,-59.6031746031746,-0.873015873015873,-45.0,1.507936507936508,-118.65079365079364,14.523809523809524,-36.42857142857142,10.396825396825395,-64.68253968253968,15.634920634920634,-45.95238095238095,-0.07936507936507936,-3.253968253968254,0.873015873015873,-325.0,-325.0,-325.0,-325.0,-325.0,-7.5396825396825395
149,-162.14285714285714,8.333333333333332,-45.95238095238095,2.142857142857143,-59.6031746031746,-0.873015873015873,-45.0,1.507936507936508,-118.65079365079364,14.523809523809524,-36.42857142857142,10.396825396825395,-64.68253968253968,15.634920634920634,-45.95238095238095,-0.07936507936507936,-3.253968253968254,0.873015873015873,-325.0,-325.0,-325.0,-325.0,-325.0,-7.5396825396825395
150,-178.015873015873,17.22222222222222,-56.74603174603174,6.746031746031746,-73.88888888888889,-8.333333333333332,-53.57142857142857,1.1904761904761905,-152.3015873015873,11.507936507936508,-35.95238095238095,22.777777777777775,-77.22222222222221,19.6031746031746,-57.698412698412696,-0.07936507936507936,-3.095238095238095,0.3968253968253968,-325.0,-325.0,-325.0,-325.0,-325.0,-321.8253968253968
151,-178.015873015873,17.22222222222222,-56.74603174603174,6.746031746031746,-73.88888888888889,-8.333333333333332,-53.57142857142857,1.1904761904761905,-152.3015873015873,11.507936507936508,-35.95238095238095,22.777777777777775,-77.22222222222221,19.6031746031746,-57.698412698412696,-0.07936507936507936,-3.095238095238095,0.3968253968253968,-325.0,-325.0,-325.0,-325.0,-325.0,-321.8253968253968
152,-191.19047619047618,13.253968253968253,-66.9047619047619,3.73015873015873,-87.53968253968253,-11.666666666666666,-66.74603174603175,-4.365079365079365,-165.3174603174603,10.873015873015872,-34.047619047619044,12.619047619047619,-86.42857142857143,14.523809523809524,-66.11111111111111,-2.3015873015873014,-3.095238095238095,0.5555555555555556,-325.0,-325.0,-325.0,-325.0,-325.0,-321.8253968253968
153,-191.19047619047618,13.253968253968253,-66.9047619047619,3.73015873015873,-87.53968253968253,-11.666666666666666,-66.74603174603175,-4.365079365079365,-165.3174603174603,10.873015873015872,-34.047619047619044,12.619047619047619,-86.42857142857143,14.523809523809524,-66.11111111111111,-2.3015873015873014,-3.095238095238095,0.5555555555555556,-325.0,-325.0,-325.0,-325.0,-325.0,-321.8253968253968
154,-195.15873015873015,7.063492063492063,-70.23809523809524,2.46031746031746,-90.87301587301587,-5.634920634920634,-73.57142857142857,-0.3968253968253968,-170.7142857142857,9.444444444444445,-46.58730158730158,1.0317460317460316,-89.76190476190476,13.253968253968253,-68.65079365079364,-1.507936507936508,-3.571428571428571,0.5555555555555556,-325.0,-325.0,-325.0,-325.0,-325.0,-321.8253968253968
155,-195.15873015873015,7.063492063492063,-70.23809523809524,2.46031746031746,-90.87301587301587,-5.634920634920634,-73.57142857142857,-0.3968253968253968,-170.7142857142857,9.444444444444445,-46.58730158730158,1.0317460317460316,-89.76190476190476,13.253968253968253,-68.65079365079364,-1.507936507936508,-3.571428571428571,0.5555555555555556,-325.0,-325.0,-325.0,-325.0,-325.0,-321.8253968253968
156,-192.3015873015873,-0.23809523809523808,-69.28571428571428,-6.746031746031746,-90.71428571428571,-14.682539682539682,-75.63492063492063,-5.0,-171.34920634920633,5.476190476190476,-45.476190476190474,-4.682539682539682,-90.87301587301587,11.507936507936508,-69.12698412698413,-7.063492063492063,-2.7777777777777777,0.7142857142857142,-325.0,-325.0,-325.0,-325.0,-325.0,-321.8253968253968
157,-192.3015873015873,-0.23809523809523808,-69.28571428571428,-6.746031746031746,-90.71428571428571,-14.682539682539682,-75.63492063492063,-5.0,-171.34920634920633,5.476190476190476,-45.476190476190474,-4.682539682539682,-90.87301587301587,11.507936507936508,-69.12698412698413,-7.063492063492063,-2.7777777777777777,0.7142857142857142,-325.0,-325.0,-325.0,-325.0,-325.0,-321.8253968253968
158,-188.65079365079364,7.698412698412698,-69.44444444444444,-2.3015873015873014,-87.85714285714285,-9.126984126984127,-73.25396825396825,-1.1904761904761905,-159.9206349206349,11.984126984126984,-44.84126984126984,2.7777777777777777,-90.71428571428571,18.49206349206349,-69.92063492063491,-4.365079365079365,-3.253968253968254,0.873015873015873,-325.0,-325.0,-325.0,-325.0,-325.0,-321.8253968253968
159,-188.65079365079364,7.698412698412698,-69.44444444444444,-2.3015873015873014,-87.85714285714285,-9.126984126984127,-73.25396825396825,-1.1904761904761905,-159.9206349206349,11.984126984126984,-44.84126984126984,2.7777777777777777,-90.71428571428571,18.49206349206349,-69.92063492063491,-4.365079365079365,-3.253968253968254,0.873015873015873,-325.0,-325.0,-325.0,-325.0,-325.0,-321.8253968253968
160,-186.11111111111111,0.07936507936507936,-66.58730158730158,-7.3809523809523805,-85.31746031746032,-12.142857142857142,-62.14285714285714,-6.587301587301587,-139.9206349206349,7.698412698412698,-27.539682539682538,-1.349206349206349,-86.9047619047619,15.793650793650793,-64.2063492063492,-9.444444444444445,-3.4126984126984126,0.3968253968253968,-325.0,-325.0,-325.0,-325.0,-325.0,-7.5396825396825395
161,-186.11111111111111,0.07936507936507936,-66.58730158730158,-7.3809523809523805,-85.31746031746032,-12.142857142857142,-62.14285714285714,-6.587301587301587,-139.9206349206349,7.698412698412698,-27.539682539682538,-1.349206349206349,-86.9047619047619,15.793650793650793,-64.2063492063492,-9.444444444444445,-3.4126984126984126,0.3968253968253968,-325.0,-325.0,-325.0,-325.0,-325.0,-7.5396825396825395
162,-181.5079365079365,9.603174603174603,-65.15873015873015,0.3968253968253968,-83.73015873015872,-11.19047619047619,-58.17460317460317,-5.634920634920634,-133.4126984126984,10.396825396825395,-26.9047619047619,5.634920634920634,-81.82539682539682,20.07936507936508,-56.74603174603174,-4.841269841269841,-3.73015873015873,0.3968253968253968,-325.0,-325.0,-325.0,-325.0,-325.0,-7.5396825396825395
163,-181.5079365079365,9.603174603174603,-65.15873015873015,0.3968253968253968,-83.73015873015872,-11.19047619047619,-58.17460317460317,-5.634920634920634,-133.4126984126984,10.396825396825395,-26.9047619047619,5.634920634920634,-81.82539682539682,20.07936507936508,-56.74603174603174,-4.841269841269841,-3.73015873015873,0.3968253968253968,-325.0,-325.0,-325.0,-325.0,-325.0,-7.5396825396825395
164,-181.03174603174602,-4.682539682539682,-62.460317460317455,-4.841269841269841,-79.76190476190476,-28.333333333333332,-58.49206349206349,-9.920634920634921,-118.65079365079364,1.984126984126984,-20.555555555555554,5.476190476190476,-77.22222222222221,12.777777777777777,-50.87301587301587,-4.523809523809524,-3.4126984126984126,0.07936507936507936,-325.0,-325.0,-325.0,-325.0,-325.0,-7.5396825396825395
165,-181.03174603174602,-4.682539682539682,-62.460317460317455,-4.841269841269841,-79.76190476190476,-28.333333333333332,-58.49206349206349,-9.920634920634921,-118.65079365079364,1.984126984126984,-20.555555555555554,5.476190476190476,-77.22222222222221,12.777777777777777,-50.87301587301587,-4.523809523809524,-3.4126984126984126,0.07936507936507936,-325.0,-325.0,-325.0,-325.0,-325.0,-7.5396825396825395
166,-173.57142857142856,2.46031746031746,-59.44444444444444,-0.873015873015873,-72.3015873015873,-16.11111111111111,-59.44444444444444,-3.571428571428571,-114.04761904761904,2.619047619047619,-34.2063492063492,3.571428571428571,-71.34920634920634,13.888888888888888,-45.79365079365079,1.1904761904761905,-3.253968253968254,-0.07936507936507936,-325.0,-325.0,-325.0,-325.0,-325.0,-7.5396825396825395
167,-173.57142857142856,2.46031746031746,-59.44444444444444,-0.873015873015873,-72.3015873015873,-16.11111111111111,-59.44444444444444,-3.571428571428571,-114.04761904761904,2.619047619047619,-34.2063492063492,3.571428571428571,-71.34920634920634,13.888888888888888,-45.79365079365079,1.1904761904761905,-3.253968253968254,-0.07936507936507936,-325.0,-325.0,-325.0,-325.0,-325.0,-7.5396825396825395
168,-150.3968253968254,5.476190476190476,-50.39682539682539,3.4126984126984126,-59.12698412698413,-6.746031746031746,-58.01587301587301,2.619047619047619,-102.30158730158729,6.111111111111111,-28.65079365079365,5.634920634920634,-62.3015873015873,10.079365079365079,-40.238095238095234,3.73015873015873,-4.0476190476190474,-0.5555555555555556,-325.0,-325.0,-325.0,-325.0,-325.0,-7.5396825396825395
169,-150.3968253968254,5.476190476190476,-50.39682539682539,3.4126984126984126,-59.12698412698413,-6.746031746031746,-58.01587301587301,2.619047619047619,-102.30158730158729,6.111111111111111,-28.65079365079365,5.634920634920634,-62.3015873015873,10.079365079365079,-40.238095238095234,3.73015873015873,-4.0476190476190474,-0.5555555555555556,-325.0,-325.0,-325.0,-325.0,-325.0,-7.5396825396825395
170,-134.68253968253967,2.3015873015873014,-41.666666666666664,9.603174603174603,-47.857142857142854,-10.873015873015872,-54.36507936507936,2.142857142857143,-79.28571428571428,0.07936507936507936,-30.555555555555554,-4.365079365079365,-53.25396825396825,5.7936507936507935,-31.98412698412698,0.873015873015873,-3.095238095238095,-0.5555555555555556,-325.0,-325.0,-325.0,-325.0,-325.0,-321.8253968253968
171,-134.68253968253967,2.3015873015873014,-41.666666666666664,9.603174603174603,-47.857142857142854,-10.873015873015872,-54.36507936507936,2.142857142857143,-79.28571428571428,0.07936507936507936,-30.555555555555554,-4.365079365079365,-53.25396825396825,5.7936507936507935,-31.98412698412698,0.873015873015873,-3.095238095238095,-0.5555555555555556,-325.0,-325.0,-325.0,-325.0,-325.0,-321.8253968253968
172,-110.55555555555554,-5.7936507936507935,-35.63492063492063,1.6666666666666665,-42.61904761904761,-5.952380952380952,-54.047619047619044,2.46031746031746,-65.63492063492063,-3.253968253968254,-29.285714285714285,-9.920634920634921,-47.38095238095238,-2.619047619047619,-30.71428571428571,0.07936507936507936,-3.253968253968254,0.07936507936507936,-325.0,-325.0,-325.0,-325.0,-325.0,-321.8253968253968
173,-110.55555555555554,-5.7936507936507935,-35.63492063492063,1.6666666666666665,-42.61904761904761,-5.952380952380952,-54.047619047619044,2.46031746031746,-65.63492063492063,-3.253968253968254,-29.285714285714285,-9.920634920634921,-47.38095238095238,-2.619047619047619,-30.71428571428571,0.07936507936507936,-3.253968253968254,0.07936507936507936,-325.0,-325.0,-325.0,-325.0,-325.0,-321.8253968253968
174,-109.12698412698413,-6.587301587301587,-32.77777777777778,5.0,-36.74603174603175,-8.968253968253968,-46.269841269841265,2.619047619047619,-56.42857142857142,-2.7777777777777777,-30.07936507936508,-12.142857142857142,-41.98412698412698,-3.095238095238095,-24.84126984126984,2.46031746031746,-3.888888888888889,-0.3968253968253968,-325.0,-325.0,-325.0,-325.0,-325.0,-321.8253968253968
175,-109.12698412698413,-6.587301587301587,-32.77777777777778,5.0,-36.74603174603175,-8.968253968253968,-46.269841269841265,2.619047619047619,-56.42857142857142,-2.7777777777777777,-30.07936507936508,-12.142857142857142,-41.98412698412698,-3.095238095238095,-24.84126984126984,2.46031746031746,-3.888888888888889,-0.3968253968253968,-325.0,-325.0,-325.0,-325.0,-325.0,-321.8253968253968
176,-88.80952380952381,-4.682539682539682,-28.49206349206349,2.619047619047619,-30.396825396825395,2.7777777777777777,-44.2063492063492,0.5555555555555556,-63.888888888888886,-10.238095238095237,-29.76190476190476,-9.603174603174603,-37.53968253968254,-7.857142857142857,-25.0,0.23809523809523808,-4.365079365079365,-0.07936507936507936,-325.0,-325.0,-325.0,-325.0,-325.0,-321.8253968253968
177,-88.80952380952381,-4.682539682539682,-28.49206349206349,2.619047619047619,-30.396825396825395,2.7777777777777777,-44.2063492063492,0.5555555555555556,-63.888888888888886,-10.238095238095237,-29.76190476190476,-9.603174603174603,-37.53968253968254,-7.857142857142857,-25.0,0.23809523809523808,-4.365079365079365,-0.07936507936507936,-325.0,-325.0,-325.0,-325.0,-325.0,-321.8253968253968
178,-74.36507936507937,7.5396825396825395,-24.206349206349206,10.238095238095237,-23.253968253968253,-2.46031746031746,-35.63492063492063,6.746031746031746,-35.63492063492063,0.5555555555555556,-21.984126984126984,3.253968253968254,-30.71428571428571,-0.5555555555555556,-16.587301587301585,5.317460317460317,-3.888888888888889,-0.3968253968253968,-325.0,-325.0,-325.0,-325.0,-325.0,-321.8253968253968
179,-74.36507936507937,7.5396825396825395,-24.206349206349206,10.238095238095237,-23.253968253968253,-2.46031746031746,-35.63492063492063,6.746031746031746,-35.63492063492063,0.5555555555555556,-21.984126984126984,3.253968253968254,-30.71428571428571,-0.5555555555555556,-16.587301587301585,5.317460317460317,-3.888888888888889,-0.3968253968253968,-325.0,-325.0,-325.0,-325.0,-325.0,-321.8253968253968
180,-57.22222222222222,9.126984126984127,-18.333333333333332,10.396825396825395,-12.777777777777777,1.507936507936508,-31.98412698412698,8.968253968253968,-27.22222222222222,-0.3968253968253968,-19.444444444444443,-0.23809523809523808,-23.88888888888889,-1.0317460317460316,-12.777777777777777,2.9365079365079363,-3.888888888888889,-0.3968253968253968,-325.0,-325.0,-325.0,-325.0,-325.0,-7.5396825396825395
181,-57.22222222222222,9.126984126984127,-18.333333333333332,10.396825396825395,-12.777777777777777,1.507936507936508,-31.98412698412698,8.968253968253968,-27.22222222222222,-0.3968253968253968,-19.444444444444443,-0.23809523809523808,-23.88888888888889,-1.0317460317460316,-12.777777777777777,2.9365079365079363,-3.888888888888889,-0.3968253968253968,-325.0,-325.0,-325.0,-325.0,-325.0,-7.5396825396825395
182,-38.80952380952381,3.095238095238095,-18.80952380952381,5.952380952380952,-11.349206349206348,-1.1904761904761905,-26.746031746031743,4.0476190476190474,-21.19047619047619,-3.095238095238095,-24.365079365079364,-6.26984126984127,-19.6031746031746,-3.095238095238095,-9.444444444444445,2.619047619047619,-4.682539682539682,0.5555555555555556,-325.0,-325.0,-325.0,-325.0,-325.0,-7.5396825396825395
183,-38.80952380952381,3.095238095238095,-18.80952380952381,5.952380952380952,-11.349206349206348,-1.1904761904761905,-26.746031746031743,4.0476190476190474,-21.19047619047619,-3.095238095238095,-24.365079365079364,-6.26984126984127,-19.6031746031746,-3.095238095238095,-9.444444444444445,2.619047619047619,-4.682539682539682,0.5555555555555556,-325.0,-325.0,-325.0,-325.0,-325.0,-7.5396825396825395
184,-25.476190476190474,6.746031746031746,-18.80952380952381,7.5396825396825395,-15.634920634920634,-5.158730158730158,-20.396825396825395,1.0317460317460316,-11.507936507936508,-3.73015873015873,-17.22222222222222,2.46031746031746,-18.96825396825397,3.888888888888889,-13.253968253968253,-1.0317460317460316,-4.2063492063492065,0.5555555555555556,-325.0,-325.0,-325.0,-325.0,-325.0,-7.5396825396825395
185,-25.476190476190474,6.746031746031746,-18.80952380952381,7.5396825396825395,-15.634920634920634,-5.158730158730158,-20.396825396825395,1.0317460317460316,-11.507936507936508,-3.73015873015873,-17.22222222222222,2.46031746031746,-18.96825396825397,3.888888888888889,-13.253968253968253,-1.0317460317460316,-4.2063492063492065,0.5555555555555556,-325.0,-325.0,-325.0,-325.0,-325.0,-7.5396825396825395
186,-11.507936507936508,5.158730158730158,-16.428571428571427,4.0476190476190474,-14.682539682539682,1.349206349206349,-18.65079365079365,-2.7777777777777777,-6.26984126984127,-8.492063492063492,-13.412698412698411,-2.3015873015873014,-17.063492063492063,4.841269841269841,-12.3015873015873,-4.523809523809524,-2.7777777777777777,0.5555555555555556,-325.0,-325.0,-325.0,-325.0,-325.0,-7.5396825396825395
187,-11.507936507936508,5.158730158730158,-16.428571428571427,4.0476190476190474,-14.682539682539682,1.349206349206349,-18.65079365079365,-2.7777777777777777,-6.26984126984127,-8.492063492063492,-13.412698412698411,-2.3015873015873014,-17.063492063492063,4.841269841269841,-12.3015873015873,-4.523809523809524,-2.7777777777777777,0.5555555555555556,-325.0,-325.0,-325.0,-325.0,-325.0,-7.5396825396825395
188,-7.857142857142857,-6.904761904761904,-17.857142857142858,-1.8253968253968254,-14.206349206349206,-4.523809523809524,-11.507936507936508,-10.079365079365079,2.7777777777777777,-17.857142857142858,-6.587301587301587,-6.111111111111111,-13.73015873015873,-2.7777777777777777,-10.238095238095237,-16.746031746031743,-3.571428571428571,0.07936507936507936,-325.0,-325.0,-325.0,-325.0,-325.0,-7.5396825396825395
189,-7.857142857142857,-6.904761904761904,-17.857142857142858,-1.8253968253968254,-14.206349206349206,-4.523809523809524,-11.507936507936508,-10.079365079365079,2.7777777777777777,-17.857142857142858,-6.587301587301587,-6.111111111111111,-13.73015873015873,-2.7777777777777777,-10.238095238095237,-16.746031746031743,-3.571428571428571,0.07936507936507936,-325.0,-325.0,-325.0,-325.0,-325.0,-7.5396825396825395
190,0.3968253968253968,-7.857142857142857,-19.6031746031746,-5.7936507936507935,-16.26984126984127,-14.047619047619047,-11.984126984126984,-15.158730158730158,2.9365079365079363,-25.317460317460316,-4.682539682539682,-0.5555555555555556,-13.095238095238095,-2.3015873015873014,-10.555555555555555,-13.571428571428571,-3.73015873015873,0.07936507936507936,-325.0,-325.0,-325.0,-325.0,-325.0,-321.8253968253968
191,0.3968253968253968,-7.857142857142857,-19.6031746031746,-5.7936507936507935,-16.26984126984127,-14.047619047619047,-11.984126984126984,-15.158730158730158,2.9365079365079363,-25.317460317460316,-4.682539682539682,-0.5555555555555556,-13.095238095238095,-2.3015873015873014,-10.555555555555555,-13.571428571428571,-3.73015873015873,0.07936507936507936,-325.0,-325.0,-325.0,-325.0,-325.0,-321.8253968253968
192,-6.904761904761904,-18.49206349206349,-20.555555555555554,-16.428571428571427,-13.095238095238095,-18.333333333333332,-13.095238095238095,-14.365079365079364,-0.07936507936507936,-22.3015873015873,-2.619047619047619,-12.142857142857142,-10.238095238095237,-5.952380952380952,-7.857142857142857,-10.873015873015872,-4.0476190476190474,-0.07936507936507936,-325.0,-325.0,-325.0,-325.0,-325.0,-321.8253968253968
193,-6.904761904761904,-18.49206349206349,-20.555555555555554,-16.428571428571427,-13.095238095238095,-18.333333333333332,-13.095238095238095,-14.365079365079364,-0.07936507936507936,-22.3015873015873,-2.619047619047619,-12.142857142857142,-10.238095238095237,-5.952380952380952,-7.857142857142857,-10.873015873015872,-4.0476190476190474,-0.07936507936507936,-325.0,-325.0,-325.0,-325.0,-325.0,-321.8253968253968
194,7.222222222222221,-6.904761904761904,-16.746031746031743,-7.222222222222221,-11.666666666666666,-16.428571428571427,-11.666666666666666,-12.46031746031746,-0.07936507936507936,-18.015873015873016,17.38095238095238,-3.095238095238095,-8.809523809523808,-5.952380952380952,-6.746031746031746,-11.19047619047619,-3.253968253968254,0.3968253968253968,-325.0,-325.0,-325.0,-325.0,-325.0,-321.8253968253968
195,7.222222222222221,-6.904761904761904,-16.746031746031743,-7.222222222222221,-11.666666666666666,-16.428571428571427,-11.666666666666666,-12.46031746031746,-0.07936507936507936,-18.015873015873016,17.38095238095238,-3.095238095238095,-8.809523809523808,-5.952380952380952,-6.746031746031746,-11.19047619047619,-3.253968253968254,0.3968253968253968,-325.0,-325.0,-325.0,-325.0,-325.0,-321.8253968253968
196,14.523809523809524,-9.444444444444445,-14.365079365079364,-6.587301587301587,-6.904761904761904,-14.523809523809524,-0.5555555555555556,-10.714285714285714,-0.07936507936507936,-16.11111111111111,11.031746031746032,-1.349206349206349,-5.952380952380952,-5.634920634920634,-2.142857142857143,-6.428571428571428,-3.4126984126984126,-0.07936507936507936,-325.0,-325.0,-325.0,-325.0,-325.0,-321.8253968253968
197,14.523809523809524,-9.444444444444445,-14.365079365079364,-6.587301587301587,-6.904761904761904,-14.523809523809524,-0.5555555555555556,-10.714285714285714,-0.07936507936507936,-16.11111111111111,11.031746031746032,-1.349206349206349,-5.952380952380952,-5.634920634920634,-2.142857142857143,-6.428571428571428,-3.4126984126984126,-0.07936507936507936,-325.0,-325.0,-325.0,-325.0,-325.0,-321.8253968253968
198,16.587301587301585,0.5555555555555556,-11.19047619047619,-1.507936507936508,-2.142857142857143,2.9365079365079363,-0.07936507936507936,-4.365079365079365,-0.07936507936507936,-11.349206349206348,18.015873015873016,5.634920634920634,-3.253968253968254,-6.904761904761904,2.7777777777777777,-5.476190476190476,-3.571428571428571,0.23809523809523808,-325.0,-325.0,-325.0,-325.0,-325.0,-321.8253968253968
199,16.587301587301585,0.5555555555555556,-11.19047619047619,-1.507936507936508,-2.142857142857143,2.9365079365079363,-0.07936507936507936,-4.365079365079365,-0.07936507936507936,-11.349206349206348,18.015873015873016,5.634920634920634,-3.253968253968254,-6.904761904761904,2.7777777777777777,-5.476190476190476,-3.571428571428571,0.23809523809523808,-325.0,-325.0,-325.0,-325.0,-325.0,-321.8253968253968
200,0.5555555555555556,-282.46031746031747,-263.25396825396825,-273.25396825396825,-280.07936507936506,-271.984126984127,325.0,-275.1587301587301,325.0,177.38095238095238,303.57142857142856,-204.52380952380952,-210.07936507936506,284.04761904761904,-218.8095238095238,-268.968253968254,-3.73015873015873,-1.507936507936508,-325.0,-325.0,-325.0,-325.0,-325.0,-7.5396825396825395
201,0.5555555555555556,-282.46031746031747,-263.25396825396825,-273.25396825396825,-280.07936507936506,-271.984126984127,325.0,-275.1587301587301,325.0,177.38095238095238,303.57142857142856,-204.52380952380952,-210.07936507936506,284.04761904761904,-218.8095238095238,-268.968253968254,-3.73015873015873,-1.507936507936508,-325.0,-325.0,-325.0,-325.0,-325.0,-7.5396825396825395
202,38.49206349206349,-8.174603174603174,2.3015873015873014,-7.857142857142857,7.698412698412698,-11.19047619047619,-0.07936507936507936,-12.936507936507935,-0.07936507936507936,-27.22222222222222,15.0,-9.126984126984127,2.7777777777777777,-11.825396825396824,3.571428571428571,-11.19047619047619,-2.142857142857143,0.5555555555555556,-325.0,-325.0,-325.0,-325.0,-325.0,-7.5396825396825395
203,38.49206349206349,-8.174603174603174,2.3015873015873014,-7.857142857142857,7.698412698412698,-11.19047619047619,-0.07936507936507936,-12.936507936507935,-0.07936507936507936,-27.22222222222222,15.0,-9.126984126984127,2.7777777777777777,-11.825396825396824,3.571428571428571,-11.19047619047619,-2.142857142857143,0.5555555555555556,-325.0,-325.0,-325.0,-325.0,-325.0,-7.5396825396825395
204,26.428571428571427,7.3809523809523805,3.253968253968254,1.6666666666666665,7.857142857142857,2.142857142857143,-0.07936507936507936,-0.7142857142857142,-0.07936507936507936,-5.0,-0.07936507936507936,9.761904761904761,4.0476190476190474,-4.365079365079365,5.476190476190476,1.6666666666666665,-3.095238095238095,0.5555555555555556,-325.0,-325.0,-325.0,-325.0,-325.0,-7.5396825396825395
205,26.428571428571427,7.3809523809523805,3.253968253968254,1.6666666666666665,7.857142857142857,2.142857142857143,-0.07936507936507936,-0.7142857142857142,-0.07936507936507936,-5.0,-0.07936507936507936,9.761904761904761,4.0476190476190474,-4.365079365079365,5.476190476190476,1.6666666666666665,-3.095238095238095,0.5555555555555556,-325.0,-325.0,-325.0,-325.0,-325.0,-7.5396825396825395
206,30.238095238095237,13.095238095238095,4.523809523809524,9.920634920634921,3.253968253968254,6.587301587301587,-0.07936507936507936,1.984126984126984,-0.07936507936507936,-4.682539682539682,-0.07936507936507936,11.19047619047619,5.476190476190476,-4.523809523809524,6.587301587301587,3.571428571428571,-2.619047619047619,0.23809523809523808,-325.0,-325.0,-325.0,-325.0,-325.0,-7.5396825396825395
207,30.238095238095237,13.095238095238095,4.523809523809524,9.920634920634921,3.253968253968254,6.587301587301587,-0.07936507936507936,1.984126984126984,-0.07936507936507936,-4.682539682539682,-0.07936507936507936,11.19047619047619,5.476190476190476,-4.523809523809524,6.587301587301587,3.571428571428571,-2.619047619047619,0.23809523809523808,-325.0,-325.0,-325.0,-325.0,-325.0,-7.5396825396825395
208,32.61904761904762,5.7936507936507935,2.619047619047619,3.571428571428571,-0.07936507936507936,4.365079365079365,-0.07936507936507936,4.841269841269841,-0.07936507936507936,-3.73015873015873,-0.07936507936507936,11.984126984126984,7.222222222222221,-1.0317460317460316,8.968253968253968,2.9365079365079363,-3.253968253968254,0.3968253968253968,-325.0,-325.0,-325.0,-325.0,-325.0,-7.5396825396825395
209,32.61904761904762,5.7936507936507935,2.619047619047619,3.571428571428571,-0.07936507936507936,4.365079365079365,-0.07936507936507936,4.841269841269841,-0.07936507936507936,-3.73015873015873,-0.07936507936507936,11.984126984126984,7.222222222222221,-1.0317460317460316,8.968253968253968,2.9365079365079363,-3.253968253968254,0.3968253968253968,-325.0,-325.0,-325.0,-325.0,-325.0,-7.5396825396825395
210,30.555555555555554,5.0,-0.07936507936507936,-0.07936507936507936,-0.07936507936507936,-0.07936507936507936,-0.07936507936507936,0.5555555555555556,-0.07936507936507936,4.2063492063492065,-0.07936507936507936,13.412698412698411,8.492063492063492,-0.07936507936507936,8.015873015873016,-0.07936507936507936,-3.095238095238095,0.873015873015873,-325.0,-325.0,-325.0,-325.0,-325.0,-321.8253968253968
211,30.555555555555554,5.0,-0.07936507936507936,-0.07936507936507936,-0.07936507936507936,-0.07936507936507936,-0.07936507936507936,0.5555555555555556,-0.07936507936507936,4.2063492063492065,-0.07936507936507936,13.412698412698411,8.492063492063492,-0.07936507936507936,8.015873015873016,-0.07936507936507936,-3.095238095238095,0.873015873015873,-325.0,-325.0,-325.0,-325.0,-325.0,-321.8253968253968
212,33.57142857142857,-0.07936507936507936,-0.07936507936507936,-0.07936507936507936,-0.07936507936507936,-0.07936507936507936,-0.07936507936507936,-0.07936507936507936,-0.07936507936507936,0.07936507936507936,-0.07936507936507936,9.761904761904761,9.603174603174603,-0.07936507936507936,8.809523809523808,-0.07936507936507936,-3.4126984126984126,0.07936507936507936,-325.0,-325.0,-325.0,-325.0,-325.0,-321.8253968253968
213,33.57142857142857,-0.07936507936507936,-0.07936507936507936,-0.07936507936507936,-0.07936507936507936,-0.07936507936507936,-0.07936507936507936,-0.07936507936507936,-0.07936507936507936,0.07936507936507936,-0.07936507936507936,9.761904761904761,9.603174603174603,-0.07936507936507936,8.809523809523808,-0.07936507936507936,-3.4126984126984126,0.07936507936507936,-325.0,-325.0,-325.0,-325.0,-325.0,-321.8253968253968
214,30.87301587301587,-0.07936507936507936,-0.07936507936507936,-0.07936507936507936,-0.07936507936507936,-0.07936507936507936,-0.07936507936507936,-0.07936507936507936,-0.07936507936507936,3.4126984126984126,-0.07936507936507936,6.746031746031746,4.841269841269841,-0.07936507936507936,7.063492063492063,-0.07936507936507936,-3.73015873015873,0.23809523809523808,-325.0,-325.0,-325.0,-325.0,-325.0,-321.8253968253968
215,30.87301587301587,-0.07936507936507936,-0.07936507936507936,-0.07936507936507936,-0.07936507936507936,-0.07936507936507936,-0.07936507936507936,-0.07936507936507936,-0.07936507936507936,3.4126984126984126,-0.07936507936507936,6.746031746031746,4.841269841269841,-0.07936507936507936,7.063492063492063,-0.07936507936507936,-3.73015873015873,0.23809523809523808,-325.0,-325.0,-325.0,-325.0,-325.0,-321.8253968253968
216,25.0,-0.07936507936507936,-0.07936507936507936,-0.07936507936507936,-0.07936507936507936,-0.07936507936507936,-0.07936507936507936,-0.07936507936507936,-0.07936507936507936,8.174603174603174,-0.07936507936507936,11.825396825396824,-0.07936507936507936,-0.07936507936507936,1.507936507936508,-0.07936507936507936,-2.9365079365079363,1.1904761904761905,-325.0,-325.0,-325.0,-325.0,-325.0,-321.8253968253968
217,25.0,-0.07936507936507936,-0.07936507936507936,-0.07936507936507936,-0.07936507936507936,-0.07936507936507936,-0.07936507936507936,-0.07936507936507936,-0.07936507936507936,8.174603174603174,-0.07936507936507936,11.825396825396824,-0.07936507936507936,-0.07936507936507936,1.507936507936508,-0.07936507936507936,-2.9365079365079363,1.1904761904761905,-325.0,-325.0,-325.0,-325.0,-325.0,-321.8253968253968
218,26.9047619047619,-0.07936507936507936,-0.07936507936507936,-0.07936507936507936,-0.07936507936507936,-0.07936507936507936,-0.07936507936507936,-0.07936507936507936,-0.07936507936507936,4.365079365079365,-0.07936507936507936,12.777777777777777,-0.07936507936507936,-0.07936507936507936,-0.07936507936507936,-0.07936507936507936,-2.9365079365079363,0.7142857142857142,-325.0,-325.0,-325.0,-325.0,-325.0,-321.8253968253968
219,26.9047619047619,-0.07936507936507936,-0.07936507936507936,-0.07936507936507936,-0.07936507936507936,-0.07936507936507936,-0.07936507936507936,-0.07936507936507936,-0.07936507936507936,4.365079365079365,-0.07936507936507936,12.777777777777777,-0.07936507936507936,-0.07936507936507936,-0.07936507936507936,-0.07936507936507936,-2.9365079365079363,0.7142857142857142,-325.0,-325.0,-325.0,-325.0,-325.0,-321.8253968253968
220,18.96825396825397,-0.07936507936507936,-0.07936507936507936,-0.07936507936507936,-0.07936507936507936,-0.07936507936507936,-0.07936507936507936,-0.07936507936507936,-0.07936507936507936,16.904761904761905,-0.07936507936507936,18.333333333333332,-0.07936507936507936,-0.07936507936507936,-0.07936507936507936,-0.07936507936507936,-2.619047619047619,0.5555555555555556,-325.0,-325.0,-325.0,-325.0,-325.0,-7.5396825396825395
221,18.96825396825397,-0.07936507936507936,-0.07936507936507936,-0.07936507936507936,-0.07936507936507936,-0.07936507936507936,-0.07936507936507936,-0.07936507936507936,-0.07936507936507936,16.904761904761905,-0.07936507936507936,18.333333333333332,-0.07936507936507936,-0.07936507936507936,-0.07936507936507936,-0.07936507936507936,-2.619047619047619,0.5555555555555556,-325.0,-325.0,-325.0,-325.0,-325.0,-7.5396825396825395
222,23.41269841269841,-0.07936507936507936,-0.07936507936507936,-0.07936507936507936,-0.07936507936507936,-0.07936507936507936,-0.07936507936507936,-0.07936507936507936,-0.07936507936507936,18.96825396825397,-0.07936507936507936,21.507936507936506,-0.07936507936507936,-0.07936507936507936,-0.07936507936507936,-0.07936507936507936,-2.46031746031746,1.0317460317460316,-325.0,-325.0,-325.0,-325.0,-325.0,-7.5396825396825395
223,23.41269841269841,-0.07936507936507936,-0.07936507936507936,-0.07936507936507936,-0.07936507936507936,-0.07936507936507936,-0.07936507936507936,-0.07936507936507936,-0.07936507936507936,18.96825396825397,-0.07936507936507936,21.507936507936506,-0.07936507936507936,-0.07936507936507936,-0.07936507936507936,-0.07936507936507936,-2.46031746031746,1.0317460317460316,-325.0,-325.0,-325.0,-325.0,-325.0,-7.5396825396825395
224,21.825396825396822,-0.07936507936507936,-0.07936507936507936,-0.07936507936507936,-0.07936507936507936,-0.07936507936507936,-0.07936507936507936,-0.07936507936507936,-0.07936507936507936,20.873015873015873,-0.07936507936507936,22.619047619047617,-0.07936507936507936,-0.07936507936507936,-0.07936507936507936,-0.07936507936507936,-2.46031746031746,0.5555555555555556,-325.0,-325.0,-325.0,-325.0,-325.0,-7.5396825396825395
225,21.825396825396822,-0.07936507936507936,-0.07936507936507936,-0.07936507936507936,-0.07936507936507936,-0.07936507936507936,-0.07936507936507936,-0.07936507936507936,-0.07936507936507936,20.873015873015873,-0.07936507936507936,22.619047619047617,-0.07936507936507936,-0.07936507936507936,-0.07936507936507936,-0.07936507936507936,-2.46031746031746,0.5555555555555556,-325.0,-325.0,-325.0,-325.0,-325.0,-7.5396825396825395
226,26.9047619047619,-0.07936507936507936,-0.07936507936507936,-0.07936507936507936,-0.07936507936507936,-0.07936507936507936,-0.07936507936507936,-0.07936507936507936,-0.07936507936507936,20.555555555555554,-0.07936507936507936,25.952380952380953,-0.07936507936507936,-0.07936507936507936,-0.07936507936507936,-0.07936507936507936,-2.46031746031746,1.1904761904761905,-325.0,-325.0,-325.0,-325.0,-325.0,-7.5396825396825395
227,26.9047619047619,-0.07936507936507936,-0.07936507936507936,-0.07936507936507936,-0.07936507936507936,-0.07936507936507936,-0.07936507936507936,-0.07936507936507936,-0.07936507936507936,20.555555555555554,-0.07936507936507936,25.952380952380953,-0.07936507936507936,-0.07936507936507936,-0.07936507936507936,-0.07936507936507936,-2.46031746031746,1.1904761904761905,-325.0,-325.0,-325.0,-325.0,-325.0,-7.5396825396825395
228,27.063492063492063,-0.07936507936507936,-0.07936507936507936,-0.07936507936507936,-0.07936507936507936,-0.07936507936507936,-0.07936507936507936,-0.07936507936507936,-0.07936507936507936,19.6031746031746,-0.07936507936507936,28.65079365079365,-0.07936507936507936,-0.07936507936507936,-0.07936507936507936,-0.07936507936507936,-3.095238095238095,0.5555555555555556,-325.0,-325.0,-325.0,-325.0,-325.0,-7.5396825396825395
229,27.063492063492063,-0.07936507936507936,-0.07936507936507936,-0.07936507936507936,-0.07936507936507936,-0.07936507936507936,-0.07936507936507936,-0.07936507936507936,-0.07936507936507936,19.6031746031746,-0.07936507936507936,28.65079365079365,-0.07936507936507936,-0.07936507936507936,-0.07936507936507936,-0.07936507936507936,-3.095238095238095,0.5555555555555556,-325.0,-325.0,-325.0,-325.0,-325.0,-7.5396825396825395
230,26.11111111111111,-0.07936507936507936,-0.07936507936507936,-0.07936507936507936,-0.07936507936507936,-0.07936507936507936,-0.07936507936507936,-0.07936507936507936,-0.07936507936507936,22.46031746031746,-0.07936507936507936,19.126984126984127,-0.07936507936507936,-0.07936507936507936,-0.07936507936507936,-0.07936507936507936,-3.095238095238095,1.1904761904761905,-325.0,-325.0,-325.0,-325.0,-325.0,-321.8253968253968
231,26.11111111111111,-0.07936507936507936,-0.07936507936507936,-0.07936507936507936,-0.07936507936507936,-0.07936507936507936,-0.07936507936507936,-0.07936507936507936,-0.07936507936507936,22.46031746031746,-0.07936507936507936,19.126984126984127,-0.07936507936507936,-0.07936507936507936,-0.07936507936507936,-0.07936507936507936,-3.095238095238095,1.1904761904761905,-325.0,-325.0,-325.0,-325.0,-325.0,-321.8253968253968
232,26.26984126984127,-0.07936507936507936,-0.07936507936507936,-0.07936507936507936,-0.07936507936507936,-0.07936507936507936,-0.07936507936507936,-0.07936507936507936,-0.07936507936507936,22.142857142857142,-0.07936507936507936,18.80952380952381,-0.07936507936507936,-0.07936507936507936,-0.07936507936507936,-0.07936507936507936,-3.253968253968254,1.1904761904761905,-325.0,-325.0,-325.0,-325.0,-325.0,-321.8253968253968
233,26.26984126984127,-0.07936507936507936,-0.07936507936507936,-0.07936507936507936,-0.07936507936507936,-0.07936507936507936,-0.07936507936507936,-0.07936507936507936,-0.07936507936507936,22.142857142857142,-0.07936507936507936,18.80952380952381,-0.07936507936507936,-0.07936507936507936,-0.07936507936507936,-0.07936507936507936,-3.253968253968254,1.1904761904761905,-325.0,-325.0,-325.0,-325.0,-325.0,-321.8253968253968
234,31.507936507936506,-0.07936507936507936,-0.07936507936507936,-0.07936507936507936,-0.07936507936507936,-0.07936507936507936,-0.07936507936507936,-0.07936507936507936,-0.07936507936507936,22.46031746031746,-0.07936507936507936,19.92063492063492,-0.07936507936507936,-0.07936507936507936,-0.07936507936507936,-0.07936507936507936,-3.4126984126984126,1.0317460317460316,-325.0,-325.0,-325.0,-325.0,-325.0,-321.8253968253968
235,31.507936507936506,-0.07936507936507936,-0.07936507936507936,-0.07936507936507936,-0.07936507936507936,-0.07936507936507936,-0.07936507936507936,-0.07936507936507936,-0.07936507936507936,22.46031746031746,-0.07936507936507936,19.92063492063492,-0.07936507936507936,-0.07936507936507936,-0.07936507936507936,-0.07936507936507936,-3.4126984126984126,1.0317460317460316,-325.0,-325.0,-325.0,-325.0,-325.0,-321.8253968253968
236,34.84126984126984,-0.07936507936507936,-0.07936507936507936,-0.07936507936507936,-0.07936507936507936,-0.07936507936507936,-0.07936507936507936,-0.07936507936507936,-0.07936507936507936,28.96825396825397,-0.07936507936507936,23.88888888888889,-0.07936507936507936,-0.07936507936507936,-0.07936507936507936,-0.07936507936507936,-3.095238095238095,0.7142857142857142,-325.0,-325.0,-325.0,-325.0,-325.0,-321.8253968253968
237,34.84126984126984,-0.07936507936507936,-0.07936507936507936,-0.07936507936507936,-0.07936507936507936,-0.07936507936507936,-0.07936507936507936,-0.07936507936507936,-0.07936507936507936,28.96825396825397,-0.07936507936507936,23.88888888888889,-0.07936507936507936,-0.07936507936507936,-0.07936507936507936,-0.07936507936507936,-3.095238095238095,0.7142857142857142,-325.0,-325.0,-325.0,-325.0,-325.0,-321.8253968253968
238,25.158730158730158,-0.07936507936507936,-0.07936507936507936,-0.07936507936507936,-0.07936507936507936,-0.07936507936507936,-0.07936507936507936,-0.07936507936507936,-0.07936507936507936,21.507936507936506,-0.07936507936507936,17.38095238095238,-0.07936507936507936,-0.07936507936507936,-0.07936507936507936,-0.07936507936507936,-3.888888888888889,1.0317460317460316,-325.0,-325.0,-325.0,-325.0,-325.0,-321.8253968253968
239,25.158730158730158,-0.07936507936507936,-0.07936507936507936,-0.07936507936507936,-0.07936507936507936,-0.07936507936507936,-0.07936507936507936,-0.07936507936507936,-0.07936507936507936,21.507936507936506,-0.07936507936507936,17.38095238095238,-0.07936507936507936,-0.07936507936507936,-0.07936507936507936,-0.07936507936507936,-3.888888888888889,1.0317460317460316,-325.0,-325.0,-325.0,-325.0,-325.0,-321.8253968253968
240,21.03174603174603,-0.07936507936507936,-0.07936507936507936,-0.07936507936507936,-0.07936507936507936,-0.07936507936507936,-0.07936507936507936,-0.07936507936507936,-0.07936507936507936,18.96825396825397,-0.07936507936507936,8.174603174603174,-0.07936507936507936,-0.07936507936507936,-0.07936507936507936,-0.07936507936507936,-3.253968253968254,1.507936507936508,-325.0,-325.0,-325.0,-325.0,-325.0,-7.5396825396825395
241,21.03174603174603,-0.07936507936507936,-0.07936507936507936,-0.07936507936507936,-0.07936507936507936,-0.07936507936507936,-0.07936507936507936,-0.07936507936507936,-0.07936507936507936,18.96825396825397,-0.07936507936507936,8.174603174603174,-0.07936507936507936,-0.07936507936507936,-0.07936507936507936,-0.07936507936507936,-3.253968253968254,1.507936507936508,-325.0,-325.0,-325.0,-325.0,-325.0,-7.5396825396825395
242,25.79365079365079,-0.07936507936507936,-0.07936507936507936,-0.07936507936507936,-0.07936507936507936,-0.07936507936507936,-0.07936507936507936,-0.07936507936507936,-0.07936507936507936,21.825396825396822,-0.07936507936507936,23.88888888888889,-0.07936507936507936,1.0317460317460316,-0.07936507936507936,-0.07936507936507936,-3.4126984126984126,1.8253968253968254,-325.0,-325.0,-325.0,-325.0,-325.0,-7.5396825396825395
243,25.79365079365079,-0.07936507936507936,-0.07936507936507936,-0.07936507936507936,-0.07936507936507936,-0.07936507936507936,-0.07936507936507936,-0.07936507936507936,-0.07936507936507936,21.825396825396822,-0.07936507936507936,23.88888888888889,-0.07936507936507936,1.0317460317460316,-0.07936507936507936,-0.07936507936507936,-3.4126984126984126,1.8253968253968254,-325.0,-325.0,-325.0,-325.0,-325.0,-7.5396825396825395
244,25.158730158730158,-0.07936507936507936,-0.07936507936507936,-0.07936507936507936,-0.07936507936507936,-0.07936507936507936,-0.07936507936507936,-0.07936507936507936,-0.07936507936507936,20.71428571428571,-0.07936507936507936,12.777777777777777,-0.07936507936507936,0.5555555555555556,-0.07936507936507936,-0.07936507936507936,-3.253968253968254,2.3015873015873014,-325.0,-325.0,-325.0,-325.0,-325.0,-7.5396825396825395
245,25.158730158730158,-0.07936507936507936,-0.07936507936507936,-0.07936507936507936,-0.07936507936507936,-0.07936507936507936,-0.07936507936507936,-0.07936507936507936,-0.07936507936507936,20.71428571428571,-0.07936507936507936,12.777777777777777,-0.07936507936507936,0.5555555555555556,-0.07936507936507936,-0.07936507936507936,-3.253968253968254,2.3015873015873014,-325.0,-325.0,-325.0,-325.0,-325.0,-7.5396825396825395
246,34.2063492063492,1.1904761904761905,-0.07936507936507936,-0.07936507936507936,-0.07936507936507936,-0.07936507936507936,-0.07936507936507936,-0.07936507936507936,-0.07936507936507936,16.428571428571427,-0.07936507936507936,14.84126984126984,-0.07936507936507936,2.7777777777777777,-0.07936507936507936,-0.07936507936507936,-2.142857142857143,1.8253968253968254,-325.0,-325.0,-325.0,-325.0,-325.0,-7.5396825396825395
247,34.2063492063492,1.1904761904761905,-0.07936507936507936,-0.07936507936507936,-0.07936507936507936,-0.07936507936507936,-0.07936507936507936,-0.07936507936507936,-0.07936507936507936,16.428571428571427,-0.07936507936507936,14.84126984126984,-0.07936507936507936,2.7777777777777777,-0.07936507936507936,-0.07936507936507936,-2.142857142857143,1.8253968253968254,-325.0,-325.0,-325.0,-325.0,-325.0,-7.5396825396825395
248,32.3015873015873,3.571428571428571,-0.07936507936507936,-0.07936507936507936,-0.07936507936507936,-0.07936507936507936,-0.07936507936507936,-0.07936507936507936,5.0,16.746031746031743,-0.07936507936507936,17.698412698412696,-0.07936507936507936,8.015873015873016,-0.07936507936507936,-0.07936507936507936,-2.46031746031746,2.3015873015873014,-325.0,-325.0,-325.0,-325.0,-325.0,-7.5396825396825395
249,32.3015873015873,3.571428571428571,-0.07936507936507936,-0.07936507936507936,-0.07936507936507936,-0.07936507936507936,-0.07936507936507936,-0.07936507936507936,5.0,16.746031746031743,-0.07936507936507936,17.698412698412696,-0.07936507936507936,8.015873015873016,-0.07936507936507936,-0.07936507936507936,-2.46031746031746,2.3015873015873014,-325.0,-325.0,-325.0,-325.0,-325.0,-7.5396825396825395
250,39.12698412698413,1.984126984126984,-0.07936507936507936,-0.07936507936507936,-0.07936507936507936,-0.07936507936507936,-0.07936507936507936,-0.07936507936507936,8.968253968253968,15.317460317460316,-0.07936507936507936,10.714285714285714,-0.07936507936507936,3.73015873015873,-0.07936507936507936,-0.07936507936507936,-2.619047619047619,1.8253968253968254,-325.0,-325.0,-325.0,-325.0,-325.0,-321.8253968253968
251,39.12698412698413,1.984126984126984,-0.07936507936507936,-0.07936507936507936,-0.07936507936507936,-0.07936507936507936,-0.07936507936507936,-0.07936507936507936,8.968253968253968,15.317460317460316,-0.07936507936507936,10.714285714285714,-0.07936507936507936,3.73015873015873,-0.07936507936507936,-0.07936507936507936,-2.619047619047619,1.8253968253968254,-325.0,-325.0,-325.0,-325.0,-325.0,-321.8253968253968
252,39.44444444444444,4.682539682539682,-0.07936507936507936,-0.07936507936507936,-0.07936507936507936,-0.07936507936507936,-0.07936507936507936,-0.07936507936507936,6.111111111111111,11.19047619047619,-0.07936507936507936,13.888888888888888,-0.07936507936507936,5.317460317460317,-0.07936507936507936,-0.07936507936507936,-2.619047619047619,1.6666666666666665,-325.0,-325.0,-325.0,-325.0,-325.0,-321.8253968253968
253,39.44444444444444,4.682539682539682,-0.07936507936507936,-0.07936507936507936,-0.07936507936507936,-0.07936507936507936,-0.07936507936507936,-0.07936507936507936,6.111111111111111,11.19047619047619,-0.07936507936507936,13.888888888888888,-0.07936507936507936,5.317460317460317,-0.07936507936507936,-0.07936507936507936,-2.619047619047619,1.6666666666666665,-325.0,-325.0,-325.0,-325.0,-325.0,-321.8253968253968
254,33.41269841269841,1.1904761904761905,-0.07936507936507936,-0.07936507936507936,-0.07936507936507936,-0.07936507936507936,-0.07936507936507936,-0.07936507936507936,13.253968253968253,11.349206349206348,-0.07936507936507936,10.873015873015872,-0.07936507936507936,4.682539682539682,-0.07936507936507936,-0.07936507936507936,-3.4126984126984126,1.6666666666666665,-325.0,-325.0,-325.0,-325.0,-325.0,-321.8253968253968
255,33.41269841269841,1.1904761904761905,-0.07936507936507936,-0.07936507936507936,-0.07936507936507936,-0.07936507936507936,-0.07936507936507936,-0.07936507936507936,13.253968253968253,11.349206349206348,-0.07936507936507936,10.873015873015872,-0.07936507936507936,4.682539682539682,-0.07936507936507936,-0.07936507936507936,-3.4126984126984126,1.6666666666666665,-325.0,-325.0,-325.0,-325.0,-325.0,-321.8253968253968
256,35.79365079365079,-0.3968253968253968,-0.07936507936507936,-0.07936507936507936,-0.07936507936507936,-0.07936507936507936,1.6666666666666665,-0.07936507936507936,10.079365079365079,5.158730158730158,-0.07936507936507936,11.19047619047619,-0.07936507936507936,2.46031746031746,-0.07936507936507936,-0.07936507936507936,-2.9365079365079363,1.6666666666666665,-325.0,-325.0,-325.0,-325.0,-325.0,-321.8253968253968
257,35.79365079365079,-0.3968253968253968,-0.07936507936507936,-0.07936507936507936,-0.07936507936507936,-0.07936507936507936,1.6666666666666665,-0.07936507936507936,10.079365079365079,5.158730158730158,-0.07936507936507936,11.19047619047619,-0.07936507936507936,2.46031746031746,-0.07936507936507936,-0.07936507936507936,-2.9365079365079363,1.6666666666666665,-325.0,-325.0,-325.0,-325.0,-325.0,-321.8253968253968
258,42.93650793650794,3.571428571428571,-0.07936507936507936,-0.07936507936507936,-0.07936507936507936,-0.07936507936507936,4.523809523809524,-3.095238095238095,10.555555555555555,5.0,-0.07936507936507936,11.825396825396824,-0.07936507936507936,3.095238095238095,-0.07936507936507936,-0.07936507936507936,-2.7777777777777777,1.507936507936508,-325.0,-325.0,-325.0,-325.0,-325.0,-321.8253968253968
259,42.93650793650794,3.571428571428571,-0.07936507936507936,-0.07936507936507936,-0.07936507936507936,-0.07936507936507936,4.523809523809524,-3.095238095238095,10.555555555555555,5.0,-0.07936507936507936,11.825396825396824,-0.07936507936507936,3.095238095238095,-0.07936507936507936,-0.07936507936507936,-2.7777777777777777,1.507936507936508,-325.0,-325.0,-325.0,-325.0,-325.0,-321.8253968253968
260,-171.03174603174602,-283.0952380952381,-325.0,-325.0,-325.0,-325.0,320.87301587301585,-325.0,274.36507936507934,172.77777777777777,325.0,-259.9206349206349,-325.0,277.22222222222223,-325.0,-325.0,-4.523809523809524,-0.5555555555555556,-325.0,-325.0,-325.0,-325.0,-325.0,-7.5396825396825395
261,-171.03174603174602,-283.0952380952381,-325.0,-325.0,-325.0,-325.0,320.87301587301585,-325.0,274.36507936507934,172.77777777777777,325.0,-259.9206349206349,-325.0,277.22222222222223,-325.0,-325.0,-4.523809523809524,-0.5555555555555556,-325.0,-325.0,-325.0,-325.0,-325.0,-7.5396825396825395
262,34.52380952380952,-1.507936507936508,-0.07936507936507936,-4.841269841269841,-0.07936507936507936,-2.46031746031746,7.063492063492063,-8.492063492063492,11.031746031746032,5.7936507936507935,-0.07936507936507936,4.365079365079365,-0.07936507936507936,2.142857142857143,-0.07936507936507936,-0.07936507936507936,-2.46031746031746,1.1904761904761905,-325.0,-325.0,-325.0,-325.0,-325.0,-7.5396825396825395
263,34.52380952380952,-1.507936507936508,-0.07936507936507936,-4.841269841269841,-0.07936507936507936,-2.46031746031746,7.063492063492063,-8.492063492063492,11.031746031746032,5.7936507936507935,-0.07936507936507936,4.365079365079365,-0.07936507936507936,2.142857142857143,-0.07936507936507936,-0.07936507936507936,-2.46031746031746,1.1904761904761905,-325.0,-325.0,-325.0,-325.0,-325.0,-7.5396825396825395
264,28.96825396825397,-4.841269841269841,-0.07936507936507936,-5.7936507936507935,-0.07936507936507936,-0.7142857142857142,9.603174603174603,-8.809523809523808,10.555555555555555,0.873015873015873,-0.07936507936507936,1.6666666666666665,-0.07936507936507936,0.23809523809523808,-0.7142857142857142,-0.07936507936507936,-3.095238095238095,1.349206349206349,-325.0,-325.0,-325.0,-325.0,-325.0,-7.5396825396825395
265,28.96825396825397,-4.841269841269841,-0.07936507936507936,-5.7936507936507935,-0.07936507936507936,-0.7142857142857142,9.603174603174603,-8.809523809523808,10.555555555555555,0.873015873015873,-0.07936507936507936,1.6666666666666665,-0.07936507936507936,0.23809523809523808,-0.7142857142857142,-0.07936507936507936,-3.095238095238095,1.349206349206349,-325.0,-325.0,-325.0,-325.0,-325.0,-7.5396825396825395
266,28.809523809523807,-5.7936507936507935,-0.07936507936507936,-6.904761904761904,-0.07936507936507936,-7.857142857142857,8.809523809523808,-7.857142857142857,6.746031746031746,6.904761904761904,-0.23809523809523808,-0.07936507936507936,-0.07936507936507936,2.619047619047619,0.3968253968253968,-0.07936507936507936,-3.253968253968254,1.0317460317460316,-325.0,-325.0,-325.0,-325.0,-325.0,-7.5396825396825395
267,28.809523809523807,-5.7936507936507935,-0.07936507936507936,-6.904761904761904,-0.07936507936507936,-7.857142857142857,8.809523809523808,-7.857142857142857,6.746031746031746,6.904761904761904,-0.23809523809523808,-0.07936507936507936,-0.07936507936507936,2.619047619047619,0.3968253968253968,-0.07936507936507936,-3.253968253968254,1.0317460317460316,-325.0,-325.0,-325.0,-325.0,-325.0,-7.5396825396825395
268,31.98412698412698,2.3015873015873014,-0.07936507936507936,-1.349206349206349,-0.07936507936507936,4.682539682539682,8.174603174603174,-1.6666666666666665,11.507936507936508,11.666666666666666,8.492063492063492,14.206349206349206,-0.07936507936507936,5.0,1.507936507936508,-3.73015873015873,-4.2063492063492065,1.349206349206349,-325.0,-325.0,-325.0,-325.0,-325.0,-7.5396825396825395
269,31.98412698412698,2.3015873015873014,-0.07936507936507936,-1.349206349206349,-0.07936507936507936,4.682539682539682,8.174603174603174,-1.6666666666666665,11.507936507936508,11.666666666666666,8.492063492063492,14.206349206349206,-0.07936507936507936,5.0,1.507936507936508,-3.73015873015873,-4.2063492063492065,1.349206349206349,-325.0,-325.0,-325.0,-325.0,-325.0,-7.5396825396825395
270,30.555555555555554,-4.365079365079365,-0.07936507936507936,-5.476190476190476,0.7142857142857142,0.07936507936507936,5.317460317460317,-3.571428571428571,12.619047619047619,4.523809523809524,5.7936507936507935,-2.46031746031746,-0.07936507936507936,0.3968253968253968,2.46031746031746,-5.634920634920634,-3.888888888888889,0.7142857142857142,-325.0,-325.0,-325.0,-325.0,-325.0,-321.8253968253968
271,30.555555555555554,-4.365079365079365,-0.07936507936507936,-5.476190476190476,0.7142857142857142,0.07936507936507936,5.317460317460317,-3.571428571428571,12.619047619047619,4.523809523809524,5.7936507936507935,-2.46031746031746,-0.07936507936507936,0.3968253968253968,2.46031746031746,-5.634920634920634,-3.888888888888889,0.7142857142857142,-325.0,-325.0,-325.0,-325.0,-325.0,-321.8253968253968
272,26.428571428571427,-8.015873015873016,-0.07936507936507936,-6.587301587301587,-0.5555555555555556,-0.873015873015873,2.142857142857143,-4.2063492063492065,7.857142857142857,3.888888888888889,4.0476190476190474,-0.07936507936507936,-0.07936507936507936,-0.7142857142857142,2.46031746031746,-4.523809523809524,-4.0476190476190474,0.873015873015873,-325.0,-325.0,-325.0,-325.0,-325.0,-321.8253968253968
273,26.428571428571427,-8.015873015873016,-0.07936507936507936,-6.587301587301587,-0.5555555555555556,-0.873015873015873,2.142857142857143,-4.2063492063492065,7.857142857142857,3.888888888888889,4.0476190476190474,-0.07936507936507936,-0.07936507936507936,-0.7142857142857142,2.46031746031746,-4.523809523809524,-4.0476190476190474,0.873015873015873,-325.0,-325.0,-325.0,-325.0,-325.0,-321.8253968253968
274,21.19047619047619,0.23809523809523808,1.6666666666666665,-3.4126984126984126,2.3015873015873014,2.7777777777777777,2.46031746031746,1.1904761904761905,14.84126984126984,9.761904761904761,-2.46031746031746,4.365079365079365,0.07936507936507936,2.9365079365079363,5.317460317460317,-0.7142857142857142,-4.0476190476190474,0.5555555555555556,-325.0,-325.0,-325.0,-325.0,-325.0,-321.8253968253968
275,21.19047619047619,0.23809523809523808,1.6666666666666665,-3.4126984126984126,2.3015873015873014,2.7777777777777777,2.46031746031746,1.1904761904761905,14.84126984126984,9.761904761904761,-2.46031746031746,4.365079365079365,0.07936507936507936,2.9365079365079363,5.317460317460317,-0.7142857142857142,-4.0476190476190474,0.5555555555555556,-325.0,-325.0,-325.0,-325.0,-325.0,-321.8253968253968
276,19.444444444444443,2.3015873015873014,2.9365079365079363,1.984126984126984,4.841269841269841,10.396825396825395,1.349206349206349,3.095238095238095,6.111111111111111,10.396825396825395,-9.285714285714285,7.222222222222221,3.73015873015873,5.476190476190476,6.587301587301587,-2.3015873015873014,-3.73015873015873,0.7142857142857142,-325.0,-325.0,-325.0,-325.0,-325.0,-321.8253968253968
277,19.444444444444443,2.3015873015873014,2.9365079365079363,1.984126984126984,4.841269841269841,10.396825396825395,1.349206349206349,3.095238095238095,6.111111111111111,10.396825396825395,-9.285714285714285,7.222222222222221,3.73015873015873,5.476190476190476,6.587301587301587,-2.3015873015873014,-3.73015873015873,0.7142857142857142,-325.0,-325.0,-325.0,-325.0,-325.0,-321.8253968253968
278,16.587301587301585,0.23809523809523808,3.888888888888889,0.5555555555555556,5.952380952380952,2.3015873015873014,0.07936507936507936,1.349206349206349,10.079365079365079,1.1904761904761905,-6.587301587301587,7.3809523809523805,4.365079365079365,3.253968253968254,8.333333333333332,-1.8253968253968254,-3.4126984126984126,0.3968253968253968,-325.0,-325.0,-325.0,-325.0,-325.0,-321.8253968253968
279,16.587301587301585,0.23809523809523808,3.888888888888889,0.5555555555555556,5.952380952380952,2.3015873015873014,0.07936507936507936,1.349206349206349,10.079365079365079,1.1904761904761905,-6.587301587301587,7.3809523809523805,4.365079365079365,3.253968253968254,8.333333333333332,-1.8253968253968254,-3.4126984126984126,0.3968253968253968,-325.0,-325.0,-325.0,-325.0,-325.0,-321.8253968253968
280,9.126984126984127,-5.317460317460317,4.682539682539682,-3.095238095238095,6.111111111111111,-3.253968253968254,-5.158730158730158,-2.619047619047619,2.9365079365079363,-7.857142857142857,-7.698412698412698,0.5555555555555556,4.523809523809524,-0.3968253968253968,8.174603174603174,-0.3968253968253968,-2.9365079365079363,0.5555555555555556,-325.0,-325.0,-325.0,-325.0,-325.0,-7.5396825396825395
281,9.126984126984127,-5.317460317460317,4.682539682539682,-3.095238095238095,6.111111111111111,-3.253968253968254,-5.158730158730158,-2.619047619047619,2.9365079365079363,-7.857142857142857,-7.698412698412698,0.5555555555555556,4.523809523809524,-0.3968253968253968,8.174603174603174,-0.3968253968253968,-2.9365079365079363,0.5555555555555556,-325.0,-325.0,-325.0,-325.0,-325.0,-7.5396825396825395
282,-207.53968253968253,-157.38095238095238,-269.76190476190476,-217.06349206349205,-246.9047619047619,-201.8253968253968,167.85714285714286,-206.58730158730157,110.07936507936508,75.31746031746032,229.9206349206349,-173.09523809523807,-286.74603174603175,139.76190476190476,-231.8253968253968,-248.33333333333331,-4.365079365079365,-0.7142857142857142,-325.0,-325.0,-325.0,-325.0,-325.0,-7.5396825396825395
283,-207.53968253968253,-157.38095238095238,-269.76190476190476,-217.06349206349205,-246.9047619047619,-201.8253968253968,167.85714285714286,-206.58730158730157,110.07936507936508,75.31746031746032,229.9206349206349,-173.09523809523807,-286.74603174603175,139.76190476190476,-231.8253968253968,-248.33333333333331,-4.365079365079365,-0.7142857142857142,-325.0,-325.0,-325.0,-325.0,-325.0,-7.5396825396825395
284,14.523809523809524,6.26984126984127,8.809523809523808,7.5396825396825395,10.396825396825395,6.26984126984127,-5.634920634920634,6.428571428571428,4.682539682539682,1.8253968253968254,3.095238095238095,-5.634920634920634,5.476190476190476,-8.492063492063492,9.920634920634921,2.142857142857143,-3.095238095238095,0.07936507936507936,-325.0,-325.0,-325.0,-325.0,-325.0,-7.5396825396825395
285,14.523809523809524,6.26984126984127,8.809523809523808,7.5396825396825395,10.396825396825395,6.26984126984127,-5.634920634920634,6.428571428571428,4.682539682539682,1.8253968253968254,3.095238095238095,-5.634920634920634,5.476190476190476,-8.492063492063492,9.920634920634921,2.142857142857143,-3.095238095238095,0.07936507936507936,-325.0,-325.0,-325.0,-325.0,-325.0,-7.5396825396825395
286,11.666666666666666,8.015873015873016,7.857142857142857,11.666666666666666,10.873015873015872,4.365079365079365,-3.888888888888889,8.968253968253968,8.015873015873016,7.063492063492063,6.26984126984127,5.634920634920634,6.587301587301587,-3.73015873015873,11.19047619047619,2.142857142857143,-2.3015873015873014,0.7142857142857142,-325.0,-325.0,-325.0,-325.0,-325.0,-7.5396825396825395
287,11.666666666666666,8.015873015873016,7.857142857142857,11.666666666666666,10.873015873015872,4.365079365079365,-3.888888888888889,8.968253968253968,8.015873015873016,7.063492063492063,6.26984126984127,5.634920634920634,6.587301587301587,-3.73015873015873,11.19047619047619,2.142857142857143,-2.3015873015873014,0.7142857142857142,-325.0,-325.0,-325.0,-325.0,-325.0,-7.5396825396825395
288,-210.3968253968254,-105.79365079365078,-233.09523809523807,-173.25396825396825,-207.38095238095238,-157.06349206349205,122.6190476190476,-161.5079365079365,53.41269841269841,49.285714285714285,203.4126984126984,-132.93650793650792,-253.88888888888889,98.80952380952381,-196.74603174603175,-207.85714285714283,-3.73015873015873,-0.5555555555555556,-325.0,-325.0,-325.0,-325.0,-325.0,-7.5396825396825395
289,-210.3968253968254,-105.79365079365078,-233.09523809523807,-173.25396825396825,-207.38095238095238,-157.06349206349205,122.6190476190476,-161.5079365079365,53.41269841269841,49.285714285714285,203.4126984126984,-132.93650793650792,-253.88888888888889,98.80952380952381,-196.74603174603175,-207.85714285714283,-3.73015873015873,-0.5555555555555556,-325.0,-325.0,-325.0,-325.0,-325.0,-7.5396825396825395
290,6.587301587301587,0.7142857142857142,4.365079365079365,1.8253968253968254,5.634920634920634,-4.2063492063492065,-6.587301587301587,-0.873015873015873,3.4126984126984126,-12.619047619047619,-5.0,1.507936507936508,4.682539682539682,-5.476190476190476,8.968253968253968,-0.5555555555555556,-2.9365079365079363,0.3968253968253968,-325.0,-325.0,-325.0,-325.0,-325.0,-321.8253968253968
291,6.587301587301587,0.7142857142857142,4.365079365079365,1.8253968253968254,5.634920634920634,-4.2063492063492065,-6.587301587301587,-0.873015873015873,3.4126984126984126,-12.619047619047619,-5.0,1.507936507936508,4.682539682539682,-5.476190476190476,8.968253968253968,-0.5555555555555556,-2.9365079365079363,0.3968253968253968,-325.0,-325.0,-325.0,-325.0,-325.0,-321.8253968253968
292,15.95238095238095,2.142857142857143,2.46031746031746,2.142857142857143,5.0,4.0476190476190474,-3.888888888888889,4.0476190476190474,10.238095238095237,0.7142857142857142,3.4126984126984126,-1.349206349206349,4.365079365079365,-3.888888888888889,9.126984126984127,7.063492063492063,-2.46031746031746,0.07936507936507936,-325.0,-325.0,-325.0,-325.0,-325.0,-321.8253968253968
293,15.95238095238095,2.142857142857143,2.46031746031746,2.142857142857143,5.0,4.0476190476190474,-3.888888888888889,4.0476190476190474,10.238095238095237,0.7142857142857142,3.4126984126984126,-1.349206349206349,4.365079365079365,-3.888888888888889,9.126984126984127,7.063492063492063,-2.46031746031746,0.07936507936507936,-325.0,-325.0,-325.0,-325.0,-325.0,-321.8253968253968
294,23.41269841269841,-14.523809523809524,6.26984126984127,-5.7936507936507935,6.904761904761904,-9.285714285714285,-0.3968253968253968,-6.428571428571428,15.158730158730158,-22.3015873015873,-1.984126984126984,-16.746031746031743,6.746031746031746,-14.682539682539682,10.555555555555555,-3.73015873015873,-2.9365079365079363,0.5555555555555556,-325.0,-325.0,-325.0,-325.0,-325.0,-321.8253968253968
295,23.41269841269841,-14.523809523809524,6.26984126984127,-5.7936507936507935,6.904761904761904,-9.285714285714285,-0.3968253968253968,-6.428571428571428,15.158730158730158,-22.3015873015873,-1.984126984126984,-16.746031746031743,6.746031746031746,-14.682539682539682,10.555555555555555,-3.73015873015873,-2.9365079365079363,0.5555555555555556,-325.0,-325.0,-325.0,-325.0,-325.0,-321.8253968253968
296,7.698412698412698,-0.873015873015873,1.349206349206349,2.3015873015873014,0.5555555555555556,-7.3809523809523805,-6.111111111111111,0.5555555555555556,3.4126984126984126,-1.0317460317460316,-5.634920634920634,-2.619047619047619,0.873015873015873,-2.3015873015873014,5.952380952380952,2.9365079365079363,-2.619047619047619,0.873015873015873,-325.0,-325.0,-325.0,-325.0,-325.0,-321.8253968253968
