,Fp1[1],Fp2[2],F3[3],F4[4],C3[5],C4[6],P3[7],P4[8],O1[9],O2[10],F7[11],F8[12],T3[13],T4[14],T5[15],T6[16],Fz[17],Pz[18],Cz[19],Pg1[20],Pg2[21],EOGR[22],EOOGL[23],EMG[24]
0,1.349206349206349,-0.07936507936507936,-0.07936507936507936,-0.07936507936507936,-0.07936507936507936,-0.07936507936507936,-0.07936507936507936,1.0317460317460316,1.0317460317460316,-4.0476190476190474,-0.07936507936507936,-7.698412698412698,1.349206349206349,-0.07936507936507936,1.984126984126984,-0.07936507936507936,-2.7777777777777777,0.873015873015873,-325.0,-325.0,-325.0,-325.0,-325.0,-7.5396825396825395
1,1.349206349206349,-0.07936507936507936,-0.07936507936507936,-0.07936507936507936,-0.07936507936507936,-0.07936507936507936,-0.07936507936507936,1.0317460317460316,1.0317460317460316,-4.0476190476190474,-0.07936507936507936,-7.698412698412698,1.349206349206349,-0.07936507936507936,1.984126984126984,-0.07936507936507936,-2.7777777777777777,0.873015873015873,-325.0,-325.0,-325.0,-325.0,-325.0,-7.5396825396825395
2,1.349206349206349,-0.07936507936507936,-0.07936507936507936,-0.07936507936507936,-0.07936507936507936,-0.07936507936507936,-0.07936507936507936,-6.904761904761904,4.682539682539682,-1.984126984126984,-0.07936507936507936,-16.11111111111111,-0.07936507936507936,-0.07936507936507936,1.349206349206349,-0.07936507936507936,-3.253968253968254,0.5555555555555556,-325.0,-325.0,-325.0,-325.0,-325.0,-7.5396825396825395
3,1.349206349206349,-0.07936507936507936,-0.07936507936507936,-0.07936507936507936,-0.07936507936507936,-0.07936507936507936,-0.07936507936507936,-6.904761904761904,4.682539682539682,-1.984126984126984,-0.07936507936507936,-16.11111111111111,-0.07936507936507936,-0.07936507936507936,1.349206349206349,-0.07936507936507936,-3.253968253968254,0.5555555555555556,-325.0,-325.0,-325.0,-325.0,-325.0,-7.5396825396825395
4,-11.19047619047619,-0.07936507936507936,-0.07936507936507936,-0.07936507936507936,-0.07936507936507936,-0.07936507936507936,-0.07936507936507936,-0.23809523809523808,-4.523809523809524,-4.682539682539682,-0.07936507936507936,-10.555555555555555,-0.07936507936507936,-0.07936507936507936,-0.3968253968253968,-0.07936507936507936,-3.4126984126984126,1.0317460317460316,-325.0,-325.0,-325.0,-325.0,-325.0,-7.5396825396825395
5,-11.19047619047619,-0.07936507936507936,-0.07936507936507936,-0.07936507936507936,-0.07936507936507936,-0.07936507936507936,-0.07936507936507936,-0.23809523809523808,-4.523809523809524,-4.682539682539682,-0.07936507936507936,-10.555555555555555,-0.07936507936507936,-0.07936507936507936,-0.3968253968253968,-0.07936507936507936,-3.4126984126984126,1.0317460317460316,-325.0,-325.0,-325.0,-325.0,-325.0,-7.5396825396825395
6,-3.571428571428571,-0.07936507936507936,-0.07936507936507936,-0.07936507936507936,-0.07936507936507936,-0.07936507936507936,-0.07936507936507936,6.746031746031746,5.317460317460317,0.7142857142857142,-0.07936507936507936,-8.65079365079365,-0.07936507936507936,-0.07936507936507936,-0.07936507936507936,-0.07936507936507936,-3.73015873015873,1.984126984126984,-325.0,-325.0,-325.0,-325.0,-325.0,-7.5396825396825395
7,-3.571428571428571,-0.07936507936507936,-0.07936507936507936,-0.07936507936507936,-0.07936507936507936,-0.07936507936507936,-0.07936507936507936,6.746031746031746,5.317460317460317,0.7142857142857142,-0.07936507936507936,-8.65079365079365,-0.07936507936507936,-0.07936507936507936,-0.07936507936507936,-0.07936507936507936,-3.73015873015873,1.984126984126984,-325.0,-325.0,-325.0,-325.0,-325.0,-7.5396825396825395
8,-3.888888888888889,-0.07936507936507936,-0.07936507936507936,-0.07936507936507936,-0.07936507936507936,-0.07936507936507936,-0.07936507936507936,5.952380952380952,-0.873015873015873,-3.095238095238095,-0.07936507936507936,-4.682539682539682,-0.07936507936507936,-0.07936507936507936,-0.07936507936507936,-0.07936507936507936,-3.095238095238095,1.349206349206349,-325.0,-325.0,-325.0,-325.0,-325.0,-7.5396825396825395
9,-3.888888888888889,-0.07936507936507936,-0.07936507936507936,-0.07936507936507936,-0.07936507936507936,-0.07936507936507936,-0.07936507936507936,5.952380952380952,-0.873015873015873,-3.095238095238095,-0.07936507936507936,-4.682539682539682,-0.07936507936507936,-0.07936507936507936,-0.07936507936507936,-0.07936507936507936,-3.095238095238095,1.349206349206349,-325.0,-325.0,-325.0,-325.0,-325.0,-7.5396825396825395
10,-0.5555555555555556,-0.07936507936507936,-0.07936507936507936,-0.07936507936507936,-0.07936507936507936,-0.07936507936507936,-0.07936507936507936,-3.095238095238095,-11.349206349206348,-10.714285714285714,-0.07936507936507936,-5.317460317460317,-0.07936507936507936,-0.07936507936507936,-0.07936507936507936,-0.07936507936507936,-2.46031746031746,1.349206349206349,-325.0,-325.0,-325.0,-325.0,-325.0,-321.8253968253968
11,-0.5555555555555556,-0.07936507936507936,-0.07936507936507936,-0.07936507936507936,-0.07936507936507936,-0.07936507936507936,-0.07936507936507936,-3.095238095238095,-11.349206349206348,-10.714285714285714,-0.07936507936507936,-5.317460317460317,-0.07936507936507936,-0.07936507936507936,-0.07936507936507936,-0.07936507936507936,-2.46031746031746,1.349206349206349,-325.0,-325.0,-325.0,-325.0,-325.0,-321.8253968253968
12,-1.6666666666666665,-0.07936507936507936,-0.07936507936507936,-0.07936507936507936,-0.07936507936507936,-0.07936507936507936,-0.07936507936507936,-0.23809523809523808,7.857142857142857,-0.5555555555555556,-0.07936507936507936,-6.587301587301587,-0.07936507936507936,-0.07936507936507936,-0.07936507936507936,-0.07936507936507936,-3.571428571428571,1.1904761904761905,-325.0,-325.0,-325.0,-325.0,-325.0,-321.8253968253968
13,-1.6666666666666665,-0.07936507936507936,-0.07936507936507936,-0.07936507936507936,-0.07936507936507936,-0.07936507936507936,-0.07936507936507936,-0.23809523809523808,7.857142857142857,-0.5555555555555556,-0.07936507936507936,-6.587301587301587,-0.07936507936507936,-0.07936507936507936,-0.07936507936507936,-0.07936507936507936,-3.571428571428571,1.1904761904761905,-325.0,-325.0,-325.0,-325.0,-325.0,-321.8253968253968
14,7.222222222222221,-0.07936507936507936,-0.07936507936507936,-0.07936507936507936,-0.07936507936507936,-0.07936507936507936,-0.07936507936507936,8.174603174603174,7.5396825396825395,6.26984126984127,-0.07936507936507936,-0.07936507936507936,-0.07936507936507936,-0.07936507936507936,-0.07936507936507936,-0.07936507936507936,-4.2063492063492065,1.507936507936508,-325.0,-325.0,-325.0,-325.0,-325.0,-321.8253968253968
15,7.222222222222221,-0.07936507936507936,-0.07936507936507936,-0.07936507936507936,-0.07936507936507936,-0.07936507936507936,-0.07936507936507936,8.174603174603174,7.5396825396825395,6.26984126984127,-0.07936507936507936,-0.07936507936507936,-0.07936507936507936,-0.07936507936507936,-0.07936507936507936,-0.07936507936507936,-4.2063492063492065,1.507936507936508,-325.0,-325.0,-325.0,-325.0,-325.0,-321.8253968253968
16,6.904761904761904,-0.07936507936507936,-0.07936507936507936,-0.07936507936507936,-0.07936507936507936,-0.07936507936507936,-0.07936507936507936,2.142857142857143,1.507936507936508,-0.07936507936507936,-0.07936507936507936,-0.3968253968253968,-0.07936507936507936,-0.07936507936507936,-0.07936507936507936,-0.07936507936507936,-4.0476190476190474,1.0317460317460316,-325.0,-325.0,-325.0,-325.0,-325.0,-321.8253968253968
17,6.904761904761904,-0.07936507936507936,-0.07936507936507936,-0.07936507936507936,-0.07936507936507936,-0.07936507936507936,-0.07936507936507936,2.142857142857143,1.507936507936508,-0.07936507936507936,-0.07936507936507936,-0.3968253968253968,-0.07936507936507936,-0.07936507936507936,-0.07936507936507936,-0.07936507936507936,-4.0476190476190474,1.0317460317460316,-325.0,-325.0,-325.0,-325.0,-325.0,-321.8253968253968
18,6.746031746031746,-0.07936507936507936,-0.07936507936507936,-0.07936507936507936,-0.07936507936507936,-0.07936507936507936,-0.07936507936507936,-5.476190476190476,1.984126984126984,3.253968253968254,-0.07936507936507936,-0.07936507936507936,-0.07936507936507936,-0.07936507936507936,-0.07936507936507936,-0.07936507936507936,-3.73015873015873,1.0317460317460316,-325.0,-325.0,-325.0,-325.0,-325.0,-321.8253968253968
19,6.746031746031746,-0.07936507936507936,-0.07936507936507936,-0.07936507936507936,-0.07936507936507936,-0.07936507936507936,-0.07936507936507936,-5.476190476190476,1.984126984126984,3.253968253968254,-0.07936507936507936,-0.07936507936507936,-0.07936507936507936,-0.07936507936507936,-0.07936507936507936,-0.07936507936507936,-3.73015873015873,1.0317460317460316,-325.0,-325.0,-325.0,-325.0,-325.0,-321.8253968253968
20,-1.1904761904761905,-0.07936507936507936,-0.07936507936507936,-0.07936507936507936,-0.07936507936507936,-0.07936507936507936,-0.07936507936507936,-12.46031746031746,-0.873015873015873,3.571428571428571,-0.07936507936507936,-0.07936507936507936,-0.07936507936507936,-0.07936507936507936,-0.07936507936507936,-0.07936507936507936,-3.73015873015873,0.7142857142857142,-325.0,-325.0,-325.0,-325.0,-325.0,-7.5396825396825395
21,-1.1904761904761905,-0.07936507936507936,-0.07936507936507936,-0.07936507936507936,-0.07936507936507936,-0.07936507936507936,-0.07936507936507936,-12.46031746031746,-0.873015873015873,3.571428571428571,-0.07936507936507936,-0.07936507936507936,-0.07936507936507936,-0.07936507936507936,-0.07936507936507936,-0.07936507936507936,-3.73015873015873,0.7142857142857142,-325.0,-325.0,-325.0,-325.0,-325.0,-7.5396825396825395
22,-1.1904761904761905,-0.07936507936507936,-0.07936507936507936,-0.07936507936507936,-0.07936507936507936,-0.07936507936507936,-0.07936507936507936,-15.634920634920634,-5.158730158730158,3.73015873015873,-0.07936507936507936,-0.07936507936507936,-0.07936507936507936,-0.07936507936507936,-0.07936507936507936,-0.07936507936507936,-3.888888888888889,0.873015873015873,-325.0,-325.0,-325.0,-325.0,-325.0,-7.5396825396825395
23,-1.1904761904761905,-0.07936507936507936,-0.07936507936507936,-0.07936507936507936,-0.07936507936507936,-0.07936507936507936,-0.07936507936507936,-15.634920634920634,-5.158730158730158,3.73015873015873,-0.07936507936507936,-0.07936507936507936,-0.07936507936507936,-0.07936507936507936,-0.07936507936507936,-0.07936507936507936,-3.888888888888889,0.873015873015873,-325.0,-325.0,-325.0,-325.0,-325.0,-7.5396825396825395
24,-3.253968253968254,-0.07936507936507936,-0.07936507936507936,-0.07936507936507936,-0.07936507936507936,-0.07936507936507936,-0.07936507936507936,-19.92063492063492,-3.253968253968254,-3.253968253968254,-0.07936507936507936,-0.07936507936507936,-0.07936507936507936,-0.07936507936507936,-0.07936507936507936,-0.07936507936507936,-4.0476190476190474,0.5555555555555556,-325.0,-325.0,-325.0,-325.0,-325.0,-7.5396825396825395
25,-3.253968253968254,-0.07936507936507936,-0.07936507936507936,-0.07936507936507936,-0.07936507936507936,-0.07936507936507936,-0.07936507936507936,-19.92063492063492,-3.253968253968254,-3.253968253968254,-0.07936507936507936,-0.07936507936507936,-0.07936507936507936,-0.07936507936507936,-0.07936507936507936,-0.07936507936507936,-4.0476190476190474,0.5555555555555556,-325.0,-325.0,-325.0,-325.0,-325.0,-7.5396825396825395
26,3.888888888888889,-0.07936507936507936,-0.07936507936507936,-0.07936507936507936,-0.07936507936507936,-0.07936507936507936,-0.07936507936507936,-18.80952380952381,-2.7777777777777777,0.07936507936507936,-0.07936507936507936,-0.07936507936507936,-0.07936507936507936,-0.07936507936507936,-0.07936507936507936,-0.07936507936507936,-4.2063492063492065,1.0317460317460316,-325.0,-325.0,-325.0,-325.0,-325.0,-7.5396825396825395
27,3.888888888888889,-0.07936507936507936,-0.07936507936507936,-0.07936507936507936,-0.07936507936507936,-0.07936507936507936,-0.07936507936507936,-18.80952380952381,-2.7777777777777777,0.07936507936507936,-0.07936507936507936,-0.07936507936507936,-0.07936507936507936,-0.07936507936507936,-0.07936507936507936,-0.07936507936507936,-4.2063492063492065,1.0317460317460316,-325.0,-325.0,-325.0,-325.0,-325.0,-7.5396825396825395
28,4.523809523809524,-0.07936507936507936,-0.07936507936507936,-0.07936507936507936,-0.07936507936507936,-0.07936507936507936,-0.07936507936507936,-17.539682539682538,7.5396825396825395,1.984126984126984,-0.07936507936507936,-0.07936507936507936,-0.07936507936507936,-0.07936507936507936,-0.07936507936507936,-0.07936507936507936,-4.0476190476190474,0.873015873015873,-325.0,-325.0,-325.0,-325.0,-325.0,-7.5396825396825395
29,4.523809523809524,-0.07936507936507936,-0.07936507936507936,-0.07936507936507936,-0.07936507936507936,-0.07936507936507936,-0.07936507936507936,-17.539682539682538,7.5396825396825395,1.984126984126984,-0.07936507936507936,-0.07936507936507936,-0.07936507936507936,-0.07936507936507936,-0.07936507936507936,-0.07936507936507936,-4.0476190476190474,0.873015873015873,-325.0,-325.0,-325.0,-325.0,-325.0,-7.5396825396825395
30,-6.428571428571428,-0.07936507936507936,-0.07936507936507936,-0.07936507936507936,-0.07936507936507936,-0.07936507936507936,-0.07936507936507936,-13.73015873015873,-5.7936507936507935,5.476190476190476,-0.07936507936507936,-0.07936507936507936,-0.07936507936507936,-0.07936507936507936,-0.07936507936507936,-0.07936507936507936,-3.253968253968254,0.7142857142857142,-325.0,-325.0,-325.0,-325.0,-325.0,-321.8253968253968
31,-6.428571428571428,-0.07936507936507936,-0.07936507936507936,-0.07936507936507936,-0.07936507936507936,-0.07936507936507936,-0.07936507936507936,-13.73015873015873,-5.7936507936507935,5.476190476190476,-0.07936507936507936,-0.07936507936507936,-0.07936507936507936,-0.07936507936507936,-0.07936507936507936,-0.07936507936507936,-3.253968253968254,0.7142857142857142,-325.0,-325.0,-325.0,-325.0,-325.0,-321.8253968253968
32,-9.444444444444445,-0.07936507936507936,-0.07936507936507936,-0.07936507936507936,-0.07936507936507936,-0.07936507936507936,-0.07936507936507936,-18.65079365079365,-6.904761904761904,2.9365079365079363,-0.07936507936507936,-0.07936507936507936,-0.07936507936507936,-0.07936507936507936,-0.07936507936507936,-0.07936507936507936,-2.9365079365079363,0.873015873015873,-325.0,-325.0,-325.0,-325.0,-325.0,-321.8253968253968
33,-9.444444444444445,-0.07936507936507936,-0.07936507936507936,-0.07936507936507936,-0.07936507936507936,-0.07936507936507936,-0.07936507936507936,-18.65079365079365,-6.904761904761904,2.9365079365079363,-0.07936507936507936,-0.07936507936507936,-0.07936507936507936,-0.07936507936507936,-0.07936507936507936,-0.07936507936507936,-2.9365079365079363,0.873015873015873,-325.0,-325.0,-325.0,-325.0,-325.0,-321.8253968253968
34,5.476190476190476,-0.07936507936507936,-0.07936507936507936,-0.07936507936507936,-0.07936507936507936,-0.07936507936507936,-0.07936507936507936,-16.428571428571427,5.317460317460317,-2.3015873015873014,-0.07936507936507936,-0.07936507936507936,-0.07936507936507936,-0.07936507936507936,-0.07936507936507936,-0.07936507936507936,-3.4126984126984126,0.5555555555555556,-325.0,-325.0,-325.0,-325.0,-325.0,-321.8253968253968
35,5.476190476190476,-0.07936507936507936,-0.07936507936507936,-0.07936507936507936,-0.07936507936507936,-0.07936507936507936,-0.07936507936507936,-16.428571428571427,5.317460317460317,-2.3015873015873014,-0.07936507936507936,-0.07936507936507936,-0.07936507936507936,-0.07936507936507936,-0.07936507936507936,-0.07936507936507936,-3.4126984126984126,0.5555555555555556,-325.0,-325.0,-325.0,-325.0,-325.0,-321.8253968253968
36,21.03174603174603,-0.07936507936507936,-0.07936507936507936,-0.07936507936507936,-0.07936507936507936,-0.07936507936507936,-0.07936507936507936,-25.476190476190474,10.396825396825395,-16.11111111111111,-0.07936507936507936,-0.07936507936507936,-0.07936507936507936,-0.07936507936507936,-0.07936507936507936,-0.07936507936507936,-3.095238095238095,0.5555555555555556,-325.0,-325.0,-325.0,-325.0,-325.0,-321.8253968253968
37,21.03174603174603,-0.07936507936507936,-0.07936507936507936,-0.07936507936507936,-0.07936507936507936,-0.07936507936507936,-0.07936507936507936,-25.476190476190474,10.396825396825395,-16.11111111111111,-0.07936507936507936,-0.07936507936507936,-0.07936507936507936,-0.07936507936507936,-0.07936507936507936,-0.07936507936507936,-3.095238095238095,0.5555555555555556,-325.0,-325.0,-325.0,-325.0,-325.0,-321.8253968253968
38,-0.23809523809523808,-0.07936507936507936,-0.07936507936507936,-0.07936507936507936,-0.07936507936507936,-0.07936507936507936,-0.07936507936507936,-8.65079365079365,-3.4126984126984126,-0.873015873015873,-0.07936507936507936,-0.07936507936507936,-0.07936507936507936,-0.07936507936507936,-0.07936507936507936,-0.07936507936507936,-3.253968253968254,1.1904761904761905,-325.0,-325.0,-325.0,-325.0,-325.0,-321.8253968253968
39,-0.23809523809523808,-0.07936507936507936,-0.07936507936507936,-0.07936507936507936,-0.07936507936507936,-0.07936507936507936,-0.07936507936507936,-8.65079365079365,-3.4126984126984126,-0.873015873015873,-0.07936507936507936,-0.07936507936507936,-0.07936507936507936,-0.07936507936507936,-0.07936507936507936,-0.07936507936507936,-3.253968253968254,1.1904761904761905,-325.0,-325.0,-325.0,-325.0,-325.0,-321.8253968253968
40,8.65079365079365,-0.07936507936507936,-0.07936507936507936,-0.07936507936507936,-0.07936507936507936,-0.07936507936507936,-0.07936507936507936,6.746031746031746,0.873015873015873,8.333333333333332,-0.07936507936507936,2.9365079365079363,-0.07936507936507936,-0.07936507936507936,-0.07936507936507936,-0.07936507936507936,-3.095238095238095,1.0317460317460316,-325.0,-325.0,-325.0,-325.0,-325.0,-7.5396825396825395
41,8.65079365079365,-0.07936507936507936,-0.07936507936507936,-0.07936507936507936,-0.07936507936507936,-0.07936507936507936,-0.07936507936507936,6.746031746031746,0.873015873015873,8.333333333333332,-0.07936507936507936,2.9365079365079363,-0.07936507936507936,-0.07936507936507936,-0.07936507936507936,-0.07936507936507936,-3.095238095238095,1.0317460317460316,-325.0,-325.0,-325.0,-325.0,-325.0,-7.5396825396825395
42,18.015873015873016,-0.07936507936507936,-0.07936507936507936,-0.07936507936507936,-0.07936507936507936,-0.07936507936507936,-0.07936507936507936,7.698412698412698,-0.07936507936507936,11.507936507936508,-0.07936507936507936,-0.07936507936507936,-0.07936507936507936,-0.07936507936507936,-0.07936507936507936,-0.07936507936507936,-2.9365079365079363,0.873015873015873,-325.0,-325.0,-325.0,-325.0,-325.0,-7.5396825396825395
43,18.015873015873016,-0.07936507936507936,-0.07936507936507936,-0.07936507936507936,-0.07936507936507936,-0.07936507936507936,-0.07936507936507936,7.698412698412698,-0.07936507936507936,11.507936507936508,-0.07936507936507936,-0.07936507936507936,-0.07936507936507936,-0.07936507936507936,-0.07936507936507936,-0.07936507936507936,-2.9365079365079363,0.873015873015873,-325.0,-325.0,-325.0,-325.0,-325.0,-7.5396825396825395
44,14.84126984126984,-0.07936507936507936,-0.07936507936507936,-0.07936507936507936,-0.07936507936507936,-0.07936507936507936,-0.07936507936507936,3.571428571428571,4.841269841269841,9.603174603174603,-0.07936507936507936,3.253968253968254,-0.07936507936507936,-0.07936507936507936,-0.07936507936507936,-0.07936507936507936,-3.4126984126984126,1.0317460317460316,-325.0,-325.0,-325.0,-325.0,-325.0,-7.5396825396825395
45,14.84126984126984,-0.07936507936507936,-0.07936507936507936,-0.07936507936507936,-0.07936507936507936,-0.07936507936507936,-0.07936507936507936,3.571428571428571,4.841269841269841,9.603174603174603,-0.07936507936507936,3.253968253968254,-0.07936507936507936,-0.07936507936507936,-0.07936507936507936,-0.07936507936507936,-3.4126984126984126,1.0317460317460316,-325.0,-325.0,-325.0,-325.0,-325.0,-7.5396825396825395
46,4.365079365079365,-0.07936507936507936,-0.07936507936507936,-0.07936507936507936,-0.07936507936507936,-0.07936507936507936,-0.07936507936507936,0.07936507936507936,1.0317460317460316,7.222222222222221,-0.07936507936507936,-0.07936507936507936,-0.07936507936507936,-0.07936507936507936,-0.07936507936507936,-0.07936507936507936,-2.7777777777777777,1.1904761904761905,-325.0,-325.0,-325.0,-325.0,-325.0,-7.5396825396825395
47,4.365079365079365,-0.07936507936507936,-0.07936507936507936,-0.07936507936507936,-0.07936507936507936,-0.07936507936507936,-0.07936507936507936,0.07936507936507936,1.0317460317460316,7.222222222222221,-0.07936507936507936,-0.07936507936507936,-0.07936507936507936,-0.07936507936507936,-0.07936507936507936,-0.07936507936507936,-2.7777777777777777,1.1904761904761905,-325.0,-325.0,-325.0,-325.0,-325.0,-7.5396825396825395
48,10.079365079365079,-0.07936507936507936,-0.07936507936507936,-0.07936507936507936,-0.07936507936507936,-0.07936507936507936,-0.07936507936507936,-4.2063492063492065,-7.5396825396825395,3.888888888888889,-0.07936507936507936,5.476190476190476,-0.07936507936507936,-0.07936507936507936,-0.07936507936507936,-0.07936507936507936,-3.095238095238095,0.3968253968253968,-325.0,-325.0,-325.0,-325.0,-325.0,-7.5396825396825395
49,10.079365079365079,-0.07936507936507936,-0.07936507936507936,-0.07936507936507936,-0.07936507936507936,-0.07936507936507936,-0.07936507936507936,-4.2063492063492065,-7.5396825396825395,3.888888888888889,-0.07936507936507936,5.476190476190476,-0.07936507936507936,-0.07936507936507936,-0.07936507936507936,-0.07936507936507936,-3.095238095238095,0.3968253968253968,-325.0,-325.0,-325.0,-325.0,-325.0,-7.5396825396825395
50,19.444444444444443,-0.07936507936507936,-0.07936507936507936,-0.07936507936507936,-0.07936507936507936,-0.07936507936507936,-0.07936507936507936,5.0,4.841269841269841,10.079365079365079,-0.07936507936507936,7.063492063492063,-0.07936507936507936,-0.07936507936507936,-0.07936507936507936,-0.07936507936507936,-2.619047619047619,0.07936507936507936,-325.0,-325.0,-325.0,-325.0,-325.0,-321.8253968253968
51,19.444444444444443,-0.07936507936507936,-0.07936507936507936,-0.07936507936507936,-0.07936507936507936,-0.07936507936507936,-0.07936507936507936,5.0,4.841269841269841,10.079365079365079,-0.07936507936507936,7.063492063492063,-0.07936507936507936,-0.07936507936507936,-0.07936507936507936,-0.07936507936507936,-2.619047619047619,0.07936507936507936,-325.0,-325.0,-325.0,-325.0,-325.0,-321.8253968253968
52,10.714285714285714,-0.07936507936507936,-0.07936507936507936,-0.07936507936507936,-0.07936507936507936,-0.07936507936507936,-0.07936507936507936,-3.73015873015873,-7.222222222222221,3.095238095238095,-0.07936507936507936,-1.507936507936508,-0.07936507936507936,0.23809523809523808,-0.07936507936507936,-0.07936507936507936,-2.9365079365079363,0.3968253968253968,-325.0,-325.0,-325.0,-325.0,-325.0,-321.8253968253968
53,10.714285714285714,-0.07936507936507936,-0.07936507936507936,-0.07936507936507936,-0.07936507936507936,-0.07936507936507936,-0.07936507936507936,-3.73015873015873,-7.222222222222221,3.095238095238095,-0.07936507936507936,-1.507936507936508,-0.07936507936507936,0.23809523809523808,-0.07936507936507936,-0.07936507936507936,-2.9365079365079363,0.3968253968253968,-325.0,-325.0,-325.0,-325.0,-325.0,-321.8253968253968
54,2.619047619047619,-0.07936507936507936,-0.07936507936507936,-0.07936507936507936,-0.07936507936507936,-0.07936507936507936,0.873015873015873,0.7142857142857142,8.968253968253968,17.063492063492063,-0.07936507936507936,6.746031746031746,-0.07936507936507936,3.73015873015873,-0.07936507936507936,-0.07936507936507936,-2.619047619047619,0.3968253968253968,-325.0,-325.0,-325.0,-325.0,-325.0,-321.8253968253968
55,2.619047619047619,-0.07936507936507936,-0.07936507936507936,-0.07936507936507936,-0.07936507936507936,-0.07936507936507936,0.873015873015873,0.7142857142857142,8.968253968253968,17.063492063492063,-0.07936507936507936,6.746031746031746,-0.07936507936507936,3.73015873015873,-0.07936507936507936,-0.07936507936507936,-2.619047619047619,0.3968253968253968,-325.0,-325.0,-325.0,-325.0,-325.0,-321.8253968253968
56,4.841269841269841,-0.07936507936507936,-0.07936507936507936,-0.07936507936507936,-0.07936507936507936,-0.07936507936507936,-3.888888888888889,2.7777777777777777,-0.23809523809523808,19.285714285714285,-0.07936507936507936,7.857142857142857,-0.07936507936507936,2.9365079365079363,-0.07936507936507936,-0.07936507936507936,-2.46031746031746,0.873015873015873,-325.0,-325.0,-325.0,-325.0,-325.0,-321.8253968253968
57,4.841269841269841,-0.07936507936507936,-0.07936507936507936,-0.07936507936507936,-0.07936507936507936,-0.07936507936507936,-3.888888888888889,2.7777777777777777,-0.23809523809523808,19.285714285714285,-0.07936507936507936,7.857142857142857,-0.07936507936507936,2.9365079365079363,-0.07936507936507936,-0.07936507936507936,-2.46031746031746,0.873015873015873,-325.0,-325.0,-325.0,-325.0,-325.0,-321.8253968253968
58,3.253968253968254,-1.984126984126984,-0.07936507936507936,-0.07936507936507936,-0.07936507936507936,-0.07936507936507936,-8.968253968253968,1.1904761904761905,-10.714285714285714,11.507936507936508,-0.07936507936507936,2.7777777777777777,-0.07936507936507936,0.07936507936507936,-0.07936507936507936,-0.07936507936507936,-1.984126984126984,1.0317460317460316,-325.0,-325.0,-325.0,-325.0,-325.0,-321.8253968253968
59,3.253968253968254,-1.984126984126984,-0.07936507936507936,-0.07936507936507936,-0.07936507936507936,-0.07936507936507936,-8.968253968253968,1.1904761904761905,-10.714285714285714,11.507936507936508,-0.07936507936507936,2.7777777777777777,-0.07936507936507936,0.07936507936507936,-0.07936507936507936,-0.07936507936507936,-1.984126984126984,1.0317460317460316,-325.0,-325.0,-325.0,-325.0,-325.0,-321.8253968253968
60,-2.3015873015873014,-4.841269841269841,-0.07936507936507936,-0.07936507936507936,-0.07936507936507936,-0.07936507936507936,-8.65079365079365,-4.682539682539682,5.476190476190476,13.095238095238095,-0.07936507936507936,0.873015873015873,-0.07936507936507936,-0.3968253968253968,-0.07936507936507936,-0.07936507936507936,-2.46031746031746,0.5555555555555556,-325.0,-325.0,-325.0,-325.0,-325.0,-7.5396825396825395
61,-2.3015873015873014,-4.841269841269841,-0.07936507936507936,-0.07936507936507936,-0.07936507936507936,-0.07936507936507936,-8.65079365079365,-4.682539682539682,5.476190476190476,13.095238095238095,-0.07936507936507936,0.873015873015873,-0.07936507936507936,-0.3968253968253968,-0.07936507936507936,-0.07936507936507936,-2.46031746031746,0.5555555555555556,-325.0,-325.0,-325.0,-325.0,-325.0,-7.5396825396825395
62,-9.126984126984127,-8.015873015873016,-0.07936507936507936,-0.07936507936507936,-0.07936507936507936,-0.07936507936507936,-10.079365079365079,-12.936507936507935,-3.4126984126984126,8.174603174603174,-0.07936507936507936,-3.888888888888889,-0.07936507936507936,-4.0476190476190474,-0.07936507936507936,-0.07936507936507936,-2.9365079365079363,0.3968253968253968,-325.0,-325.0,-325.0,-325.0,-325.0,-7.5396825396825395
63,-9.126984126984127,-8.015873015873016,-0.07936507936507936,-0.07936507936507936,-0.07936507936507936,-0.07936507936507936,-10.079365079365079,-12.936507936507935,-3.4126984126984126,8.174603174603174,-0.07936507936507936,-3.888888888888889,-0.07936507936507936,-4.0476190476190474,-0.07936507936507936,-0.07936507936507936,-2.9365079365079363,0.3968253968253968,-325.0,-325.0,-325.0,-325.0,-325.0,-7.5396825396825395
64,-9.444444444444445,-2.7777777777777777,-0.07936507936507936,-0.07936507936507936,-0.07936507936507936,-0.3968253968253968,-11.507936507936508,-11.349206349206348,-6.111111111111111,8.968253968253968,-0.07936507936507936,-4.841269841269841,-0.07936507936507936,-5.317460317460317,-0.07936507936507936,-0.07936507936507936,-2.3015873015873014,0.5555555555555556,-325.0,-325.0,-325.0,-325.0,-325.0,-7.5396825396825395
65,-9.444444444444445,-2.7777777777777777,-0.07936507936507936,-0.07936507936507936,-0.07936507936507936,-0.3968253968253968,-11.507936507936508,-11.349206349206348,-6.111111111111111,8.968253968253968,-0.07936507936507936,-4.841269841269841,-0.07936507936507936,-5.317460317460317,-0.07936507936507936,-0.07936507936507936,-2.3015873015873014,0.5555555555555556,-325.0,-325.0,-325.0,-325.0,-325.0,-7.5396825396825395
66,-15.95238095238095,-2.619047619047619,-0.07936507936507936,-0.07936507936507936,-0.07936507936507936,-3.4126984126984126,-9.761904761904761,-2.3015873015873014,4.2063492063492065,17.698412698412696,-0.07936507936507936,-1.507936507936508,-0.07936507936507936,-3.253968253968254,-0.07936507936507936,-0.07936507936507936,-2.7777777777777777,0.7142857142857142,-325.0,-325.0,-325.0,-325.0,-325.0,-7.5396825396825395
67,-15.95238095238095,-2.619047619047619,-0.07936507936507936,-0.07936507936507936,-0.07936507936507936,-3.4126984126984126,-9.761904761904761,-2.3015873015873014,4.2063492063492065,17.698412698412696,-0.07936507936507936,-1.507936507936508,-0.07936507936507936,-3.253968253968254,-0.07936507936507936,-0.07936507936507936,-2.7777777777777777,0.7142857142857142,-325.0,-325.0,-325.0,-325.0,-325.0,-7.5396825396825395
68,-14.206349206349206,-3.253968253968254,-0.07936507936507936,-3.253968253968254,-0.07936507936507936,-3.253968253968254,-9.603174603174603,-7.857142857142857,-9.920634920634921,8.65079365079365,-0.07936507936507936,-5.634920634920634,-0.07936507936507936,-4.841269841269841,-1.6666666666666665,-0.07936507936507936,-2.7777777777777777,0.873015873015873,-325.0,-325.0,-325.0,-325.0,-325.0,-7.5396825396825395
69,-14.206349206349206,-3.253968253968254,-0.07936507936507936,-3.253968253968254,-0.07936507936507936,-3.253968253968254,-9.603174603174603,-7.857142857142857,-9.920634920634921,8.65079365079365,-0.07936507936507936,-5.634920634920634,-0.07936507936507936,-4.841269841269841,-1.6666666666666665,-0.07936507936507936,-2.7777777777777777,0.873015873015873,-325.0,-325.0,-325.0,-325.0,-325.0,-7.5396825396825395
70,-8.968253968253968,-3.4126984126984126,-0.07936507936507936,-6.428571428571428,-0.07936507936507936,0.07936507936507936,-8.492063492063492,7.063492063492063,4.365079365079365,23.41269841269841,-1.507936507936508,-1.507936507936508,-0.07936507936507936,-3.73015873015873,-2.9365079365079363,-0.07936507936507936,-3.253968253968254,0.7142857142857142,-325.0,-325.0,-325.0,-325.0,-325.0,-321.8253968253968
71,-8.968253968253968,-3.4126984126984126,-0.07936507936507936,-6.428571428571428,-0.07936507936507936,0.07936507936507936,-8.492063492063492,7.063492063492063,4.365079365079365,23.41269841269841,-1.507936507936508,-1.507936507936508,-0.07936507936507936,-3.73015873015873,-2.9365079365079363,-0.07936507936507936,-3.253968253968254,0.7142857142857142,-325.0,-325.0,-325.0,-325.0,-325.0,-321.8253968253968
72,184.52380952380952,261.8253968253968,325.0,305.4761904761905,325.0,301.031746031746,-260.07936507936506,206.42857142857142,175.63492063492063,-131.5079365079365,-325.0,261.5079365079365,325.0,-258.015873015873,310.55555555555554,325.0,-2.142857142857143,2.9365079365079363,-325.0,-325.0,-325.0,-325.0,-325.0,-321.8253968253968
73,184.52380952380952,261.8253968253968,325.0,305.4761904761905,325.0,301.031746031746,-260.07936507936506,206.42857142857142,175.63492063492063,-131.5079365079365,-325.0,261.5079365079365,325.0,-258.015873015873,310.55555555555554,325.0,-2.142857142857143,2.9365079365079363,-325.0,-325.0,-325.0,-325.0,-325.0,-321.8253968253968
74,-8.492063492063492,-3.253968253968254,-0.07936507936507936,-7.222222222222221,-0.3968253968253968,-1.8253968253968254,-4.682539682539682,8.968253968253968,7.5396825396825395,14.84126984126984,-3.095238095238095,2.7777777777777777,-0.07936507936507936,-1.8253968253968254,-4.682539682539682,-0.07936507936507936,-2.619047619047619,0.7142857142857142,-325.0,-325.0,-325.0,-325.0,-325.0,-321.8253968253968
75,-8.492063492063492,-3.253968253968254,-0.07936507936507936,-7.222222222222221,-0.3968253968253968,-1.8253968253968254,-4.682539682539682,8.968253968253968,7.5396825396825395,14.84126984126984,-3.095238095238095,2.7777777777777777,-0.07936507936507936,-1.8253968253968254,-4.682539682539682,-0.07936507936507936,-2.619047619047619,0.7142857142857142,-325.0,-325.0,-325.0,-325.0,-325.0,-321.8253968253968
76,-8.809523809523808,-3.571428571428571,-0.07936507936507936,-6.587301587301587,-4.682539682539682,0.23809523809523808,-5.158730158730158,11.19047619047619,3.253968253968254,13.888888888888888,-2.3015873015873014,0.873015873015873,-0.07936507936507936,2.142857142857143,-5.634920634920634,-2.142857142857143,-3.095238095238095,1.1904761904761905,-325.0,-325.0,-325.0,-325.0,-325.0,-321.8253968253968
77,-8.809523809523808,-3.571428571428571,-0.07936507936507936,-6.587301587301587,-4.682539682539682,0.23809523809523808,-5.158730158730158,11.19047619047619,3.253968253968254,13.888888888888888,-2.3015873015873014,0.873015873015873,-0.07936507936507936,2.142857142857143,-5.634920634920634,-2.142857142857143,-3.095238095238095,1.1904761904761905,-325.0,-325.0,-325.0,-325.0,-325.0,-321.8253968253968
78,-224.84126984126982,-249.12698412698413,-325.0,-299.1269841269841,-325.0,-276.58730158730157,222.61904761904762,-154.04761904761904,-179.44444444444443,162.14285714285714,300.07936507936506,-246.74603174603172,-325.0,236.74603174603175,-303.57142857142856,-322.9365079365079,-4.365079365079365,-0.23809523809523808,-325.0,-325.0,-325.0,-325.0,-325.0,-321.8253968253968
79,-224.84126984126982,-249.12698412698413,-325.0,-299.1269841269841,-325.0,-276.58730158730157,222.61904761904762,-154.04761904761904,-179.44444444444443,162.14285714285714,300.07936507936506,-246.74603174603172,-325.0,236.74603174603175,-303.57142857142856,-322.9365079365079,-4.365079365079365,-0.23809523809523808,-325.0,-325.0,-325.0,-325.0,-325.0,-321.8253968253968
80,-10.238095238095237,-3.4126984126984126,-6.587301587301587,-5.952380952380952,-11.666666666666666,4.365079365079365,-3.095238095238095,20.71428571428571,12.3015873015873,25.0,1.349206349206349,2.46031746031746,-0.07936507936507936,4.0476190476190474,-6.26984126984127,-4.841269841269841,-3.253968253968254,1.1904761904761905,-325.0,-325.0,-325.0,-325.0,-325.0,-7.5396825396825395
81,-10.238095238095237,-3.4126984126984126,-6.587301587301587,-5.952380952380952,-11.666666666666666,4.365079365079365,-3.095238095238095,20.71428571428571,12.3015873015873,25.0,1.349206349206349,2.46031746031746,-0.07936507936507936,4.0476190476190474,-6.26984126984127,-4.841269841269841,-3.253968253968254,1.1904761904761905,-325.0,-325.0,-325.0,-325.0,-325.0,-7.5396825396825395
82,-4.682539682539682,-3.571428571428571,-7.3809523809523805,-7.063492063492063,-8.015873015873016,0.3968253968253968,-2.3015873015873014,7.857142857142857,5.476190476190476,8.809523809523808,0.7142857142857142,-2.9365079365079363,-0.873015873015873,1.507936507936508,-5.158730158730158,-6.587301587301587,-2.9365079365079363,1.507936507936508,-325.0,-325.0,-325.0,-325.0,-325.0,-7.5396825396825395
83,-4.682539682539682,-3.571428571428571,-7.3809523809523805,-7.063492063492063,-8.015873015873016,0.3968253968253968,-2.3015873015873014,7.857142857142857,5.476190476190476,8.809523809523808,0.7142857142857142,-2.9365079365079363,-0.873015873015873,1.507936507936508,-5.158730158730158,-6.587301587301587,-2.9365079365079363,1.507936507936508,-325.0,-325.0,-325.0,-325.0,-325.0,-7.5396825396825395
84,-3.888888888888889,-3.888888888888889,-7.857142857142857,-6.746031746031746,-9.444444444444445,-1.6666666666666665,-4.0476190476190474,3.4126984126984126,-7.222222222222221,7.857142857142857,-1.0317460317460316,-3.4126984126984126,-5.0,3.571428571428571,-6.904761904761904,-5.476190476190476,-2.46031746031746,1.0317460317460316,-325.0,-325.0,-325.0,-325.0,-325.0,-7.5396825396825395
85,-3.888888888888889,-3.888888888888889,-7.857142857142857,-6.746031746031746,-9.444444444444445,-1.6666666666666665,-4.0476190476190474,3.4126984126984126,-7.222222222222221,7.857142857142857,-1.0317460317460316,-3.4126984126984126,-5.0,3.571428571428571,-6.904761904761904,-5.476190476190476,-2.46031746031746,1.0317460317460316,-325.0,-325.0,-325.0,-325.0,-325.0,-7.5396825396825395
86,-11.19047619047619,-8.174603174603174,-8.809523809523808,-7.5396825396825395,-10.396825396825395,-5.0,-4.0476190476190474,6.746031746031746,1.349206349206349,16.587301587301585,-0.5555555555555556,-3.571428571428571,-7.698412698412698,-1.1904761904761905,-5.0,-4.841269841269841,-3.4126984126984126,1.349206349206349,-325.0,-325.0,-325.0,-325.0,-325.0,-7.5396825396825395
87,-11.19047619047619,-8.174603174603174,-8.809523809523808,-7.5396825396825395,-10.396825396825395,-5.0,-4.0476190476190474,6.746031746031746,1.349206349206349,16.587301587301585,-0.5555555555555556,-3.571428571428571,-7.698412698412698,-1.1904761904761905,-5.0,-4.841269841269841,-3.4126984126984126,1.349206349206349,-325.0,-325.0,-325.0,-325.0,-325.0,-7.5396825396825395
88,-18.80952380952381,-7.5396825396825395,-5.476190476190476,-5.158730158730158,-6.746031746031746,-0.5555555555555556,-4.841269841269841,3.73015873015873,-0.07936507936507936,9.603174603174603,-5.7936507936507935,-2.3015873015873014,-6.904761904761904,0.23809523809523808,-3.095238095238095,-4.682539682539682,-3.571428571428571,1.6666666666666665,-325.0,-325.0,-325.0,-325.0,-325.0,-7.5396825396825395
89,-18.80952380952381,-7.5396825396825395,-5.476190476190476,-5.158730158730158,-6.746031746031746,-0.5555555555555556,-4.841269841269841,3.73015873015873,-0.07936507936507936,9.603174603174603,-5.7936507936507935,-2.3015873015873014,-6.904761904761904,0.23809523809523808,-3.095238095238095,-4.682539682539682,-3.571428571428571,1.6666666666666665,-325.0,-325.0,-325.0,-325.0,-325.0,-7.5396825396825395
90,-36.269841269841265,-13.412698412698411,-5.952380952380952,-5.476190476190476,-8.968253968253968,0.7142857142857142,-8.492063492063492,-1.8253968253968254,-6.428571428571428,3.73015873015873,-5.317460317460317,-1.1904761904761905,-6.428571428571428,-3.73015873015873,-3.095238095238095,-2.9365079365079363,-3.253968253968254,1.349206349206349,-325.0,-325.0,-325.0,-325.0,-325.0,-321.8253968253968
91,-36.269841269841265,-13.412698412698411,-5.952380952380952,-5.476190476190476,-8.968253968253968,0.7142857142857142,-8.492063492063492,-1.8253968253968254,-6.428571428571428,3.73015873015873,-5.317460317460317,-1.1904761904761905,-6.428571428571428,-3.73015873015873,-3.095238095238095,-2.9365079365079363,-3.253968253968254,1.349206349206349,-325.0,-325.0,-325.0,-325.0,-325.0,-321.8253968253968
92,-77.38095238095238,-29.6031746031746,-5.158730158730158,-7.3809523809523805,-4.365079365079365,-0.873015873015873,-12.142857142857142,-10.555555555555555,2.142857142857143,-0.3968253968253968,-8.333333333333332,-8.492063492063492,-2.3015873015873014,-10.079365079365079,1.8253968253968254,-1.1904761904761905,-2.9365079365079363,1.349206349206349,-325.0,-325.0,-325.0,-325.0,-325.0,-321.8253968253968
93,-77.38095238095238,-29.6031746031746,-5.158730158730158,-7.3809523809523805,-4.365079365079365,-0.873015873015873,-12.142857142857142,-10.555555555555555,2.142857142857143,-0.3968253968253968,-8.333333333333332,-8.492063492063492,-2.3015873015873014,-10.079365079365079,1.8253968253968254,-1.1904761904761905,-2.9365079365079363,1.349206349206349,-325.0,-325.0,-325.0,-325.0,-325.0,-321.8253968253968
94,-319.2857142857143,-204.2063492063492,-269.76190476190476,-231.34920634920633,-253.57142857142856,-210.87301587301587,132.3015873015873,-104.84126984126983,-207.85714285714283,79.6031746031746,222.3015873015873,-192.14285714285714,-288.3333333333333,141.5079365079365,-231.8253968253968,-252.3015873015873,-3.888888888888889,-0.23809523809523808,-325.0,-325.0,-325.0,-325.0,-325.0,-321.8253968253968
95,-319.2857142857143,-204.2063492063492,-269.76190476190476,-231.34920634920633,-253.57142857142856,-210.87301587301587,132.3015873015873,-104.84126984126983,-207.85714285714283,79.6031746031746,222.3015873015873,-192.14285714285714,-288.3333333333333,141.5079365079365,-231.8253968253968,-252.3015873015873,-3.888888888888889,-0.23809523809523808,-325.0,-325.0,-325.0,-325.0,-325.0,-321.8253968253968
96,-99.76190476190476,-50.079365079365076,-3.253968253968254,-7.063492063492063,-1.349206349206349,-3.253968253968254,-14.206349206349206,-6.587301587301587,-10.714285714285714,-10.079365079365079,-11.825396825396824,-17.539682539682538,-0.07936507936507936,-15.95238095238095,3.571428571428571,-0.7142857142857142,-2.7777777777777777,1.349206349206349,-325.0,-325.0,-325.0,-325.0,-325.0,-321.8253968253968
97,-99.76190476190476,-50.079365079365076,-3.253968253968254,-7.063492063492063,-1.349206349206349,-3.253968253968254,-14.206349206349206,-6.587301587301587,-10.714285714285714,-10.079365079365079,-11.825396825396824,-17.539682539682538,-0.07936507936507936,-15.95238095238095,3.571428571428571,-0.7142857142857142,-2.7777777777777777,1.349206349206349,-325.0,-325.0,-325.0,-325.0,-325.0,-321.8253968253968
98,-320.87301587301585,-184.84126984126982,-249.28571428571428,-209.60317460317458,-230.87301587301587,-190.07936507936506,109.28571428571428,-90.55555555555556,-225.3174603174603,51.34920634920635,196.26984126984127,-176.58730158730157,-268.3333333333333,116.74603174603173,-211.19047619047618,-233.25396825396825,-4.0476190476190474,0.5555555555555556,-325.0,-325.0,-325.0,-325.0,-325.0,-321.8253968253968
99,-320.87301587301585,-184.84126984126982,-249.28571428571428,-209.60317460317458,-230.87301587301587,-190.07936507936506,109.28571428571428,-90.55555555555556,-225.3174603174603,51.34920634920635,196.26984126984127,-176.58730158730157,-268.3333333333333,116.74603174603173,-211.19047619047618,-233.25396825396825,-4.0476190476190474,0.5555555555555556,-325.0,-325.0,-325.0,-325.0,-325.0,-321.8253968253968
100,-66.11111111111111,-27.38095238095238,2.619047619047619,-1.984126984126984,1.6666666666666665,5.317460317460317,-15.158730158730158,7.3809523809523805,-1.6666666666666665,-5.317460317460317,-3.888888888888889,-9.761904761904761,1.349206349206349,-11.507936507936508,7.5396825396825395,6.587301587301587,-2.619047619047619,1.507936507936508,-325.0,-325.0,-325.0,-325.0,-325.0,-7.5396825396825395
101,-66.11111111111111,-27.38095238095238,2.619047619047619,-1.984126984126984,1.6666666666666665,5.317460317460317,-15.158730158730158,7.3809523809523805,-1.6666666666666665,-5.317460317460317,-3.888888888888889,-9.761904761904761,1.349206349206349,-11.507936507936508,7.5396825396825395,6.587301587301587,-2.619047619047619,1.507936507936508,-325.0,-325.0,-325.0,-325.0,-325.0,-7.5396825396825395
102,-23.253968253968253,4.365079365079365,4.0476190476190474,9.444444444444445,4.523809523809524,11.19047619047619,-10.238095238095237,20.396825396825395,5.0,4.0476190476190474,-7.698412698412698,10.079365079365079,3.095238095238095,-8.333333333333332,9.126984126984127,6.111111111111111,-3.095238095238095,1.349206349206349,-325.0,-325.0,-325.0,-325.0,-325.0,-7.5396825396825395
103,-23.253968253968253,4.365079365079365,4.0476190476190474,9.444444444444445,4.523809523809524,11.19047619047619,-10.238095238095237,20.396825396825395,5.0,4.0476190476190474,-7.698412698412698,10.079365079365079,3.095238095238095,-8.333333333333332,9.126984126984127,6.111111111111111,-3.095238095238095,1.349206349206349,-325.0,-325.0,-325.0,-325.0,-325.0,-7.5396825396825395
104,-2.7777777777777777,18.80952380952381,5.158730158730158,8.809523809523808,4.841269841269841,4.682539682539682,-14.206349206349206,8.174603174603174,-6.26984126984127,-2.46031746031746,-1.6666666666666665,8.809523809523808,0.3968253968253968,-6.904761904761904,5.476190476190476,4.523809523809524,-3.095238095238095,1.984126984126984,-325.0,-325.0,-325.0,-325.0,-325.0,-7.5396825396825395
105,-2.7777777777777777,18.80952380952381,5.158730158730158,8.809523809523808,4.841269841269841,4.682539682539682,-14.206349206349206,8.174603174603174,-6.26984126984127,-2.46031746031746,-1.6666666666666665,8.809523809523808,0.3968253968253968,-6.904761904761904,5.476190476190476,4.523809523809524,-3.095238095238095,1.984126984126984,-325.0,-325.0,-325.0,-325.0,-325.0,-7.5396825396825395
106,25.476190476190474,26.428571428571427,4.0476190476190474,11.19047619047619,1.8253968253968254,3.888888888888889,-5.476190476190476,12.46031746031746,4.2063492063492065,5.952380952380952,-5.317460317460317,13.253968253968253,1.984126984126984,-3.253968253968254,4.841269841269841,3.571428571428571,-2.9365079365079363,1.984126984126984,-325.0,-325.0,-325.0,-325.0,-325.0,-7.5396825396825395
107,25.476190476190474,26.428571428571427,4.0476190476190474,11.19047619047619,1.8253968253968254,3.888888888888889,-5.476190476190476,12.46031746031746,4.2063492063492065,5.952380952380952,-5.317460317460317,13.253968253968253,1.984126984126984,-3.253968253968254,4.841269841269841,3.571428571428571,-2.9365079365079363,1.984126984126984,-325.0,-325.0,-325.0,-325.0,-325.0,-7.5396825396825395
108,31.98412698412698,25.317460317460316,3.4126984126984126,9.444444444444445,2.9365079365079363,3.253968253968254,-0.7142857142857142,11.349206349206348,9.603174603174603,8.65079365079365,4.523809523809524,15.0,0.5555555555555556,-1.349206349206349,5.158730158730158,4.523809523809524,-3.4126984126984126,1.349206349206349,-325.0,-325.0,-325.0,-325.0,-325.0,-7.5396825396825395
109,31.98412698412698,25.317460317460316,3.4126984126984126,9.444444444444445,2.9365079365079363,3.253968253968254,-0.7142857142857142,11.349206349206348,9.603174603174603,8.65079365079365,4.523809523809524,15.0,0.5555555555555556,-1.349206349206349,5.158730158730158,4.523809523809524,-3.4126984126984126,1.349206349206349,-325.0,-325.0,-325.0,-325.0,-325.0,-7.5396825396825395
110,36.42857142857142,28.49206349206349,2.7777777777777777,5.476190476190476,1.6666666666666665,3.888888888888889,3.571428571428571,13.73015873015873,-0.3968253968253968,7.063492063492063,-2.7777777777777777,11.19047619047619,-0.23809523809523808,0.7142857142857142,2.619047619047619,1.6666666666666665,-3.095238095238095,2.142857142857143,-325.0,-325.0,-325.0,-325.0,-325.0,-321.8253968253968
111,36.42857142857142,28.49206349206349,2.7777777777777777,5.476190476190476,1.6666666666666665,3.888888888888889,3.571428571428571,13.73015873015873,-0.3968253968253968,7.063492063492063,-2.7777777777777777,11.19047619047619,-0.23809523809523808,0.7142857142857142,2.619047619047619,1.6666666666666665,-3.095238095238095,2.142857142857143,-325.0,-325.0,-325.0,-325.0,-325.0,-321.8253968253968
112,48.01587301587301,36.42857142857142,0.23809523809523808,14.047619047619047,-1.507936507936508,9.285714285714285,4.682539682539682,24.523809523809522,6.428571428571428,11.666666666666666,0.23809523809523808,26.26984126984127,-0.07936507936507936,6.26984126984127,1.507936507936508,3.253968253968254,-3.095238095238095,1.507936507936508,-325.0,-325.0,-325.0,-325.0,-325.0,-321.8253968253968
113,48.01587301587301,36.42857142857142,0.23809523809523808,14.047619047619047,-1.507936507936508,9.285714285714285,4.682539682539682,24.523809523809522,6.428571428571428,11.666666666666666,0.23809523809523808,26.26984126984127,-0.07936507936507936,6.26984126984127,1.507936507936508,3.253968253968254,-3.095238095238095,1.507936507936508,-325.0,-325.0,-325.0,-325.0,-325.0,-321.8253968253968
114,52.93650793650794,36.42857142857142,2.7777777777777777,11.666666666666666,0.3968253968253968,5.317460317460317,5.317460317460317,13.253968253968253,-12.619047619047619,0.23809523809523808,2.46031746031746,25.634920634920633,-0.5555555555555556,3.571428571428571,-1.0317460317460316,-1.0317460317460316,-3.095238095238095,1.349206349206349,-325.0,-325.0,-325.0,-325.0,-325.0,-321.8253968253968
115,52.93650793650794,36.42857142857142,2.7777777777777777,11.666666666666666,0.3968253968253968,5.317460317460317,5.317460317460317,13.253968253968253,-12.619047619047619,0.23809523809523808,2.46031746031746,25.634920634920633,-0.5555555555555556,3.571428571428571,-1.0317460317460316,-1.0317460317460316,-3.095238095238095,1.349206349206349,-325.0,-325.0,-325.0,-325.0,-325.0,-321.8253968253968
116,51.34920634920635,30.555555555555554,2.46031746031746,10.396825396825395,-1.507936507936508,1.507936507936508,4.0476190476190474,4.523809523809524,2.142857142857143,-3.571428571428571,9.603174603174603,16.587301587301585,-1.349206349206349,2.142857142857143,-4.2063492063492065,-3.095238095238095,-2.7777777777777777,1.349206349206349,-325.0,-325.0,-325.0,-325.0,-325.0,-321.8253968253968
117,51.34920634920635,30.555555555555554,2.46031746031746,10.396825396825395,-1.507936507936508,1.507936507936508,4.0476190476190474,4.523809523809524,2.142857142857143,-3.571428571428571,9.603174603174603,16.587301587301585,-1.349206349206349,2.142857142857143,-4.2063492063492065,-3.095238095238095,-2.7777777777777777,1.349206349206349,-325.0,-325.0,-325.0,-325.0,-325.0,-321.8253968253968
118,40.238095238095234,33.25396825396825,-0.07936507936507936,13.412698412698411,-1.0317460317460316,4.523809523809524,6.111111111111111,18.174603174603174,-5.317460317460317,6.26984126984127,1.984126984126984,21.666666666666664,1.0317460317460316,5.0,1.8253968253968254,1.984126984126984,-3.571428571428571,1.349206349206349,-325.0,-325.0,-325.0,-325.0,-325.0,-321.8253968253968
119,40.238095238095234,33.25396825396825,-0.07936507936507936,13.412698412698411,-1.0317460317460316,4.523809523809524,6.111111111111111,18.174603174603174,-5.317460317460317,6.26984126984127,1.984126984126984,21.666666666666664,1.0317460317460316,5.0,1.8253968253968254,1.984126984126984,-3.571428571428571,1.349206349206349,-325.0,-325.0,-325.0,-325.0,-325.0,-321.8253968253968
120,31.349206349206348,29.126984126984127,2.9365079365079363,10.873015873015872,2.7777777777777777,4.2063492063492065,1.349206349206349,5.0,-11.19047619047619,-3.571428571428571,7.063492063492063,13.253968253968253,0.23809523809523808,0.07936507936507936,0.873015873015873,0.5555555555555556,-3.253968253968254,1.8253968253968254,-325.0,-325.0,-325.0,-325.0,-325.0,-7.5396825396825395
121,31.349206349206348,29.126984126984127,2.9365079365079363,10.873015873015872,2.7777777777777777,4.2063492063492065,1.349206349206349,5.0,-11.19047619047619,-3.571428571428571,7.063492063492063,13.253968253968253,0.23809523809523808,0.07936507936507936,0.873015873015873,0.5555555555555556,-3.253968253968254,1.8253968253968254,-325.0,-325.0,-325.0,-325.0,-325.0,-7.5396825396825395
122,30.07936507936508,29.6031746031746,3.571428571428571,11.19047619047619,0.7142857142857142,1.0317460317460316,-1.6666666666666665,2.7777777777777777,-15.158730158730158,1.6666666666666665,3.73015873015873,15.793650793650793,-1.6666666666666665,1.984126984126984,-1.6666666666666665,2.142857142857143,-2.9365079365079363,1.6666666666666665,-325.0,-325.0,-325.0,-325.0,-325.0,-7.5396825396825395
123,30.07936507936508,29.6031746031746,3.571428571428571,11.19047619047619,0.7142857142857142,1.0317460317460316,-1.6666666666666665,2.7777777777777777,-15.158730158730158,1.6666666666666665,3.73015873015873,15.793650793650793,-1.6666666666666665,1.984126984126984,-1.6666666666666665,2.142857142857143,-2.9365079365079363,1.6666666666666665,-325.0,-325.0,-325.0,-325.0,-325.0,-7.5396825396825395
124,29.6031746031746,23.41269841269841,6.26984126984127,11.984126984126984,6.746031746031746,5.476190476190476,2.46031746031746,6.904761904761904,-3.73015873015873,-0.7142857142857142,-2.619047619047619,11.031746031746032,3.571428571428571,-1.0317460317460316,5.7936507936507935,2.619047619047619,-2.619047619047619,1.984126984126984,-325.0,-325.0,-325.0,-325.0,-325.0,-7.5396825396825395
125,29.6031746031746,23.41269841269841,6.26984126984127,11.984126984126984,6.746031746031746,5.476190476190476,2.46031746031746,6.904761904761904,-3.73015873015873,-0.7142857142857142,-2.619047619047619,11.031746031746032,3.571428571428571,-1.0317460317460316,5.7936507936507935,2.619047619047619,-2.619047619047619,1.984126984126984,-325.0,-325.0,-325.0,-325.0,-325.0,-7.5396825396825395
126,21.19047619047619,29.126984126984127,8.65079365079365,15.317460317460316,10.873015873015872,8.809523809523808,-3.095238095238095,8.174603174603174,-11.666666666666666,1.0317460317460316,-7.698412698412698,14.523809523809524,2.9365079365079363,-0.873015873015873,7.698412698412698,8.015873015873016,-3.4126984126984126,1.984126984126984,-325.0,-325.0,-325.0,-325.0,-325.0,-7.5396825396825395
127,21.19047619047619,29.126984126984127,8.65079365079365,15.317460317460316,10.873015873015872,8.809523809523808,-3.095238095238095,8.174603174603174,-11.666666666666666,1.0317460317460316,-7.698412698412698,14.523809523809524,2.9365079365079363,-0.873015873015873,7.698412698412698,8.015873015873016,-3.4126984126984126,1.984126984126984,-325.0,-325.0,-325.0,-325.0,-325.0,-7.5396825396825395
128,35.0,21.984126984126984,9.761904761904761,10.555555555555555,13.095238095238095,6.428571428571428,3.73015873015873,7.698412698412698,16.11111111111111,-12.142857142857142,4.365079365079365,7.222222222222221,9.444444444444445,-7.5396825396825395,14.523809523809524,5.317460317460317,-2.46031746031746,1.6666666666666665,-325.0,-325.0,-325.0,-325.0,-325.0,-7.5396825396825395
129,35.0,21.984126984126984,9.761904761904761,10.555555555555555,13.095238095238095,6.428571428571428,3.73015873015873,7.698412698412698,16.11111111111111,-12.142857142857142,4.365079365079365,7.222222222222221,9.444444444444445,-7.5396825396825395,14.523809523809524,5.317460317460317,-2.46031746031746,1.6666666666666665,-325.0,-325.0,-325.0,-325.0,-325.0,-7.5396825396825395
130,15.634920634920634,11.825396825396824,10.714285714285714,5.634920634920634,12.142857142857142,-0.3968253968253968,-2.46031746031746,-6.26984126984127,12.936507936507935,-16.11111111111111,-8.174603174603174,-4.0476190476190474,8.492063492063492,-15.95238095238095,11.984126984126984,2.46031746031746,-2.3015873015873014,1.6666666666666665,-325.0,-325.0,-325.0,-325.0,-325.0,-321.8253968253968
131,15.634920634920634,11.825396825396824,10.714285714285714,5.634920634920634,12.142857142857142,-0.3968253968253968,-2.46031746031746,-6.26984126984127,12.936507936507935,-16.11111111111111,-8.174603174603174,-4.0476190476190474,8.492063492063492,-15.95238095238095,11.984126984126984,2.46031746031746,-2.3015873015873014,1.6666666666666665,-325.0,-325.0,-325.0,-325.0,-325.0,-321.8253968253968
132,-1.6666666666666665,15.476190476190474,8.492063492063492,11.666666666666666,8.968253968253968,1.1904761904761905,-7.857142857142857,4.523809523809524,-15.317460317460316,-10.079365079365079,-12.619047619047619,8.968253968253968,4.365079365079365,-10.396825396825395,8.174603174603174,7.3809523809523805,-2.3015873015873014,1.984126984126984,-325.0,-325.0,-325.0,-325.0,-325.0,-321.8253968253968
133,-1.6666666666666665,15.476190476190474,8.492063492063492,11.666666666666666,8.968253968253968,1.1904761904761905,-7.857142857142857,4.523809523809524,-15.317460317460316,-10.079365079365079,-12.619047619047619,8.968253968253968,4.365079365079365,-10.396825396825395,8.174603174603174,7.3809523809523805,-2.3015873015873014,1.984126984126984,-325.0,-325.0,-325.0,-325.0,-325.0,-321.8253968253968
134,-16.26984126984127,9.444444444444445,3.253968253968254,12.46031746031746,7.222222222222221,4.365079365079365,-8.809523809523808,1.8253968253968254,-6.904761904761904,-14.206349206349206,-9.126984126984127,-0.7142857142857142,8.174603174603174,-12.619047619047619,9.920634920634921,9.761904761904761,-2.46031746031746,1.984126984126984,-325.0,-325.0,-325.0,-325.0,-325.0,-321.8253968253968
135,-16.26984126984127,9.444444444444445,3.253968253968254,12.46031746031746,7.222222222222221,4.365079365079365,-8.809523809523808,1.8253968253968254,-6.904761904761904,-14.206349206349206,-9.126984126984127,-0.7142857142857142,8.174603174603174,-12.619047619047619,9.920634920634921,9.761904761904761,-2.46031746031746,1.984126984126984,-325.0,-325.0,-325.0,-325.0,-325.0,-321.8253968253968
136,-60.238095238095234,-18.174603174603174,1.507936507936508,5.7936507936507935,6.904761904761904,2.7777777777777777,-11.507936507936508,-0.5555555555555556,-10.555555555555555,-11.031746031746032,-9.285714285714285,-4.682539682539682,5.634920634920634,-15.158730158730158,6.904761904761904,9.761904761904761,-3.4126984126984126,1.984126984126984,-325.0,-325.0,-325.0,-325.0,-325.0,-321.8253968253968
137,-60.238095238095234,-18.174603174603174,1.507936507936508,5.7936507936507935,6.904761904761904,2.7777777777777777,-11.507936507936508,-0.5555555555555556,-10.555555555555555,-11.031746031746032,-9.285714285714285,-4.682539682539682,5.634920634920634,-15.158730158730158,6.904761904761904,9.761904761904761,-3.4126984126984126,1.984126984126984,-325.0,-325.0,-325.0,-325.0,-325.0,-321.8253968253968
138,-88.80952380952381,-37.857142857142854,1.0317460317460316,1.6666666666666665,5.317460317460317,1.349206349206349,-11.825396825396824,1.984126984126984,-0.873015873015873,-14.682539682539682,-17.698412698412696,-7.857142857142857,4.2063492063492065,-18.96825396825397,7.857142857142857,7.5396825396825395,-2.46031746031746,1.984126984126984,-325.0,-325.0,-325.0,-325.0,-325.0,-321.8253968253968
139,-88.80952380952381,-37.857142857142854,1.0317460317460316,1.6666666666666665,5.317460317460317,1.349206349206349,-11.825396825396824,1.984126984126984,-0.873015873015873,-14.682539682539682,-17.698412698412696,-7.857142857142857,4.2063492063492065,-18.96825396825397,7.857142857142857,7.5396825396825395,-2.46031746031746,1.984126984126984,-325.0,-325.0,-325.0,-325.0,-325.0,-321.8253968253968
140,-108.65079365079364,-45.476190476190474,-8.174603174603174,1.6666666666666665,2.142857142857143,1.507936507936508,-10.714285714285714,2.46031746031746,-5.476190476190476,-16.11111111111111,-14.206349206349206,-8.174603174603174,5.7936507936507935,-15.0,8.333333333333332,10.714285714285714,-3.253968253968254,1.8253968253968254,-325.0,-325.0,-325.0,-325.0,-325.0,-7.5396825396825395
141,-108.65079365079364,-45.476190476190474,-8.174603174603174,1.6666666666666665,2.142857142857143,1.507936507936508,-10.714285714285714,2.46031746031746,-5.476190476190476,-16.11111111111111,-14.206349206349206,-8.174603174603174,5.7936507936507935,-15.0,8.333333333333332,10.714285714285714,-3.253968253968254,1.8253968253968254,-325.0,-325.0,-325.0,-325.0,-325.0,-7.5396825396825395
142,-93.88888888888889,-44.68253968253968,-2.7777777777777777,-1.8253968253968254,2.9365079365079363,-1.8253968253968254,-12.142857142857142,-2.619047619047619,-13.571428571428571,-23.88888888888889,-12.619047619047619,-10.396825396825395,1.984126984126984,-17.063492063492063,2.619047619047619,7.857142857142857,-2.7777777777777777,1.507936507936508,-325.0,-325.0,-325.0,-325.0,-325.0,-7.5396825396825395
143,-93.88888888888889,-44.68253968253968,-2.7777777777777777,-1.8253968253968254,2.9365079365079363,-1.8253968253968254,-12.142857142857142,-2.619047619047619,-13.571428571428571,-23.88888888888889,-12.619047619047619,-10.396825396825395,1.984126984126984,-17.063492063492063,2.619047619047619,7.857142857142857,-2.7777777777777777,1.507936507936508,-325.0,-325.0,-325.0,-325.0,-325.0,-7.5396825396825395
144,-59.285714285714285,-41.666666666666664,-4.365079365079365,-8.492063492063492,-0.7142857142857142,-9.444444444444445,-8.333333333333332,-2.9365079365079363,-1.0317460317460316,-25.476190476190474,-11.984126984126984,-15.793650793650793,1.6666666666666665,-20.873015873015873,4.523809523809524,1.6666666666666665,-3.253968253968254,1.349206349206349,-325.0,-325.0,-325.0,-325.0,-325.0,-7.5396825396825395
145,-59.285714285714285,-41.666666666666664,-4.365079365079365,-8.492063492063492,-0.7142857142857142,-9.444444444444445,-8.333333333333332,-2.9365079365079363,-1.0317460317460316,-25.476190476190474,-11.984126984126984,-15.793650793650793,1.6666666666666665,-20.873015873015873,4.523809523809524,1.6666666666666665,-3.253968253968254,1.349206349206349,-325.0,-325.0,-325.0,-325.0,-325.0,-7.5396825396825395
146,-22.619047619047617,-11.666666666666666,-2.46031746031746,1.984126984126984,3.73015873015873,-3.253968253968254,-5.317460317460317,1.8253968253968254,-5.634920634920634,-13.095238095238095,-3.73015873015873,-5.634920634920634,2.619047619047619,-15.0,5.317460317460317,4.523809523809524,-3.571428571428571,1.507936507936508,-325.0,-325.0,-325.0,-325.0,-325.0,-7.5396825396825395
147,-22.619047619047617,-11.666666666666666,-2.46031746031746,1.984126984126984,3.73015873015873,-3.253968253968254,-5.317460317460317,1.8253968253968254,-5.634920634920634,-13.095238095238095,-3.73015873015873,-5.634920634920634,2.619047619047619,-15.0,5.317460317460317,4.523809523809524,-3.571428571428571,1.507936507936508,-325.0,-325.0,-325.0,-325.0,-325.0,-7.5396825396825395
148,10.238095238095237,8.015873015873016,2.619047619047619,7.222222222222221,2.619047619047619,-1.8253968253968254,-7.063492063492063,2.7777777777777777,-15.0,-15.317460317460316,-2.3015873015873014,7.857142857142857,0.7142857142857142,-8.65079365079365,-0.3968253968253968,4.365079365079365,-2.9365079365079363,1.984126984126984,-325.0,-325.0,-325.0,-325.0,-325.0,-7.5396825396825395
149,10.238095238095237,8.015873015873016,2.619047619047619,7.222222222222221,2.619047619047619,-1.8253968253968254,-7.063492063492063,2.7777777777777777,-15.0,-15.317460317460316,-2.3015873015873014,7.857142857142857,0.7142857142857142,-8.65079365079365,-0.3968253968253968,4.365079365079365,-2.9365079365079363,1.984126984126984,-325.0,-325.0,-325.0,-325.0,-325.0,-7.5396825396825395
150,39.76190476190476,19.6031746031746,-0.873015873015873,11.825396825396824,2.7777777777777777,4.682539682539682,-5.317460317460317,11.984126984126984,2.3015873015873014,-5.7936507936507935,17.38095238095238,14.206349206349206,5.317460317460317,-7.5396825396825395,4.0476190476190474,8.809523809523808,-2.46031746031746,2.142857142857143,-325.0,-325.0,-325.0,-325.0,-325.0,-321.8253968253968
151,39.76190476190476,19.6031746031746,-0.873015873015873,11.825396825396824,2.7777777777777777,4.682539682539682,-5.317460317460317,11.984126984126984,2.3015873015873014,-5.7936507936507935,17.38095238095238,14.206349206349206,5.317460317460317,-7.5396825396825395,4.0476190476190474,8.809523809523808,-2.46031746031746,2.142857142857143,-325.0,-325.0,-325.0,-325.0,-325.0,-321.8253968253968
152,45.95238095238095,32.61904761904762,5.0,14.523809523809524,7.698412698412698,2.3015873015873014,-11.349206349206348,1.6666666666666665,-0.873015873015873,-11.031746031746032,9.761904761904761,7.063492063492063,5.952380952380952,-9.444444444444445,5.634920634920634,6.26984126984127,-2.9365079365079363,1.349206349206349,-325.0,-325.0,-325.0,-325.0,-325.0,-321.8253968253968
153,45.95238095238095,32.61904761904762,5.0,14.523809523809524,7.698412698412698,2.3015873015873014,-11.349206349206348,1.6666666666666665,-0.873015873015873,-11.031746031746032,9.761904761904761,7.063492063492063,5.952380952380952,-9.444444444444445,5.634920634920634,6.26984126984127,-2.9365079365079363,1.349206349206349,-325.0,-325.0,-325.0,-325.0,-325.0,-321.8253968253968
154,53.095238095238095,31.98412698412698,12.936507936507935,18.49206349206349,15.634920634920634,6.904761904761904,-4.2063492063492065,17.857142857142858,13.412698412698411,-2.9365079365079363,10.079365079365079,9.920634920634921,7.857142857142857,-8.809523809523808,9.126984126984127,11.19047619047619,-4.2063492063492065,1.349206349206349,-325.0,-325.0,-325.0,-325.0,-325.0,-321.8253968253968
155,53.095238095238095,31.98412698412698,12.936507936507935,18.49206349206349,15.634920634920634,6.904761904761904,-4.2063492063492065,17.857142857142858,13.412698412698411,-2.9365079365079363,10.079365079365079,9.920634920634921,7.857142857142857,-8.809523809523808,9.126984126984127,11.19047619047619,-4.2063492063492065,1.349206349206349,-325.0,-325.0,-325.0,-325.0,-325.0,-321.8253968253968
156,51.98412698412698,34.52380952380952,10.873015873015872,18.96825396825397,12.142857142857142,6.26984126984127,-12.142857142857142,2.619047619047619,-9.761904761904761,-17.063492063492063,8.174603174603174,11.507936507936508,8.333333333333332,-13.253968253968253,7.698412698412698,10.238095238095237,-2.7777777777777777,1.349206349206349,-325.0,-325.0,-325.0,-325.0,-325.0,-321.8253968253968
157,51.98412698412698,34.52380952380952,10.873015873015872,18.96825396825397,12.142857142857142,6.26984126984127,-12.142857142857142,2.619047619047619,-9.761904761904761,-17.063492063492063,8.174603174603174,11.507936507936508,8.333333333333332,-13.253968253968253,7.698412698412698,10.238095238095237,-2.7777777777777777,1.349206349206349,-325.0,-325.0,-325.0,-325.0,-325.0,-321.8253968253968
158,47.857142857142854,45.15873015873016,13.73015873015873,23.41269841269841,18.015873015873016,15.793650793650793,-11.031746031746032,14.682539682539682,-3.253968253968254,-5.7936507936507935,-5.158730158730158,23.41269841269841,10.555555555555555,-3.73015873015873,10.238095238095237,15.317460317460316,-2.9365079365079363,1.349206349206349,-325.0,-325.0,-325.0,-325.0,-325.0,-321.8253968253968
159,47.857142857142854,45.15873015873016,13.73015873015873,23.41269841269841,18.015873015873016,15.793650793650793,-11.031746031746032,14.682539682539682,-3.253968253968254,-5.7936507936507935,-5.158730158730158,23.41269841269841,10.555555555555555,-3.73015873015873,10.238095238095237,15.317460317460316,-2.9365079365079363,1.349206349206349,-325.0,-325.0,-325.0,-325.0,-325.0,-321.8253968253968
160,51.19047619047619,41.19047619047619,15.95238095238095,27.063492063492063,15.95238095238095,17.38095238095238,-9.603174603174603,16.11111111111111,9.126984126984127,-5.317460317460317,-0.7142857142857142,19.92063492063492,10.714285714285714,-3.73015873015873,12.3015873015873,13.095238095238095,-3.253968253968254,1.349206349206349,-325.0,-325.0,-325.0,-325.0,-325.0,-7.5396825396825395
161,51.19047619047619,41.19047619047619,15.95238095238095,27.063492063492063,15.95238095238095,17.38095238095238,-9.603174603174603,16.11111111111111,9.126984126984127,-5.317460317460317,-0.7142857142857142,19.92063492063492,10.714285714285714,-3.73015873015873,12.3015873015873,13.095238095238095,-3.253968253968254,1.349206349206349,-325.0,-325.0,-325.0,-325.0,-325.0,-7.5396825396825395
162,53.73015873015873,39.12698412698413,17.063492063492063,29.920634920634917,18.65079365079365,18.015873015873016,-10.396825396825395,12.3015873015873,2.142857142857143,-3.888888888888889,10.396825396825395,17.539682539682538,14.523809523809524,-3.73015873015873,13.73015873015873,13.73015873015873,-3.571428571428571,2.142857142857143,-325.0,-325.0,-325.0,-325.0,-325.0,-7.5396825396825395
163,53.73015873015873,39.12698412698413,17.063492063492063,29.920634920634917,18.65079365079365,18.015873015873016,-10.396825396825395,12.3015873015873,2.142857142857143,-3.888888888888889,10.396825396825395,17.539682539682538,14.523809523809524,-3.73015873015873,13.73015873015873,13.73015873015873,-3.571428571428571,2.142857142857143,-325.0,-325.0,-325.0,-325.0,-325.0,-7.5396825396825395
164,36.904761904761905,31.666666666666664,16.428571428571427,22.142857142857142,18.49206349206349,7.3809523809523805,-15.793650793650793,-3.095238095238095,-10.079365079365079,-11.825396825396824,0.5555555555555556,10.873015873015872,9.444444444444445,-7.5396825396825395,9.761904761904761,11.19047619047619,-3.4126984126984126,1.1904761904761905,-325.0,-325.0,-325.0,-325.0,-325.0,-7.5396825396825395
165,36.904761904761905,31.666666666666664,16.428571428571427,22.142857142857142,18.49206349206349,7.3809523809523805,-15.793650793650793,-3.095238095238095,-10.079365079365079,-11.825396825396824,0.5555555555555556,10.873015873015872,9.444444444444445,-7.5396825396825395,9.761904761904761,11.19047619047619,-3.4126984126984126,1.1904761904761905,-325.0,-325.0,-325.0,-325.0,-325.0,-7.5396825396825395
166,29.444444444444443,32.460317460317455,9.603174603174603,23.730158730158728,13.253968253968253,15.634920634920634,-14.047619047619047,9.444444444444445,10.238095238095237,0.3968253968253968,-8.968253968253968,17.38095238095238,10.873015873015872,-3.095238095238095,12.46031746031746,19.126984126984127,-3.095238095238095,1.1904761904761905,-325.0,-325.0,-325.0,-325.0,-325.0,-7.5396825396825395
167,29.444444444444443,32.460317460317455,9.603174603174603,23.730158730158728,13.253968253968253,15.634920634920634,-14.047619047619047,9.444444444444445,10.238095238095237,0.3968253968253968,-8.968253968253968,17.38095238095238,10.873015873015872,-3.095238095238095,12.46031746031746,19.126984126984127,-3.095238095238095,1.1904761904761905,-325.0,-325.0,-325.0,-325.0,-325.0,-7.5396825396825395
168,25.79365079365079,19.6031746031746,14.682539682539682,19.6031746031746,17.857142857142858,11.507936507936508,-10.238095238095237,4.2063492063492065,1.0317460317460316,-5.0,-1.507936507936508,8.65079365079365,13.73015873015873,-7.063492063492063,15.0,14.365079365079364,-3.095238095238095,1.349206349206349,-325.0,-325.0,-325.0,-325.0,-325.0,-7.5396825396825395
169,25.79365079365079,19.6031746031746,14.682539682539682,19.6031746031746,17.857142857142858,11.507936507936508,-10.238095238095237,4.2063492063492065,1.0317460317460316,-5.0,-1.507936507936508,8.65079365079365,13.73015873015873,-7.063492063492063,15.0,14.365079365079364,-3.095238095238095,1.349206349206349,-325.0,-325.0,-325.0,-325.0,-325.0,-7.5396825396825395
170,125.79365079365078,-256.90476190476187,-216.42857142857142,-225.79365079365078,-237.53968253968253,-239.12698412698413,310.55555555555554,-237.53968253968253,133.88888888888889,218.015873015873,246.1111111111111,-204.36507936507937,-170.7142857142857,291.8253968253968,-181.984126984127,-215.3174603174603,-3.095238095238095,0.23809523809523808,-325.0,-325.0,-325.0,-325.0,-325.0,-321.8253968253968
171,125.79365079365078,-256.90476190476187,-216.42857142857142,-225.79365079365078,-237.53968253968253,-239.12698412698413,310.55555555555554,-237.53968253968253,133.88888888888889,218.015873015873,246.1111111111111,-204.36507936507937,-170.7142857142857,291.8253968253968,-181.984126984127,-215.3174603174603,-3.095238095238095,0.23809523809523808,-325.0,-325.0,-325.0,-325.0,-325.0,-321.8253968253968
172,12.46031746031746,10.079365079365079,2.9365079365079363,14.047619047619047,6.26984126984127,7.857142857142857,-2.9365079365079363,-9.444444444444445,-18.80952380952381,-16.904761904761905,-5.317460317460317,2.619047619047619,6.904761904761904,-5.7936507936507935,6.587301587301587,13.253968253968253,-2.3015873015873014,1.507936507936508,-325.0,-325.0,-325.0,-325.0,-325.0,-321.8253968253968
173,12.46031746031746,10.079365079365079,2.9365079365079363,14.047619047619047,6.26984126984127,7.857142857142857,-2.9365079365079363,-9.444444444444445,-18.80952380952381,-16.904761904761905,-5.317460317460317,2.619047619047619,6.904761904761904,-5.7936507936507935,6.587301587301587,13.253968253968253,-2.3015873015873014,1.507936507936508,-325.0,-325.0,-325.0,-325.0,-325.0,-321.8253968253968
174,12.46031746031746,12.46031746031746,6.904761904761904,15.317460317460316,11.666666666666666,9.285714285714285,-0.07936507936507936,2.9365079365079363,17.698412698412696,-2.7777777777777777,2.46031746031746,8.65079365079365,7.857142857142857,-1.8253968253968254,9.285714285714285,10.555555555555555,-3.253968253968254,1.349206349206349,-325.0,-325.0,-325.0,-325.0,-325.0,-321.8253968253968
175,12.46031746031746,12.46031746031746,6.904761904761904,15.317460317460316,11.666666666666666,9.285714285714285,-0.07936507936507936,2.9365079365079363,17.698412698412696,-2.7777777777777777,2.46031746031746,8.65079365079365,7.857142857142857,-1.8253968253968254,9.285714285714285,10.555555555555555,-3.253968253968254,1.349206349206349,-325.0,-325.0,-325.0,-325.0,-325.0,-321.8253968253968
176,9.126984126984127,10.873015873015872,7.222222222222221,13.571428571428571,8.333333333333332,7.5396825396825395,-0.07936507936507936,3.571428571428571,5.0,-2.9365079365079363,3.888888888888889,13.73015873015873,5.0,-0.5555555555555556,7.063492063492063,10.079365079365079,-3.095238095238095,1.984126984126984,-325.0,-325.0,-325.0,-325.0,-325.0,-321.8253968253968
177,9.126984126984127,10.873015873015872,7.222222222222221,13.571428571428571,8.333333333333332,7.5396825396825395,-0.07936507936507936,3.571428571428571,5.0,-2.9365079365079363,3.888888888888889,13.73015873015873,5.0,-0.5555555555555556,7.063492063492063,10.079365079365079,-3.095238095238095,1.984126984126984,-325.0,-325.0,-325.0,-325.0,-325.0,-321.8253968253968
178,9.603174603174603,1.984126984126984,3.4126984126984126,9.285714285714285,6.746031746031746,4.365079365079365,-0.07936507936507936,-5.317460317460317,1.349206349206349,-14.206349206349206,-3.095238095238095,2.9365079365079363,5.317460317460317,-2.142857142857143,7.857142857142857,7.5396825396825395,-2.9365079365079363,1.0317460317460316,-325.0,-325.0,-325.0,-325.0,-325.0,-321.8253968253968
179,9.603174603174603,1.984126984126984,3.4126984126984126,9.285714285714285,6.746031746031746,4.365079365079365,-0.07936507936507936,-5.317460317460317,1.349206349206349,-14.206349206349206,-3.095238095238095,2.9365079365079363,5.317460317460317,-2.142857142857143,7.857142857142857,7.5396825396825395,-2.9365079365079363,1.0317460317460316,-325.0,-325.0,-325.0,-325.0,-325.0,-321.8253968253968
180,68.01587301587301,-320.87301587301585,-290.87301587301585,-289.2857142857143,-302.77777777777777,-296.58730158730157,325.0,-270.39682539682536,84.04761904761904,228.33333333333331,316.1111111111111,-257.06349206349205,-244.68253968253967,325.0,-246.42857142857142,-278.968253968254,-4.0476190476190474,-1.1904761904761905,-325.0,-325.0,-325.0,-325.0,-325.0,-7.5396825396825395
181,68.01587301587301,-320.87301587301585,-290.87301587301585,-289.2857142857143,-302.77777777777777,-296.58730158730157,325.0,-270.39682539682536,84.04761904761904,228.33333333333331,316.1111111111111,-257.06349206349205,-244.68253968253967,325.0,-246.42857142857142,-278.968253968254,-4.0476190476190474,-1.1904761904761905,-325.0,-325.0,-325.0,-325.0,-325.0,-7.5396825396825395
182,-21.507936507936506,-4.523809523809524,-1.0317460317460316,2.142857142857143,1.507936507936508,1.8253968253968254,-0.07936507936507936,-1.507936507936508,5.476190476190476,-8.015873015873016,-1.507936507936508,-1.6666666666666665,-0.3968253968253968,-0.07936507936507936,2.619047619047619,8.492063492063492,-3.73015873015873,0.873015873015873,-325.0,-325.0,-325.0,-325.0,-325.0,-7.5396825396825395
183,-21.507936507936506,-4.523809523809524,-1.0317460317460316,2.142857142857143,1.507936507936508,1.8253968253968254,-0.07936507936507936,-1.507936507936508,5.476190476190476,-8.015873015873016,-1.507936507936508,-1.6666666666666665,-0.3968253968253968,-0.07936507936507936,2.619047619047619,8.492063492063492,-3.73015873015873,0.873015873015873,-325.0,-325.0,-325.0,-325.0,-325.0,-7.5396825396825395
184,-21.349206349206348,-4.365079365079365,-1.8253968253968254,-0.07936507936507936,-0.07936507936507936,-2.9365079365079363,-0.07936507936507936,-8.333333333333332,-2.142857142857143,-23.253968253968253,-0.07936507936507936,-12.936507936507935,1.984126984126984,-0.07936507936507936,5.0,7.3809523809523805,-2.9365079365079363,0.3968253968253968,-325.0,-325.0,-325.0,-325.0,-325.0,-7.5396825396825395
185,-21.349206349206348,-4.365079365079365,-1.8253968253968254,-0.07936507936507936,-0.07936507936507936,-2.9365079365079363,-0.07936507936507936,-8.333333333333332,-2.142857142857143,-23.253968253968253,-0.07936507936507936,-12.936507936507935,1.984126984126984,-0.07936507936507936,5.0,7.3809523809523805,-2.9365079365079363,0.3968253968253968,-325.0,-325.0,-325.0,-325.0,-325.0,-7.5396825396825395
186,-13.095238095238095,-0.07936507936507936,-0.07936507936507936,1.984126984126984,-0.07936507936507936,0.7142857142857142,-0.07936507936507936,0.873015873015873,17.698412698412696,-7.698412698412698,-0.07936507936507936,-2.619047619047619,3.253968253968254,-0.07936507936507936,5.476190476190476,6.26984126984127,-2.9365079365079363,1.0317460317460316,-325.0,-325.0,-325.0,-325.0,-325.0,-7.5396825396825395
187,-13.095238095238095,-0.07936507936507936,-0.07936507936507936,1.984126984126984,-0.07936507936507936,0.7142857142857142,-0.07936507936507936,0.873015873015873,17.698412698412696,-7.698412698412698,-0.07936507936507936,-2.619047619047619,3.253968253968254,-0.07936507936507936,5.476190476190476,6.26984126984127,-2.9365079365079363,1.0317460317460316,-325.0,-325.0,-325.0,-325.0,-325.0,-7.5396825396825395
188,-57.38095238095238,325.0,325.0,325.0,325.0,325.0,-325.0,282.77777777777777,-44.52380952380952,-264.5238095238095,-325.0,282.1428571428571,297.53968253968253,-325.0,294.2063492063492,325.0,-0.7142857142857142,3.4126984126984126,-325.0,-325.0,-325.0,-325.0,-325.0,-7.5396825396825395
189,-57.38095238095238,325.0,325.0,325.0,325.0,325.0,-325.0,282.77777777777777,-44.52380952380952,-264.5238095238095,-325.0,282.1428571428571,297.53968253968253,-325.0,294.2063492063492,325.0,-0.7142857142857142,3.4126984126984126,-325.0,-325.0,-325.0,-325.0,-325.0,-7.5396825396825395
190,-28.015873015873016,-0.07936507936507936,-0.07936507936507936,-0.07936507936507936,-0.07936507936507936,-0.07936507936507936,-0.07936507936507936,-9.603174603174603,2.7777777777777777,-16.11111111111111,-0.07936507936507936,-8.174603174603174,9.285714285714285,-0.07936507936507936,10.079365079365079,-0.07936507936507936,-2.46031746031746,1.1904761904761905,-325.0,-325.0,-325.0,-325.0,-325.0,-321.8253968253968
191,-28.015873015873016,-0.07936507936507936,-0.07936507936507936,-0.07936507936507936,-0.07936507936507936,-0.07936507936507936,-0.07936507936507936,-9.603174603174603,2.7777777777777777,-16.11111111111111,-0.07936507936507936,-8.174603174603174,9.285714285714285,-0.07936507936507936,10.079365079365079,-0.07936507936507936,-2.46031746031746,1.1904761904761905,-325.0,-325.0,-325.0,-325.0,-325.0,-321.8253968253968
192,-39.44444444444444,-0.07936507936507936,-0.07936507936507936,-0.07936507936507936,-0.07936507936507936,-0.07936507936507936,-0.07936507936507936,-11.984126984126984,6.26984126984127,-18.96825396825397,-0.07936507936507936,-3.73015873015873,6.587301587301587,-0.07936507936507936,7.222222222222221,-0.07936507936507936,-2.3015873015873014,1.1904761904761905,-325.0,-325.0,-325.0,-325.0,-325.0,-321.8253968253968
193,-39.44444444444444,-0.07936507936507936,-0.07936507936507936,-0.07936507936507936,-0.07936507936507936,-0.07936507936507936,-0.07936507936507936,-11.984126984126984,6.26984126984127,-18.96825396825397,-0.07936507936507936,-3.73015873015873,6.587301587301587,-0.07936507936507936,7.222222222222221,-0.07936507936507936,-2.3015873015873014,1.1904761904761905,-325.0,-325.0,-325.0,-325.0,-325.0,-321.8253968253968
194,-77.38095238095238,-1.6666666666666665,-0.07936507936507936,-0.07936507936507936,-0.07936507936507936,-0.07936507936507936,-0.07936507936507936,-12.46031746031746,0.3968253968253968,-17.22222222222222,-0.07936507936507936,-6.26984126984127,1.349206349206349,-0.07936507936507936,8.015873015873016,-0.07936507936507936,-2.46031746031746,1.1904761904761905,-325.0,-325.0,-325.0,-325.0,-325.0,-321.8253968253968
195,-77.38095238095238,-1.6666666666666665,-0.07936507936507936,-0.07936507936507936,-0.07936507936507936,-0.07936507936507936,-0.07936507936507936,-12.46031746031746,0.3968253968253968,-17.22222222222222,-0.07936507936507936,-6.26984126984127,1.349206349206349,-0.07936507936507936,8.015873015873016,-0.07936507936507936,-2.46031746031746,1.1904761904761905,-325.0,-325.0,-325.0,-325.0,-325.0,-321.8253968253968
196,-103.25396825396825,-5.158730158730158,-0.07936507936507936,-0.07936507936507936,-0.07936507936507936,-0.07936507936507936,-0.07936507936507936,-9.126984126984127,6.904761904761904,-18.49206349206349,-0.07936507936507936,-14.523809523809524,-0.07936507936507936,-0.07936507936507936,5.476190476190476,-0.07936507936507936,-2.46031746031746,1.1904761904761905,-325.0,-325.0,-325.0,-325.0,-325.0,-321.8253968253968
197,-103.25396825396825,-5.158730158730158,-0.07936507936507936,-0.07936507936507936,-0.07936507936507936,-0.07936507936507936,-0.07936507936507936,-9.126984126984127,6.904761904761904,-18.49206349206349,-0.07936507936507936,-14.523809523809524,-0.07936507936507936,-0.07936507936507936,5.476190476190476,-0.07936507936507936,-2.46031746031746,1.1904761904761905,-325.0,-325.0,-325.0,-325.0,-325.0,-321.8253968253968
198,-112.77777777777777,-4.841269841269841,-0.07936507936507936,-0.07936507936507936,-0.07936507936507936,-0.07936507936507936,-0.07936507936507936,-9.603174603174603,8.333333333333332,-22.619047619047617,-0.07936507936507936,-11.666666666666666,-0.07936507936507936,-0.07936507936507936,-0.07936507936507936,-0.07936507936507936,-1.507936507936508,1.0317460317460316,-325.0,-325.0,-325.0,-325.0,-325.0,-321.8253968253968
199,-112.77777777777777,-4.841269841269841,-0.07936507936507936,-0.07936507936507936,-0.07936507936507936,-0.07936507936507936,-0.07936507936507936,-9.603174603174603,8.333333333333332,-22.619047619047617,-0.07936507936507936,-11.666666666666666,-0.07936507936507936,-0.07936507936507936,-0.07936507936507936,-0.07936507936507936,-1.507936507936508,1.0317460317460316,-325.0,-325.0,-325.0,-325.0,-325.0,-321.8253968253968
200,-91.34920634920634,-0.07936507936507936,-0.07936507936507936,-0.07936507936507936,-0.07936507936507936,-0.07936507936507936,-0.07936507936507936,-9.444444444444445,12.46031746031746,-15.476190476190474,-0.07936507936507936,-5.634920634920634,-0.07936507936507936,-0.07936507936507936,-0.07936507936507936,-0.07936507936507936,-2.46031746031746,1.507936507936508,-325.0,-325.0,-325.0,-325.0,-325.0,-7.5396825396825395
201,-91.34920634920634,-0.07936507936507936,-0.07936507936507936,-0.07936507936507936,-0.07936507936507936,-0.07936507936507936,-0.07936507936507936,-9.444444444444445,12.46031746031746,-15.476190476190474,-0.07936507936507936,-5.634920634920634,-0.07936507936507936,-0.07936507936507936,-0.07936507936507936,-0.07936507936507936,-2.46031746031746,1.507936507936508,-325.0,-325.0,-325.0,-325.0,-325.0,-7.5396825396825395
202,-69.6031746031746,-0.07936507936507936,-0.07936507936507936,-0.07936507936507936,-0.07936507936507936,-0.07936507936507936,-0.07936507936507936,-18.174603174603174,-2.7777777777777777,-26.428571428571427,-0.07936507936507936,-1.1904761904761905,-0.07936507936507936,-0.07936507936507936,-0.07936507936507936,-0.07936507936507936,-1.349206349206349,1.6666666666666665,-325.0,-325.0,-325.0,-325.0,-325.0,-7.5396825396825395
203,-69.6031746031746,-0.07936507936507936,-0.07936507936507936,-0.07936507936507936,-0.07936507936507936,-0.07936507936507936,-0.07936507936507936,-18.174603174603174,-2.7777777777777777,-26.428571428571427,-0.07936507936507936,-1.1904761904761905,-0.07936507936507936,-0.07936507936507936,-0.07936507936507936,-0.07936507936507936,-1.349206349206349,1.6666666666666665,-325.0,-325.0,-325.0,-325.0,-325.0,-7.5396825396825395
204,-36.42857142857142,-0.07936507936507936,-0.07936507936507936,-0.07936507936507936,-0.07936507936507936,-0.07936507936507936,-0.07936507936507936,-11.349206349206348,26.11111111111111,-17.698412698412696,-0.07936507936507936,-2.142857142857143,-0.07936507936507936,-0.07936507936507936,-0.07936507936507936,-0.07936507936507936,-1.507936507936508,1.8253968253968254,-325.0,-325.0,-325.0,-325.0,-325.0,-7.5396825396825395
205,-36.42857142857142,-0.07936507936507936,-0.07936507936507936,-0.07936507936507936,-0.07936507936507936,-0.07936507936507936,-0.07936507936507936,-11.349206349206348,26.11111111111111,-17.698412698412696,-0.07936507936507936,-2.142857142857143,-0.07936507936507936,-0.07936507936507936,-0.07936507936507936,-0.07936507936507936,-1.507936507936508,1.8253968253968254,-325.0,-325.0,-325.0,-325.0,-325.0,-7.5396825396825395
206,1.1904761904761905,-0.07936507936507936,-0.07936507936507936,-0.07936507936507936,-0.07936507936507936,-0.07936507936507936,-0.07936507936507936,-10.873015873015872,-5.317460317460317,-13.888888888888888,-0.07936507936507936,-0.07936507936507936,-0.07936507936507936,-0.07936507936507936,-0.07936507936507936,-0.07936507936507936,-2.3015873015873014,1.6666666666666665,-325.0,-325.0,-325.0,-325.0,-325.0,-7.5396825396825395
207,1.1904761904761905,-0.07936507936507936,-0.07936507936507936,-0.07936507936507936,-0.07936507936507936,-0.07936507936507936,-0.07936507936507936,-10.873015873015872,-5.317460317460317,-13.888888888888888,-0.07936507936507936,-0.07936507936507936,-0.07936507936507936,-0.07936507936507936,-0.07936507936507936,-0.07936507936507936,-2.3015873015873014,1.6666666666666665,-325.0,-325.0,-325.0,-325.0,-325.0,-7.5396825396825395
208,39.285714285714285,-0.07936507936507936,-0.07936507936507936,-0.07936507936507936,-0.07936507936507936,-0.07936507936507936,-0.07936507936507936,-12.142857142857142,2.46031746031746,-16.587301587301585,-0.07936507936507936,-0.07936507936507936,-0.07936507936507936,-0.07936507936507936,-0.07936507936507936,-0.07936507936507936,-2.3015873015873014,0.873015873015873,-325.0,-325.0,-325.0,-325.0,-325.0,-7.5396825396825395
209,39.285714285714285,-0.07936507936507936,-0.07936507936507936,-0.07936507936507936,-0.07936507936507936,-0.07936507936507936,-0.07936507936507936,-12.142857142857142,2.46031746031746,-16.587301587301585,-0.07936507936507936,-0.07936507936507936,-0.07936507936507936,-0.07936507936507936,-0.07936507936507936,-0.07936507936507936,-2.3015873015873014,0.873015873015873,-325.0,-325.0,-325.0,-325.0,-325.0,-7.5396825396825395
210,53.888888888888886,-0.07936507936507936,-0.07936507936507936,-0.07936507936507936,-0.07936507936507936,-0.07936507936507936,-0.07936507936507936,-4.523809523809524,34.2063492063492,3.888888888888889,-0.07936507936507936,-0.07936507936507936,-0.07936507936507936,-0.07936507936507936,-0.07936507936507936,-0.07936507936507936,-2.46031746031746,0.873015873015873,-325.0,-325.0,-325.0,-325.0,-325.0,-321.8253968253968
211,53.888888888888886,-0.07936507936507936,-0.07936507936507936,-0.07936507936507936,-0.07936507936507936,-0.07936507936507936,-0.07936507936507936,-4.523809523809524,34.2063492063492,3.888888888888889,-0.07936507936507936,-0.07936507936507936,-0.07936507936507936,-0.07936507936507936,-0.07936507936507936,-0.07936507936507936,-2.46031746031746,0.873015873015873,-325.0,-325.0,-325.0,-325.0,-325.0,-321.8253968253968
212,64.36507936507937,-0.07936507936507936,-0.07936507936507936,-0.07936507936507936,-0.07936507936507936,-0.07936507936507936,-0.07936507936507936,0.873015873015873,2.46031746031746,6.428571428571428,-0.07936507936507936,-0.07936507936507936,-0.07936507936507936,-0.07936507936507936,-0.07936507936507936,-0.07936507936507936,-2.3015873015873014,0.5555555555555556,-325.0,-325.0,-325.0,-325.0,-325.0,-321.8253968253968
213,64.36507936507937,-0.07936507936507936,-0.07936507936507936,-0.07936507936507936,-0.07936507936507936,-0.07936507936507936,-0.07936507936507936,0.873015873015873,2.46031746031746,6.428571428571428,-0.07936507936507936,-0.07936507936507936,-0.07936507936507936,-0.07936507936507936,-0.07936507936507936,-0.07936507936507936,-2.3015873015873014,0.5555555555555556,-325.0,-325.0,-325.0,-325.0,-325.0,-321.8253968253968
214,67.53968253968253,-0.07936507936507936,-0.07936507936507936,-0.07936507936507936,-0.07936507936507936,-0.07936507936507936,-0.07936507936507936,2.142857142857143,19.285714285714285,5.476190476190476,-0.07936507936507936,-0.07936507936507936,-0.07936507936507936,-0.07936507936507936,-0.07936507936507936,-0.07936507936507936,-2.7777777777777777,1.0317460317460316,-325.0,-325.0,-325.0,-325.0,-325.0,-321.8253968253968
215,67.53968253968253,-0.07936507936507936,-0.07936507936507936,-0.07936507936507936,-0.07936507936507936,-0.07936507936507936,-0.07936507936507936,2.142857142857143,19.285714285714285,5.476190476190476,-0.07936507936507936,-0.07936507936507936,-0.07936507936507936,-0.07936507936507936,-0.07936507936507936,-0.07936507936507936,-2.7777777777777777,1.0317460317460316,-325.0,-325.0,-325.0,-325.0,-325.0,-321.8253968253968
216,69.44444444444444,-0.07936507936507936,-0.07936507936507936,-0.07936507936507936,-0.07936507936507936,-0.07936507936507936,-0.07936507936507936,5.952380952380952,12.777777777777777,12.3015873015873,-0.07936507936507936,-0.07936507936507936,-0.07936507936507936,-0.07936507936507936,-0.07936507936507936,-0.07936507936507936,-2.46031746031746,1.349206349206349,-325.0,-325.0,-325.0,-325.0,-325.0,-321.8253968253968
217,69.44444444444444,-0.07936507936507936,-0.07936507936507936,-0.07936507936507936,-0.07936507936507936,-0.07936507936507936,-0.07936507936507936,5.952380952380952,12.777777777777777,12.3015873015873,-0.07936507936507936,-0.07936507936507936,-0.07936507936507936,-0.07936507936507936,-0.07936507936507936,-0.07936507936507936,-2.46031746031746,1.349206349206349,-325.0,-325.0,-325.0,-325.0,-325.0,-321.8253968253968
218,82.93650793650794,-0.07936507936507936,-0.07936507936507936,-0.07936507936507936,-0.07936507936507936,-0.07936507936507936,-0.07936507936507936,-2.9365079365079363,1.8253968253968254,0.7142857142857142,-0.07936507936507936,-0.07936507936507936,-0.07936507936507936,-0.07936507936507936,-0.07936507936507936,-0.07936507936507936,-2.46031746031746,1.0317460317460316,-325.0,-325.0,-325.0,-325.0,-325.0,-321.8253968253968
219,82.93650793650794,-0.07936507936507936,-0.07936507936507936,-0.07936507936507936,-0.07936507936507936,-0.07936507936507936,-0.07936507936507936,-2.9365079365079363,1.8253968253968254,0.7142857142857142,-0.07936507936507936,-0.07936507936507936,-0.07936507936507936,-0.07936507936507936,-0.07936507936507936,-0.07936507936507936,-2.46031746031746,1.0317460317460316,-325.0,-325.0,-325.0,-325.0,-325.0,-321.8253968253968
220,99.6031746031746,-0.07936507936507936,-0.07936507936507936,-0.07936507936507936,-0.07936507936507936,-0.07936507936507936,-0.07936507936507936,-16.11111111111111,7.698412698412698,-14.365079365079364,-0.07936507936507936,-0.07936507936507936,-0.07936507936507936,-0.07936507936507936,-0.07936507936507936,-0.07936507936507936,-2.46031746031746,0.873015873015873,-325.0,-325.0,-325.0,-325.0,-325.0,-7.5396825396825395
221,99.6031746031746,-0.07936507936507936,-0.07936507936507936,-0.07936507936507936,-0.07936507936507936,-0.07936507936507936,-0.07936507936507936,-16.11111111111111,7.698412698412698,-14.365079365079364,-0.07936507936507936,-0.07936507936507936,-0.07936507936507936,-0.07936507936507936,-0.07936507936507936,-0.07936507936507936,-2.46031746031746,0.873015873015873,-325.0,-325.0,-325.0,-325.0,-325.0,-7.5396825396825395
222,71.98412698412697,-0.07936507936507936,-0.07936507936507936,-0.07936507936507936,-0.07936507936507936,-0.07936507936507936,-0.07936507936507936,-4.841269841269841,3.888888888888889,7.857142857142857,-0.07936507936507936,-0.07936507936507936,-0.07936507936507936,-0.07936507936507936,-0.07936507936507936,-0.07936507936507936,-2.619047619047619,1.0317460317460316,-325.0,-325.0,-325.0,-325.0,-325.0,-7.5396825396825395
223,71.98412698412697,-0.07936507936507936,-0.07936507936507936,-0.07936507936507936,-0.07936507936507936,-0.07936507936507936,-0.07936507936507936,-4.841269841269841,3.888888888888889,7.857142857142857,-0.07936507936507936,-0.07936507936507936,-0.07936507936507936,-0.07936507936507936,-0.07936507936507936,-0.07936507936507936,-2.619047619047619,1.0317460317460316,-325.0,-325.0,-325.0,-325.0,-325.0,-7.5396825396825395
224,126.1111111111111,325.0,325.0,325.0,325.0,325.0,-325.0,300.39682539682536,49.44444444444444,-252.3015873015873,-325.0,325.0,325.0,-325.0,325.0,325.0,-0.3968253968253968,3.4126984126984126,-325.0,-325.0,-325.0,-325.0,-325.0,-7.5396825396825395
225,126.1111111111111,325.0,325.0,325.0,325.0,325.0,-325.0,300.39682539682536,49.44444444444444,-252.3015873015873,-325.0,325.0,325.0,-325.0,325.0,325.0,-0.3968253968253968,3.4126984126984126,-325.0,-325.0,-325.0,-325.0,-325.0,-7.5396825396825395
226,47.857142857142854,-0.07936507936507936,-0.07936507936507936,-0.07936507936507936,-0.07936507936507936,-0.07936507936507936,-0.07936507936507936,6.111111111111111,-11.984126984126984,17.698412698412696,-0.07936507936507936,1.507936507936508,-0.07936507936507936,-0.07936507936507936,-0.07936507936507936,-0.07936507936507936,-2.142857142857143,0.873015873015873,-325.0,-325.0,-325.0,-325.0,-325.0,-7.5396825396825395
227,47.857142857142854,-0.07936507936507936,-0.07936507936507936,-0.07936507936507936,-0.07936507936507936,-0.07936507936507936,-0.07936507936507936,6.111111111111111,-11.984126984126984,17.698412698412696,-0.07936507936507936,1.507936507936508,-0.07936507936507936,-0.07936507936507936,-0.07936507936507936,-0.07936507936507936,-2.142857142857143,0.873015873015873,-325.0,-325.0,-325.0,-325.0,-325.0,-7.5396825396825395
228,46.74603174603175,-0.07936507936507936,-0.07936507936507936,-0.07936507936507936,-0.07936507936507936,-0.07936507936507936,-0.07936507936507936,4.0476190476190474,11.984126984126984,19.76190476190476,-0.07936507936507936,-0.07936507936507936,-0.07936507936507936,-0.07936507936507936,-0.07936507936507936,-0.07936507936507936,-3.095238095238095,0.3968253968253968,-325.0,-325.0,-325.0,-325.0,-325.0,-7.5396825396825395
229,46.74603174603175,-0.07936507936507936,-0.07936507936507936,-0.07936507936507936,-0.07936507936507936,-0.07936507936507936,-0.07936507936507936,4.0476190476190474,11.984126984126984,19.76190476190476,-0.07936507936507936,-0.07936507936507936,-0.07936507936507936,-0.07936507936507936,-0.07936507936507936,-0.07936507936507936,-3.095238095238095,0.3968253968253968,-325.0,-325.0,-325.0,-325.0,-325.0,-7.5396825396825395
230,49.92063492063492,-0.07936507936507936,-0.07936507936507936,-0.07936507936507936,-0.07936507936507936,-0.07936507936507936,-0.07936507936507936,-1.984126984126984,-1.1904761904761905,22.3015873015873,-0.07936507936507936,0.3968253968253968,-0.07936507936507936,-0.07936507936507936,-0.07936507936507936,-0.07936507936507936,-2.9365079365079363,1.1904761904761905,-325.0,-325.0,-325.0,-325.0,-325.0,-321.8253968253968
231,49.92063492063492,-0.07936507936507936,-0.07936507936507936,-0.07936507936507936,-0.07936507936507936,-0.07936507936507936,-0.07936507936507936,-1.984126984126984,-1.1904761904761905,22.3015873015873,-0.07936507936507936,0.3968253968253968,-0.07936507936507936,-0.07936507936507936,-0.07936507936507936,-0.07936507936507936,-2.9365079365079363,1.1904761904761905,-325.0,-325.0,-325.0,-325.0,-325.0,-321.8253968253968
232,38.01587301587301,-0.07936507936507936,-0.07936507936507936,-0.07936507936507936,-0.07936507936507936,-0.07936507936507936,-0.07936507936507936,-5.0,-24.206349206349206,12.142857142857142,-0.07936507936507936,-0.07936507936507936,-0.07936507936507936,-0.07936507936507936,-0.07936507936507936,-0.07936507936507936,-2.619047619047619,0.5555555555555556,-325.0,-325.0,-325.0,-325.0,-325.0,-321.8253968253968
233,38.01587301587301,-0.07936507936507936,-0.07936507936507936,-0.07936507936507936,-0.07936507936507936,-0.07936507936507936,-0.07936507936507936,-5.0,-24.206349206349206,12.142857142857142,-0.07936507936507936,-0.07936507936507936,-0.07936507936507936,-0.07936507936507936,-0.07936507936507936,-0.07936507936507936,-2.619047619047619,0.5555555555555556,-325.0,-325.0,-325.0,-325.0,-325.0,-321.8253968253968
234,40.39682539682539,-0.07936507936507936,-0.07936507936507936,-0.07936507936507936,-0.07936507936507936,-0.07936507936507936,-0.07936507936507936,3.888888888888889,20.555555555555554,20.555555555555554,-0.07936507936507936,-0.07936507936507936,-0.07936507936507936,-0.07936507936507936,-0.07936507936507936,-0.07936507936507936,-2.142857142857143,0.873015873015873,-325.0,-325.0,-325.0,-325.0,-325.0,-321.8253968253968
235,40.39682539682539,-0.07936507936507936,-0.07936507936507936,-0.07936507936507936,-0.07936507936507936,-0.07936507936507936,-0.07936507936507936,3.888888888888889,20.555555555555554,20.555555555555554,-0.07936507936507936,-0.07936507936507936,-0.07936507936507936,-0.07936507936507936,-0.07936507936507936,-0.07936507936507936,-2.142857142857143,0.873015873015873,-325.0,-325.0,-325.0,-325.0,-325.0,-321.8253968253968
236,18.015873015873016,-0.07936507936507936,-0.07936507936507936,-0.07936507936507936,-0.07936507936507936,-0.07936507936507936,-0.07936507936507936,3.888888888888889,-5.158730158730158,19.76190476190476,-0.07936507936507936,-0.07936507936507936,-0.07936507936507936,-0.07936507936507936,-0.07936507936507936,-0.07936507936507936,-2.46031746031746,0.3968253968253968,-325.0,-325.0,-325.0,-325.0,-325.0,-321.8253968253968
237,18.015873015873016,-0.07936507936507936,-0.07936507936507936,-0.07936507936507936,-0.07936507936507936,-0.07936507936507936,-0.07936507936507936,3.888888888888889,-5.158730158730158,19.76190476190476,-0.07936507936507936,-0.07936507936507936,-0.07936507936507936,-0.07936507936507936,-0.07936507936507936,-0.07936507936507936,-2.46031746031746,0.3968253968253968,-325.0,-325.0,-325.0,-325.0,-325.0,-321.8253968253968
238,11.825396825396824,-0.07936507936507936,-0.07936507936507936,-0.07936507936507936,-0.07936507936507936,-0.07936507936507936,-0.07936507936507936,-0.07936507936507936,-1.0317460317460316,18.174603174603174,-0.07936507936507936,-0.07936507936507936,-0.07936507936507936,-0.07936507936507936,-0.07936507936507936,-0.07936507936507936,-2.142857142857143,0.873015873015873,-325.0,-325.0,-325.0,-325.0,-325.0,-321.8253968253968
239,11.825396825396824,-0.07936507936507936,-0.07936507936507936,-0.07936507936507936,-0.07936507936507936,-0.07936507936507936,-0.07936507936507936,-0.07936507936507936,-1.0317460317460316,18.174603174603174,-0.07936507936507936,-0.07936507936507936,-0.07936507936507936,-0.07936507936507936,-0.07936507936507936,-0.07936507936507936,-2.142857142857143,0.873015873015873,-325.0,-325.0,-325.0,-325.0,-325.0,-321.8253968253968
240,13.571428571428571,-0.07936507936507936,-0.07936507936507936,-0.07936507936507936,-0.07936507936507936,-0.07936507936507936,-0.07936507936507936,4.365079365079365,-3.888888888888889,15.476190476190474,-0.07936507936507936,-0.07936507936507936,-0.07936507936507936,-0.07936507936507936,-0.07936507936507936,-0.07936507936507936,-2.7777777777777777,0.7142857142857142,-325.0,-325.0,-325.0,-325.0,-325.0,-7.5396825396825395
241,13.571428571428571,-0.07936507936507936,-0.07936507936507936,-0.07936507936507936,-0.07936507936507936,-0.07936507936507936,-0.07936507936507936,4.365079365079365,-3.888888888888889,15.476190476190474,-0.07936507936507936,-0.07936507936507936,-0.07936507936507936,-0.07936507936507936,-0.07936507936507936,-0.07936507936507936,-2.7777777777777777,0.7142857142857142,-325.0,-325.0,-325.0,-325.0,-325.0,-7.5396825396825395
242,14.682539682539682,-0.07936507936507936,-0.07936507936507936,-0.07936507936507936,-0.07936507936507936,-0.07936507936507936,-0.07936507936507936,-7.063492063492063,11.349206349206348,6.904761904761904,-0.07936507936507936,-1.349206349206349,-0.07936507936507936,-0.07936507936507936,-0.07936507936507936,-0.07936507936507936,-3.095238095238095,0.873015873015873,-325.0,-325.0,-325.0,-325.0,-325.0,-7.5396825396825395
243,14.682539682539682,-0.07936507936507936,-0.07936507936507936,-0.07936507936507936,-0.07936507936507936,-0.07936507936507936,-0.07936507936507936,-7.063492063492063,11.349206349206348,6.904761904761904,-0.07936507936507936,-1.349206349206349,-0.07936507936507936,-0.07936507936507936,-0.07936507936507936,-0.07936507936507936,-3.095238095238095,0.873015873015873,-325.0,-325.0,-325.0,-325.0,-325.0,-7.5396825396825395
244,15.634920634920634,-0.07936507936507936,-0.07936507936507936,-0.07936507936507936,-0.07936507936507936,-0.07936507936507936,-0.07936507936507936,-5.158730158730158,-1.507936507936508,11.507936507936508,-0.07936507936507936,1.507936507936508,-0.07936507936507936,-0.07936507936507936,-0.07936507936507936,-0.07936507936507936,-2.3015873015873014,1.507936507936508,-325.0,-325.0,-325.0,-325.0,-325.0,-7.5396825396825395
245,15.634920634920634,-0.07936507936507936,-0.07936507936507936,-0.07936507936507936,-0.07936507936507936,-0.07936507936507936,-0.07936507936507936,-5.158730158730158,-1.507936507936508,11.507936507936508,-0.07936507936507936,1.507936507936508,-0.07936507936507936,-0.07936507936507936,-0.07936507936507936,-0.07936507936507936,-2.3015873015873014,1.507936507936508,-325.0,-325.0,-325.0,-325.0,-325.0,-7.5396825396825395
246,8.968253968253968,-0.07936507936507936,-0.07936507936507936,-0.07936507936507936,-0.07936507936507936,-0.07936507936507936,-0.07936507936507936,-5.476190476190476,-10.238095238095237,9.126984126984127,-0.07936507936507936,4.0476190476190474,-0.07936507936507936,0.5555555555555556,-0.07936507936507936,-0.07936507936507936,-2.9365079365079363,1.1904761904761905,-325.0,-325.0,-325.0,-325.0,-325.0,-7.5396825396825395
247,8.968253968253968,-0.07936507936507936,-0.07936507936507936,-0.07936507936507936,-0.07936507936507936,-0.07936507936507936,-0.07936507936507936,-5.476190476190476,-10.238095238095237,9.126984126984127,-0.07936507936507936,4.0476190476190474,-0.07936507936507936,0.5555555555555556,-0.07936507936507936,-0.07936507936507936,-2.9365079365079363,1.1904761904761905,-325.0,-325.0,-325.0,-325.0,-325.0,-7.5396825396825395
248,3.888888888888889,-2.7777777777777777,-0.07936507936507936,-0.07936507936507936,-0.07936507936507936,-0.07936507936507936,-0.07936507936507936,-7.5396825396825395,6.904761904761904,6.26984126984127,-0.07936507936507936,-2.142857142857143,-0.07936507936507936,3.888888888888889,-0.07936507936507936,-0.07936507936507936,-2.7777777777777777,1.0317460317460316,-325.0,-325.0,-325.0,-325.0,-325.0,-7.5396825396825395
249,3.888888888888889,-2.7777777777777777,-0.07936507936507936,-0.07936507936507936,-0.07936507936507936,-0.07936507936507936,-0.07936507936507936,-7.5396825396825395,6.904761904761904,6.26984126984127,-0.07936507936507936,-2.142857142857143,-0.07936507936507936,3.888888888888889,-0.07936507936507936,-0.07936507936507936,-2.7777777777777777,1.0317460317460316,-325.0,-325.0,-325.0,-325.0,-325.0,-7.5396825396825395
250,-2.3015873015873014,-6.746031746031746,-0.07936507936507936,-0.07936507936507936,-0.07936507936507936,-0.07936507936507936,1.6666666666666665,3.888888888888889,9.444444444444445,13.253968253968253,-0.07936507936507936,-4.841269841269841,-0.07936507936507936,4.682539682539682,-0.07936507936507936,-0.07936507936507936,-3.253968253968254,0.7142857142857142,-325.0,-325.0,-325.0,-325.0,-325.0,-321.8253968253968
251,-2.3015873015873014,-6.746031746031746,-0.07936507936507936,-0.07936507936507936,-0.07936507936507936,-0.07936507936507936,1.6666666666666665,3.888888888888889,9.444444444444445,13.253968253968253,-0.07936507936507936,-4.841269841269841,-0.07936507936507936,4.682539682539682,-0.07936507936507936,-0.07936507936507936,-3.253968253968254,0.7142857142857142,-325.0,-325.0,-325.0,-325.0,-325.0,-321.8253968253968
252,-10.238095238095237,-11.349206349206348,-0.07936507936507936,-0.07936507936507936,-0.07936507936507936,-0.07936507936507936,4.523809523809524,1.349206349206349,15.0,14.365079365079364,-0.07936507936507936,-14.047619047619047,-0.07936507936507936,2.9365079365079363,-0.07936507936507936,-0.07936507936507936,-2.46031746031746,1.0317460317460316,-325.0,-325.0,-325.0,-325.0,-325.0,-321.8253968253968
253,-10.238095238095237,-11.349206349206348,-0.07936507936507936,-0.07936507936507936,-0.07936507936507936,-0.07936507936507936,4.523809523809524,1.349206349206349,15.0,14.365079365079364,-0.07936507936507936,-14.047619047619047,-0.07936507936507936,2.9365079365079363,-0.07936507936507936,-0.07936507936507936,-2.46031746031746,1.0317460317460316,-325.0,-325.0,-325.0,-325.0,-325.0,-321.8253968253968
254,-10.079365079365079,-13.73015873015873,-0.07936507936507936,-0.07936507936507936,-0.07936507936507936,-0.07936507936507936,1.0317460317460316,-0.3968253968253968,-5.476190476190476,16.11111111111111,-0.07936507936507936,-6.904761904761904,-0.07936507936507936,6.587301587301587,-0.07936507936507936,-0.07936507936507936,-2.9365079365079363,0.7142857142857142,-325.0,-325.0,-325.0,-325.0,-325.0,-321.8253968253968
255,-10.079365079365079,-13.73015873015873,-0.07936507936507936,-0.07936507936507936,-0.07936507936507936,-0.07936507936507936,1.0317460317460316,-0.3968253968253968,-5.476190476190476,16.11111111111111,-0.07936507936507936,-6.904761904761904,-0.07936507936507936,6.587301587301587,-0.07936507936507936,-0.07936507936507936,-2.9365079365079363,0.7142857142857142,-325.0,-325.0,-325.0,-325.0,-325.0,-321.8253968253968
256,-14.682539682539682,-19.126984126984127,-0.07936507936507936,-0.07936507936507936,-0.07936507936507936,-0.07936507936507936,1.6666666666666665,9.603174603174603,10.396825396825395,23.095238095238095,-0.07936507936507936,-9.444444444444445,-0.07936507936507936,5.7936507936507935,-0.07936507936507936,-0.07936507936507936,-2.3015873015873014,0.7142857142857142,-325.0,-325.0,-325.0,-325.0,-325.0,-321.8253968253968
257,-14.682539682539682,-19.126984126984127,-0.07936507936507936,-0.07936507936507936,-0.07936507936507936,-0.07936507936507936,1.6666666666666665,9.603174603174603,10.396825396825395,23.095238095238095,-0.07936507936507936,-9.444444444444445,-0.07936507936507936,5.7936507936507935,-0.07936507936507936,-0.07936507936507936,-2.3015873015873014,0.7142857142857142,-325.0,-325.0,-325.0,-325.0,-325.0,-321.8253968253968
258,-9.920634920634921,-23.253968253968253,-0.07936507936507936,-1.1904761904761905,-0.07936507936507936,-3.4126984126984126,-1.349206349206349,-2.619047619047619,4.365079365079365,12.46031746031746,-0.07936507936507936,-13.571428571428571,-0.07936507936507936,3.095238095238095,-0.07936507936507936,-0.07936507936507936,-2.619047619047619,1.0317460317460316,-325.0,-325.0,-325.0,-325.0,-325.0,-321.8253968253968
259,-9.920634920634921,-23.253968253968253,-0.07936507936507936,-1.1904761904761905,-0.07936507936507936,-3.4126984126984126,-1.349206349206349,-2.619047619047619,4.365079365079365,12.46031746031746,-0.07936507936507936,-13.571428571428571,-0.07936507936507936,3.095238095238095,-0.07936507936507936,-0.07936507936507936,-2.619047619047619,1.0317460317460316,-325.0,-325.0,-325.0,-325.0,-325.0,-321.8253968253968
260,-18.174603174603174,-20.238095238095237,-0.07936507936507936,-2.9365079365079363,-0.07936507936507936,-4.841269841269841,-4.523809523809524,-6.26984126984127,-0.3968253968253968,14.84126984126984,-0.07936507936507936,-12.619047619047619,-0.07936507936507936,0.3968253968253968,-0.07936507936507936,-0.07936507936507936,-2.46031746031746,0.5555555555555556,-325.0,-325.0,-325.0,-325.0,-325.0,-7.5396825396825395
261,-18.174603174603174,-20.238095238095237,-0.07936507936507936,-2.9365079365079363,-0.07936507936507936,-4.841269841269841,-4.523809523809524,-6.26984126984127,-0.3968253968253968,14.84126984126984,-0.07936507936507936,-12.619047619047619,-0.07936507936507936,0.3968253968253968,-0.07936507936507936,-0.07936507936507936,-2.46031746031746,0.5555555555555556,-325.0,-325.0,-325.0,-325.0,-325.0,-7.5396825396825395
262,-13.412698412698411,-18.96825396825397,-0.07936507936507936,-5.0,-0.07936507936507936,-5.634920634920634,-3.888888888888889,-14.047619047619047,-12.142857142857142,6.26984126984127,-0.07936507936507936,-15.317460317460316,-0.07936507936507936,-1.507936507936508,-0.7142857142857142,-0.07936507936507936,-2.9365079365079363,0.3968253968253968,-325.0,-325.0,-325.0,-325.0,-325.0,-7.5396825396825395
263,-13.412698412698411,-18.96825396825397,-0.07936507936507936,-5.0,-0.07936507936507936,-5.634920634920634,-3.888888888888889,-14.047619047619047,-12.142857142857142,6.26984126984127,-0.07936507936507936,-15.317460317460316,-0.07936507936507936,-1.507936507936508,-0.7142857142857142,-0.07936507936507936,-2.9365079365079363,0.3968253968253968,-325.0,-325.0,-325.0,-325.0,-325.0,-7.5396825396825395
264,-19.126984126984127,-11.666666666666666,-0.07936507936507936,-5.952380952380952,-0.07936507936507936,-3.253968253968254,-3.095238095238095,-3.888888888888889,1.6666666666666665,15.0,-0.07936507936507936,-6.904761904761904,-0.07936507936507936,-0.5555555555555556,-2.7777777777777777,-0.07936507936507936,-2.46031746031746,0.23809523809523808,-325.0,-325.0,-325.0,-325.0,-325.0,-7.5396825396825395
265,-19.126984126984127,-11.666666666666666,-0.07936507936507936,-5.952380952380952,-0.07936507936507936,-3.253968253968254,-3.095238095238095,-3.888888888888889,1.6666666666666665,15.0,-0.07936507936507936,-6.904761904761904,-0.07936507936507936,-0.5555555555555556,-2.7777777777777777,-0.07936507936507936,-2.46031746031746,0.23809523809523808,-325.0,-325.0,-325.0,-325.0,-325.0,-7.5396825396825395
266,-16.11111111111111,-10.238095238095237,-0.07936507936507936,-6.111111111111111,-0.07936507936507936,-0.3968253968253968,-5.476190476190476,-1.507936507936508,-1.507936507936508,11.349206349206348,-2.3015873015873014,-2.9365079365079363,-0.07936507936507936,1.507936507936508,-4.2063492063492065,-0.07936507936507936,-3.095238095238095,0.23809523809523808,-325.0,-325.0,-325.0,-325.0,-325.0,-7.5396825396825395
267,-16.11111111111111,-10.238095238095237,-0.07936507936507936,-6.111111111111111,-0.07936507936507936,-0.3968253968253968,-5.476190476190476,-1.507936507936508,-1.507936507936508,11.349206349206348,-2.3015873015873014,-2.9365079365079363,-0.07936507936507936,1.507936507936508,-4.2063492063492065,-0.07936507936507936,-3.095238095238095,0.23809523809523808,-325.0,-325.0,-325.0,-325.0,-325.0,-7.5396825396825395
268,184.84126984126982,255.79365079365078,325.0,302.3015873015873,325.0,296.1111111111111,-251.34920634920633,195.79365079365078,210.3968253968254,-150.07936507936506,-321.8253968253968,263.25396825396825,325.0,-249.44444444444443,309.6031746031746,325.0,-1.8253968253968254,1.507936507936508,-325.0,-325.0,-325.0,-325.0,-325.0,-7.5396825396825395
269,184.84126984126982,255.79365079365078,325.0,302.3015873015873,325.0,296.1111111111111,-251.34920634920633,195.79365079365078,210.3968253968254,-150.07936507936506,-321.8253968253968,263.25396825396825,325.0,-249.44444444444443,309.6031746031746,325.0,-1.8253968253968254,1.507936507936508,-325.0,-325.0,-325.0,-325.0,-325.0,-7.5396825396825395
270,-16.587301587301585,-16.428571428571427,-0.07936507936507936,-9.603174603174603,-1.8253968253968254,-4.682539682539682,-3.4126984126984126,-12.46031746031746,-6.111111111111111,1.984126984126984,-5.7936507936507935,-13.253968253968253,-0.07936507936507936,-1.349206349206349,-4.2063492063492065,-3.095238095238095,-3.095238095238095,0.5555555555555556,-325.0,-325.0,-325.0,-325.0,-325.0,-321.8253968253968
271,-16.587301587301585,-16.428571428571427,-0.07936507936507936,-9.603174603174603,-1.8253968253968254,-4.682539682539682,-3.4126984126984126,-12.46031746031746,-6.111111111111111,1.984126984126984,-5.7936507936507935,-13.253968253968253,-0.07936507936507936,-1.349206349206349,-4.2063492063492065,-3.095238095238095,-3.095238095238095,0.5555555555555556,-325.0,-325.0,-325.0,-325.0,-325.0,-321.8253968253968
272,-15.476190476190474,-14.047619047619047,-0.07936507936507936,-9.444444444444445,-6.428571428571428,-2.619047619047619,-2.3015873015873014,2.142857142857143,2.46031746031746,12.142857142857142,-5.317460317460317,-10.238095238095237,-0.07936507936507936,1.8253968253968254,-4.0476190476190474,-6.26984126984127,-2.7777777777777777,0.5555555555555556,-325.0,-325.0,-325.0,-325.0,-325.0,-321.8253968253968
273,-15.476190476190474,-14.047619047619047,-0.07936507936507936,-9.444444444444445,-6.428571428571428,-2.619047619047619,-2.3015873015873014,2.142857142857143,2.46031746031746,12.142857142857142,-5.317460317460317,-10.238095238095237,-0.07936507936507936,1.8253968253968254,-4.0476190476190474,-6.26984126984127,-2.7777777777777777,0.5555555555555556,-325.0,-325.0,-325.0,-325.0,-325.0,-321.8253968253968
274,-6.746031746031746,-10.079365079365079,-4.523809523809524,-7.3809523809523805,-8.333333333333332,-3.73015873015873,-2.46031746031746,7.5396825396825395,-10.238095238095237,6.26984126984127,3.253968253968254,-5.952380952380952,-0.07936507936507936,2.3015873015873014,-5.952380952380952,-6.428571428571428,-3.4126984126984126,0.5555555555555556,-325.0,-325.0,-325.0,-325.0,-325.0,-321.8253968253968
275,-6.746031746031746,-10.079365079365079,-4.523809523809524,-7.3809523809523805,-8.333333333333332,-3.73015873015873,-2.46031746031746,7.5396825396825395,-10.238095238095237,6.26984126984127,3.253968253968254,-5.952380952380952,-0.07936507936507936,2.3015873015873014,-5.952380952380952,-6.428571428571428,-3.4126984126984126,0.5555555555555556,-325.0,-325.0,-325.0,-325.0,-325.0,-321.8253968253968
276,-6.428571428571428,-14.523809523809524,-8.809523809523808,-11.19047619047619,-12.3015873015873,-7.063492063492063,-1.1904761904761905,-8.809523809523808,-5.634920634920634,-4.0476190476190474,-0.5555555555555556,-11.031746031746032,-1.507936507936508,0.23809523809523808,-6.428571428571428,-9.444444444444445,-3.4126984126984126,0.873015873015873,-325.0,-325.0,-325.0,-325.0,-325.0,-321.8253968253968
277,-6.428571428571428,-14.523809523809524,-8.809523809523808,-11.19047619047619,-12.3015873015873,-7.063492063492063,-1.1904761904761905,-8.809523809523808,-5.634920634920634,-4.0476190476190474,-0.5555555555555556,-11.031746031746032,-1.507936507936508,0.23809523809523808,-6.428571428571428,-9.444444444444445,-3.4126984126984126,0.873015873015873,-325.0,-325.0,-325.0,-325.0,-325.0,-321.8253968253968
278,-239.28571428571428,-229.76190476190476,-317.06349206349205,-276.90476190476187,-306.26984126984127,-257.85714285714283,184.04761904761904,-164.2063492063492,-238.8095238095238,113.09523809523809,277.06349206349205,-232.93650793650792,-325.0,206.58730158730157,-281.66666666666663,-307.38095238095235,-4.2063492063492065,-0.07936507936507936,-325.0,-325.0,-325.0,-325.0,-325.0,-321.8253968253968
279,-239.28571428571428,-229.76190476190476,-317.06349206349205,-276.90476190476187,-306.26984126984127,-257.85714285714283,184.04761904761904,-164.2063492063492,-238.8095238095238,113.09523809523809,277.06349206349205,-232.93650793650792,-325.0,206.58730158730157,-281.66666666666663,-307.38095238095235,-4.2063492063492065,-0.07936507936507936,-325.0,-325.0,-325.0,-325.0,-325.0,-321.8253968253968
280,-8.333333333333332,-15.317460317460316,-13.253968253968253,-10.238095238095237,-13.412698412698411,-6.746031746031746,2.142857142857143,-6.26984126984127,0.873015873015873,5.158730158730158,3.73015873015873,-10.238095238095237,-9.603174603174603,3.888888888888889,-7.3809523809523805,-10.079365079365079,-3.4126984126984126,1.1904761904761905,-325.0,-325.0,-325.0,-325.0,-325.0,-7.5396825396825395
281,-8.333333333333332,-15.317460317460316,-13.253968253968253,-10.238095238095237,-13.412698412698411,-6.746031746031746,2.142857142857143,-6.26984126984127,0.873015873015873,5.158730158730158,3.73015873015873,-10.238095238095237,-9.603174603174603,3.888888888888889,-7.3809523809523805,-10.079365079365079,-3.4126984126984126,1.1904761904761905,-325.0,-325.0,-325.0,-325.0,-325.0,-7.5396825396825395
282,-237.2222222222222,-208.8095238095238,-304.68253968253964,-258.3333333333333,-290.39682539682536,-241.03174603174602,170.87301587301587,-131.984126984127,-221.19047619047618,108.01587301587301,260.23809523809524,-214.36507936507937,-318.3333333333333,189.9206349206349,-262.9365079365079,-289.6031746031746,-4.523809523809524,-0.873015873015873,-325.0,-325.0,-325.0,-325.0,-325.0,-7.5396825396825395
283,-237.2222222222222,-208.8095238095238,-304.68253968253964,-258.3333333333333,-290.39682539682536,-241.03174603174602,170.87301587301587,-131.984126984127,-221.19047619047618,108.01587301587301,260.23809523809524,-214.36507936507937,-318.3333333333333,189.9206349206349,-262.9365079365079,-289.6031746031746,-4.523809523809524,-0.873015873015873,-325.0,-325.0,-325.0,-325.0,-325.0,-7.5396825396825395
284,-5.317460317460317,-16.428571428571427,-17.698412698412696,-14.365079365079364,-20.07936507936508,-11.666666666666666,9.603174603174603,-2.9365079365079363,8.492063492063492,19.444444444444443,6.428571428571428,-8.65079365079365,-14.682539682539682,12.936507936507935,-10.714285714285714,-15.0,-3.253968253968254,0.5555555555555556,-325.0,-325.0,-325.0,-325.0,-325.0,-7.5396825396825395
285,-5.317460317460317,-16.428571428571427,-17.698412698412696,-14.365079365079364,-20.07936507936508,-11.666666666666666,9.603174603174603,-2.9365079365079363,8.492063492063492,19.444444444444443,6.428571428571428,-8.65079365079365,-14.682539682539682,12.936507936507935,-10.714285714285714,-15.0,-3.253968253968254,0.5555555555555556,-325.0,-325.0,-325.0,-325.0,-325.0,-7.5396825396825395
286,-7.222222222222221,-12.619047619047619,-12.142857142857142,-9.444444444444445,-13.73015873015873,-9.761904761904761,1.984126984126984,-13.412698412698411,0.5555555555555556,5.952380952380952,2.9365079365079363,-8.809523809523808,-10.555555555555555,7.3809523809523805,-6.904761904761904,-12.619047619047619,-2.7777777777777777,0.873015873015873,-325.0,-325.0,-325.0,-325.0,-325.0,-7.5396825396825395
287,-7.222222222222221,-12.619047619047619,-12.142857142857142,-9.444444444444445,-13.73015873015873,-9.761904761904761,1.984126984126984,-13.412698412698411,0.5555555555555556,5.952380952380952,2.9365079365079363,-8.809523809523808,-10.555555555555555,7.3809523809523805,-6.904761904761904,-12.619047619047619,-2.7777777777777777,0.873015873015873,-325.0,-325.0,-325.0,-325.0,-325.0,-7.5396825396825395
288,-10.396825396825395,-12.936507936507935,-10.873015873015872,-11.031746031746032,-12.46031746031746,-8.968253968253968,2.3015873015873014,-7.063492063492063,-0.7142857142857142,6.111111111111111,6.26984126984127,-10.555555555555555,-8.65079365079365,5.7936507936507935,-6.111111111111111,-14.047619047619047,-2.619047619047619,0.23809523809523808,-325.0,-325.0,-325.0,-325.0,-325.0,-7.5396825396825395
289,-10.396825396825395,-12.936507936507935,-10.873015873015872,-11.031746031746032,-12.46031746031746,-8.968253968253968,2.3015873015873014,-7.063492063492063,-0.7142857142857142,6.111111111111111,6.26984126984127,-10.555555555555555,-8.65079365079365,5.7936507936507935,-6.111111111111111,-14.047619047619047,-2.619047619047619,0.23809523809523808,-325.0,-325.0,-325.0,-325.0,-325.0,-7.5396825396825395
290,-11.031746031746032,-7.857142857142857,-9.126984126984127,-5.634920634920634,-9.761904761904761,-3.888888888888889,0.3968253968253968,6.746031746031746,-4.2063492063492065,14.206349206349206,0.873015873015873,-2.3015873015873014,-8.809523809523808,9.444444444444445,-6.746031746031746,-8.174603174603174,-2.46031746031746,0.07936507936507936,-325.0,-325.0,-325.0,-325.0,-325.0,-321.8253968253968
291,-11.031746031746032,-7.857142857142857,-9.126984126984127,-5.634920634920634,-9.761904761904761,-3.888888888888889,0.3968253968253968,6.746031746031746,-4.2063492063492065,14.206349206349206,0.873015873015873,-2.3015873015873014,-8.809523809523808,9.444444444444445,-6.746031746031746,-8.174603174603174,-2.46031746031746,0.07936507936507936,-325.0,-325.0,-325.0,-325.0,-325.0,-321.8253968253968
292,-244.04761904761904,-153.09523809523807,-258.968253968254,-209.28571428571428,-240.3968253968254,-193.7301587301587,115.31746031746032,-88.96825396825396,-245.47619047619045,60.71428571428571,213.25396825396825,-170.07936507936506,-274.2063492063492,137.69841269841268,-220.2380952380952,-244.04761904761904,-4.365079365079365,-1.1904761904761905,-325.0,-325.0,-325.0,-325.0,-325.0,-321.8253968253968
293,-244.04761904761904,-153.09523809523807,-258.968253968254,-209.28571428571428,-240.3968253968254,-193.7301587301587,115.31746031746032,-88.96825396825396,-245.47619047619045,60.71428571428571,213.25396825396825,-170.07936507936506,-274.2063492063492,137.69841269841268,-220.2380952380952,-244.04761904761904,-4.365079365079365,-1.1904761904761905,-325.0,-325.0,-325.0,-325.0,-325.0,-321.8253968253968
294,-10.079365079365079,-2.7777777777777777,-6.904761904761904,-4.0476190476190474,-7.222222222222221,-3.253968253968254,3.095238095238095,3.4126984126984126,0.5555555555555556,10.079365079365079,-2.142857142857143,-1.349206349206349,-5.634920634920634,8.809523809523808,-2.142857142857143,-8.968253968253968,-3.4126984126984126,0.23809523809523808,-325.0,-325.0,-325.0,-325.0,-325.0,-321.8253968253968
295,-10.079365079365079,-2.7777777777777777,-6.904761904761904,-4.0476190476190474,-7.222222222222221,-3.253968253968254,3.095238095238095,3.4126984126984126,0.5555555555555556,10.079365079365079,-2.142857142857143,-1.349206349206349,-5.634920634920634,8.809523809523808,-2.142857142857143,-8.968253968253968,-3.4126984126984126,0.23809523809523808,-325.0,-325.0,-325.0,-325.0,-325.0,-321.8253968253968
