,Fp1[1],Fp2[2],F3[3],F4[4],C3[5],C4[6],P3[7],P4[8],O1[9],O2[10],F7[11],F8[12],T3[13],T4[14],T5[15],T6[16],Fz[17],Pz[18],Cz[19],Pg1[20],Pg2[21],EOGR[22],EOOGL[23],EMG[24]
0,-325.0,-325.0,-325.0,-325.0,-325.0,-325.0,-325.0,-325.0,-325.0,-325.0,-325.0,-325.0,-325.0,-325.0,-325.0,-325.0,-325.0,-325.0,-325.0,-325.0,-325.0,8.333333333333332,-23.253968253968253,-166.26984126984127
1,-325.0,-325.0,-325.0,-325.0,-325.0,-325.0,-325.0,-325.0,-325.0,-325.0,-325.0,-325.0,-325.0,-325.0,-325.0,-325.0,-325.0,-325.0,-325.0,-325.0,-325.0,8.333333333333332,-23.253968253968253,-166.26984126984127
2,-325.0,-325.0,-325.0,-325.0,-325.0,-325.0,-325.0,-325.0,-325.0,-325.0,-325.0,-325.0,-325.0,-325.0,-325.0,-325.0,-325.0,-325.0,-325.0,-325.0,-325.0,21.984126984126984,-6.904761904761904,-166.26984126984127
3,-325.0,-325.0,-325.0,-325.0,-325.0,-325.0,-325.0,-325.0,-325.0,-325.0,-325.0,-325.0,-325.0,-325.0,-325.0,-325.0,-325.0,-325.0,-325.0,-325.0,-325.0,21.984126984126984,-6.904761904761904,-166.26984126984127
4,-325.0,-325.0,-325.0,-325.0,-325.0,-325.0,-325.0,-325.0,-325.0,-325.0,-325.0,-325.0,-325.0,-325.0,-325.0,-325.0,-325.0,-325.0,-325.0,-325.0,-325.0,-16.746031746031743,-15.317460317460316,-166.26984126984127
5,-325.0,-325.0,-325.0,-325.0,-325.0,-325.0,-325.0,-325.0,-325.0,-325.0,-325.0,-325.0,-325.0,-325.0,-325.0,-325.0,-325.0,-325.0,-325.0,-325.0,-325.0,-16.746031746031743,-15.317460317460316,-166.26984126984127
6,-325.0,-325.0,-325.0,-325.0,-325.0,-325.0,-325.0,-325.0,-325.0,-325.0,-325.0,-325.0,-325.0,-325.0,-325.0,-325.0,-325.0,-325.0,-325.0,-325.0,-325.0,15.317460317460316,14.84126984126984,-166.26984126984127
7,-325.0,-325.0,-325.0,-325.0,-325.0,-325.0,-325.0,-325.0,-325.0,-325.0,-325.0,-325.0,-325.0,-325.0,-325.0,-325.0,-325.0,-325.0,-325.0,-325.0,-325.0,15.317460317460316,14.84126984126984,-166.26984126984127
8,-325.0,-325.0,-325.0,-325.0,-325.0,-325.0,-325.0,-325.0,-325.0,-325.0,-325.0,-325.0,-325.0,-325.0,-325.0,-325.0,-325.0,-325.0,-325.0,-325.0,-325.0,-16.26984126984127,-15.476190476190474,-166.26984126984127
9,-325.0,-325.0,-325.0,-325.0,-325.0,-325.0,-325.0,-325.0,-325.0,-325.0,-325.0,-325.0,-325.0,-325.0,-325.0,-325.0,-325.0,-325.0,-325.0,-325.0,-325.0,-16.26984126984127,-15.476190476190474,-166.26984126984127
10,-325.0,-325.0,-325.0,-325.0,-325.0,-325.0,-325.0,-325.0,-325.0,-325.0,-325.0,-325.0,-325.0,-325.0,-325.0,-325.0,-325.0,-325.0,-325.0,-325.0,-325.0,16.746031746031743,15.158730158730158,-321.8253968253968
11,-325.0,-325.0,-325.0,-325.0,-325.0,-325.0,-325.0,-325.0,-325.0,-325.0,-325.0,-325.0,-325.0,-325.0,-325.0,-325.0,-325.0,-325.0,-325.0,-325.0,-325.0,16.746031746031743,15.158730158730158,-321.8253968253968
12,-325.0,-325.0,-325.0,-325.0,-325.0,-325.0,-325.0,-325.0,-325.0,-325.0,-325.0,-325.0,-325.0,-325.0,-325.0,-325.0,-325.0,-325.0,-325.0,-325.0,-325.0,-16.904761904761905,-15.95238095238095,-321.8253968253968
13,-325.0,-325.0,-325.0,-325.0,-325.0,-325.0,-325.0,-325.0,-325.0,-325.0,-325.0,-325.0,-325.0,-325.0,-325.0,-325.0,-325.0,-325.0,-325.0,-325.0,-325.0,-16.904761904761905,-15.95238095238095,-321.8253968253968
14,-325.0,-325.0,-325.0,-325.0,-325.0,-325.0,-325.0,-325.0,-325.0,-325.0,-325.0,-325.0,-325.0,-325.0,-325.0,-325.0,-325.0,-325.0,-325.0,-325.0,-325.0,-2.7777777777777777,21.825396825396822,-321.8253968253968
15,-325.0,-325.0,-325.0,-325.0,-325.0,-325.0,-325.0,-325.0,-325.0,-325.0,-325.0,-325.0,-325.0,-325.0,-325.0,-325.0,-325.0,-325.0,-325.0,-325.0,-325.0,-2.7777777777777777,21.825396825396822,-321.8253968253968
16,-325.0,-325.0,-325.0,-325.0,-325.0,-325.0,-325.0,-325.0,-325.0,-325.0,-325.0,-325.0,-325.0,-325.0,-325.0,-325.0,-325.0,-325.0,-325.0,-325.0,-325.0,-17.22222222222222,-15.476190476190474,-321.8253968253968
17,-325.0,-325.0,-325.0,-325.0,-325.0,-325.0,-325.0,-325.0,-325.0,-325.0,-325.0,-325.0,-325.0,-325.0,-325.0,-325.0,-325.0,-325.0,-325.0,-325.0,-325.0,-17.22222222222222,-15.476190476190474,-321.8253968253968
18,-325.0,-325.0,-325.0,-325.0,-325.0,-325.0,-325.0,-325.0,-325.0,-325.0,-325.0,-325.0,-325.0,-325.0,-325.0,-325.0,-325.0,-325.0,-325.0,-325.0,-325.0,16.428571428571427,14.682539682539682,-321.8253968253968
19,-325.0,-325.0,-325.0,-325.0,-325.0,-325.0,-325.0,-325.0,-325.0,-325.0,-325.0,-325.0,-325.0,-325.0,-325.0,-325.0,-325.0,-325.0,-325.0,-325.0,-325.0,16.428571428571427,14.682539682539682,-321.8253968253968
20,-325.0,-325.0,-325.0,-325.0,-325.0,-325.0,-325.0,-325.0,-325.0,-325.0,-325.0,-325.0,-325.0,-325.0,-325.0,-325.0,-325.0,-325.0,-325.0,-325.0,-325.0,-18.174603174603174,-15.476190476190474,-166.26984126984127
21,-325.0,-325.0,-325.0,-325.0,-325.0,-325.0,-325.0,-325.0,-325.0,-325.0,-325.0,-325.0,-325.0,-325.0,-325.0,-325.0,-325.0,-325.0,-325.0,-325.0,-325.0,-18.174603174603174,-15.476190476190474,-166.26984126984127
22,-325.0,-325.0,-325.0,-325.0,-325.0,-325.0,-325.0,-325.0,-325.0,-325.0,-325.0,-325.0,-325.0,-325.0,-325.0,-325.0,-325.0,-325.0,-325.0,-325.0,-325.0,18.49206349206349,-9.285714285714285,-166.26984126984127
23,-325.0,-325.0,-325.0,-325.0,-325.0,-325.0,-325.0,-325.0,-325.0,-325.0,-325.0,-325.0,-325.0,-325.0,-325.0,-325.0,-325.0,-325.0,-325.0,-325.0,-325.0,18.49206349206349,-9.285714285714285,-166.26984126984127
24,-325.0,-325.0,-325.0,-325.0,-325.0,-325.0,-325.0,-325.0,-325.0,-325.0,-325.0,-325.0,-325.0,-325.0,-325.0,-325.0,-325.0,-325.0,-325.0,-325.0,-325.0,-19.76190476190476,8.968253968253968,-166.26984126984127
25,-325.0,-325.0,-325.0,-325.0,-325.0,-325.0,-325.0,-325.0,-325.0,-325.0,-325.0,-325.0,-325.0,-325.0,-325.0,-325.0,-325.0,-325.0,-325.0,-325.0,-325.0,-19.76190476190476,8.968253968253968,-166.26984126984127
26,-325.0,-325.0,-325.0,-325.0,-325.0,-325.0,-325.0,-325.0,-325.0,-325.0,-325.0,-325.0,-325.0,-325.0,-325.0,-325.0,-325.0,-325.0,-325.0,-325.0,-325.0,18.96825396825397,-8.809523809523808,-166.26984126984127
27,-325.0,-325.0,-325.0,-325.0,-325.0,-325.0,-325.0,-325.0,-325.0,-325.0,-325.0,-325.0,-325.0,-325.0,-325.0,-325.0,-325.0,-325.0,-325.0,-325.0,-325.0,18.96825396825397,-8.809523809523808,-166.26984126984127
28,-325.0,-325.0,-325.0,-325.0,-325.0,-325.0,-325.0,-325.0,-325.0,-325.0,-325.0,-325.0,-325.0,-325.0,-325.0,-325.0,-325.0,-325.0,-325.0,-325.0,-325.0,-18.96825396825397,10.238095238095237,-166.26984126984127
29,-325.0,-325.0,-325.0,-325.0,-325.0,-325.0,-325.0,-325.0,-325.0,-325.0,-325.0,-325.0,-325.0,-325.0,-325.0,-325.0,-325.0,-325.0,-325.0,-325.0,-325.0,-18.96825396825397,10.238095238095237,-166.26984126984127
30,-325.0,-325.0,-325.0,-325.0,-325.0,-325.0,-325.0,-325.0,-325.0,-325.0,-325.0,-325.0,-325.0,-325.0,-325.0,-325.0,-325.0,-325.0,-325.0,-325.0,-325.0,19.92063492063492,-9.603174603174603,-321.8253968253968
31,-325.0,-325.0,-325.0,-325.0,-325.0,-325.0,-325.0,-325.0,-325.0,-325.0,-325.0,-325.0,-325.0,-325.0,-325.0,-325.0,-325.0,-325.0,-325.0,-325.0,-325.0,19.92063492063492,-9.603174603174603,-321.8253968253968
32,-325.0,-325.0,-325.0,-325.0,-325.0,-325.0,-325.0,-325.0,-325.0,-325.0,-325.0,-325.0,-325.0,-325.0,-325.0,-325.0,-325.0,-325.0,-325.0,-325.0,-325.0,19.285714285714285,14.682539682539682,-321.8253968253968
33,-325.0,-325.0,-325.0,-325.0,-325.0,-325.0,-325.0,-325.0,-325.0,-325.0,-325.0,-325.0,-325.0,-325.0,-325.0,-325.0,-325.0,-325.0,-325.0,-325.0,-325.0,19.285714285714285,14.682539682539682,-321.8253968253968
34,-325.0,-325.0,-325.0,-325.0,-325.0,-325.0,-325.0,-325.0,-325.0,-325.0,-325.0,-325.0,-325.0,-325.0,-325.0,-325.0,-325.0,-325.0,-325.0,-325.0,-325.0,-19.92063492063492,-14.047619047619047,-321.8253968253968
35,-325.0,-325.0,-325.0,-325.0,-325.0,-325.0,-325.0,-325.0,-325.0,-325.0,-325.0,-325.0,-325.0,-325.0,-325.0,-325.0,-325.0,-325.0,-325.0,-325.0,-325.0,-19.92063492063492,-14.047619047619047,-321.8253968253968
36,-325.0,-325.0,-325.0,-325.0,-325.0,-325.0,-325.0,-325.0,-325.0,-325.0,-325.0,-325.0,-325.0,-325.0,-325.0,-325.0,-325.0,-325.0,-325.0,-325.0,-325.0,17.857142857142858,-10.555555555555555,-321.8253968253968
37,-325.0,-325.0,-325.0,-325.0,-325.0,-325.0,-325.0,-325.0,-325.0,-325.0,-325.0,-325.0,-325.0,-325.0,-325.0,-325.0,-325.0,-325.0,-325.0,-325.0,-325.0,17.857142857142858,-10.555555555555555,-321.8253968253968
38,-325.0,-325.0,-325.0,-325.0,-325.0,-325.0,-325.0,-325.0,-325.0,-325.0,-325.0,-325.0,-325.0,-325.0,-325.0,-325.0,-325.0,-325.0,-325.0,-325.0,-325.0,-18.333333333333332,10.396825396825395,-321.8253968253968
39,-325.0,-325.0,-325.0,-325.0,-325.0,-325.0,-325.0,-325.0,-325.0,-325.0,-325.0,-325.0,-325.0,-325.0,-325.0,-325.0,-325.0,-325.0,-325.0,-325.0,-325.0,-18.333333333333332,10.396825396825395,-321.8253968253968
40,-325.0,-325.0,-325.0,-325.0,-325.0,-325.0,-325.0,-325.0,-325.0,-325.0,-325.0,-325.0,-325.0,-325.0,-325.0,-325.0,-325.0,-325.0,-325.0,-325.0,-325.0,17.539682539682538,-10.714285714285714,-166.26984126984127
41,-325.0,-325.0,-325.0,-325.0,-325.0,-325.0,-325.0,-325.0,-325.0,-325.0,-325.0,-325.0,-325.0,-325.0,-325.0,-325.0,-325.0,-325.0,-325.0,-325.0,-325.0,17.539682539682538,-10.714285714285714,-166.26984126984127
42,-325.0,-325.0,-325.0,-325.0,-325.0,-325.0,-325.0,-325.0,-325.0,-325.0,-325.0,-325.0,-325.0,-325.0,-325.0,-325.0,-325.0,-325.0,-325.0,-325.0,-325.0,-16.904761904761905,10.714285714285714,-166.26984126984127
43,-325.0,-325.0,-325.0,-325.0,-325.0,-325.0,-325.0,-325.0,-325.0,-325.0,-325.0,-325.0,-325.0,-325.0,-325.0,-325.0,-325.0,-325.0,-325.0,-325.0,-325.0,-16.904761904761905,10.714285714285714,-166.26984126984127
44,-323.25396825396825,-325.0,-324.8412698412698,-324.04761904761904,-325.0,-325.0,-325.0,-325.0,-325.0,-324.36507936507934,-325.0,-325.0,-322.77777777777777,-322.6190476190476,-325.0,-325.0,-325.0,-325.0,-325.0,-325.0,-322.46031746031747,0.23809523809523808,-1.349206349206349,-166.26984126984127
45,-323.25396825396825,-325.0,-324.8412698412698,-324.04761904761904,-325.0,-325.0,-325.0,-325.0,-325.0,-324.36507936507934,-325.0,-325.0,-322.77777777777777,-322.6190476190476,-325.0,-325.0,-325.0,-325.0,-325.0,-325.0,-322.46031746031747,0.23809523809523808,-1.349206349206349,-166.26984126984127
46,-318.17460317460313,-325.0,-321.8253968253968,-320.07936507936506,-325.0,-325.0,-325.0,-325.0,-325.0,-320.87301587301585,-325.0,-323.0952380952381,-317.38095238095235,-317.06349206349205,-325.0,-325.0,-325.0,-325.0,-325.0,-325.0,-316.90476190476187,-38.80952380952381,-0.07936507936507936,-166.26984126984127
47,-318.17460317460313,-325.0,-321.8253968253968,-320.07936507936506,-325.0,-325.0,-325.0,-325.0,-325.0,-320.87301587301585,-325.0,-323.0952380952381,-317.38095238095235,-317.06349206349205,-325.0,-325.0,-325.0,-325.0,-325.0,-325.0,-316.90476190476187,-38.80952380952381,-0.07936507936507936,-166.26984126984127
48,-311.66666666666663,-319.1269841269841,-315.0,-313.4126984126984,-322.9365079365079,-319.76190476190476,-325.0,-324.04761904761904,-325.0,-314.36507936507934,-321.19047619047615,-316.1111111111111,-310.55555555555554,-310.23809523809524,-322.9365079365079,-319.2857142857143,-325.0,-323.88888888888886,-323.0952380952381,-325.0,-310.07936507936506,16.428571428571427,-11.507936507936508,-166.26984126984127
49,-311.66666666666663,-319.1269841269841,-315.0,-313.4126984126984,-322.9365079365079,-319.76190476190476,-325.0,-324.04761904761904,-325.0,-314.36507936507934,-321.19047619047615,-316.1111111111111,-310.55555555555554,-310.23809523809524,-322.9365079365079,-319.2857142857143,-325.0,-323.88888888888886,-323.0952380952381,-325.0,-310.07936507936506,16.428571428571427,-11.507936507936508,-166.26984126984127
50,-306.26984126984127,-313.73015873015873,-309.76190476190476,-308.015873015873,-317.53968253968253,-314.36507936507934,-323.88888888888886,-319.1269841269841,-325.0,-308.8095238095238,-315.95238095238096,-310.87301587301585,-305.4761904761905,-304.8412698412698,-317.53968253968253,-313.73015873015873,-324.68253968253964,-318.968253968254,-317.69841269841265,-323.4126984126984,-304.68253968253964,-15.476190476190474,11.349206349206348,-321.8253968253968
51,-306.26984126984127,-313.73015873015873,-309.76190476190476,-308.015873015873,-317.53968253968253,-314.36507936507934,-323.88888888888886,-319.1269841269841,-325.0,-308.8095238095238,-315.95238095238096,-310.87301587301585,-305.4761904761905,-304.8412698412698,-317.53968253968253,-313.73015873015873,-324.68253968253964,-318.968253968254,-317.69841269841265,-323.4126984126984,-304.68253968253964,-15.476190476190474,11.349206349206348,-321.8253968253968
52,-302.3015873015873,-309.9206349206349,-305.7936507936508,-304.04761904761904,-313.88888888888886,-310.39682539682536,-319.6031746031746,-315.4761904761905,-322.46031746031747,-304.8412698412698,-311.984126984127,-306.90476190476187,-301.66666666666663,-300.87301587301585,-313.73015873015873,-309.9206349206349,-321.031746031746,-315.3174603174603,-313.73015873015873,-319.6031746031746,-300.55555555555554,38.33333333333333,1.6666666666666665,-321.8253968253968
53,-302.3015873015873,-309.9206349206349,-305.7936507936508,-304.04761904761904,-313.88888888888886,-310.39682539682536,-319.6031746031746,-315.4761904761905,-322.46031746031747,-304.8412698412698,-311.984126984127,-306.90476190476187,-301.66666666666663,-300.87301587301585,-313.73015873015873,-309.9206349206349,-321.031746031746,-315.3174603174603,-313.73015873015873,-319.6031746031746,-300.55555555555554,38.33333333333333,1.6666666666666665,-321.8253968253968
54,-295.6349206349206,-303.25396825396825,-299.2857142857143,-297.53968253968253,-307.38095238095235,-304.04761904761904,-313.0952380952381,-308.968253968254,-315.7936507936508,-298.3333333333333,-305.4761904761905,-300.23809523809524,-294.8412698412698,-294.36507936507934,-307.38095238095235,-303.57142857142856,-314.2063492063492,-308.6507936507936,-307.06349206349205,-312.9365079365079,-294.2063492063492,-15.317460317460316,11.666666666666666,-321.8253968253968
55,-295.6349206349206,-303.25396825396825,-299.2857142857143,-297.53968253968253,-307.38095238095235,-304.04761904761904,-313.0952380952381,-308.968253968254,-315.7936507936508,-298.3333333333333,-305.4761904761905,-300.23809523809524,-294.8412698412698,-294.36507936507934,-307.38095238095235,-303.57142857142856,-314.2063492063492,-308.6507936507936,-307.06349206349205,-312.9365079365079,-294.2063492063492,-15.317460317460316,11.666666666666666,-321.8253968253968
56,-290.7142857142857,-298.3333333333333,-294.04761904761904,-292.3015873015873,-302.46031746031747,-298.968253968254,-307.85714285714283,-303.88888888888886,-310.7142857142857,-293.25396825396825,-300.55555555555554,-295.3174603174603,-289.76190476190476,-289.2857142857143,-302.3015873015873,-298.3333333333333,-308.968253968254,-303.57142857142856,-301.984126984127,-307.53968253968253,-288.968253968254,15.317460317460316,-12.142857142857142,-321.8253968253968
57,-290.7142857142857,-298.3333333333333,-294.04761904761904,-292.3015873015873,-302.46031746031747,-298.968253968254,-307.85714285714283,-303.88888888888886,-310.7142857142857,-293.25396825396825,-300.55555555555554,-295.3174603174603,-289.76190476190476,-289.2857142857143,-302.3015873015873,-298.3333333333333,-308.968253968254,-303.57142857142856,-301.984126984127,-307.53968253968253,-288.968253968254,15.317460317460316,-12.142857142857142,-321.8253968253968
58,-286.74603174603175,-294.8412698412698,-290.39682539682536,-288.6507936507936,-298.6507936507936,-295.1587301587301,-304.04761904761904,-300.07936507936506,-306.74603174603175,-289.4444444444444,-296.74603174603175,-291.5079365079365,-286.1111111111111,-285.4761904761905,-298.4920634920635,-294.5238095238095,-305.1587301587301,-299.9206349206349,-298.17460317460313,-303.73015873015873,-285.1587301587301,0.23809523809523808,-1.507936507936508,-321.8253968253968
59,-286.74603174603175,-294.8412698412698,-290.39682539682536,-288.6507936507936,-298.6507936507936,-295.1587301587301,-304.04761904761904,-300.07936507936506,-306.74603174603175,-289.4444444444444,-296.74603174603175,-291.5079365079365,-286.1111111111111,-285.4761904761905,-298.4920634920635,-294.5238095238095,-305.1587301587301,-299.9206349206349,-298.17460317460313,-303.73015873015873,-285.1587301587301,0.23809523809523808,-1.507936507936508,-321.8253968253968
60,-281.8253968253968,-289.76190476190476,-285.6349206349206,-283.73015873015873,-293.88888888888886,-290.39682539682536,-298.6507936507936,-295.3174603174603,-301.5079365079365,-284.5238095238095,-291.984126984127,-286.1111111111111,-281.19047619047615,-280.39682539682536,-293.4126984126984,-289.6031746031746,-299.4444444444444,-295.1587301587301,-293.25396825396825,-298.6507936507936,-280.23809523809524,37.698412698412696,1.349206349206349,-166.26984126984127
61,-281.8253968253968,-289.76190476190476,-285.6349206349206,-283.73015873015873,-293.88888888888886,-290.39682539682536,-298.6507936507936,-295.3174603174603,-301.5079365079365,-284.5238095238095,-291.984126984127,-286.1111111111111,-281.19047619047615,-280.39682539682536,-293.4126984126984,-289.6031746031746,-299.4444444444444,-295.1587301587301,-293.25396825396825,-298.6507936507936,-280.23809523809524,37.698412698412696,1.349206349206349,-166.26984126984127
62,-275.6349206349206,-283.73015873015873,-279.44444444444446,-277.6984126984127,-287.85714285714283,-284.5238095238095,-292.46031746031747,-289.1269841269841,-295.3174603174603,-278.6507936507936,-286.1111111111111,-280.23809523809524,-275.1587301587301,-274.2063492063492,-287.53968253968253,-283.73015873015873,-293.4126984126984,-289.1269841269841,-287.06349206349205,-292.6190476190476,-274.2063492063492,-14.523809523809524,12.619047619047619,-166.26984126984127
63,-275.6349206349206,-283.73015873015873,-279.44444444444446,-277.6984126984127,-287.85714285714283,-284.5238095238095,-292.46031746031747,-289.1269841269841,-295.3174603174603,-278.6507936507936,-286.1111111111111,-280.23809523809524,-275.1587301587301,-274.2063492063492,-287.53968253968253,-283.73015873015873,-293.4126984126984,-289.1269841269841,-287.06349206349205,-292.6190476190476,-274.2063492063492,-14.523809523809524,12.619047619047619,-166.26984126984127
64,-271.031746031746,-278.968253968254,-274.5238095238095,-272.9365079365079,-283.25396825396825,-279.76190476190476,-287.6984126984127,-284.8412698412698,-290.39682539682536,-273.73015873015873,-281.5079365079365,-275.7936507936508,-270.55555555555554,-269.6031746031746,-282.9365079365079,-278.8095238095238,-288.4920634920635,-284.5238095238095,-282.46031746031747,-287.53968253968253,-269.2857142857143,14.047619047619047,-13.095238095238095,-166.26984126984127
65,-271.031746031746,-278.968253968254,-274.5238095238095,-272.9365079365079,-283.25396825396825,-279.76190476190476,-287.6984126984127,-284.8412698412698,-290.39682539682536,-273.73015873015873,-281.5079365079365,-275.7936507936508,-270.55555555555554,-269.6031746031746,-282.9365079365079,-278.8095238095238,-288.4920634920635,-284.5238095238095,-282.46031746031747,-287.53968253968253,-269.2857142857143,14.047619047619047,-13.095238095238095,-166.26984126984127
66,-267.38095238095235,-275.4761904761905,-271.031746031746,-269.2857142857143,-279.76190476190476,-276.26984126984127,-284.04761904761904,-281.19047619047615,-286.74603174603175,-270.23809523809524,-277.85714285714283,-272.3015873015873,-266.90476190476187,-266.1111111111111,-279.6031746031746,-275.3174603174603,-284.68253968253964,-281.19047619047615,-278.8095238095238,-284.04761904761904,-265.7936507936508,0.23809523809523808,-2.142857142857143,-166.26984126984127
67,-267.38095238095235,-275.4761904761905,-271.031746031746,-269.2857142857143,-279.76190476190476,-276.26984126984127,-284.04761904761904,-281.19047619047615,-286.74603174603175,-270.23809523809524,-277.85714285714283,-272.3015873015873,-266.90476190476187,-266.1111111111111,-279.6031746031746,-275.3174603174603,-284.68253968253964,-281.19047619047615,-278.8095238095238,-284.04761904761904,-265.7936507936508,0.23809523809523808,-2.142857142857143,-166.26984126984127
68,-261.66666666666663,-269.76190476190476,-265.3174603174603,-263.73015873015873,-274.04761904761904,-270.7142857142857,-278.17460317460313,-275.4761904761905,-280.87301587301585,-264.36507936507934,-272.3015873015873,-266.26984126984127,-261.031746031746,-260.39682539682536,-273.57142857142856,-269.76190476190476,-278.6507936507936,-275.3174603174603,-272.9365079365079,-277.85714285714283,-260.23809523809524,13.888888888888888,-12.619047619047619,-166.26984126984127
69,-261.66666666666663,-269.76190476190476,-265.3174603174603,-263.73015873015873,-274.04761904761904,-270.7142857142857,-278.17460317460313,-275.4761904761905,-280.87301587301585,-264.36507936507934,-272.3015873015873,-266.26984126984127,-261.031746031746,-260.39682539682536,-273.57142857142856,-269.76190476190476,-278.6507936507936,-275.3174603174603,-272.9365079365079,-277.85714285714283,-260.23809523809524,13.888888888888888,-12.619047619047619,-166.26984126984127
70,-258.3333333333333,-266.4285714285714,-261.8253968253968,-260.39682539682536,-270.55555555555554,-267.06349206349205,-274.68253968253964,-272.1428571428571,-277.38095238095235,-260.87301587301585,-268.968253968254,-262.9365079365079,-257.6984126984127,-257.06349206349205,-270.07936507936506,-266.4285714285714,-275.0,-271.984126984127,-269.6031746031746,-274.36507936507934,-256.74603174603175,-0.07936507936507936,-1.1904761904761905,-321.8253968253968
71,-258.3333333333333,-266.4285714285714,-261.8253968253968,-260.39682539682536,-270.55555555555554,-267.06349206349205,-274.68253968253964,-272.1428571428571,-277.38095238095235,-260.87301587301585,-268.968253968254,-262.9365079365079,-257.6984126984127,-257.06349206349205,-270.07936507936506,-266.4285714285714,-275.0,-271.984126984127,-269.6031746031746,-274.36507936507934,-256.74603174603175,-0.07936507936507936,-1.1904761904761905,-321.8253968253968
72,-252.6190476190476,-260.7142857142857,-256.4285714285714,-254.68253968253967,-265.0,-261.66666666666663,-268.6507936507936,-266.58730158730157,-271.66666666666663,-255.3174603174603,-263.25396825396825,-257.38095238095235,-252.14285714285714,-251.34920634920633,-264.68253968253964,-260.87301587301585,-269.2857142857143,-266.4285714285714,-263.88888888888886,-268.4920634920635,-251.19047619047618,13.095238095238095,-13.095238095238095,-321.8253968253968
73,-252.6190476190476,-260.7142857142857,-256.4285714285714,-254.68253968253967,-265.0,-261.66666666666663,-268.6507936507936,-266.58730158730157,-271.66666666666663,-255.3174603174603,-263.25396825396825,-257.38095238095235,-252.14285714285714,-251.34920634920633,-264.68253968253964,-260.87301587301585,-269.2857142857143,-266.4285714285714,-263.88888888888886,-268.4920634920635,-251.19047619047618,13.095238095238095,-13.095238095238095,-321.8253968253968
74,-249.44444444444443,-257.53968253968253,-253.09523809523807,-251.34920634920633,-261.984126984127,-258.3333333333333,-265.1587301587301,-263.25396825396825,-268.17460317460313,-252.14285714285714,-260.07936507936506,-254.2063492063492,-248.8095238095238,-248.015873015873,-261.5079365079365,-257.6984126984127,-265.6349206349206,-263.25396825396825,-260.55555555555554,-265.3174603174603,-247.85714285714283,-0.5555555555555556,-1.984126984126984,-321.8253968253968
75,-249.44444444444443,-257.53968253968253,-253.09523809523807,-251.34920634920633,-261.984126984127,-258.3333333333333,-265.1587301587301,-263.25396825396825,-268.17460317460313,-252.14285714285714,-260.07936507936506,-254.2063492063492,-248.8095238095238,-248.015873015873,-261.5079365079365,-257.6984126984127,-265.6349206349206,-263.25396825396825,-260.55555555555554,-265.3174603174603,-247.85714285714283,-0.5555555555555556,-1.984126984126984,-321.8253968253968
76,-241.8253968253968,-250.2380952380952,-245.79365079365078,-244.04761904761904,-254.36507936507934,-250.87301587301585,-257.53968253968253,-255.79365079365078,-260.39682539682536,-244.68253968253967,-252.6190476190476,-246.42857142857142,-241.5079365079365,-240.55555555555554,-253.88888888888889,-250.07936507936506,-258.015873015873,-255.79365079365078,-252.93650793650792,-257.6984126984127,-240.2380952380952,-23.57142857142857,-10.873015873015872,-321.8253968253968
77,-241.8253968253968,-250.2380952380952,-245.79365079365078,-244.04761904761904,-254.36507936507934,-250.87301587301585,-257.53968253968253,-255.79365079365078,-260.39682539682536,-244.68253968253967,-252.6190476190476,-246.42857142857142,-241.5079365079365,-240.55555555555554,-253.88888888888889,-250.07936507936506,-258.015873015873,-255.79365079365078,-252.93650793650792,-257.6984126984127,-240.2380952380952,-23.57142857142857,-10.873015873015872,-321.8253968253968
78,-237.69841269841268,-245.95238095238093,-241.34920634920633,-239.76190476190476,-250.3968253968254,-246.9047619047619,-253.09523809523807,-251.66666666666666,-256.26984126984127,-240.55555555555554,-248.49206349206347,-242.46031746031744,-237.06349206349205,-236.26984126984127,-249.76190476190476,-245.79365079365078,-253.57142857142856,-251.5079365079365,-248.65079365079364,-253.09523809523807,-236.1111111111111,23.88888888888889,10.714285714285714,-321.8253968253968
79,-237.69841269841268,-245.95238095238093,-241.34920634920633,-239.76190476190476,-250.3968253968254,-246.9047619047619,-253.09523809523807,-251.66666666666666,-256.26984126984127,-240.55555555555554,-248.49206349206347,-242.46031746031744,-237.06349206349205,-236.26984126984127,-249.76190476190476,-245.79365079365078,-253.57142857142856,-251.5079365079365,-248.65079365079364,-253.09523809523807,-236.1111111111111,23.88888888888889,10.714285714285714,-321.8253968253968
80,-233.57142857142856,-241.8253968253968,-237.2222222222222,-235.63492063492063,-246.26984126984127,-242.93650793650792,-248.96825396825395,-247.69841269841268,-251.8253968253968,-236.26984126984127,-244.68253968253967,-238.33333333333331,-233.09523809523807,-232.3015873015873,-245.47619047619045,-241.5079365079365,-249.28571428571428,-247.53968253968253,-244.68253968253967,-248.8095238095238,-231.98412698412696,-23.253968253968253,-10.079365079365079,-166.26984126984127
81,-233.57142857142856,-241.8253968253968,-237.2222222222222,-235.63492063492063,-246.26984126984127,-242.93650793650792,-248.96825396825395,-247.69841269841268,-251.8253968253968,-236.26984126984127,-244.68253968253967,-238.33333333333331,-233.09523809523807,-232.3015873015873,-245.47619047619045,-241.5079365079365,-249.28571428571428,-247.53968253968253,-244.68253968253967,-248.8095238095238,-231.98412698412696,-23.253968253968253,-10.079365079365079,-166.26984126984127
82,-230.55555555555554,-238.8095238095238,-234.2063492063492,-232.6190476190476,-243.25396825396825,-239.60317460317458,-245.63492063492063,-244.68253968253967,-248.49206349206347,-233.25396825396825,-241.34920634920633,-235.15873015873015,-230.3968253968254,-229.12698412698413,-242.46031746031744,-238.65079365079364,-246.1111111111111,-244.68253968253967,-241.34920634920633,-245.95238095238093,-228.8095238095238,11.031746031746032,23.253968253968253,-166.26984126984127
83,-230.55555555555554,-238.8095238095238,-234.2063492063492,-232.6190476190476,-243.25396825396825,-239.60317460317458,-245.63492063492063,-244.68253968253967,-248.49206349206347,-233.25396825396825,-241.34920634920633,-235.15873015873015,-230.3968253968254,-229.12698412698413,-242.46031746031744,-238.65079365079364,-246.1111111111111,-244.68253968253967,-241.34920634920633,-245.95238095238093,-228.8095238095238,11.031746031746032,23.253968253968253,-166.26984126984127
84,-225.47619047619045,-233.7301587301587,-229.28571428571428,-227.53968253968253,-238.33333333333331,-234.84126984126982,-240.7142857142857,-239.44444444444443,-243.4126984126984,-228.33333333333331,-236.42857142857142,-230.07936507936506,-225.15873015873015,-224.2063492063492,-237.69841269841268,-233.88888888888889,-240.87301587301587,-239.60317460317458,-236.42857142857142,-240.87301587301587,-224.04761904761904,-23.88888888888889,-10.555555555555555,-166.26984126984127
85,-225.47619047619045,-233.7301587301587,-229.28571428571428,-227.53968253968253,-238.33333333333331,-234.84126984126982,-240.7142857142857,-239.44444444444443,-243.4126984126984,-228.33333333333331,-236.42857142857142,-230.07936507936506,-225.15873015873015,-224.2063492063492,-237.69841269841268,-233.88888888888889,-240.87301587301587,-239.60317460317458,-236.42857142857142,-240.87301587301587,-224.04761904761904,-23.88888888888889,-10.555555555555555,-166.26984126984127
86,-222.61904761904762,-230.87301587301587,-226.42857142857142,-224.68253968253967,-235.15873015873015,-231.98412698412696,-237.69841269841268,-236.74603174603175,-240.2380952380952,-225.47619047619045,-233.57142857142856,-227.06349206349205,-222.3015873015873,-221.19047619047618,-234.68253968253967,-230.87301587301587,-237.69841269841268,-236.58730158730157,-233.25396825396825,-237.85714285714283,-221.03174603174602,0.873015873015873,0.5555555555555556,-166.26984126984127
87,-222.61904761904762,-230.87301587301587,-226.42857142857142,-224.68253968253967,-235.15873015873015,-231.98412698412696,-237.69841269841268,-236.74603174603175,-240.2380952380952,-225.47619047619045,-233.57142857142856,-227.06349206349205,-222.3015873015873,-221.19047619047618,-234.68253968253967,-230.87301587301587,-237.69841269841268,-236.58730158730157,-233.25396825396825,-237.85714285714283,-221.03174603174602,0.873015873015873,0.5555555555555556,-166.26984126984127
88,-218.65079365079364,-227.2222222222222,-222.46031746031744,-220.87301587301587,-231.5079365079365,-228.015873015873,-233.57142857142856,-232.93650793650792,-236.26984126984127,-221.66666666666666,-229.60317460317458,-223.25396825396825,-218.33333333333331,-217.38095238095238,-230.7142857142857,-226.9047619047619,-233.7301587301587,-232.77777777777777,-229.44444444444443,-233.7301587301587,-217.06349206349205,0.5555555555555556,1.349206349206349,-166.26984126984127
89,-218.65079365079364,-227.2222222222222,-222.46031746031744,-220.87301587301587,-231.5079365079365,-228.015873015873,-233.57142857142856,-232.93650793650792,-236.26984126984127,-221.66666666666666,-229.60317460317458,-223.25396825396825,-218.33333333333331,-217.38095238095238,-230.7142857142857,-226.9047619047619,-233.7301587301587,-232.77777777777777,-229.44444444444443,-233.7301587301587,-217.06349206349205,0.5555555555555556,1.349206349206349,-166.26984126984127
90,-215.0,-222.93650793650792,-218.8095238095238,-217.06349206349205,-227.53968253968253,-224.04761904761904,-229.44444444444443,-228.8095238095238,-232.3015873015873,-217.69841269841268,-225.95238095238093,-219.28571428571428,-214.68253968253967,-213.57142857142856,-226.9047619047619,-223.09523809523807,-229.44444444444443,-228.96825396825395,-225.63492063492063,-229.60317460317458,-213.25396825396825,12.619047619047619,22.777777777777775,-321.8253968253968
91,-215.0,-222.93650793650792,-218.8095238095238,-217.06349206349205,-227.53968253968253,-224.04761904761904,-229.44444444444443,-228.8095238095238,-232.3015873015873,-217.69841269841268,-225.95238095238093,-219.28571428571428,-214.68253968253967,-213.57142857142856,-226.9047619047619,-223.09523809523807,-229.44444444444443,-228.96825396825395,-225.63492063492063,-229.60317460317458,-213.25396825396825,12.619047619047619,22.777777777777775,-321.8253968253968
92,-210.2380952380952,-218.65079365079364,-214.04761904761904,-212.3015873015873,-223.09523809523807,-219.60317460317458,-224.84126984126982,-224.52380952380952,-227.53968253968253,-212.93650793650792,-221.34920634920633,-214.84126984126982,-209.9206349206349,-208.96825396825395,-222.3015873015873,-218.33333333333331,-224.68253968253967,-224.36507936507934,-220.87301587301587,-224.84126984126982,-208.8095238095238,-24.84126984126984,-9.761904761904761,-321.8253968253968
93,-210.2380952380952,-218.65079365079364,-214.04761904761904,-212.3015873015873,-223.09523809523807,-219.60317460317458,-224.84126984126982,-224.52380952380952,-227.53968253968253,-212.93650793650792,-221.34920634920633,-214.84126984126982,-209.9206349206349,-208.96825396825395,-222.3015873015873,-218.33333333333331,-224.68253968253967,-224.36507936507934,-220.87301587301587,-224.84126984126982,-208.8095238095238,-24.84126984126984,-9.761904761904761,-321.8253968253968
94,-206.58730158730157,-215.0,-210.3968253968254,-208.65079365079364,-219.44444444444443,-215.79365079365078,-220.87301587301587,-220.7142857142857,-223.88888888888889,-209.44444444444443,-217.53968253968253,-211.34920634920633,-206.26984126984127,-205.3174603174603,-218.8095238095238,-214.84126984126982,-220.87301587301587,-220.7142857142857,-217.2222222222222,-221.03174603174602,-205.15873015873015,24.365079365079364,9.285714285714285,-321.8253968253968
95,-206.58730158730157,-215.0,-210.3968253968254,-208.65079365079364,-219.44444444444443,-215.79365079365078,-220.87301587301587,-220.7142857142857,-223.88888888888889,-209.44444444444443,-217.53968253968253,-211.34920634920633,-206.26984126984127,-205.3174603174603,-218.8095238095238,-214.84126984126982,-220.87301587301587,-220.7142857142857,-217.2222222222222,-221.03174603174602,-205.15873015873015,24.365079365079364,9.285714285714285,-321.8253968253968
96,-203.09523809523807,-211.34920634920633,-206.74603174603175,-205.3174603174603,-215.79365079365078,-212.3015873015873,-217.38095238095238,-217.06349206349205,-220.2380952380952,-205.95238095238093,-214.04761904761904,-207.69841269841268,-202.61904761904762,-201.8253968253968,-215.15873015873015,-211.03174603174602,-217.06349206349205,-217.06349206349205,-213.57142857142856,-217.53968253968253,-201.5079365079365,-24.84126984126984,-8.968253968253968,-321.8253968253968
97,-203.09523809523807,-211.34920634920633,-206.74603174603175,-205.3174603174603,-215.79365079365078,-212.3015873015873,-217.38095238095238,-217.06349206349205,-220.2380952380952,-205.95238095238093,-214.04761904761904,-207.69841269841268,-202.61904761904762,-201.8253968253968,-215.15873015873015,-211.03174603174602,-217.06349206349205,-217.06349206349205,-213.57142857142856,-217.53968253968253,-201.5079365079365,-24.84126984126984,-8.968253968253968,-321.8253968253968
98,-199.60317460317458,-207.85714285714283,-203.4126984126984,-201.66666666666666,-212.14285714285714,-208.8095238095238,-213.57142857142856,-213.57142857142856,-216.58730158730157,-202.3015873015873,-210.7142857142857,-204.2063492063492,-199.12698412698413,-198.33333333333331,-211.5079365079365,-207.53968253968253,-213.4126984126984,-213.57142857142856,-210.07936507936506,-213.7301587301587,-197.85714285714283,25.0,9.285714285714285,-321.8253968253968
99,-199.60317460317458,-207.85714285714283,-203.4126984126984,-201.66666666666666,-212.14285714285714,-208.8095238095238,-213.57142857142856,-213.57142857142856,-216.58730158730157,-202.3015873015873,-210.7142857142857,-204.2063492063492,-199.12698412698413,-198.33333333333331,-211.5079365079365,-207.53968253968253,-213.4126984126984,-213.57142857142856,-210.07936507936506,-213.7301587301587,-197.85714285714283,25.0,9.285714285714285,-321.8253968253968
100,-196.11111111111111,-204.36507936507937,-199.9206349206349,-198.4920634920635,-208.8095238095238,-205.3174603174603,-209.9206349206349,-209.9206349206349,-212.77777777777777,-198.8095238095238,-207.2222222222222,-200.7142857142857,-195.95238095238093,-194.84126984126982,-208.015873015873,-204.2063492063492,-209.9206349206349,-210.2380952380952,-206.58730158730157,-210.3968253968254,-194.52380952380952,-25.317460317460316,-8.809523809523808,-166.26984126984127
101,-196.11111111111111,-204.36507936507937,-199.9206349206349,-198.4920634920635,-208.8095238095238,-205.3174603174603,-209.9206349206349,-209.9206349206349,-212.77777777777777,-198.8095238095238,-207.2222222222222,-200.7142857142857,-195.95238095238093,-194.84126984126982,-208.015873015873,-204.2063492063492,-209.9206349206349,-210.2380952380952,-206.58730158730157,-210.3968253968254,-194.52380952380952,-25.317460317460316,-8.809523809523808,-166.26984126984127
102,-192.61904761904762,-200.87301587301587,-196.42857142857142,-194.84126984126982,-205.79365079365078,-202.14285714285714,-206.42857142857142,-206.58730158730157,-209.28571428571428,-195.47619047619045,-203.88888888888889,-197.2222222222222,-192.46031746031744,-191.34920634920633,-204.52380952380952,-200.7142857142857,-206.26984126984127,-206.74603174603175,-202.93650793650792,-206.9047619047619,-191.34920634920633,25.158730158730158,8.174603174603174,-166.26984126984127
103,-192.61904761904762,-200.87301587301587,-196.42857142857142,-194.84126984126982,-205.79365079365078,-202.14285714285714,-206.42857142857142,-206.58730158730157,-209.28571428571428,-195.47619047619045,-203.88888888888889,-197.2222222222222,-192.46031746031744,-191.34920634920633,-204.52380952380952,-200.7142857142857,-206.26984126984127,-206.74603174603175,-202.93650793650792,-206.9047619047619,-191.34920634920633,25.158730158730158,8.174603174603174,-166.26984126984127
104,-190.23809523809524,-198.33333333333331,-193.88888888888889,-192.3015873015873,-202.93650793650792,-199.44444444444443,-203.88888888888889,-204.36507936507937,-206.58730158730157,-192.93650793650792,-201.34920634920633,-194.68253968253967,-190.07936507936506,-188.96825396825395,-201.98412698412696,-198.17460317460316,-203.57142857142856,-204.2063492063492,-200.3968253968254,-204.04761904761904,-188.8095238095238,2.142857142857143,2.142857142857143,-166.26984126984127
105,-190.23809523809524,-198.33333333333331,-193.88888888888889,-192.3015873015873,-202.93650793650792,-199.44444444444443,-203.88888888888889,-204.36507936507937,-206.58730158730157,-192.93650793650792,-201.34920634920633,-194.68253968253967,-190.07936507936506,-188.96825396825395,-201.98412698412696,-198.17460317460316,-203.57142857142856,-204.2063492063492,-200.3968253968254,-204.04761904761904,-188.8095238095238,2.142857142857143,2.142857142857143,-166.26984126984127
106,-187.06349206349205,-195.0,-190.55555555555554,-189.12698412698413,-199.44444444444443,-196.11111111111111,-200.3968253968254,-200.7142857142857,-203.09523809523807,-189.44444444444443,-197.85714285714283,-191.19047619047618,-186.58730158730157,-185.95238095238093,-198.65079365079364,-195.0,-200.07936507936506,-200.87301587301587,-197.38095238095238,-200.55555555555554,-185.3174603174603,15.158730158730158,22.3015873015873,-166.26984126984127
107,-187.06349206349205,-195.0,-190.55555555555554,-189.12698412698413,-199.44444444444443,-196.11111111111111,-200.3968253968254,-200.7142857142857,-203.09523809523807,-189.44444444444443,-197.85714285714283,-191.19047619047618,-186.58730158730157,-185.95238095238093,-198.65079365079364,-195.0,-200.07936507936506,-200.87301587301587,-197.38095238095238,-200.55555555555554,-185.3174603174603,15.158730158730158,22.3015873015873,-166.26984126984127
108,-182.93650793650792,-190.87301587301587,-186.42857142857142,-185.0,-195.63492063492063,-192.3015873015873,-196.11111111111111,-196.58730158730157,-199.12698412698413,-185.47619047619045,-193.88888888888889,-187.38095238095238,-182.46031746031744,-181.66666666666666,-194.68253968253967,-190.87301587301587,-195.63492063492063,-196.58730158730157,-192.93650793650792,-196.42857142857142,-181.5079365079365,-25.634920634920633,-7.698412698412698,-166.26984126984127
109,-182.93650793650792,-190.87301587301587,-186.42857142857142,-185.0,-195.63492063492063,-192.3015873015873,-196.11111111111111,-196.58730158730157,-199.12698412698413,-185.47619047619045,-193.88888888888889,-187.38095238095238,-182.46031746031744,-181.66666666666666,-194.68253968253967,-190.87301587301587,-195.63492063492063,-196.58730158730157,-192.93650793650792,-196.42857142857142,-181.5079365079365,-25.634920634920633,-7.698412698412698,-166.26984126984127
110,-179.9206349206349,-187.85714285714283,-183.4126984126984,-181.984126984127,-192.3015873015873,-188.96825396825395,-192.93650793650792,-193.57142857142856,-195.63492063492063,-182.46031746031744,-190.87301587301587,-184.2063492063492,-179.44444444444443,-178.4920634920635,-191.5079365079365,-187.53968253968253,-192.61904761904762,-193.57142857142856,-189.76190476190476,-193.09523809523807,-178.33333333333331,25.0,7.5396825396825395,-321.8253968253968
111,-179.9206349206349,-187.85714285714283,-183.4126984126984,-181.984126984127,-192.3015873015873,-188.96825396825395,-192.93650793650792,-193.57142857142856,-195.63492063492063,-182.46031746031744,-190.87301587301587,-184.2063492063492,-179.44444444444443,-178.4920634920635,-191.5079365079365,-187.53968253968253,-192.61904761904762,-193.57142857142856,-189.76190476190476,-193.09523809523807,-178.33333333333331,25.0,7.5396825396825395,-321.8253968253968
112,-177.53968253968253,-185.47619047619045,-181.19047619047618,-179.60317460317458,-189.9206349206349,-186.58730158730157,-190.3968253968254,-191.19047619047618,-193.25396825396825,-179.9206349206349,-188.4920634920635,-181.8253968253968,-177.06349206349205,-176.26984126984127,-189.12698412698413,-185.3174603174603,-189.9206349206349,-191.34920634920633,-187.38095238095238,-190.55555555555554,-175.95238095238093,2.3015873015873014,1.8253968253968254,-321.8253968253968
113,-177.53968253968253,-185.47619047619045,-181.19047619047618,-179.60317460317458,-189.9206349206349,-186.58730158730157,-190.3968253968254,-191.19047619047618,-193.25396825396825,-179.9206349206349,-188.4920634920635,-181.8253968253968,-177.06349206349205,-176.26984126984127,-189.12698412698413,-185.3174603174603,-189.9206349206349,-191.34920634920633,-187.38095238095238,-190.55555555555554,-175.95238095238093,2.3015873015873014,1.8253968253968254,-321.8253968253968
114,-174.36507936507937,-182.3015873015873,-177.69841269841268,-176.74603174603175,-186.9047619047619,-183.4126984126984,-187.2222222222222,-188.015873015873,-190.07936507936506,-176.9047619047619,-185.3174603174603,-178.65079365079364,-174.04761904761904,-173.09523809523807,-185.95238095238093,-182.14285714285714,-186.9047619047619,-187.85714285714283,-184.2063492063492,-187.69841269841268,-172.77777777777777,16.746031746031743,21.507936507936506,-321.8253968253968
115,-174.36507936507937,-182.3015873015873,-177.69841269841268,-176.74603174603175,-186.9047619047619,-183.4126984126984,-187.2222222222222,-188.015873015873,-190.07936507936506,-176.9047619047619,-185.3174603174603,-178.65079365079364,-174.04761904761904,-173.09523809523807,-185.95238095238093,-182.14285714285714,-186.9047619047619,-187.85714285714283,-184.2063492063492,-187.69841269841268,-172.77777777777777,16.746031746031743,21.507936507936506,-321.8253968253968
116,-170.7142857142857,-178.8095238095238,-174.2063492063492,-172.77777777777777,-183.09523809523807,-179.60317460317458,-183.4126984126984,-184.2063492063492,-186.11111111111111,-173.09523809523807,-181.5079365079365,-175.0,-170.23809523809524,-169.44444444444443,-182.14285714285714,-178.33333333333331,-182.93650793650792,-184.36507936507937,-180.3968253968254,-183.7301587301587,-168.96825396825395,-25.317460317460316,-7.698412698412698,-321.8253968253968
117,-170.7142857142857,-178.8095238095238,-174.2063492063492,-172.77777777777777,-183.09523809523807,-179.60317460317458,-183.4126984126984,-184.2063492063492,-186.11111111111111,-173.09523809523807,-181.5079365079365,-175.0,-170.23809523809524,-169.44444444444443,-182.14285714285714,-178.33333333333331,-182.93650793650792,-184.36507936507937,-180.3968253968254,-183.7301587301587,-168.96825396825395,-25.317460317460316,-7.698412698412698,-321.8253968253968
118,-167.53968253968253,-175.63492063492063,-171.34920634920633,-169.76190476190476,-180.23809523809524,-176.74603174603175,-180.23809523809524,-181.19047619047618,-183.09523809523807,-170.23809523809524,-178.4920634920635,-171.8253968253968,-167.2222222222222,-166.42857142857142,-179.12698412698413,-175.3174603174603,-179.60317460317458,-181.34920634920633,-177.38095238095238,-180.55555555555554,-165.95238095238093,25.79365079365079,6.904761904761904,-321.8253968253968
119,-167.53968253968253,-175.63492063492063,-171.34920634920633,-169.76190476190476,-180.23809523809524,-176.74603174603175,-180.23809523809524,-181.19047619047618,-183.09523809523807,-170.23809523809524,-178.4920634920635,-171.8253968253968,-167.2222222222222,-166.42857142857142,-179.12698412698413,-175.3174603174603,-179.60317460317458,-181.34920634920633,-177.38095238095238,-180.55555555555554,-165.95238095238093,25.79365079365079,6.904761904761904,-321.8253968253968
120,-164.68253968253967,-172.61904761904762,-168.33333333333331,-166.9047619047619,-177.2222222222222,-173.88888888888889,-177.2222222222222,-178.33333333333331,-179.9206349206349,-167.53968253968253,-175.63492063492063,-169.12698412698413,-164.2063492063492,-163.4126984126984,-176.26984126984127,-172.46031746031744,-176.58730158730157,-178.4920634920635,-174.36507936507937,-177.53968253968253,-163.25396825396825,-25.952380952380953,-6.904761904761904,-166.26984126984127
121,-164.68253968253967,-172.61904761904762,-168.33333333333331,-166.9047619047619,-177.2222222222222,-173.88888888888889,-177.2222222222222,-178.33333333333331,-179.9206349206349,-167.53968253968253,-175.63492063492063,-169.12698412698413,-164.2063492063492,-163.4126984126984,-176.26984126984127,-172.46031746031744,-176.58730158730157,-178.4920634920635,-174.36507936507937,-177.53968253968253,-163.25396825396825,-25.952380952380953,-6.904761904761904,-166.26984126984127
122,-161.8253968253968,-169.9206349206349,-165.47619047619045,-164.04761904761904,-174.36507936507937,-170.87301587301587,-174.2063492063492,-175.47619047619045,-176.9047619047619,-164.52380952380952,-172.77777777777777,-166.11111111111111,-161.66666666666666,-160.7142857142857,-173.25396825396825,-169.44444444444443,-173.73015873015873,-175.63492063492063,-171.5079365079365,-174.68253968253967,-160.23809523809524,25.952380952380953,6.428571428571428,-166.26984126984127
123,-161.8253968253968,-169.9206349206349,-165.47619047619045,-164.04761904761904,-174.36507936507937,-170.87301587301587,-174.2063492063492,-175.47619047619045,-176.9047619047619,-164.52380952380952,-172.77777777777777,-166.11111111111111,-161.66666666666666,-160.7142857142857,-173.25396825396825,-169.44444444444443,-173.73015873015873,-175.63492063492063,-171.5079365079365,-174.68253968253967,-160.23809523809524,25.952380952380953,6.428571428571428,-166.26984126984127
124,-158.96825396825395,-167.06349206349205,-162.46031746031744,-161.5079365079365,-171.66666666666666,-168.015873015873,-171.19047619047618,-172.46031746031744,-174.04761904761904,-161.8253968253968,-169.76190476190476,-163.25396825396825,-158.65079365079364,-157.85714285714286,-170.3968253968254,-166.74603174603175,-170.7142857142857,-172.61904761904762,-168.4920634920635,-171.8253968253968,-157.38095238095238,-25.952380952380953,-6.111111111111111,-166.26984126984127
125,-158.96825396825395,-167.06349206349205,-162.46031746031744,-161.5079365079365,-171.66666666666666,-168.015873015873,-171.19047619047618,-172.46031746031744,-174.04761904761904,-161.8253968253968,-169.76190476190476,-163.25396825396825,-158.65079365079364,-157.85714285714286,-170.3968253968254,-166.74603174603175,-170.7142857142857,-172.61904761904762,-168.4920634920635,-171.8253968253968,-157.38095238095238,-25.952380952380953,-6.111111111111111,-166.26984126984127
126,-156.26984126984127,-164.36507936507937,-159.76190476190476,-158.4920634920635,-168.65079365079364,-165.15873015873015,-168.33333333333331,-169.76190476190476,-171.03174603174602,-158.96825396825395,-167.2222222222222,-160.55555555555554,-155.95238095238093,-155.15873015873015,-167.53968253968253,-163.88888888888889,-167.85714285714286,-169.9206349206349,-165.63492063492063,-168.65079365079364,-154.68253968253967,25.317460317460316,6.587301587301587,-166.26984126984127
127,-156.26984126984127,-164.36507936507937,-159.76190476190476,-158.4920634920635,-168.65079365079364,-165.15873015873015,-168.33333333333331,-169.76190476190476,-171.03174603174602,-158.96825396825395,-167.2222222222222,-160.55555555555554,-155.95238095238093,-155.15873015873015,-167.53968253968253,-163.88888888888889,-167.85714285714286,-169.9206349206349,-165.63492063492063,-168.65079365079364,-154.68253968253967,25.317460317460316,6.587301587301587,-166.26984126984127
128,-153.57142857142856,-161.34920634920633,-157.2222222222222,-155.79365079365078,-165.79365079365078,-162.61904761904762,-165.47619047619045,-166.74603174603175,-168.17460317460316,-156.11111111111111,-164.36507936507937,-157.53968253968253,-153.25396825396825,-152.46031746031744,-164.84126984126982,-161.19047619047618,-165.0,-167.2222222222222,-162.93650793650792,-165.95238095238093,-151.984126984127,-25.952380952380953,-6.587301587301587,-166.26984126984127
129,-153.57142857142856,-161.34920634920633,-157.2222222222222,-155.79365079365078,-165.79365079365078,-162.61904761904762,-165.47619047619045,-166.74603174603175,-168.17460317460316,-156.11111111111111,-164.36507936507937,-157.53968253968253,-153.25396825396825,-152.46031746031744,-164.84126984126982,-161.19047619047618,-165.0,-167.2222222222222,-162.93650793650792,-165.95238095238093,-151.984126984127,-25.952380952380953,-6.587301587301587,-166.26984126984127
130,-151.03174603174602,-158.8095238095238,-154.36507936507937,-152.93650793650792,-163.09523809523807,-159.76190476190476,-162.77777777777777,-164.2063492063492,-165.3174603174603,-153.57142857142856,-161.66666666666666,-154.84126984126982,-150.55555555555554,-149.76190476190476,-162.14285714285714,-158.4920634920635,-162.14285714285714,-164.36507936507937,-160.07936507936506,-163.09523809523807,-149.44444444444443,25.79365079365079,5.634920634920634,-321.8253968253968
131,-151.03174603174602,-158.8095238095238,-154.36507936507937,-152.93650793650792,-163.09523809523807,-159.76190476190476,-162.77777777777777,-164.2063492063492,-165.3174603174603,-153.57142857142856,-161.66666666666666,-154.84126984126982,-150.55555555555554,-149.76190476190476,-162.14285714285714,-158.4920634920635,-162.14285714285714,-164.36507936507937,-160.07936507936506,-163.09523809523807,-149.44444444444443,25.79365079365079,5.634920634920634,-321.8253968253968
132,-148.17460317460316,-156.11111111111111,-151.8253968253968,-150.3968253968254,-160.55555555555554,-156.9047619047619,-159.9206349206349,-161.5079365079365,-162.46031746031744,-150.87301587301587,-158.96825396825395,-152.3015873015873,-147.85714285714286,-147.2222222222222,-159.44444444444443,-155.63492063492063,-159.28571428571428,-161.66666666666666,-157.53968253968253,-160.3968253968254,-146.58730158730157,-25.476190476190474,-5.952380952380952,-321.8253968253968
133,-148.17460317460316,-156.11111111111111,-151.8253968253968,-150.3968253968254,-160.55555555555554,-156.9047619047619,-159.9206349206349,-161.5079365079365,-162.46031746031744,-150.87301587301587,-158.96825396825395,-152.3015873015873,-147.85714285714286,-147.2222222222222,-159.44444444444443,-155.63492063492063,-159.28571428571428,-161.66666666666666,-157.53968253968253,-160.3968253968254,-146.58730158730157,-25.476190476190474,-5.952380952380952,-321.8253968253968
134,-146.26984126984127,-154.04761904761904,-149.9206349206349,-148.4920634920635,-158.65079365079364,-155.0,-157.85714285714286,-159.6031746031746,-160.3968253968254,-149.12698412698413,-156.9047619047619,-150.3968253968254,-145.95238095238093,-145.15873015873015,-157.53968253968253,-153.73015873015873,-157.06349206349205,-159.76190476190476,-155.47619047619048,-158.33333333333331,-144.68253968253967,2.619047619047619,0.5555555555555556,-321.8253968253968
135,-146.26984126984127,-154.04761904761904,-149.9206349206349,-148.4920634920635,-158.65079365079364,-155.0,-157.85714285714286,-159.6031746031746,-160.3968253968254,-149.12698412698413,-156.9047619047619,-150.3968253968254,-145.95238095238093,-145.15873015873015,-157.53968253968253,-153.73015873015873,-157.06349206349205,-159.76190476190476,-155.47619047619048,-158.33333333333331,-144.68253968253967,2.619047619047619,0.5555555555555556,-321.8253968253968
136,-143.73015873015873,-151.5079365079365,-147.2222222222222,-145.95238095238093,-155.95238095238093,-152.3015873015873,-155.3174603174603,-156.9047619047619,-157.85714285714286,-146.42857142857142,-154.36507936507937,-148.015873015873,-143.25396825396825,-142.61904761904762,-155.0,-151.03174603174602,-154.52380952380952,-157.06349206349205,-152.77777777777777,-155.63492063492063,-142.14285714285714,2.3015873015873014,0.873015873015873,-321.8253968253968
137,-143.73015873015873,-151.5079365079365,-147.2222222222222,-145.95238095238093,-155.95238095238093,-152.3015873015873,-155.3174603174603,-156.9047619047619,-157.85714285714286,-146.42857142857142,-154.36507936507937,-148.015873015873,-143.25396825396825,-142.61904761904762,-155.0,-151.03174603174602,-154.52380952380952,-157.06349206349205,-152.77777777777777,-155.63492063492063,-142.14285714285714,2.3015873015873014,0.873015873015873,-321.8253968253968
138,-140.7142857142857,-148.17460317460316,-144.2063492063492,-142.77777777777777,-152.61904761904762,-149.44444444444443,-151.984126984127,-153.73015873015873,-154.68253968253967,-143.09523809523807,-151.19047619047618,-144.68253968253967,-140.07936507936506,-139.6031746031746,-151.66666666666666,-147.85714285714286,-151.19047619047618,-153.88888888888889,-149.76190476190476,-152.3015873015873,-139.12698412698413,27.38095238095238,4.682539682539682,-321.8253968253968
139,-140.7142857142857,-148.17460317460316,-144.2063492063492,-142.77777777777777,-152.61904761904762,-149.44444444444443,-151.984126984127,-153.73015873015873,-154.68253968253967,-143.09523809523807,-151.19047619047618,-144.68253968253967,-140.07936507936506,-139.6031746031746,-151.66666666666666,-147.85714285714286,-151.19047619047618,-153.88888888888889,-149.76190476190476,-152.3015873015873,-139.12698412698413,27.38095238095238,4.682539682539682,-321.8253968253968
140,-138.33333333333331,-145.79365079365078,-141.66666666666666,-140.07936507936506,-150.23809523809524,-146.9047619047619,-149.28571428571428,-151.19047619047618,-151.984126984127,-140.7142857142857,-148.8095238095238,-142.14285714285714,-137.85714285714286,-137.06349206349205,-149.12698412698413,-145.47619047619048,-148.65079365079364,-151.34920634920633,-147.06349206349205,-149.76190476190476,-136.74603174603175,-25.79365079365079,-4.523809523809524,-166.26984126984127
141,-138.33333333333331,-145.79365079365078,-141.66666666666666,-140.07936507936506,-150.23809523809524,-146.9047619047619,-149.28571428571428,-151.19047619047618,-151.984126984127,-140.7142857142857,-148.8095238095238,-142.14285714285714,-137.85714285714286,-137.06349206349205,-149.12698412698413,-145.47619047619048,-148.65079365079364,-151.34920634920633,-147.06349206349205,-149.76190476190476,-136.74603174603175,-25.79365079365079,-4.523809523809524,-166.26984126984127
142,-135.79365079365078,-143.4126984126984,-139.28571428571428,-137.85714285714286,-147.69841269841268,-144.2063492063492,-146.9047619047619,-148.8095238095238,-149.44444444444443,-138.33333333333331,-146.26984126984127,-139.9206349206349,-135.3174603174603,-134.84126984126982,-146.74603174603175,-142.93650793650792,-146.11111111111111,-148.96825396825395,-144.68253968253967,-147.2222222222222,-134.2063492063492,25.476190476190474,3.73015873015873,-166.26984126984127
143,-135.79365079365078,-143.4126984126984,-139.28571428571428,-137.85714285714286,-147.69841269841268,-144.2063492063492,-146.9047619047619,-148.8095238095238,-149.44444444444443,-138.33333333333331,-146.26984126984127,-139.9206349206349,-135.3174603174603,-134.84126984126982,-146.74603174603175,-142.93650793650792,-146.11111111111111,-148.96825396825395,-144.68253968253967,-147.2222222222222,-134.2063492063492,25.476190476190474,3.73015873015873,-166.26984126984127
144,-133.4126984126984,-140.87301587301587,-136.74603174603175,-135.47619047619048,-145.47619047619048,-141.984126984127,-144.36507936507937,-146.26984126984127,-147.06349206349205,-135.95238095238093,-143.88888888888889,-137.38095238095238,-132.93650793650792,-132.46031746031744,-144.36507936507937,-140.7142857142857,-143.57142857142856,-146.26984126984127,-142.14285714285714,-144.84126984126982,-131.984126984127,-26.9047619047619,-4.365079365079365,-166.26984126984127
145,-133.4126984126984,-140.87301587301587,-136.74603174603175,-135.47619047619048,-145.47619047619048,-141.984126984127,-144.36507936507937,-146.26984126984127,-147.06349206349205,-135.95238095238093,-143.88888888888889,-137.38095238095238,-132.93650793650792,-132.46031746031744,-144.36507936507937,-140.7142857142857,-143.57142857142856,-146.26984126984127,-142.14285714285714,-144.84126984126982,-131.984126984127,-26.9047619047619,-4.365079365079365,-166.26984126984127
146,-131.19047619047618,-138.4920634920635,-134.52380952380952,-133.25396825396825,-142.77777777777777,-139.76190476190476,-141.984126984127,-143.88888888888889,-144.52380952380952,-133.57142857142856,-141.66666666666666,-135.3174603174603,-130.55555555555554,-130.07936507936506,-141.8253968253968,-138.17460317460316,-141.03174603174602,-144.04761904761904,-139.76190476190476,-142.3015873015873,-129.6031746031746,26.26984126984127,3.888888888888889,-166.26984126984127
147,-131.19047619047618,-138.4920634920635,-134.52380952380952,-133.25396825396825,-142.77777777777777,-139.76190476190476,-141.984126984127,-143.88888888888889,-144.52380952380952,-133.57142857142856,-141.66666666666666,-135.3174603174603,-130.55555555555554,-130.07936507936506,-141.8253968253968,-138.17460317460316,-141.03174603174602,-144.04761904761904,-139.76190476190476,-142.3015873015873,-129.6031746031746,26.26984126984127,3.888888888888889,-166.26984126984127
148,-130.55555555555554,-138.015873015873,-133.88888888888889,-132.61904761904762,-142.3015873015873,-138.96825396825395,-141.5079365079365,-143.25396825396825,-143.88888888888889,-132.93650793650792,-141.03174603174602,-134.84126984126982,-129.9206349206349,-129.6031746031746,-141.34920634920636,-137.38095238095238,-140.55555555555554,-143.4126984126984,-139.28571428571428,-141.66666666666666,-128.8095238095238,30.555555555555554,-11.507936507936508,-166.26984126984127
149,-130.55555555555554,-138.015873015873,-133.88888888888889,-132.61904761904762,-142.3015873015873,-138.96825396825395,-141.5079365079365,-143.25396825396825,-143.88888888888889,-132.93650793650792,-141.03174603174602,-134.84126984126982,-129.9206349206349,-129.6031746031746,-141.34920634920636,-137.38095238095238,-140.55555555555554,-143.4126984126984,-139.28571428571428,-141.66666666666666,-128.8095238095238,30.555555555555554,-11.507936507936508,-166.26984126984127
150,-128.33333333333331,-135.79365079365078,-131.66666666666666,-130.3968253968254,-140.07936507936506,-136.74603174603175,-139.12698412698413,-141.03174603174602,-141.5079365079365,-130.7142857142857,-138.8095238095238,-132.46031746031744,-127.85714285714285,-127.38095238095238,-138.96825396825395,-135.3174603174603,-138.17460317460316,-141.19047619047618,-136.9047619047619,-139.44444444444443,-126.74603174603173,30.396825396825395,-11.825396825396824,-321.8253968253968
151,-128.33333333333331,-135.79365079365078,-131.66666666666666,-130.3968253968254,-140.07936507936506,-136.74603174603175,-139.12698412698413,-141.03174603174602,-141.5079365079365,-130.7142857142857,-138.8095238095238,-132.46031746031744,-127.85714285714285,-127.38095238095238,-138.96825396825395,-135.3174603174603,-138.17460317460316,-141.19047619047618,-136.9047619047619,-139.44444444444443,-126.74603174603173,30.396825396825395,-11.825396825396824,-321.8253968253968
152,-124.36507936507935,-131.66666666666666,-127.85714285714285,-126.42857142857142,-135.95238095238093,-132.61904761904762,-134.84126984126982,-137.06349206349205,-137.22222222222223,-126.74603174603173,-134.52380952380952,-128.33333333333331,-124.04761904761904,-123.4126984126984,-135.0,-131.19047619047618,-134.04761904761904,-137.22222222222223,-132.77777777777777,-135.3174603174603,-122.93650793650794,-25.952380952380953,-3.4126984126984126,-321.8253968253968
153,-124.36507936507935,-131.66666666666666,-127.85714285714285,-126.42857142857142,-135.95238095238093,-132.61904761904762,-134.84126984126982,-137.06349206349205,-137.22222222222223,-126.74603174603173,-134.52380952380952,-128.33333333333331,-124.04761904761904,-123.4126984126984,-135.0,-131.19047619047618,-134.04761904761904,-137.22222222222223,-132.77777777777777,-135.3174603174603,-122.93650793650794,-25.952380952380953,-3.4126984126984126,-321.8253968253968
154,-122.77777777777777,-129.9206349206349,-126.1111111111111,-125.0,-134.36507936507937,-131.03174603174602,-133.0952380952381,-135.15873015873015,-135.79365079365078,-125.0,-132.93650793650792,-126.58730158730158,-122.14285714285714,-121.82539682539682,-133.25396825396825,-129.76190476190476,-132.14285714285714,-135.3174603174603,-131.34920634920636,-133.4126984126984,-121.34920634920634,23.730158730158728,18.49206349206349,-321.8253968253968
155,-122.77777777777777,-129.9206349206349,-126.1111111111111,-125.0,-134.36507936507937,-131.03174603174602,-133.0952380952381,-135.15873015873015,-135.79365079365078,-125.0,-132.93650793650792,-126.58730158730158,-122.14285714285714,-121.82539682539682,-133.25396825396825,-129.76190476190476,-132.14285714285714,-135.3174603174603,-131.34920634920636,-133.4126984126984,-121.34920634920634,23.730158730158728,18.49206349206349,-321.8253968253968
156,-120.23809523809523,-127.38095238095238,-123.4126984126984,-121.98412698412697,-131.66666666666666,-128.33333333333331,-130.3968253968254,-132.61904761904762,-132.61904761904762,-122.46031746031746,-130.23809523809524,-123.88888888888889,-119.6031746031746,-119.28571428571428,-130.3968253968254,-127.06349206349206,-129.44444444444443,-132.61904761904762,-128.4920634920635,-130.7142857142857,-118.65079365079364,-26.26984126984127,-3.253968253968254,-321.8253968253968
157,-120.23809523809523,-127.38095238095238,-123.4126984126984,-121.98412698412697,-131.66666666666666,-128.33333333333331,-130.3968253968254,-132.61904761904762,-132.61904761904762,-122.46031746031746,-130.23809523809524,-123.88888888888889,-119.6031746031746,-119.28571428571428,-130.3968253968254,-127.06349206349206,-129.44444444444443,-132.61904761904762,-128.4920634920635,-130.7142857142857,-118.65079365079364,-26.26984126984127,-3.253968253968254,-321.8253968253968
158,-117.06349206349206,-124.2063492063492,-120.23809523809523,-119.28571428571428,-128.4920634920635,-125.15873015873015,-127.06349206349206,-129.28571428571428,-129.44444444444443,-119.6031746031746,-127.06349206349206,-120.55555555555554,-116.58730158730158,-116.1111111111111,-127.22222222222221,-123.88888888888889,-126.1111111111111,-129.28571428571428,-125.15873015873015,-127.53968253968253,-115.63492063492063,0.23809523809523808,-18.015873015873016,-321.8253968253968
159,-117.06349206349206,-124.2063492063492,-120.23809523809523,-119.28571428571428,-128.4920634920635,-125.15873015873015,-127.06349206349206,-129.28571428571428,-129.44444444444443,-119.6031746031746,-127.06349206349206,-120.55555555555554,-116.58730158730158,-116.1111111111111,-127.22222222222221,-123.88888888888889,-126.1111111111111,-129.28571428571428,-125.15873015873015,-127.53968253968253,-115.63492063492063,0.23809523809523808,-18.015873015873016,-321.8253968253968
160,-115.0,-122.14285714285714,-118.17460317460316,-116.9047619047619,-126.26984126984127,-123.09523809523809,-124.84126984126983,-127.22222222222221,-127.22222222222221,-117.22222222222221,-125.0,-118.65079365079364,-114.52380952380952,-114.04761904761904,-125.15873015873015,-121.66666666666666,-124.04761904761904,-127.38095238095238,-122.93650793650794,-125.15873015873015,-113.4126984126984,0.5555555555555556,16.587301587301585,-166.26984126984127
161,-115.0,-122.14285714285714,-118.17460317460316,-116.9047619047619,-126.26984126984127,-123.09523809523809,-124.84126984126983,-127.22222222222221,-127.22222222222221,-117.22222222222221,-125.0,-118.65079365079364,-114.52380952380952,-114.04761904761904,-125.15873015873015,-121.66666666666666,-124.04761904761904,-127.38095238095238,-122.93650793650794,-125.15873015873015,-113.4126984126984,0.5555555555555556,16.587301587301585,-166.26984126984127
162,-113.4126984126984,-120.55555555555554,-116.74603174603173,-105.63492063492063,-124.84126984126983,-121.5079365079365,-123.25396825396825,-125.63492063492063,-125.79365079365078,-115.79365079365078,-123.4126984126984,-117.22222222222221,-112.93650793650794,-112.6190476190476,-123.73015873015872,-120.23809523809523,-122.46031746031746,-125.63492063492063,-121.5079365079365,-123.73015873015872,-111.98412698412697,-2.7777777777777777,-1.8253968253968254,-166.26984126984127
163,-113.4126984126984,-120.55555555555554,-116.74603174603173,-105.63492063492063,-124.84126984126983,-121.5079365079365,-123.25396825396825,-125.63492063492063,-125.79365079365078,-115.79365079365078,-123.4126984126984,-117.22222222222221,-112.93650793650794,-112.6190476190476,-123.73015873015872,-120.23809523809523,-122.46031746031746,-125.63492063492063,-121.5079365079365,-123.73015873015872,-111.98412698412697,-2.7777777777777777,-1.8253968253968254,-166.26984126984127
164,-111.19047619047619,-118.01587301587301,-114.2063492063492,-114.04761904761904,-122.30158730158729,-118.96825396825396,-120.71428571428571,-123.09523809523809,-122.93650793650794,-113.4126984126984,-120.87301587301586,-114.52380952380952,-110.55555555555554,-110.07936507936508,-121.03174603174602,-117.6984126984127,-119.76190476190476,-123.09523809523809,-118.96825396825396,-121.03174603174602,-109.6031746031746,0.07936507936507936,16.587301587301585,-166.26984126984127
165,-111.19047619047619,-118.01587301587301,-114.2063492063492,-114.04761904761904,-122.30158730158729,-118.96825396825396,-120.71428571428571,-123.09523809523809,-122.93650793650794,-113.4126984126984,-120.87301587301586,-114.52380952380952,-110.55555555555554,-110.07936507936508,-121.03174603174602,-117.6984126984127,-119.76190476190476,-123.09523809523809,-118.96825396825396,-121.03174603174602,-109.6031746031746,0.07936507936507936,16.587301587301585,-166.26984126984127
166,-109.12698412698413,-115.95238095238095,-112.30158730158729,-5.476190476190476,-120.23809523809523,-117.06349206349206,-118.8095238095238,-121.19047619047619,-120.87301587301586,-111.34920634920634,-118.8095238095238,-112.6190476190476,-108.65079365079364,-108.33333333333333,-119.12698412698413,-115.79365079365078,-117.85714285714285,-121.34920634920634,-93.09523809523809,-119.12698412698413,-107.6984126984127,-2.46031746031746,-17.857142857142858,-166.26984126984127
167,-109.12698412698413,-115.95238095238095,-112.30158730158729,-5.476190476190476,-120.23809523809523,-117.06349206349206,-118.8095238095238,-121.19047619047619,-120.87301587301586,-111.34920634920634,-118.8095238095238,-112.6190476190476,-108.65079365079364,-108.33333333333333,-119.12698412698413,-115.79365079365078,-117.85714285714285,-121.34920634920634,-93.09523809523809,-119.12698412698413,-107.6984126984127,-2.46031746031746,-17.857142857142858,-166.26984126984127
168,-107.6984126984127,-114.52380952380952,-110.55555555555554,-110.07936507936508,-118.8095238095238,-115.63492063492063,-117.06349206349206,-119.44444444444444,-119.44444444444444,-109.92063492063491,-117.38095238095238,-111.19047619047619,-107.06349206349206,-106.74603174603175,-117.6984126984127,-114.04761904761904,-116.1111111111111,-119.44444444444444,-114.2063492063492,-117.38095238095238,-106.26984126984127,-22.619047619047617,14.523809523809524,-166.26984126984127
169,-107.6984126984127,-114.52380952380952,-110.55555555555554,-110.07936507936508,-118.8095238095238,-115.63492063492063,-117.06349206349206,-119.44444444444444,-119.44444444444444,-109.92063492063491,-117.38095238095238,-111.19047619047619,-107.06349206349206,-106.74603174603175,-117.6984126984127,-114.04761904761904,-116.1111111111111,-119.44444444444444,-114.2063492063492,-117.38095238095238,-106.26984126984127,-22.619047619047617,14.523809523809524,-166.26984126984127
170,-105.95238095238095,-112.46031746031746,-108.96825396825396,164.2063492063492,-116.74603174603173,-113.73015873015872,-115.0,-117.6984126984127,-117.38095238095238,-107.85714285714285,-115.47619047619047,-106.1111111111111,-105.31746031746032,-105.0,-115.63492063492063,-112.46031746031746,-114.2063492063492,-117.6984126984127,-14.682539682539682,-115.63492063492063,-104.52380952380952,25.79365079365079,-14.365079365079364,-321.8253968253968
171,-105.95238095238095,-112.46031746031746,-108.96825396825396,164.2063492063492,-116.74603174603173,-113.73015873015872,-115.0,-117.6984126984127,-117.38095238095238,-107.85714285714285,-115.47619047619047,-106.1111111111111,-105.31746031746032,-105.0,-115.63492063492063,-112.46031746031746,-114.2063492063492,-117.6984126984127,-14.682539682539682,-115.63492063492063,-104.52380952380952,25.79365079365079,-14.365079365079364,-321.8253968253968
172,-103.57142857142857,-110.23809523809523,-106.58730158730158,-113.09523809523809,-114.52380952380952,-111.34920634920634,-112.77777777777777,-115.31746031746032,-115.0,-105.79365079365078,-113.09523809523809,-106.9047619047619,-103.09523809523809,-102.77777777777777,-113.25396825396825,-110.07936507936508,-111.82539682539682,-115.31746031746032,-111.98412698412697,-113.09523809523809,-102.30158730158729,2.46031746031746,16.904761904761905,-321.8253968253968
173,-103.57142857142857,-110.23809523809523,-106.58730158730158,-113.09523809523809,-114.52380952380952,-111.34920634920634,-112.77777777777777,-115.31746031746032,-115.0,-105.79365079365078,-113.09523809523809,-106.9047619047619,-103.09523809523809,-102.77777777777777,-113.25396825396825,-110.07936507936508,-111.82539682539682,-115.31746031746032,-111.98412698412697,-113.09523809523809,-102.30158730158729,2.46031746031746,16.904761904761905,-321.8253968253968
174,-101.82539682539682,-108.33333333333333,-104.84126984126983,175.0,-112.46031746031746,-95.31746031746032,-110.87301587301587,-113.57142857142857,-112.77777777777777,-103.88888888888889,-111.19047619047619,-80.55555555555556,-101.19047619047619,-100.87301587301587,-111.34920634920634,-108.17460317460316,-109.76190476190476,-113.4126984126984,87.85714285714285,-111.19047619047619,-100.39682539682539,-3.095238095238095,-17.38095238095238,-321.8253968253968
175,-101.82539682539682,-108.33333333333333,-104.84126984126983,175.0,-112.46031746031746,-95.31746031746032,-110.87301587301587,-113.57142857142857,-112.77777777777777,-103.88888888888889,-111.19047619047619,-80.55555555555556,-101.19047619047619,-100.87301587301587,-111.34920634920634,-108.17460317460316,-109.76190476190476,-113.4126984126984,87.85714285714285,-111.19047619047619,-100.39682539682539,-3.095238095238095,-17.38095238095238,-321.8253968253968
176,-99.92063492063491,-106.58730158730158,-103.09523809523809,-98.01587301587301,-110.71428571428571,-107.85714285714285,-109.12698412698413,-111.5079365079365,-111.19047619047619,-102.14285714285714,-109.28571428571428,-104.84126984126983,-99.44444444444444,-99.12698412698413,-109.76190476190476,-106.42857142857142,-108.01587301587301,-111.66666666666666,-108.01587301587301,-109.44444444444444,-98.65079365079364,2.9365079365079363,17.22222222222222,-321.8253968253968
177,-99.92063492063491,-106.58730158730158,-103.09523809523809,-98.01587301587301,-110.71428571428571,-107.85714285714285,-109.12698412698413,-111.5079365079365,-111.19047619047619,-102.14285714285714,-109.28571428571428,-104.84126984126983,-99.44444444444444,-99.12698412698413,-109.76190476190476,-106.42857142857142,-108.01587301587301,-111.66666666666666,-108.01587301587301,-109.44444444444444,-98.65079365079364,2.9365079365079363,17.22222222222222,-321.8253968253968
178,-98.65079365079364,-105.15873015873015,-101.5079365079365,325.0,-109.28571428571428,44.84126984126984,-107.85714285714285,-103.4126984126984,-109.92063492063491,-100.55555555555554,-108.01587301587301,33.095238095238095,-97.85714285714285,-97.85714285714285,-108.17460317460316,-104.84126984126983,-106.42857142857142,-110.07936507936508,268.6507936507936,-107.85714285714285,-97.38095238095238,25.317460317460316,-15.793650793650793,-321.8253968253968
179,-98.65079365079364,-105.15873015873015,-101.5079365079365,325.0,-109.28571428571428,44.84126984126984,-107.85714285714285,-103.4126984126984,-109.92063492063491,-100.55555555555554,-108.01587301587301,33.095238095238095,-97.85714285714285,-97.85714285714285,-108.17460317460316,-104.84126984126983,-106.42857142857142,-110.07936507936508,268.6507936507936,-107.85714285714285,-97.38095238095238,25.317460317460316,-15.793650793650793,-321.8253968253968
180,-96.58730158730158,-103.09523809523809,-99.44444444444444,18.015873015873016,-107.22222222222221,-106.74603174603175,-105.31746031746032,-107.22222222222221,-107.53968253968253,-98.65079365079364,-105.95238095238095,-104.84126984126983,-95.95238095238095,-95.95238095238095,-106.1111111111111,-102.77777777777777,-104.36507936507935,-108.01587301587301,3.253968253968254,-105.63492063492063,-95.15873015873015,2.9365079365079363,16.11111111111111,-166.26984126984127
181,-96.58730158730158,-103.09523809523809,-99.44444444444444,18.015873015873016,-107.22222222222221,-106.74603174603175,-105.31746031746032,-107.22222222222221,-107.53968253968253,-98.65079365079364,-105.95238095238095,-104.84126984126983,-95.95238095238095,-95.95238095238095,-106.1111111111111,-102.77777777777777,-104.36507936507935,-108.01587301587301,3.253968253968254,-105.63492063492063,-95.15873015873015,2.9365079365079363,16.11111111111111,-166.26984126984127
182,-94.84126984126983,-59.12698412698413,-97.85714285714285,284.2063492063492,-105.31746031746032,117.06349206349206,-103.57142857142857,212.14285714285714,-105.79365079365078,-96.74603174603175,-104.04761904761904,68.17460317460318,-94.04761904761904,-94.04761904761904,-104.2063492063492,-101.03174603174602,-102.46031746031746,-106.1111111111111,298.8095238095238,-103.88888888888889,-93.4126984126984,-3.73015873015873,-16.428571428571427,-166.26984126984127
183,-94.84126984126983,-59.12698412698413,-97.85714285714285,284.2063492063492,-105.31746031746032,117.06349206349206,-103.57142857142857,212.14285714285714,-105.79365079365078,-96.74603174603175,-104.04761904761904,68.17460317460318,-94.04761904761904,-94.04761904761904,-104.2063492063492,-101.03174603174602,-102.46031746031746,-106.1111111111111,298.8095238095238,-103.88888888888889,-93.4126984126984,-3.73015873015873,-16.428571428571427,-166.26984126984127
184,-93.4126984126984,-101.19047619047619,-96.26984126984127,164.84126984126982,-103.57142857142857,-98.33333333333333,-101.82539682539682,220.3968253968254,-103.88888888888889,-95.31746031746032,-102.46031746031746,-96.1111111111111,-92.61904761904762,-92.46031746031746,-102.61904761904762,-99.28571428571428,-100.71428571428571,-104.52380952380952,163.73015873015873,-102.30158730158729,-91.82539682539682,2.7777777777777777,16.428571428571427,-166.26984126984127
185,-93.4126984126984,-101.19047619047619,-96.26984126984127,164.84126984126982,-103.57142857142857,-98.33333333333333,-101.82539682539682,220.3968253968254,-103.88888888888889,-95.31746031746032,-102.46031746031746,-96.1111111111111,-92.61904761904762,-92.46031746031746,-102.61904761904762,-99.28571428571428,-100.71428571428571,-104.52380952380952,163.73015873015873,-102.30158730158729,-91.82539682539682,2.7777777777777777,16.428571428571427,-166.26984126984127
186,-91.66666666666666,22.619047619047617,-94.52380952380952,325.0,-101.98412698412697,240.3968253968254,-100.07936507936508,325.0,-102.14285714285714,-93.57142857142857,-100.71428571428571,170.3968253968254,-90.87301587301587,-90.71428571428571,-100.87301587301587,-97.53968253968253,-98.96825396825396,-102.93650793650794,325.0,-100.55555555555554,-90.07936507936508,-4.841269841269841,-17.38095238095238,-166.26984126984127
187,-91.66666666666666,22.619047619047617,-94.52380952380952,325.0,-101.98412698412697,240.3968253968254,-100.07936507936508,325.0,-102.14285714285714,-93.57142857142857,-100.71428571428571,170.3968253968254,-90.87301587301587,-90.71428571428571,-100.87301587301587,-97.53968253968253,-98.96825396825396,-102.93650793650794,325.0,-100.55555555555554,-90.07936507936508,-4.841269841269841,-17.38095238095238,-166.26984126984127
188,-90.07936507936508,-101.82539682539682,-93.09523809523809,220.3968253968254,-100.55555555555554,6.111111111111111,-98.49206349206348,325.0,-100.55555555555554,-92.30158730158729,-89.76190476190476,-20.07936507936508,-89.44444444444444,-89.28571428571428,-99.28571428571428,-96.1111111111111,-97.53968253968253,-101.19047619047619,213.57142857142856,-99.12698412698413,-88.80952380952381,3.888888888888889,15.793650793650793,-166.26984126984127
189,-90.07936507936508,-101.82539682539682,-93.09523809523809,220.3968253968254,-100.55555555555554,6.111111111111111,-98.49206349206348,325.0,-100.55555555555554,-92.30158730158729,-89.76190476190476,-20.07936507936508,-89.44444444444444,-89.28571428571428,-99.28571428571428,-96.1111111111111,-97.53968253968253,-101.19047619047619,213.57142857142856,-99.12698412698413,-88.80952380952381,3.888888888888889,15.793650793650793,-166.26984126984127
190,-88.33333333333333,116.42857142857142,-91.34920634920634,325.0,-98.65079365079364,306.4285714285714,-96.74603174603175,325.0,-98.80952380952381,-52.61904761904761,-77.06349206349206,270.07936507936506,-87.6984126984127,-84.84126984126983,-97.6984126984127,-94.2063492063492,-95.63492063492063,-99.44444444444444,325.0,-96.9047619047619,-87.06349206349206,-6.111111111111111,-18.015873015873016,-321.8253968253968
191,-88.33333333333333,116.42857142857142,-91.34920634920634,325.0,-98.65079365079364,306.4285714285714,-96.74603174603175,325.0,-98.80952380952381,-52.61904761904761,-77.06349206349206,270.07936507936506,-87.6984126984127,-84.84126984126983,-97.6984126984127,-94.2063492063492,-95.63492063492063,-99.44444444444444,325.0,-96.9047619047619,-87.06349206349206,-6.111111111111111,-18.015873015873016,-321.8253968253968
192,-86.74603174603175,-75.0,-90.07936507936508,272.9365079365079,-97.22222222222221,153.73015873015873,-95.0,325.0,-97.38095238095238,-85.31746031746032,173.88888888888889,120.87301587301586,-86.1111111111111,-86.1111111111111,-96.1111111111111,-92.77777777777777,-94.04761904761904,-98.01587301587301,251.5079365079365,-75.63492063492063,-83.09523809523809,3.888888888888889,16.11111111111111,-321.8253968253968
193,-86.74603174603175,-75.0,-90.07936507936508,272.9365079365079,-97.22222222222221,153.73015873015873,-95.0,325.0,-97.38095238095238,-85.31746031746032,173.88888888888889,120.87301587301586,-86.1111111111111,-86.1111111111111,-96.1111111111111,-92.77777777777777,-94.04761904761904,-98.01587301587301,251.5079365079365,-75.63492063492063,-83.09523809523809,3.888888888888889,16.11111111111111,-321.8253968253968
194,-85.47619047619047,243.88888888888889,-88.33333333333333,325.0,-95.63492063492063,325.0,-93.57142857142857,325.0,-95.47619047619047,157.2222222222222,289.6031746031746,325.0,-84.84126984126983,85.79365079365078,-94.36507936507935,-91.34920634920634,-92.46031746031746,-87.85714285714285,325.0,-92.30158730158729,29.285714285714285,-6.26984126984127,-17.857142857142858,-321.8253968253968
195,-85.47619047619047,243.88888888888889,-88.33333333333333,325.0,-95.63492063492063,325.0,-93.57142857142857,325.0,-95.47619047619047,157.2222222222222,289.6031746031746,325.0,-84.84126984126983,85.79365079365078,-94.36507936507935,-91.34920634920634,-92.46031746031746,-87.85714285714285,325.0,-92.30158730158729,29.285714285714285,-6.26984126984127,-17.857142857142858,-321.8253968253968
196,-84.04761904761904,32.3015873015873,-86.9047619047619,325.0,-94.04761904761904,212.93650793650792,-92.14285714285714,325.0,-90.39682539682539,-0.07936507936507936,325.0,255.47619047619045,-83.57142857142857,-49.44444444444444,-78.80952380952381,-89.76190476190476,-91.19047619047619,-94.04761904761904,303.88888888888886,57.53968253968254,54.68253968253968,6.111111111111111,16.587301587301585,-321.8253968253968
197,-84.04761904761904,32.3015873015873,-86.9047619047619,325.0,-94.04761904761904,212.93650793650792,-92.14285714285714,325.0,-90.39682539682539,-0.07936507936507936,325.0,255.47619047619045,-83.57142857142857,-49.44444444444444,-78.80952380952381,-89.76190476190476,-91.19047619047619,-94.04761904761904,303.88888888888886,57.53968253968254,54.68253968253968,6.111111111111111,16.587301587301585,-321.8253968253968
198,-82.61904761904762,325.0,-79.12698412698413,325.0,-92.61904761904762,325.0,-90.55555555555556,325.0,-72.46031746031746,279.44444444444446,325.0,325.0,-81.82539682539682,251.66666666666666,92.61904761904762,58.33333333333333,-89.44444444444444,48.80952380952381,325.0,18.174603174603174,325.0,-8.65079365079365,-18.65079365079365,-321.8253968253968
199,-82.61904761904762,325.0,-79.12698412698413,325.0,-92.61904761904762,325.0,-90.55555555555556,325.0,-72.46031746031746,279.44444444444446,325.0,325.0,-81.82539682539682,251.66666666666666,92.61904761904762,58.33333333333333,-89.44444444444444,48.80952380952381,325.0,18.174603174603174,325.0,-8.65079365079365,-18.65079365079365,-321.8253968253968
200,-81.34920634920634,170.7142857142857,-73.88888888888889,325.0,-9.444444444444445,278.17460317460313,-89.28571428571428,325.0,-10.396825396825395,325.0,325.0,325.0,-80.71428571428571,215.95238095238093,298.4920634920635,130.07936507936506,-80.87301587301587,51.98412698412698,325.0,303.25396825396825,325.0,6.587301587301587,15.317460317460316,-166.26984126984127
201,-81.34920634920634,170.7142857142857,-73.88888888888889,325.0,-9.444444444444445,278.17460317460313,-89.28571428571428,325.0,-10.396825396825395,325.0,325.0,325.0,-80.71428571428571,215.95238095238093,298.4920634920635,130.07936507936506,-80.87301587301587,51.98412698412698,325.0,303.25396825396825,325.0,6.587301587301587,15.317460317460316,-166.26984126984127
202,-79.92063492063491,325.0,159.12698412698413,325.0,295.0,325.0,-87.53968253968253,325.0,-13.571428571428571,325.0,325.0,325.0,41.82539682539682,325.0,325.0,325.0,67.85714285714285,259.44444444444446,325.0,287.38095238095235,325.0,-9.126984126984127,-18.80952380952381,-166.26984126984127
203,-79.92063492063491,325.0,159.12698412698413,325.0,295.0,325.0,-87.53968253968253,325.0,-13.571428571428571,325.0,325.0,325.0,41.82539682539682,325.0,325.0,325.0,67.85714285714285,259.44444444444446,325.0,287.38095238095235,325.0,-9.126984126984127,-18.80952380952381,-166.26984126984127
204,-76.1111111111111,228.015873015873,224.68253968253967,325.0,325.0,325.0,-86.42857142857143,325.0,323.88888888888886,325.0,325.0,325.0,-7.698412698412698,325.0,325.0,325.0,184.68253968253967,325.0,325.0,325.0,325.0,7.3809523809523805,16.746031746031743,-166.26984126984127
205,-76.1111111111111,228.015873015873,224.68253968253967,325.0,325.0,325.0,-86.42857142857143,325.0,323.88888888888886,325.0,325.0,325.0,-7.698412698412698,325.0,325.0,325.0,184.68253968253967,325.0,325.0,325.0,325.0,7.3809523809523805,16.746031746031743,-166.26984126984127
206,-44.84126984126984,325.0,325.0,325.0,325.0,325.0,-67.53968253968253,325.0,244.36507936507934,325.0,325.0,325.0,325.0,325.0,325.0,325.0,325.0,325.0,325.0,325.0,325.0,-9.920634920634921,-18.65079365079365,-166.26984126984127
207,-44.84126984126984,325.0,325.0,325.0,325.0,325.0,-67.53968253968253,325.0,244.36507936507934,325.0,325.0,325.0,325.0,325.0,325.0,325.0,325.0,325.0,325.0,325.0,325.0,-9.920634920634921,-18.65079365079365,-166.26984126984127
208,74.36507936507937,305.4761904761905,325.0,325.0,325.0,325.0,129.44444444444443,325.0,325.0,325.0,325.0,325.0,325.0,325.0,325.0,325.0,325.0,325.0,325.0,325.0,325.0,7.857142857142857,16.26984126984127,-166.26984126984127
209,74.36507936507937,305.4761904761905,325.0,325.0,325.0,325.0,129.44444444444443,325.0,325.0,325.0,325.0,325.0,325.0,325.0,325.0,325.0,325.0,325.0,325.0,325.0,325.0,7.857142857142857,16.26984126984127,-166.26984126984127
210,319.76190476190476,325.0,325.0,325.0,325.0,325.0,153.73015873015873,325.0,325.0,325.0,325.0,325.0,325.0,325.0,325.0,325.0,325.0,325.0,325.0,325.0,325.0,-10.714285714285714,-18.333333333333332,-321.8253968253968
211,319.76190476190476,325.0,325.0,325.0,325.0,325.0,153.73015873015873,325.0,325.0,325.0,325.0,325.0,325.0,325.0,325.0,325.0,325.0,325.0,325.0,325.0,325.0,-10.714285714285714,-18.333333333333332,-321.8253968253968
212,325.0,325.0,325.0,325.0,325.0,325.0,325.0,325.0,325.0,325.0,325.0,325.0,325.0,325.0,325.0,325.0,325.0,325.0,325.0,325.0,325.0,7.5396825396825395,16.428571428571427,-321.8253968253968
213,325.0,325.0,325.0,325.0,325.0,325.0,325.0,325.0,325.0,325.0,325.0,325.0,325.0,325.0,325.0,325.0,325.0,325.0,325.0,325.0,325.0,7.5396825396825395,16.428571428571427,-321.8253968253968
214,325.0,325.0,325.0,325.0,325.0,325.0,325.0,325.0,325.0,325.0,325.0,325.0,325.0,325.0,325.0,325.0,325.0,325.0,325.0,325.0,325.0,-10.396825396825395,-18.174603174603174,-321.8253968253968
215,325.0,325.0,325.0,325.0,325.0,325.0,325.0,325.0,325.0,325.0,325.0,325.0,325.0,325.0,325.0,325.0,325.0,325.0,325.0,325.0,325.0,-10.396825396825395,-18.174603174603174,-321.8253968253968
216,325.0,325.0,325.0,325.0,325.0,325.0,325.0,325.0,325.0,325.0,325.0,325.0,325.0,325.0,325.0,325.0,325.0,325.0,325.0,325.0,325.0,8.333333333333332,15.634920634920634,-321.8253968253968
217,325.0,325.0,325.0,325.0,325.0,325.0,325.0,325.0,325.0,325.0,325.0,325.0,325.0,325.0,325.0,325.0,325.0,325.0,325.0,325.0,325.0,8.333333333333332,15.634920634920634,-321.8253968253968
218,325.0,325.0,325.0,325.0,325.0,325.0,325.0,325.0,325.0,325.0,325.0,325.0,325.0,325.0,325.0,325.0,325.0,325.0,325.0,325.0,325.0,-9.761904761904761,-18.333333333333332,-321.8253968253968
219,325.0,325.0,325.0,325.0,325.0,325.0,325.0,325.0,325.0,325.0,325.0,325.0,325.0,325.0,325.0,325.0,325.0,325.0,325.0,325.0,325.0,-9.761904761904761,-18.333333333333332,-321.8253968253968
220,325.0,325.0,325.0,325.0,325.0,325.0,325.0,325.0,325.0,325.0,325.0,325.0,325.0,325.0,325.0,325.0,325.0,325.0,325.0,325.0,325.0,9.285714285714285,15.0,-166.26984126984127
221,325.0,325.0,325.0,325.0,325.0,325.0,325.0,325.0,325.0,325.0,325.0,325.0,325.0,325.0,325.0,325.0,325.0,325.0,325.0,325.0,325.0,9.285714285714285,15.0,-166.26984126984127
222,325.0,325.0,325.0,325.0,325.0,325.0,325.0,325.0,325.0,325.0,325.0,325.0,325.0,325.0,325.0,325.0,325.0,325.0,325.0,325.0,325.0,-10.714285714285714,-17.539682539682538,-166.26984126984127
223,325.0,325.0,325.0,325.0,325.0,325.0,325.0,325.0,325.0,325.0,325.0,325.0,325.0,325.0,325.0,325.0,325.0,325.0,325.0,325.0,325.0,-10.714285714285714,-17.539682539682538,-166.26984126984127
224,325.0,325.0,325.0,325.0,325.0,325.0,325.0,325.0,325.0,325.0,325.0,325.0,325.0,325.0,325.0,325.0,325.0,325.0,325.0,325.0,325.0,10.396825396825395,16.746031746031743,-166.26984126984127
225,325.0,325.0,325.0,325.0,325.0,325.0,325.0,325.0,325.0,325.0,325.0,325.0,325.0,325.0,325.0,325.0,325.0,325.0,325.0,325.0,325.0,10.396825396825395,16.746031746031743,-166.26984126984127
226,325.0,325.0,325.0,325.0,325.0,325.0,325.0,325.0,325.0,325.0,325.0,325.0,325.0,325.0,325.0,325.0,325.0,325.0,325.0,325.0,325.0,-11.19047619047619,-16.587301587301585,-166.26984126984127
227,325.0,325.0,325.0,325.0,325.0,325.0,325.0,325.0,325.0,325.0,325.0,325.0,325.0,325.0,325.0,325.0,325.0,325.0,325.0,325.0,325.0,-11.19047619047619,-16.587301587301585,-166.26984126984127
228,325.0,325.0,325.0,325.0,325.0,325.0,325.0,325.0,325.0,325.0,325.0,325.0,325.0,325.0,325.0,325.0,325.0,325.0,325.0,325.0,325.0,10.873015873015872,16.26984126984127,-166.26984126984127
229,325.0,325.0,325.0,325.0,325.0,325.0,325.0,325.0,325.0,325.0,325.0,325.0,325.0,325.0,325.0,325.0,325.0,325.0,325.0,325.0,325.0,10.873015873015872,16.26984126984127,-166.26984126984127
230,325.0,325.0,325.0,325.0,325.0,325.0,325.0,325.0,325.0,325.0,325.0,325.0,325.0,325.0,325.0,325.0,325.0,325.0,325.0,325.0,325.0,-11.349206349206348,-17.22222222222222,-321.8253968253968
231,325.0,325.0,325.0,325.0,325.0,325.0,325.0,325.0,325.0,325.0,325.0,325.0,325.0,325.0,325.0,325.0,325.0,325.0,325.0,325.0,325.0,-11.349206349206348,-17.22222222222222,-321.8253968253968
232,325.0,325.0,325.0,325.0,325.0,325.0,325.0,325.0,325.0,325.0,325.0,325.0,325.0,325.0,325.0,325.0,325.0,325.0,325.0,325.0,325.0,11.666666666666666,15.0,-321.8253968253968
233,325.0,325.0,325.0,325.0,325.0,325.0,325.0,325.0,325.0,325.0,325.0,325.0,325.0,325.0,325.0,325.0,325.0,325.0,325.0,325.0,325.0,11.666666666666666,15.0,-321.8253968253968
234,325.0,325.0,325.0,325.0,325.0,325.0,325.0,325.0,325.0,325.0,325.0,325.0,325.0,325.0,325.0,325.0,325.0,325.0,325.0,325.0,325.0,-12.777777777777777,-17.063492063492063,-321.8253968253968
235,325.0,325.0,325.0,325.0,325.0,325.0,325.0,325.0,325.0,325.0,325.0,325.0,325.0,325.0,325.0,325.0,325.0,325.0,325.0,325.0,325.0,-12.777777777777777,-17.063492063492063,-321.8253968253968
236,325.0,325.0,325.0,325.0,325.0,325.0,325.0,325.0,325.0,325.0,325.0,325.0,325.0,325.0,325.0,325.0,325.0,325.0,325.0,325.0,325.0,11.666666666666666,15.634920634920634,-321.8253968253968
237,325.0,325.0,325.0,325.0,325.0,325.0,325.0,325.0,325.0,325.0,325.0,325.0,325.0,325.0,325.0,325.0,325.0,325.0,325.0,325.0,325.0,11.666666666666666,15.634920634920634,-321.8253968253968
238,325.0,325.0,325.0,325.0,325.0,325.0,325.0,325.0,325.0,325.0,325.0,325.0,325.0,325.0,325.0,325.0,325.0,325.0,325.0,325.0,325.0,-12.936507936507935,-16.26984126984127,-321.8253968253968
239,325.0,325.0,325.0,325.0,325.0,325.0,325.0,325.0,325.0,325.0,325.0,325.0,325.0,325.0,325.0,325.0,325.0,325.0,325.0,325.0,325.0,-12.936507936507935,-16.26984126984127,-321.8253968253968
240,325.0,325.0,325.0,325.0,325.0,325.0,325.0,325.0,325.0,325.0,325.0,325.0,325.0,325.0,325.0,325.0,325.0,325.0,325.0,325.0,325.0,12.777777777777777,14.523809523809524,-166.26984126984127
241,325.0,325.0,325.0,325.0,325.0,325.0,325.0,325.0,325.0,325.0,325.0,325.0,325.0,325.0,325.0,325.0,325.0,325.0,325.0,325.0,325.0,12.777777777777777,14.523809523809524,-166.26984126984127
242,325.0,325.0,325.0,325.0,325.0,325.0,325.0,325.0,325.0,325.0,325.0,325.0,325.0,325.0,325.0,325.0,325.0,325.0,325.0,325.0,325.0,-13.095238095238095,-16.904761904761905,-166.26984126984127
243,325.0,325.0,325.0,325.0,325.0,325.0,325.0,325.0,325.0,325.0,325.0,325.0,325.0,325.0,325.0,325.0,325.0,325.0,325.0,325.0,325.0,-13.095238095238095,-16.904761904761905,-166.26984126984127
244,325.0,325.0,325.0,325.0,325.0,325.0,325.0,325.0,325.0,325.0,325.0,325.0,325.0,325.0,325.0,325.0,325.0,325.0,325.0,325.0,325.0,12.46031746031746,16.428571428571427,-166.26984126984127
245,325.0,325.0,325.0,325.0,325.0,325.0,325.0,325.0,325.0,325.0,325.0,325.0,325.0,325.0,325.0,325.0,325.0,325.0,325.0,325.0,325.0,12.46031746031746,16.428571428571427,-166.26984126984127
246,325.0,325.0,325.0,325.0,325.0,325.0,325.0,325.0,325.0,325.0,325.0,325.0,325.0,325.0,325.0,325.0,325.0,325.0,325.0,325.0,325.0,-14.206349206349206,-16.26984126984127,-166.26984126984127
247,325.0,325.0,325.0,325.0,325.0,325.0,325.0,325.0,325.0,325.0,325.0,325.0,325.0,325.0,325.0,325.0,325.0,325.0,325.0,325.0,325.0,-14.206349206349206,-16.26984126984127,-166.26984126984127
248,325.0,325.0,325.0,325.0,325.0,325.0,325.0,325.0,325.0,325.0,325.0,325.0,325.0,325.0,325.0,325.0,325.0,325.0,325.0,325.0,325.0,-14.682539682539682,-16.428571428571427,-166.26984126984127
249,325.0,325.0,325.0,325.0,325.0,325.0,325.0,325.0,325.0,325.0,325.0,325.0,325.0,325.0,325.0,325.0,325.0,325.0,325.0,325.0,325.0,-14.682539682539682,-16.428571428571427,-166.26984126984127
250,325.0,325.0,325.0,325.0,325.0,325.0,325.0,325.0,325.0,325.0,325.0,325.0,325.0,325.0,325.0,325.0,325.0,325.0,325.0,325.0,325.0,13.571428571428571,15.317460317460316,-321.8253968253968
251,325.0,325.0,325.0,325.0,325.0,325.0,325.0,325.0,325.0,325.0,325.0,325.0,325.0,325.0,325.0,325.0,325.0,325.0,325.0,325.0,325.0,13.571428571428571,15.317460317460316,-321.8253968253968
252,325.0,325.0,325.0,325.0,325.0,325.0,325.0,325.0,325.0,325.0,325.0,325.0,325.0,325.0,325.0,325.0,325.0,325.0,325.0,325.0,325.0,-14.523809523809524,-15.95238095238095,-321.8253968253968
253,325.0,325.0,325.0,325.0,325.0,325.0,325.0,325.0,325.0,325.0,325.0,325.0,325.0,325.0,325.0,325.0,325.0,325.0,325.0,325.0,325.0,-14.523809523809524,-15.95238095238095,-321.8253968253968
254,325.0,325.0,325.0,325.0,325.0,325.0,325.0,325.0,325.0,325.0,325.0,325.0,325.0,325.0,325.0,325.0,325.0,325.0,325.0,325.0,325.0,14.682539682539682,13.888888888888888,-321.8253968253968
255,325.0,325.0,325.0,325.0,325.0,325.0,325.0,325.0,325.0,325.0,325.0,325.0,325.0,325.0,325.0,325.0,325.0,325.0,325.0,325.0,325.0,14.682539682539682,13.888888888888888,-321.8253968253968
256,325.0,325.0,325.0,325.0,325.0,325.0,325.0,325.0,325.0,325.0,325.0,325.0,325.0,325.0,325.0,325.0,325.0,325.0,325.0,325.0,325.0,-16.11111111111111,-16.26984126984127,-321.8253968253968
257,325.0,325.0,325.0,325.0,325.0,325.0,325.0,325.0,325.0,325.0,325.0,325.0,325.0,325.0,325.0,325.0,325.0,325.0,325.0,325.0,325.0,-16.11111111111111,-16.26984126984127,-321.8253968253968
258,325.0,325.0,325.0,325.0,325.0,325.0,325.0,325.0,325.0,325.0,325.0,325.0,325.0,325.0,325.0,325.0,325.0,325.0,325.0,325.0,325.0,15.476190476190474,15.634920634920634,-321.8253968253968
259,325.0,325.0,325.0,325.0,325.0,325.0,325.0,325.0,325.0,325.0,325.0,325.0,325.0,325.0,325.0,325.0,325.0,325.0,325.0,325.0,325.0,15.476190476190474,15.634920634920634,-321.8253968253968
260,325.0,325.0,325.0,325.0,325.0,325.0,325.0,325.0,325.0,325.0,325.0,325.0,325.0,325.0,325.0,325.0,325.0,325.0,325.0,325.0,325.0,-15.95238095238095,-15.158730158730158,-166.26984126984127
261,325.0,325.0,325.0,325.0,325.0,325.0,325.0,325.0,325.0,325.0,325.0,325.0,325.0,325.0,325.0,325.0,325.0,325.0,325.0,325.0,325.0,-15.95238095238095,-15.158730158730158,-166.26984126984127
262,325.0,325.0,325.0,325.0,325.0,325.0,325.0,325.0,325.0,325.0,325.0,325.0,325.0,325.0,325.0,325.0,325.0,325.0,325.0,325.0,325.0,15.476190476190474,14.523809523809524,-166.26984126984127
263,325.0,325.0,325.0,325.0,325.0,325.0,325.0,325.0,325.0,325.0,325.0,325.0,325.0,325.0,325.0,325.0,325.0,325.0,325.0,325.0,325.0,15.476190476190474,14.523809523809524,-166.26984126984127
264,325.0,325.0,325.0,325.0,325.0,325.0,325.0,325.0,325.0,325.0,325.0,325.0,325.0,325.0,325.0,325.0,325.0,325.0,325.0,325.0,325.0,-21.507936507936506,6.904761904761904,-166.26984126984127
265,325.0,325.0,325.0,325.0,325.0,325.0,325.0,325.0,325.0,325.0,325.0,325.0,325.0,325.0,325.0,325.0,325.0,325.0,325.0,325.0,325.0,-21.507936507936506,6.904761904761904,-166.26984126984127
266,325.0,325.0,325.0,325.0,325.0,325.0,325.0,325.0,325.0,325.0,325.0,325.0,325.0,325.0,325.0,325.0,325.0,325.0,325.0,325.0,325.0,19.444444444444443,-8.65079365079365,-166.26984126984127
267,325.0,325.0,325.0,325.0,325.0,325.0,325.0,325.0,325.0,325.0,325.0,325.0,325.0,325.0,325.0,325.0,325.0,325.0,325.0,325.0,325.0,19.444444444444443,-8.65079365079365,-166.26984126984127
268,325.0,325.0,325.0,325.0,325.0,325.0,325.0,325.0,325.0,325.0,325.0,325.0,325.0,325.0,325.0,325.0,325.0,325.0,325.0,325.0,325.0,-21.349206349206348,6.904761904761904,-166.26984126984127
269,325.0,325.0,325.0,325.0,325.0,325.0,325.0,325.0,325.0,325.0,325.0,325.0,325.0,325.0,325.0,325.0,325.0,325.0,325.0,325.0,325.0,-21.349206349206348,6.904761904761904,-166.26984126984127
270,325.0,325.0,325.0,325.0,325.0,325.0,325.0,325.0,325.0,325.0,325.0,325.0,325.0,325.0,325.0,325.0,325.0,325.0,325.0,325.0,325.0,19.444444444444443,-8.968253968253968,-321.8253968253968
271,325.0,325.0,325.0,325.0,325.0,325.0,325.0,325.0,325.0,325.0,325.0,325.0,325.0,325.0,325.0,325.0,325.0,325.0,325.0,325.0,325.0,19.444444444444443,-8.968253968253968,-321.8253968253968
272,325.0,325.0,325.0,325.0,325.0,325.0,325.0,325.0,325.0,325.0,325.0,325.0,325.0,325.0,325.0,325.0,325.0,325.0,325.0,325.0,325.0,-21.19047619047619,7.3809523809523805,-321.8253968253968
273,325.0,325.0,325.0,325.0,325.0,325.0,325.0,325.0,325.0,325.0,325.0,325.0,325.0,325.0,325.0,325.0,325.0,325.0,325.0,325.0,325.0,-21.19047619047619,7.3809523809523805,-321.8253968253968
274,325.0,325.0,325.0,325.0,325.0,325.0,325.0,325.0,325.0,325.0,325.0,325.0,325.0,325.0,325.0,325.0,325.0,325.0,325.0,325.0,325.0,19.76190476190476,-9.444444444444445,-321.8253968253968
275,325.0,325.0,325.0,325.0,325.0,325.0,325.0,325.0,325.0,325.0,325.0,325.0,325.0,325.0,325.0,325.0,325.0,325.0,325.0,325.0,325.0,19.76190476190476,-9.444444444444445,-321.8253968253968
276,325.0,325.0,325.0,325.0,325.0,325.0,325.0,325.0,325.0,325.0,325.0,325.0,325.0,325.0,325.0,325.0,325.0,325.0,325.0,325.0,325.0,-20.71428571428571,8.015873015873016,-321.8253968253968
277,325.0,325.0,325.0,325.0,325.0,325.0,325.0,325.0,325.0,325.0,325.0,325.0,325.0,325.0,325.0,325.0,325.0,325.0,325.0,325.0,325.0,-20.71428571428571,8.015873015873016,-321.8253968253968
278,325.0,325.0,325.0,325.0,325.0,325.0,325.0,325.0,325.0,325.0,325.0,325.0,325.0,325.0,325.0,325.0,325.0,325.0,325.0,325.0,325.0,18.333333333333332,-10.079365079365079,-321.8253968253968
279,325.0,325.0,325.0,325.0,325.0,325.0,325.0,325.0,325.0,325.0,325.0,325.0,325.0,325.0,325.0,325.0,325.0,325.0,325.0,325.0,325.0,18.333333333333332,-10.079365079365079,-321.8253968253968
280,325.0,325.0,325.0,325.0,325.0,325.0,325.0,325.0,325.0,325.0,325.0,325.0,325.0,325.0,325.0,325.0,325.0,325.0,325.0,325.0,325.0,-20.07936507936508,8.174603174603174,-166.26984126984127
281,325.0,325.0,325.0,325.0,325.0,325.0,325.0,325.0,325.0,325.0,325.0,325.0,325.0,325.0,325.0,325.0,325.0,325.0,325.0,325.0,325.0,-20.07936507936508,8.174603174603174,-166.26984126984127
282,325.0,325.0,325.0,325.0,325.0,325.0,325.0,325.0,325.0,325.0,325.0,325.0,325.0,325.0,325.0,325.0,325.0,325.0,325.0,325.0,325.0,18.49206349206349,-10.555555555555555,-166.26984126984127
283,325.0,325.0,325.0,325.0,325.0,325.0,325.0,325.0,325.0,325.0,325.0,325.0,325.0,325.0,325.0,325.0,325.0,325.0,325.0,325.0,325.0,18.49206349206349,-10.555555555555555,-166.26984126984127
284,325.0,325.0,325.0,325.0,325.0,325.0,325.0,325.0,325.0,325.0,325.0,325.0,325.0,325.0,325.0,325.0,325.0,325.0,325.0,325.0,325.0,-20.238095238095237,8.968253968253968,-166.26984126984127
285,325.0,325.0,325.0,325.0,325.0,325.0,325.0,325.0,325.0,325.0,325.0,325.0,325.0,325.0,325.0,325.0,325.0,325.0,325.0,325.0,325.0,-20.238095238095237,8.968253968253968,-166.26984126984127
286,325.0,325.0,325.0,325.0,325.0,325.0,325.0,325.0,325.0,325.0,325.0,325.0,325.0,325.0,325.0,325.0,325.0,325.0,325.0,325.0,325.0,17.539682539682538,-10.396825396825395,-166.26984126984127
287,325.0,325.0,325.0,325.0,325.0,325.0,325.0,325.0,325.0,325.0,325.0,325.0,325.0,325.0,325.0,325.0,325.0,325.0,325.0,325.0,325.0,17.539682539682538,-10.396825396825395,-166.26984126984127
288,325.0,325.0,325.0,325.0,325.0,325.0,325.0,325.0,325.0,325.0,325.0,325.0,325.0,325.0,325.0,325.0,325.0,325.0,325.0,325.0,325.0,-19.285714285714285,9.761904761904761,-166.26984126984127
289,325.0,325.0,325.0,325.0,325.0,325.0,325.0,325.0,325.0,325.0,325.0,325.0,325.0,325.0,325.0,325.0,325.0,325.0,325.0,325.0,325.0,-19.285714285714285,9.761904761904761,-166.26984126984127
290,325.0,325.0,325.0,325.0,325.0,325.0,325.0,325.0,325.0,325.0,325.0,325.0,325.0,325.0,325.0,325.0,325.0,325.0,325.0,325.0,325.0,17.698412698412696,-11.031746031746032,-321.8253968253968
291,325.0,325.0,325.0,325.0,325.0,325.0,325.0,325.0,325.0,325.0,325.0,325.0,325.0,325.0,325.0,325.0,325.0,325.0,325.0,325.0,325.0,17.698412698412696,-11.031746031746032,-321.8253968253968
292,325.0,325.0,325.0,325.0,325.0,325.0,325.0,325.0,325.0,325.0,325.0,325.0,325.0,325.0,325.0,325.0,325.0,325.0,325.0,325.0,325.0,-19.126984126984127,9.444444444444445,-321.8253968253968
293,325.0,325.0,325.0,325.0,325.0,325.0,325.0,325.0,325.0,325.0,325.0,325.0,325.0,325.0,325.0,325.0,325.0,325.0,325.0,325.0,325.0,-19.126984126984127,9.444444444444445,-321.8253968253968
294,325.0,325.0,325.0,325.0,325.0,325.0,325.0,325.0,325.0,325.0,325.0,325.0,325.0,325.0,325.0,325.0,325.0,325.0,325.0,325.0,325.0,17.698412698412696,-11.19047619047619,-321.8253968253968
295,325.0,325.0,325.0,325.0,325.0,325.0,325.0,325.0,325.0,325.0,325.0,325.0,325.0,325.0,325.0,325.0,325.0,325.0,325.0,325.0,325.0,17.698412698412696,-11.19047619047619,-321.8253968253968
296,325.0,325.0,325.0,325.0,325.0,325.0,325.0,325.0,325.0,325.0,325.0,325.0,325.0,325.0,325.0,325.0,325.0,325.0,325.0,325.0,325.0,-18.49206349206349,10.555555555555555,-321.8253968253968
297,325.0,325.0,325.0,325.0,325.0,325.0,325.0,325.0,325.0,325.0,325.0,325.0,325.0,325.0,325.0,325.0,325.0,325.0,325.0,325.0,325.0,-18.49206349206349,10.555555555555555,-321.8253968253968
298,325.0,325.0,325.0,325.0,325.0,325.0,325.0,325.0,325.0,325.0,325.0,325.0,325.0,325.0,325.0,325.0,325.0,325.0,325.0,325.0,325.0,36.269841269841265,4.2063492063492065,-321.8253968253968
299,325.0,325.0,325.0,325.0,325.0,325.0,325.0,325.0,325.0,325.0,325.0,325.0,325.0,325.0,325.0,325.0,325.0,325.0,325.0,325.0,325.0,36.269841269841265,4.2063492063492065,-321.8253968253968
300,325.0,325.0,325.0,325.0,325.0,325.0,325.0,325.0,325.0,325.0,325.0,325.0,325.0,325.0,325.0,325.0,325.0,325.0,325.0,325.0,325.0,-17.698412698412696,10.714285714285714,-166.26984126984127
301,325.0,325.0,325.0,325.0,325.0,325.0,325.0,325.0,325.0,325.0,325.0,325.0,325.0,325.0,325.0,325.0,325.0,325.0,325.0,325.0,325.0,-17.698412698412696,10.714285714285714,-166.26984126984127
302,325.0,325.0,325.0,325.0,325.0,325.0,325.0,324.2063492063492,325.0,325.0,325.0,325.0,325.0,325.0,325.0,325.0,325.0,325.0,325.0,325.0,325.0,15.634920634920634,-11.666666666666666,-166.26984126984127
303,325.0,325.0,325.0,325.0,325.0,325.0,325.0,324.2063492063492,325.0,325.0,325.0,325.0,325.0,325.0,325.0,325.0,325.0,325.0,325.0,325.0,325.0,15.634920634920634,-11.666666666666666,-166.26984126984127
304,325.0,325.0,325.0,325.0,325.0,325.0,325.0,319.76190476190476,325.0,325.0,325.0,325.0,325.0,325.0,325.0,325.0,325.0,325.0,325.0,325.0,325.0,-17.063492063492063,11.031746031746032,-166.26984126984127
305,325.0,325.0,325.0,325.0,325.0,325.0,325.0,319.76190476190476,325.0,325.0,325.0,325.0,325.0,325.0,325.0,325.0,325.0,325.0,325.0,325.0,325.0,-17.063492063492063,11.031746031746032,-166.26984126984127
306,325.0,325.0,325.0,325.0,325.0,325.0,325.0,314.68253968253964,325.0,325.0,325.0,325.0,325.0,325.0,325.0,325.0,325.0,325.0,325.0,325.0,325.0,16.26984126984127,-12.142857142857142,-166.26984126984127
307,325.0,325.0,325.0,325.0,325.0,325.0,325.0,314.68253968253964,325.0,325.0,325.0,325.0,325.0,325.0,325.0,325.0,325.0,325.0,325.0,325.0,325.0,16.26984126984127,-12.142857142857142,-166.26984126984127
308,325.0,325.0,325.0,325.0,325.0,325.0,325.0,309.6031746031746,325.0,325.0,325.0,325.0,325.0,325.0,325.0,325.0,325.0,325.0,325.0,325.0,325.0,-16.746031746031743,11.19047619047619,-166.26984126984127
309,325.0,325.0,325.0,325.0,325.0,325.0,325.0,309.6031746031746,325.0,325.0,325.0,325.0,325.0,325.0,325.0,325.0,325.0,325.0,325.0,325.0,325.0,-16.746031746031743,11.19047619047619,-166.26984126984127
310,325.0,325.0,325.0,325.0,325.0,325.0,325.0,304.68253968253964,325.0,325.0,325.0,325.0,325.0,325.0,325.0,325.0,325.0,325.0,325.0,325.0,321.3492063492063,15.0,-11.984126984126984,-321.8253968253968
311,325.0,325.0,325.0,325.0,325.0,325.0,325.0,304.68253968253964,325.0,325.0,325.0,325.0,325.0,325.0,325.0,325.0,325.0,325.0,325.0,325.0,321.3492063492063,15.0,-11.984126984126984,-321.8253968253968
312,325.0,325.0,325.0,325.0,325.0,325.0,325.0,299.76190476190476,325.0,324.04761904761904,321.66666666666663,325.0,325.0,323.0952380952381,325.0,325.0,325.0,325.0,325.0,325.0,315.95238095238096,-15.793650793650793,11.031746031746032,-321.8253968253968
313,325.0,325.0,325.0,325.0,325.0,325.0,325.0,299.76190476190476,325.0,324.04761904761904,321.66666666666663,325.0,325.0,323.0952380952381,325.0,325.0,325.0,325.0,325.0,325.0,315.95238095238096,-15.793650793650793,11.031746031746032,-321.8253968253968
314,325.0,325.0,325.0,324.68253968253964,325.0,325.0,325.0,295.0,325.0,318.968253968254,316.58730158730157,325.0,325.0,317.38095238095235,325.0,325.0,325.0,325.0,320.87301587301585,325.0,310.55555555555554,15.476190476190474,-11.825396825396824,-321.8253968253968
315,325.0,325.0,325.0,324.68253968253964,325.0,325.0,325.0,295.0,325.0,318.968253968254,316.58730158730157,325.0,325.0,317.38095238095235,325.0,325.0,325.0,325.0,320.87301587301585,325.0,310.55555555555554,15.476190476190474,-11.825396825396824,-321.8253968253968
316,325.0,325.0,325.0,320.23809523809524,325.0,325.0,325.0,290.07936507936506,325.0,313.88888888888886,311.5079365079365,324.5238095238095,325.0,312.1428571428571,325.0,324.68253968253964,325.0,325.0,315.6349206349206,325.0,305.1587301587301,-16.11111111111111,11.666666666666666,-321.8253968253968
317,325.0,325.0,325.0,320.23809523809524,325.0,325.0,325.0,290.07936507936506,325.0,313.88888888888886,311.5079365079365,324.5238095238095,325.0,312.1428571428571,325.0,324.68253968253964,325.0,325.0,315.6349206349206,325.0,305.1587301587301,-16.11111111111111,11.666666666666666,-321.8253968253968
318,325.0,325.0,324.04761904761904,314.8412698412698,325.0,325.0,325.0,285.6349206349206,325.0,308.4920634920635,306.4285714285714,320.23809523809524,325.0,306.58730158730157,321.5079365079365,320.39682539682536,324.5238095238095,325.0,310.39682539682536,324.04761904761904,300.07936507936506,14.206349206349206,-12.142857142857142,-321.8253968253968
319,325.0,325.0,324.04761904761904,314.8412698412698,325.0,325.0,325.0,285.6349206349206,325.0,308.4920634920635,306.4285714285714,320.23809523809524,325.0,306.58730158730157,321.5079365079365,320.39682539682536,324.5238095238095,325.0,310.39682539682536,324.04761904761904,300.07936507936506,14.206349206349206,-12.142857142857142,-321.8253968253968
320,325.0,325.0,319.1269841269841,309.6031746031746,324.68253968253964,324.36507936507934,325.0,281.031746031746,325.0,303.4126984126984,301.3492063492063,314.8412698412698,323.88888888888886,301.3492063492063,316.26984126984127,315.0,319.9206349206349,325.0,305.4761904761905,319.1269841269841,294.8412698412698,-15.476190476190474,12.3015873015873,-166.26984126984127
321,325.0,325.0,319.1269841269841,309.6031746031746,324.68253968253964,324.36507936507934,325.0,281.031746031746,325.0,303.4126984126984,301.3492063492063,314.8412698412698,323.88888888888886,301.3492063492063,316.26984126984127,315.0,319.9206349206349,325.0,305.4761904761905,319.1269841269841,294.8412698412698,-15.476190476190474,12.3015873015873,-166.26984126984127
322,324.5238095238095,325.0,313.57142857142856,304.36507936507934,320.55555555555554,319.4444444444444,325.0,276.4285714285714,324.04761904761904,298.3333333333333,296.58730158730157,309.6031746031746,318.968253968254,296.26984126984127,311.19047619047615,309.9206349206349,314.8412698412698,323.25396825396825,300.23809523809524,313.88888888888886,289.76190476190476,14.682539682539682,-11.825396825396824,-166.26984126984127
323,324.5238095238095,325.0,313.57142857142856,304.36507936507934,320.55555555555554,319.4444444444444,325.0,276.4285714285714,324.04761904761904,298.3333333333333,296.58730158730157,309.6031746031746,318.968253968254,296.26984126984127,311.19047619047615,309.9206349206349,314.8412698412698,323.25396825396825,300.23809523809524,313.88888888888886,289.76190476190476,14.682539682539682,-11.825396825396824,-166.26984126984127
324,320.07936507936506,325.0,308.4920634920635,299.4444444444444,315.4761904761905,314.36507936507934,325.0,271.984126984127,319.4444444444444,293.25396825396825,291.8253968253968,304.36507936507934,313.4126984126984,291.3492063492063,306.26984126984127,304.68253968253964,309.4444444444444,318.015873015873,295.4761904761905,308.6507936507936,284.8412698412698,-14.682539682539682,11.984126984126984,-166.26984126984127
325,320.07936507936506,325.0,308.4920634920635,299.4444444444444,315.4761904761905,314.36507936507934,325.0,271.984126984127,319.4444444444444,293.25396825396825,291.8253968253968,304.36507936507934,313.4126984126984,291.3492063492063,306.26984126984127,304.68253968253964,309.4444444444444,318.015873015873,295.4761904761905,308.6507936507936,284.8412698412698,-14.682539682539682,11.984126984126984,-166.26984126984127
326,316.1111111111111,324.2063492063492,304.5238095238095,295.4761904761905,311.66666666666663,310.7142857142857,324.68253968253964,268.6507936507936,315.4761904761905,289.6031746031746,288.3333333333333,300.55555555555554,309.6031746031746,287.53968253968253,302.3015873015873,301.031746031746,305.4761904761905,314.36507936507934,291.8253968253968,305.0,281.3492063492063,37.06349206349206,-0.07936507936507936,-166.26984126984127
327,316.1111111111111,324.2063492063492,304.5238095238095,295.4761904761905,311.66666666666663,310.7142857142857,324.68253968253964,268.6507936507936,315.4761904761905,289.6031746031746,288.3333333333333,300.55555555555554,309.6031746031746,287.53968253968253,302.3015873015873,301.031746031746,305.4761904761905,314.36507936507934,291.8253968253968,305.0,281.3492063492063,37.06349206349206,-0.07936507936507936,-166.26984126984127
328,309.2857142857143,317.53968253968253,298.015873015873,289.4444444444444,305.3174603174603,304.2063492063492,318.015873015873,263.4126984126984,309.2857142857143,283.4126984126984,282.3015873015873,294.2063492063492,303.0952380952381,281.3492063492063,296.26984126984127,295.0,299.1269841269841,308.17460317460313,285.7936507936508,298.6507936507936,275.3174603174603,-13.73015873015873,13.095238095238095,-166.26984126984127
329,309.2857142857143,317.53968253968253,298.015873015873,289.4444444444444,305.3174603174603,304.2063492063492,318.015873015873,263.4126984126984,309.2857142857143,283.4126984126984,282.3015873015873,294.2063492063492,303.0952380952381,281.3492063492063,296.26984126984127,295.0,299.1269841269841,308.17460317460313,285.7936507936508,298.6507936507936,275.3174603174603,-13.73015873015873,13.095238095238095,-166.26984126984127
330,304.04761904761904,312.3015873015873,293.0952380952381,284.5238095238095,300.23809523809524,299.1269841269841,312.77777777777777,259.1269841269841,304.2063492063492,278.6507936507936,277.6984126984127,289.6031746031746,298.015873015873,276.4285714285714,291.5079365079365,289.9206349206349,294.04761904761904,303.25396825396825,281.031746031746,293.57142857142856,270.55555555555554,13.73015873015873,-13.095238095238095,-321.8253968253968
331,304.04761904761904,312.3015873015873,293.0952380952381,284.5238095238095,300.23809523809524,299.1269841269841,312.77777777777777,259.1269841269841,304.2063492063492,278.6507936507936,277.6984126984127,289.6031746031746,298.015873015873,276.4285714285714,291.5079365079365,289.9206349206349,294.04761904761904,303.25396825396825,281.031746031746,293.57142857142856,270.55555555555554,13.73015873015873,-13.095238095238095,-321.8253968253968
332,300.07936507936506,308.8095238095238,289.2857142857143,280.87301587301585,297.06349206349205,295.3174603174603,308.968253968254,256.1111111111111,300.39682539682536,275.1587301587301,274.36507936507934,285.7936507936508,294.36507936507934,272.9365079365079,287.85714285714283,286.4285714285714,290.39682539682536,299.6031746031746,277.6984126984127,290.23809523809524,266.90476190476187,-36.11111111111111,4.0476190476190474,-321.8253968253968
333,300.07936507936506,308.8095238095238,289.2857142857143,280.87301587301585,297.06349206349205,295.3174603174603,308.968253968254,256.1111111111111,300.39682539682536,275.1587301587301,274.36507936507934,285.7936507936508,294.36507936507934,272.9365079365079,287.85714285714283,286.4285714285714,290.39682539682536,299.6031746031746,277.6984126984127,290.23809523809524,266.90476190476187,-36.11111111111111,4.0476190476190474,-321.8253968253968
334,295.0,303.57142857142856,284.36507936507934,276.1111111111111,291.984126984127,290.87301587301585,303.88888888888886,251.8253968253968,295.4761904761905,270.55555555555554,269.9206349206349,281.031746031746,289.4444444444444,268.3333333333333,283.0952380952381,281.8253968253968,285.6349206349206,294.5238095238095,273.0952380952381,285.3174603174603,262.6190476190476,36.42857142857142,-2.7777777777777777,-321.8253968253968
335,295.0,303.57142857142856,284.36507936507934,276.1111111111111,291.984126984127,290.87301587301585,303.88888888888886,251.8253968253968,295.4761904761905,270.55555555555554,269.9206349206349,281.031746031746,289.4444444444444,268.3333333333333,283.0952380952381,281.8253968253968,285.6349206349206,294.5238095238095,273.0952380952381,285.3174603174603,262.6190476190476,36.42857142857142,-2.7777777777777777,-321.8253968253968
336,295.0,303.57142857142856,284.36507936507934,276.1111111111111,291.984126984127,290.87301587301585,303.88888888888886,251.8253968253968,295.4761904761905,270.55555555555554,269.9206349206349,281.031746031746,289.4444444444444,268.3333333333333,283.0952380952381,281.8253968253968,285.6349206349206,294.5238095238095,273.0952380952381,285.3174603174603,262.6190476190476,36.42857142857142,-2.7777777777777777,-321.8253968253968
337,295.0,303.57142857142856,284.36507936507934,276.1111111111111,291.984126984127,290.87301587301585,303.88888888888886,251.8253968253968,295.4761904761905,270.55555555555554,269.9206349206349,281.031746031746,289.4444444444444,268.3333333333333,283.0952380952381,281.8253968253968,285.6349206349206,294.5238095238095,273.0952380952381,285.3174603174603,262.6190476190476,36.42857142857142,-2.7777777777777777,-321.8253968253968
338,283.88888888888886,292.3015873015873,273.88888888888886,265.7936507936508,281.5079365079365,280.23809523809524,292.46031746031747,242.77777777777777,284.68253968253964,260.39682539682536,260.23809523809524,270.55555555555554,278.8095238095238,258.015873015873,272.9365079365079,271.3492063492063,274.8412698412698,284.36507936507934,263.0952380952381,274.8412698412698,252.6190476190476,12.3015873015873,-14.682539682539682,-321.8253968253968
339,283.88888888888886,292.3015873015873,273.88888888888886,265.7936507936508,281.5079365079365,280.23809523809524,292.46031746031747,242.77777777777777,284.68253968253964,260.39682539682536,260.23809523809524,270.55555555555554,278.8095238095238,258.015873015873,272.9365079365079,271.3492063492063,274.8412698412698,284.36507936507934,263.0952380952381,274.8412698412698,252.6190476190476,12.3015873015873,-14.682539682539682,-321.8253968253968
340,278.968253968254,287.53968253968253,269.2857142857143,261.3492063492063,277.06349206349205,275.6349206349206,287.6984126984127,238.8095238095238,280.07936507936506,255.95238095238093,255.79365079365078,265.95238095238096,274.36507936507934,253.57142857142856,268.4920634920635,266.90476190476187,270.23809523809524,279.9206349206349,258.6507936507936,270.39682539682536,248.17460317460316,-12.936507936507935,13.888888888888888,-166.26984126984127
341,278.968253968254,287.53968253968253,269.2857142857143,261.3492063492063,277.06349206349205,275.6349206349206,287.6984126984127,238.8095238095238,280.07936507936506,255.95238095238093,255.79365079365078,265.95238095238096,274.36507936507934,253.57142857142856,268.4920634920635,266.90476190476187,270.23809523809524,279.9206349206349,258.6507936507936,270.39682539682536,248.17460317460316,-12.936507936507935,13.888888888888888,-166.26984126984127
342,271.8253968253968,280.39682539682536,262.6190476190476,254.68253968253967,270.39682539682536,269.1269841269841,280.39682539682536,233.25396825396825,273.0952380952381,249.60317460317458,249.76190476190476,259.2857142857143,267.38095238095235,246.9047619047619,261.984126984127,260.39682539682536,263.25396825396825,273.0952380952381,252.3015873015873,263.57142857142856,241.98412698412696,23.88888888888889,9.285714285714285,-166.26984126984127
343,271.8253968253968,280.39682539682536,262.6190476190476,254.68253968253967,270.39682539682536,269.1269841269841,280.39682539682536,233.25396825396825,273.0952380952381,249.60317460317458,249.76190476190476,259.2857142857143,267.38095238095235,246.9047619047619,261.984126984127,260.39682539682536,263.25396825396825,273.0952380952381,252.3015873015873,263.57142857142856,241.98412698412696,23.88888888888889,9.285714285714285,-166.26984126984127
344,265.95238095238096,274.68253968253964,257.06349206349205,249.28571428571428,264.8412698412698,263.57142857142856,274.68253968253964,228.49206349206347,267.53968253968253,244.36507936507934,244.68253968253967,254.04761904761904,261.8253968253968,241.66666666666666,256.74603174603175,255.0,257.6984126984127,267.6984126984127,247.2222222222222,258.17460317460313,236.58730158730157,-1.349206349206349,-1.984126984126984,-166.26984126984127
345,265.95238095238096,274.68253968253964,257.06349206349205,249.28571428571428,264.8412698412698,263.57142857142856,274.68253968253964,228.49206349206347,267.53968253968253,244.36507936507934,244.68253968253967,254.04761904761904,261.8253968253968,241.66666666666666,256.74603174603175,255.0,257.6984126984127,267.6984126984127,247.2222222222222,258.17460317460313,236.58730158730157,-1.349206349206349,-1.984126984126984,-166.26984126984127
346,260.39682539682536,269.1269841269841,251.5079365079365,244.2063492063492,259.6031746031746,258.015873015873,268.968253968254,223.88888888888889,262.3015873015873,239.12698412698413,239.60317460317458,248.65079365079364,256.26984126984127,236.42857142857142,251.34920634920633,249.76190476190476,252.3015873015873,262.46031746031747,242.3015873015873,252.77777777777777,231.5079365079365,-10.873015873015872,13.412698412698411,-166.26984126984127
347,260.39682539682536,269.1269841269841,251.5079365079365,244.2063492063492,259.6031746031746,258.015873015873,268.968253968254,223.88888888888889,262.3015873015873,239.12698412698413,239.60317460317458,248.65079365079364,256.26984126984127,236.42857142857142,251.34920634920633,249.76190476190476,252.3015873015873,262.46031746031747,242.3015873015873,252.77777777777777,231.5079365079365,-10.873015873015872,13.412698412698411,-166.26984126984127
348,253.7301587301587,262.6190476190476,245.15873015873015,237.85714285714283,253.25396825396825,251.66666666666666,262.1428571428571,218.4920634920635,255.63492063492063,233.25396825396825,233.57142857142856,242.14285714285714,250.07936507936506,230.3968253968254,245.3174603174603,243.7301587301587,245.95238095238093,256.1111111111111,236.1111111111111,246.74603174603172,225.63492063492063,-25.0,-10.079365079365079,-166.26984126984127
349,253.7301587301587,262.6190476190476,245.15873015873015,237.85714285714283,253.25396825396825,251.66666666666666,262.1428571428571,218.4920634920635,255.63492063492063,233.25396825396825,233.57142857142856,242.14285714285714,250.07936507936506,230.3968253968254,245.3174603174603,243.7301587301587,245.95238095238093,256.1111111111111,236.1111111111111,246.74603174603172,225.63492063492063,-25.0,-10.079365079365079,-166.26984126984127
350,249.28571428571428,258.3333333333333,241.03174603174602,233.7301587301587,249.12698412698413,247.69841269841268,257.85714285714283,214.84126984126982,251.5079365079365,229.12698412698413,229.9206349206349,238.49206349206347,245.79365079365078,226.42857142857142,241.19047619047618,239.44444444444443,241.98412698412696,251.98412698412696,232.3015873015873,242.6190476190476,221.66666666666666,24.68253968253968,8.333333333333332,-321.8253968253968
351,249.28571428571428,258.3333333333333,241.03174603174602,233.7301587301587,249.12698412698413,247.69841269841268,257.85714285714283,214.84126984126982,251.5079365079365,229.12698412698413,229.9206349206349,238.49206349206347,245.79365079365078,226.42857142857142,241.19047619047618,239.44444444444443,241.98412698412696,251.98412698412696,232.3015873015873,242.6190476190476,221.66666666666666,24.68253968253968,8.333333333333332,-321.8253968253968
352,245.0,254.04761904761904,236.74603174603175,230.07936507936506,245.15873015873015,243.57142857142856,253.57142857142856,211.19047619047618,247.38095238095238,225.3174603174603,226.26984126984127,234.2063492063492,241.8253968253968,222.46031746031744,237.2222222222222,235.63492063492063,237.69841269841268,248.015873015873,228.33333333333331,238.65079365079364,218.015873015873,-24.68253968253968,-9.126984126984127,-321.8253968253968
