,Fp1[1],Fp2[2],F3[3],F4[4],C3[5],C4[6],P3[7],P4[8],O1[9],O2[10],F7[11],F8[12],T3[13],T4[14],T5[15],T6[16],Fz[17],Pz[18],Cz[19],Pg1[20],Pg2[21],EOGR[22],EOOGL[23],EMG[24]
0,-156.11111111111111,-181.19047619047618,-179.76190476190476,-178.65079365079364,-163.88888888888889,22.619047619047617,3.73015873015873,8.65079365079365,-325.0,-95.15873015873015,325.0,-15.95238095238095,-325.0,-325.0,-325.0,325.0,-325.0,325.0,-182.46031746031744,-325.0,-230.87301587301587,0.873015873015873,8.809523809523808,-166.26984126984127
1,-156.11111111111111,-181.19047619047618,-179.76190476190476,-178.65079365079364,-163.88888888888889,22.619047619047617,3.73015873015873,8.65079365079365,-325.0,-95.15873015873015,325.0,-15.95238095238095,-325.0,-325.0,-325.0,325.0,-325.0,325.0,-182.46031746031744,-325.0,-230.87301587301587,0.873015873015873,8.809523809523808,-166.26984126984127
2,-300.07936507936506,325.0,-297.06349206349205,14.682539682539682,-301.19047619047615,325.0,-304.5238095238095,325.0,-302.6190476190476,-93.73015873015872,325.0,-21.03174603174603,-305.0,-325.0,-304.04761904761904,325.0,-300.87301587301585,325.0,-171.34920634920633,-325.0,-212.14285714285714,-0.873015873015873,6.111111111111111,-166.26984126984127
3,-300.07936507936506,325.0,-297.06349206349205,14.682539682539682,-301.19047619047615,325.0,-304.5238095238095,325.0,-302.6190476190476,-93.73015873015872,325.0,-21.03174603174603,-305.0,-325.0,-304.04761904761904,325.0,-300.87301587301585,325.0,-171.34920634920633,-325.0,-212.14285714285714,-0.873015873015873,6.111111111111111,-166.26984126984127
4,-300.07936507936506,325.0,-297.06349206349205,14.682539682539682,-301.19047619047615,325.0,-304.5238095238095,325.0,-302.6190476190476,-93.73015873015872,325.0,-21.03174603174603,-305.0,-325.0,-304.04761904761904,325.0,-300.87301587301585,325.0,-171.34920634920633,-325.0,-212.14285714285714,-0.873015873015873,6.111111111111111,-166.26984126984127
5,-300.07936507936506,325.0,-297.06349206349205,14.682539682539682,-301.19047619047615,325.0,-304.5238095238095,325.0,-302.6190476190476,-93.73015873015872,325.0,-21.03174603174603,-305.0,-325.0,-304.04761904761904,325.0,-300.87301587301585,325.0,-171.34920634920633,-325.0,-212.14285714285714,-0.873015873015873,6.111111111111111,-166.26984126984127
6,-280.07936507936506,325.0,-278.4920634920635,15.634920634920634,-281.66666666666663,325.0,-285.0,325.0,-282.9365079365079,-69.76190476190476,325.0,-12.142857142857142,-286.1111111111111,-325.0,-285.4761904761905,325.0,-281.031746031746,325.0,-128.4920634920635,-325.0,-160.87301587301587,-0.5555555555555556,0.07936507936507936,-166.26984126984127
7,-280.07936507936506,325.0,-278.4920634920635,15.634920634920634,-281.66666666666663,325.0,-285.0,325.0,-282.9365079365079,-69.76190476190476,325.0,-12.142857142857142,-286.1111111111111,-325.0,-285.4761904761905,325.0,-281.031746031746,325.0,-128.4920634920635,-325.0,-160.87301587301587,-0.5555555555555556,0.07936507936507936,-166.26984126984127
8,-295.6349206349206,325.0,-293.73015873015873,20.555555555555554,-296.74603174603175,325.0,-301.031746031746,325.0,-298.17460317460313,-38.49206349206349,325.0,1.507936507936508,-301.5079365079365,-325.0,-300.55555555555554,325.0,-294.36507936507934,325.0,-74.84126984126983,-325.0,-98.49206349206348,-0.7142857142857142,-1.507936507936508,-166.26984126984127
9,-295.6349206349206,325.0,-293.73015873015873,20.555555555555554,-296.74603174603175,325.0,-301.031746031746,325.0,-298.17460317460313,-38.49206349206349,325.0,1.507936507936508,-301.5079365079365,-325.0,-300.55555555555554,325.0,-294.36507936507934,325.0,-74.84126984126983,-325.0,-98.49206349206348,-0.7142857142857142,-1.507936507936508,-166.26984126984127
10,-282.9365079365079,325.0,-281.8253968253968,17.539682539682538,-285.4761904761905,325.0,-288.015873015873,325.0,-286.1111111111111,-35.63492063492063,325.0,0.7142857142857142,-288.968253968254,-325.0,-288.17460317460313,325.0,-281.3492063492063,325.0,-67.53968253968253,-325.0,-91.03174603174602,0.7142857142857142,0.873015873015873,-321.8253968253968
11,-282.9365079365079,325.0,-281.8253968253968,17.539682539682538,-285.4761904761905,325.0,-288.015873015873,325.0,-286.1111111111111,-35.63492063492063,325.0,0.7142857142857142,-288.968253968254,-325.0,-288.17460317460313,325.0,-281.3492063492063,325.0,-67.53968253968253,-325.0,-91.03174603174602,0.7142857142857142,0.873015873015873,-321.8253968253968
12,-277.6984126984127,322.1428571428571,-275.95238095238096,14.682539682539682,-279.6031746031746,325.0,-282.6190476190476,325.0,-280.87301587301585,-33.095238095238095,325.0,-0.07936507936507936,-283.25396825396825,-325.0,-282.9365079365079,325.0,-275.4761904761905,325.0,-61.19047619047619,-325.0,-83.57142857142857,-1.0317460317460316,-0.873015873015873,-321.8253968253968
13,-277.6984126984127,322.1428571428571,-275.95238095238096,14.682539682539682,-279.6031746031746,325.0,-282.6190476190476,325.0,-280.87301587301585,-33.095238095238095,325.0,-0.07936507936507936,-283.25396825396825,-325.0,-282.9365079365079,325.0,-275.4761904761905,325.0,-61.19047619047619,-325.0,-83.57142857142857,-1.0317460317460316,-0.873015873015873,-321.8253968253968
14,-282.9365079365079,316.58730158730157,-281.3492063492063,17.539682539682538,-285.3174603174603,325.0,-287.85714285714283,325.0,-286.26984126984127,-24.84126984126984,325.0,4.682539682539682,-289.1269841269841,-325.0,-288.015873015873,325.0,-280.87301587301585,325.0,-49.6031746031746,-325.0,-71.66666666666666,-0.23809523809523808,0.873015873015873,-321.8253968253968
15,-282.9365079365079,316.58730158730157,-281.3492063492063,17.539682539682538,-285.3174603174603,325.0,-287.85714285714283,325.0,-286.26984126984127,-24.84126984126984,325.0,4.682539682539682,-289.1269841269841,-325.0,-288.015873015873,325.0,-280.87301587301585,325.0,-49.6031746031746,-325.0,-71.66666666666666,-0.23809523809523808,0.873015873015873,-321.8253968253968
16,-265.6349206349206,303.25396825396825,-264.04761904761904,10.714285714285714,-268.3333333333333,325.0,-270.7142857142857,325.0,-269.44444444444446,-19.92063492063492,325.0,1.6666666666666665,-271.5079365079365,-325.0,-270.7142857142857,325.0,-262.6190476190476,325.0,-36.58730158730159,-325.0,-56.74603174603174,-1.0317460317460316,-7.3809523809523805,-321.8253968253968
17,-265.6349206349206,303.25396825396825,-264.04761904761904,10.714285714285714,-268.3333333333333,325.0,-270.7142857142857,325.0,-269.44444444444446,-19.92063492063492,325.0,1.6666666666666665,-271.5079365079365,-325.0,-270.7142857142857,325.0,-262.6190476190476,325.0,-36.58730158730159,-325.0,-56.74603174603174,-1.0317460317460316,-7.3809523809523805,-321.8253968253968
18,-262.46031746031747,294.2063492063492,-260.39682539682536,14.523809523809524,-265.3174603174603,325.0,-267.22222222222223,325.0,-266.4285714285714,-7.5396825396825395,325.0,8.968253968253968,-269.1269841269841,-325.0,-267.06349206349205,325.0,-259.9206349206349,325.0,-19.126984126984127,-325.0,-38.01587301587301,-0.23809523809523808,-6.587301587301587,-321.8253968253968
19,-262.46031746031747,294.2063492063492,-260.39682539682536,14.523809523809524,-265.3174603174603,325.0,-267.22222222222223,325.0,-266.4285714285714,-7.5396825396825395,325.0,8.968253968253968,-269.1269841269841,-325.0,-267.06349206349205,325.0,-259.9206349206349,325.0,-19.126984126984127,-325.0,-38.01587301587301,-0.23809523809523808,-6.587301587301587,-321.8253968253968
20,-250.7142857142857,288.3333333333333,-248.49206349206347,13.412698412698411,-253.7301587301587,325.0,-255.95238095238093,325.0,-255.47619047619045,-4.0476190476190474,325.0,9.603174603174603,-256.4285714285714,-325.0,-256.26984126984127,325.0,-247.38095238095238,325.0,-12.142857142857142,-325.0,-28.015873015873016,0.23809523809523808,7.063492063492063,-166.26984126984127
21,-250.7142857142857,288.3333333333333,-248.49206349206347,13.412698412698411,-253.7301587301587,325.0,-255.95238095238093,325.0,-255.47619047619045,-4.0476190476190474,325.0,9.603174603174603,-256.4285714285714,-325.0,-256.26984126984127,325.0,-247.38095238095238,325.0,-12.142857142857142,-325.0,-28.015873015873016,0.23809523809523808,7.063492063492063,-166.26984126984127
22,-246.9047619047619,283.25396825396825,-245.0,15.476190476190474,-250.07936507936506,325.0,-251.66666666666666,325.0,-251.34920634920633,2.142857142857143,325.0,13.095238095238095,-253.25396825396825,-325.0,-251.8253968253968,325.0,-243.25396825396825,325.0,-3.888888888888889,-325.0,-19.126984126984127,-0.3968253968253968,-8.174603174603174,-166.26984126984127
23,-246.9047619047619,283.25396825396825,-245.0,15.476190476190474,-250.07936507936506,325.0,-251.66666666666666,325.0,-251.34920634920633,2.142857142857143,325.0,13.095238095238095,-253.25396825396825,-325.0,-251.8253968253968,325.0,-243.25396825396825,325.0,-3.888888888888889,-325.0,-19.126984126984127,-0.3968253968253968,-8.174603174603174,-166.26984126984127
24,-122.46031746031746,206.42857142857142,-119.92063492063491,12.777777777777777,-129.12698412698413,258.015873015873,-126.26984126984127,263.25396825396825,-129.6031746031746,43.095238095238095,269.44444444444446,25.476190476190474,-128.33333333333331,-249.9206349206349,-127.53968253968253,325.0,-118.65079365079364,249.28571428571428,61.34920634920635,-266.1111111111111,86.9047619047619,0.7142857142857142,-0.5555555555555556,-166.26984126984127
25,-122.46031746031746,206.42857142857142,-119.92063492063491,12.777777777777777,-129.12698412698413,258.015873015873,-126.26984126984127,263.25396825396825,-129.6031746031746,43.095238095238095,269.44444444444446,25.476190476190474,-128.33333333333331,-249.9206349206349,-127.53968253968253,325.0,-118.65079365079364,249.28571428571428,61.34920634920635,-266.1111111111111,86.9047619047619,0.7142857142857142,-0.5555555555555556,-166.26984126984127
26,10.396825396825395,-60.71428571428571,11.031746031746032,3.571428571428571,6.746031746031746,177.06349206349205,10.079365079365079,181.5079365079365,7.857142857142857,29.285714285714285,185.3174603174603,13.73015873015873,10.238095238095237,-170.55555555555554,8.65079365079365,313.73015873015873,12.3015873015873,172.3015873015873,44.68253968253968,-182.3015873015873,63.25396825396825,0.23809523809523808,-0.23809523809523808,-166.26984126984127
27,10.396825396825395,-60.71428571428571,11.031746031746032,3.571428571428571,6.746031746031746,177.06349206349205,10.079365079365079,181.5079365079365,7.857142857142857,29.285714285714285,185.3174603174603,13.73015873015873,10.238095238095237,-170.55555555555554,8.65079365079365,313.73015873015873,12.3015873015873,172.3015873015873,44.68253968253968,-182.3015873015873,63.25396825396825,0.23809523809523808,-0.23809523809523808,-166.26984126984127
28,58.96825396825397,-30.555555555555554,130.07936507936506,-45.79365079365079,119.6031746031746,-98.96825396825396,20.238095238095237,85.31746031746032,272.6190476190476,-50.55555555555555,72.3015873015873,9.761904761904761,225.63492063492063,60.079365079365076,223.57142857142856,-235.79365079365078,219.12698412698413,106.74603174603175,12.3015873015873,-99.6031746031746,35.0,-0.873015873015873,15.158730158730158,-166.26984126984127
29,58.96825396825397,-30.555555555555554,130.07936507936506,-45.79365079365079,119.6031746031746,-98.96825396825396,20.238095238095237,85.31746031746032,272.6190476190476,-50.55555555555555,72.3015873015873,9.761904761904761,225.63492063492063,60.079365079365076,223.57142857142856,-235.79365079365078,219.12698412698413,106.74603174603175,12.3015873015873,-99.6031746031746,35.0,-0.873015873015873,15.158730158730158,-166.26984126984127
30,319.4444444444444,-319.2857142857143,318.4920634920635,-18.333333333333332,322.46031746031747,-325.0,323.73015873015873,-325.0,324.8412698412698,-9.285714285714285,72.93650793650794,-15.793650793650793,324.5238095238095,-64.68253968253968,322.77777777777777,-320.07936507936506,318.015873015873,-325.0,-1.984126984126984,-70.23809523809524,-4.523809523809524,-0.873015873015873,-1.0317460317460316,-321.8253968253968
31,319.4444444444444,-319.2857142857143,318.4920634920635,-18.333333333333332,322.46031746031747,-325.0,323.73015873015873,-325.0,324.8412698412698,-9.285714285714285,72.93650793650794,-15.793650793650793,324.5238095238095,-64.68253968253968,322.77777777777777,-320.07936507936506,318.015873015873,-325.0,-1.984126984126984,-70.23809523809524,-4.523809523809524,-0.873015873015873,-1.0317460317460316,-321.8253968253968
32,191.19047619047618,-308.968253968254,192.3015873015873,-9.285714285714285,200.07936507936506,-325.0,198.015873015873,-325.0,201.66666666666666,-0.07936507936507936,70.23809523809524,-5.952380952380952,199.76190476190476,-62.61904761904761,197.38095238095238,325.0,185.3174603174603,-325.0,6.428571428571428,-68.01587301587301,2.9365079365079363,-1.984126984126984,-1.8253968253968254,-321.8253968253968
33,191.19047619047618,-308.968253968254,192.3015873015873,-9.285714285714285,200.07936507936506,-325.0,198.015873015873,-325.0,201.66666666666666,-0.07936507936507936,70.23809523809524,-5.952380952380952,199.76190476190476,-62.61904761904761,197.38095238095238,325.0,185.3174603174603,-325.0,6.428571428571428,-68.01587301587301,2.9365079365079363,-1.984126984126984,-1.8253968253968254,-321.8253968253968
34,189.60317460317458,-302.46031746031747,186.58730158730157,-8.015873015873016,195.63492063492063,-325.0,196.42857142857142,-325.0,200.23809523809524,-0.3968253968253968,68.96825396825396,-5.7936507936507935,199.44444444444443,-61.19047619047619,194.84126984126982,325.0,186.58730158730157,-325.0,5.952380952380952,-66.58730158730158,0.7142857142857142,-0.3968253968253968,1.507936507936508,-321.8253968253968
35,189.60317460317458,-302.46031746031747,186.58730158730157,-8.015873015873016,195.63492063492063,-325.0,196.42857142857142,-325.0,200.23809523809524,-0.3968253968253968,68.96825396825396,-5.7936507936507935,199.44444444444443,-61.19047619047619,194.84126984126982,325.0,186.58730158730157,-325.0,5.952380952380952,-66.58730158730158,0.7142857142857142,-0.3968253968253968,1.507936507936508,-321.8253968253968
36,196.26984126984127,-192.61904761904762,-66.42857142857143,-74.68253968253968,80.55555555555556,-4.365079365079365,-39.44444444444444,-221.66666666666666,-19.76190476190476,82.93650793650794,43.57142857142857,39.12698412698413,82.14285714285714,35.0,-0.5555555555555556,0.3968253968253968,165.47619047619045,-19.76190476190476,49.285714285714285,49.6031746031746,25.952380952380953,-10.079365079365079,14.047619047619047,-321.8253968253968
37,196.26984126984127,-192.61904761904762,-66.42857142857143,-74.68253968253968,80.55555555555556,-4.365079365079365,-39.44444444444444,-221.66666666666666,-19.76190476190476,82.93650793650794,43.57142857142857,39.12698412698413,82.14285714285714,35.0,-0.5555555555555556,0.3968253968253968,165.47619047619045,-19.76190476190476,49.285714285714285,49.6031746031746,25.952380952380953,-10.079365079365079,14.047619047619047,-321.8253968253968
38,156.11111111111111,-287.85714285714283,154.84126984126982,-5.634920634920634,163.88888888888889,-325.0,164.2063492063492,-325.0,168.17460317460316,1.1904761904761905,65.47619047619047,-4.2063492063492065,165.0,-58.17460317460317,163.73015873015873,325.0,152.3015873015873,-325.0,6.746031746031746,-63.25396825396825,2.142857142857143,-0.23809523809523808,-2.7777777777777777,-321.8253968253968
39,156.11111111111111,-287.85714285714283,154.84126984126982,-5.634920634920634,163.88888888888889,-325.0,164.2063492063492,-325.0,168.17460317460316,1.1904761904761905,65.47619047619047,-4.2063492063492065,165.0,-58.17460317460317,163.73015873015873,325.0,152.3015873015873,-325.0,6.746031746031746,-63.25396825396825,2.142857142857143,-0.23809523809523808,-2.7777777777777777,-321.8253968253968
40,150.23809523809524,-281.984126984127,148.4920634920635,-1.984126984126984,158.015873015873,-325.0,156.9047619047619,-325.0,161.5079365079365,5.0,64.04761904761905,0.23809523809523808,160.3968253968254,-56.904761904761905,156.26984126984127,325.0,147.85714285714286,-325.0,9.920634920634921,-61.82539682539682,3.888888888888889,0.07936507936507936,8.65079365079365,-166.26984126984127
41,150.23809523809524,-281.984126984127,148.4920634920635,-1.984126984126984,158.015873015873,-325.0,156.9047619047619,-325.0,161.5079365079365,5.0,64.04761904761905,0.23809523809523808,160.3968253968254,-56.904761904761905,156.26984126984127,325.0,147.85714285714286,-325.0,9.920634920634921,-61.82539682539682,3.888888888888889,0.07936507936507936,8.65079365079365,-166.26984126984127
42,161.5079365079365,-257.22222222222223,159.76190476190476,0.7142857142857142,170.3968253968254,-325.0,168.33333333333331,-325.0,173.73015873015873,5.0,58.33333333333333,1.984126984126984,172.93650793650792,-51.666666666666664,169.76190476190476,-0.07936507936507936,161.984126984127,-325.0,9.444444444444445,-56.269841269841265,0.7142857142857142,-0.3968253968253968,2.3015873015873014,-166.26984126984127
43,161.5079365079365,-257.22222222222223,159.76190476190476,0.7142857142857142,170.3968253968254,-325.0,168.33333333333331,-325.0,173.73015873015873,5.0,58.33333333333333,1.984126984126984,172.93650793650792,-51.666666666666664,169.76190476190476,-0.07936507936507936,161.984126984127,-325.0,9.444444444444445,-56.269841269841265,0.7142857142857142,-0.3968253968253968,2.3015873015873014,-166.26984126984127
44,242.46031746031744,-227.69841269841268,241.19047619047618,-10.873015873015872,252.3015873015873,-325.0,250.3968253968254,-325.0,254.2063492063492,-8.65079365079365,51.507936507936506,-10.873015873015872,251.5079365079365,-45.317460317460316,249.9206349206349,-325.0,237.2222222222222,-325.0,-5.0,-49.44444444444444,-13.73015873015873,-0.3968253968253968,-3.73015873015873,-166.26984126984127
45,242.46031746031744,-227.69841269841268,241.19047619047618,-10.873015873015872,252.3015873015873,-325.0,250.3968253968254,-325.0,254.2063492063492,-8.65079365079365,51.507936507936506,-10.873015873015872,251.5079365079365,-45.317460317460316,249.9206349206349,-325.0,237.2222222222222,-325.0,-5.0,-49.44444444444444,-13.73015873015873,-0.3968253968253968,-3.73015873015873,-166.26984126984127
46,171.5079365079365,-14.523809523809524,223.7301587301587,-325.0,-100.87301587301587,-304.68253968253964,-97.38095238095238,-33.73015873015873,48.33333333333333,-15.158730158730158,205.15873015873015,-42.460317460317455,-123.25396825396825,-325.0,-153.4126984126984,-325.0,315.0,-67.06349206349206,286.26984126984127,21.19047619047619,-301.19047619047615,-22.777777777777775,-301.5079365079365,-166.26984126984127
47,171.5079365079365,-14.523809523809524,223.7301587301587,-325.0,-100.87301587301587,-304.68253968253964,-97.38095238095238,-33.73015873015873,48.33333333333333,-15.158730158730158,205.15873015873015,-42.460317460317455,-123.25396825396825,-325.0,-153.4126984126984,-325.0,315.0,-67.06349206349206,286.26984126984127,21.19047619047619,-301.19047619047615,-22.777777777777775,-301.5079365079365,-166.26984126984127
48,174.52380952380952,-161.03174603174602,173.25396825396825,-13.73015873015873,178.96825396825395,-325.0,175.15873015873015,-325.0,176.9047619047619,-15.158730158730158,36.11111111111111,-14.047619047619047,173.09523809523807,325.0,173.57142857142856,-325.0,164.04761904761904,-325.0,-15.634920634920634,325.0,-66.11111111111111,-2.46031746031746,-5.7936507936507935,-166.26984126984127
49,174.52380952380952,-161.03174603174602,173.25396825396825,-13.73015873015873,178.96825396825395,-325.0,175.15873015873015,-325.0,176.9047619047619,-15.158730158730158,36.11111111111111,-14.047619047619047,173.09523809523807,325.0,173.57142857142856,-325.0,164.04761904761904,-325.0,-15.634920634920634,325.0,-66.11111111111111,-2.46031746031746,-5.7936507936507935,-166.26984126984127
50,-141.984126984127,66.11111111111111,-112.93650793650794,-45.95238095238095,-145.3174603174603,74.68253968253968,-98.17460317460316,-168.65079365079364,-55.317460317460316,163.57142857142856,50.87301587301587,-145.47619047619048,-107.38095238095238,248.17460317460316,4.523809523809524,-233.57142857142856,-43.73015873015873,-106.58730158730158,-155.47619047619048,227.2222222222222,-151.66666666666666,0.873015873015873,-152.46031746031744,-321.8253968253968
51,-141.984126984127,66.11111111111111,-112.93650793650794,-45.95238095238095,-145.3174603174603,74.68253968253968,-98.17460317460316,-168.65079365079364,-55.317460317460316,163.57142857142856,50.87301587301587,-145.47619047619048,-107.38095238095238,248.17460317460316,4.523809523809524,-233.57142857142856,-43.73015873015873,-106.58730158730158,-155.47619047619048,227.2222222222222,-151.66666666666666,0.873015873015873,-152.46031746031744,-321.8253968253968
52,-241.5079365079365,177.06349206349205,-185.47619047619045,-109.12698412698413,-243.7301587301587,257.38095238095235,-151.66666666666666,-241.8253968253968,-63.57142857142857,316.1111111111111,263.57142857142856,-303.4126984126984,-168.65079365079364,305.95238095238096,55.0,-142.14285714285714,-43.73015873015873,-106.58730158730158,-318.015873015873,217.06349206349205,-151.66666666666666,0.873015873015873,-315.0,-321.8253968253968
53,-241.5079365079365,177.06349206349205,-185.47619047619045,-109.12698412698413,-243.7301587301587,257.38095238095235,-151.66666666666666,-241.8253968253968,-63.57142857142857,316.1111111111111,263.57142857142856,-303.4126984126984,-168.65079365079364,305.95238095238096,55.0,-142.14285714285714,-43.73015873015873,-106.58730158730158,-318.015873015873,217.06349206349205,-151.66666666666666,0.873015873015873,-315.0,-321.8253968253968
54,-176.9047619047619,-36.74603174603175,-178.015873015873,6.746031746031746,-182.46031746031744,-87.85714285714285,-182.3015873015873,-78.01587301587301,-181.03174603174602,1.6666666666666665,-178.4920634920635,2.9365079365079363,-182.14285714285714,152.77777777777777,-181.8253968253968,325.0,-177.69841269841268,-87.06349206349206,-1.6666666666666665,192.14285714285714,-121.19047619047619,0.07936507936507936,-0.3968253968253968,-321.8253968253968
55,-176.9047619047619,-36.74603174603175,-178.015873015873,6.746031746031746,-182.46031746031744,-87.85714285714285,-182.3015873015873,-78.01587301587301,-181.03174603174602,1.6666666666666665,-178.4920634920635,2.9365079365079363,-182.14285714285714,152.77777777777777,-181.8253968253968,325.0,-177.69841269841268,-87.06349206349206,-1.6666666666666665,192.14285714285714,-121.19047619047619,0.07936507936507936,-0.3968253968253968,-321.8253968253968
56,-178.8095238095238,-36.42857142857142,-180.87301587301587,6.26984126984127,-184.2063492063492,-87.06349206349206,-184.2063492063492,-77.38095238095238,-182.3015873015873,1.349206349206349,-178.65079365079364,2.619047619047619,-183.4126984126984,151.5079365079365,-183.25396825396825,325.0,-177.85714285714286,-86.26984126984127,-1.984126984126984,190.55555555555554,-120.07936507936508,-1.1904761904761905,-11.031746031746032,-321.8253968253968
57,-178.8095238095238,-36.42857142857142,-180.87301587301587,6.26984126984127,-184.2063492063492,-87.06349206349206,-184.2063492063492,-77.38095238095238,-182.3015873015873,1.349206349206349,-178.65079365079364,2.619047619047619,-183.4126984126984,151.5079365079365,-183.25396825396825,325.0,-177.85714285714286,-86.26984126984127,-1.984126984126984,190.55555555555554,-120.07936507936508,-1.1904761904761905,-11.031746031746032,-321.8253968253968
58,-178.8095238095238,-36.42857142857142,-180.87301587301587,6.26984126984127,-184.2063492063492,-87.06349206349206,-184.2063492063492,-77.38095238095238,-182.3015873015873,1.349206349206349,-178.65079365079364,2.619047619047619,-183.4126984126984,151.5079365079365,-183.25396825396825,325.0,-177.85714285714286,-86.26984126984127,-1.984126984126984,190.55555555555554,-120.07936507936508,-1.1904761904761905,-11.031746031746032,-321.8253968253968
59,-178.8095238095238,-36.42857142857142,-180.87301587301587,6.26984126984127,-184.2063492063492,-87.06349206349206,-184.2063492063492,-77.38095238095238,-182.3015873015873,1.349206349206349,-178.65079365079364,2.619047619047619,-183.4126984126984,151.5079365079365,-183.25396825396825,325.0,-177.85714285714286,-86.26984126984127,-1.984126984126984,190.55555555555554,-120.07936507936508,-1.1904761904761905,-11.031746031746032,-321.8253968253968
60,-179.9206349206349,-35.63492063492063,-180.23809523809524,8.492063492063492,-184.68253968253967,-85.0,-185.63492063492063,-75.63492063492063,-183.7301587301587,3.73015873015873,-179.60317460317458,5.158730158730158,-184.68253968253967,147.53968253968253,-184.84126984126982,325.0,-179.9206349206349,-84.36507936507937,0.5555555555555556,185.79365079365078,-117.06349206349206,-0.3968253968253968,-0.7142857142857142,-166.26984126984127
61,-179.9206349206349,-35.63492063492063,-180.23809523809524,8.492063492063492,-184.68253968253967,-85.0,-185.63492063492063,-75.63492063492063,-183.7301587301587,3.73015873015873,-179.60317460317458,5.158730158730158,-184.68253968253967,147.53968253968253,-184.84126984126982,325.0,-179.9206349206349,-84.36507936507937,0.5555555555555556,185.79365079365078,-117.06349206349206,-0.3968253968253968,-0.7142857142857142,-166.26984126984127
62,-175.15873015873015,-34.52380952380952,-174.2063492063492,15.476190476190474,-180.55555555555554,-82.3015873015873,-179.76190476190476,-73.4126984126984,-179.28571428571428,9.603174603174603,-180.7142857142857,11.349206349206348,-183.09523809523807,142.46031746031744,-180.23809523809524,325.0,-178.96825396825395,-81.66666666666666,7.857142857142857,179.60317460317458,-112.77777777777777,0.7142857142857142,-1.0317460317460316,-166.26984126984127
63,-175.15873015873015,-34.52380952380952,-174.2063492063492,15.476190476190474,-180.55555555555554,-82.3015873015873,-179.76190476190476,-73.4126984126984,-179.28571428571428,9.603174603174603,-180.7142857142857,11.349206349206348,-183.09523809523807,142.46031746031744,-180.23809523809524,325.0,-178.96825396825395,-81.66666666666666,7.857142857142857,179.60317460317458,-112.77777777777777,0.7142857142857142,-1.0317460317460316,-166.26984126984127
64,-175.15873015873015,-34.52380952380952,-174.2063492063492,15.476190476190474,-180.55555555555554,-82.3015873015873,-179.76190476190476,-73.4126984126984,-179.28571428571428,9.603174603174603,-180.7142857142857,11.349206349206348,-183.09523809523807,142.46031746031744,-180.23809523809524,325.0,-178.96825396825395,-81.66666666666666,7.857142857142857,179.60317460317458,-112.77777777777777,0.7142857142857142,-1.0317460317460316,-166.26984126984127
65,-175.15873015873015,-34.52380952380952,-174.2063492063492,15.476190476190474,-180.55555555555554,-82.3015873015873,-179.76190476190476,-73.4126984126984,-179.28571428571428,9.603174603174603,-180.7142857142857,11.349206349206348,-183.09523809523807,142.46031746031744,-180.23809523809524,325.0,-178.96825396825395,-81.66666666666666,7.857142857142857,179.60317460317458,-112.77777777777777,0.7142857142857142,-1.0317460317460316,-166.26984126984127
66,-21.507936507936506,99.28571428571428,-23.253968253968253,1.0317460317460316,-23.730158730158728,-38.49206349206349,-25.476190476190474,-35.0,-22.142857142857142,1.0317460317460316,-325.0,1.349206349206349,-25.317460317460316,62.93650793650793,-25.952380952380953,-79.92063492063491,-24.365079365079364,-38.96825396825397,-1.1904761904761905,81.82539682539682,-49.44444444444444,-0.23809523809523808,-0.3968253968253968,-166.26984126984127
67,-21.507936507936506,99.28571428571428,-23.253968253968253,1.0317460317460316,-23.730158730158728,-38.49206349206349,-25.476190476190474,-35.0,-22.142857142857142,1.0317460317460316,-325.0,1.349206349206349,-25.317460317460316,62.93650793650793,-25.952380952380953,-79.92063492063491,-24.365079365079364,-38.96825396825397,-1.1904761904761905,81.82539682539682,-49.44444444444444,-0.23809523809523808,-0.3968253968253968,-166.26984126984127
68,-0.5555555555555556,75.95238095238095,-1.8253968253968254,-5.158730158730158,-3.571428571428571,-38.17460317460317,-4.365079365079365,-34.682539682539684,-2.46031746031746,-4.523809523809524,-325.0,-4.0476190476190474,-7.5396825396825395,62.3015873015873,-7.222222222222221,-27.857142857142854,-7.857142857142857,-38.65079365079365,-6.746031746031746,81.19047619047619,-48.96825396825397,-2.3015873015873014,-10.555555555555555,-166.26984126984127
69,-0.5555555555555556,75.95238095238095,-1.8253968253968254,-5.158730158730158,-3.571428571428571,-38.17460317460317,-4.365079365079365,-34.682539682539684,-2.46031746031746,-4.523809523809524,-325.0,-4.0476190476190474,-7.5396825396825395,62.3015873015873,-7.222222222222221,-27.857142857142854,-7.857142857142857,-38.65079365079365,-6.746031746031746,81.19047619047619,-48.96825396825397,-2.3015873015873014,-10.555555555555555,-166.26984126984127
70,-0.5555555555555556,75.95238095238095,-1.8253968253968254,-5.158730158730158,-3.571428571428571,-38.17460317460317,-4.365079365079365,-34.682539682539684,-2.46031746031746,-4.523809523809524,-325.0,-4.0476190476190474,-7.5396825396825395,62.3015873015873,-7.222222222222221,-27.857142857142854,-7.857142857142857,-38.65079365079365,-6.746031746031746,81.19047619047619,-48.96825396825397,-2.3015873015873014,-10.555555555555555,-321.8253968253968
71,-0.5555555555555556,75.95238095238095,-1.8253968253968254,-5.158730158730158,-3.571428571428571,-38.17460317460317,-4.365079365079365,-34.682539682539684,-2.46031746031746,-4.523809523809524,-325.0,-4.0476190476190474,-7.5396825396825395,62.3015873015873,-7.222222222222221,-27.857142857142854,-7.857142857142857,-38.65079365079365,-6.746031746031746,81.19047619047619,-48.96825396825397,-2.3015873015873014,-10.555555555555555,-321.8253968253968
72,-38.17460317460317,295.6349206349206,-30.238095238095237,5.317460317460317,25.79365079365079,-13.888888888888888,-30.87301587301587,-13.095238095238095,297.38095238095235,4.682539682539682,-160.23809523809524,5.317460317460317,-30.555555555555554,19.76190476190476,-30.555555555555554,325.0,-30.07936507936508,-14.682539682539682,4.365079365079365,8.968253968253968,276.74603174603175,0.873015873015873,1.507936507936508,-321.8253968253968
73,-38.17460317460317,295.6349206349206,-30.238095238095237,5.317460317460317,25.79365079365079,-13.888888888888888,-30.87301587301587,-13.095238095238095,297.38095238095235,4.682539682539682,-160.23809523809524,5.317460317460317,-30.555555555555554,19.76190476190476,-30.555555555555554,325.0,-30.07936507936508,-14.682539682539682,4.365079365079365,8.968253968253968,276.74603174603175,0.873015873015873,1.507936507936508,-321.8253968253968
74,-37.38095238095238,138.33333333333331,-30.396825396825395,1.6666666666666665,1.349206349206349,-13.73015873015873,-31.507936507936506,-13.095238095238095,285.6349206349206,3.4126984126984126,-315.1587301587301,4.2063492063492065,-28.96825396825397,19.444444444444443,-32.14285714285714,325.0,-28.333333333333332,-14.523809523809524,2.3015873015873014,-52.3015873015873,325.0,-0.873015873015873,-8.968253968253968,-321.8253968253968
75,-37.38095238095238,138.33333333333331,-30.396825396825395,1.6666666666666665,1.349206349206349,-13.73015873015873,-31.507936507936506,-13.095238095238095,285.6349206349206,3.4126984126984126,-315.1587301587301,4.2063492063492065,-28.96825396825397,19.444444444444443,-32.14285714285714,325.0,-28.333333333333332,-14.523809523809524,2.3015873015873014,-52.3015873015873,325.0,-0.873015873015873,-8.968253968253968,-321.8253968253968
76,-17.539682539682538,231.66666666666666,-10.555555555555555,-0.5555555555555556,112.46031746031746,-13.412698412698411,-12.142857142857142,-12.936507936507935,305.3174603174603,0.07936507936507936,-241.03174603174602,0.873015873015873,-9.920634920634921,19.285714285714285,-13.412698412698411,325.0,-9.603174603174603,-14.365079365079364,-0.5555555555555556,-43.41269841269841,304.2063492063492,-1.1904761904761905,-8.174603174603174,-321.8253968253968
77,-17.539682539682538,231.66666666666666,-10.555555555555555,-0.5555555555555556,112.46031746031746,-13.412698412698411,-12.142857142857142,-12.936507936507935,305.3174603174603,0.07936507936507936,-241.03174603174602,0.873015873015873,-9.920634920634921,19.285714285714285,-13.412698412698411,325.0,-9.603174603174603,-14.365079365079364,-0.5555555555555556,-43.41269841269841,304.2063492063492,-1.1904761904761905,-8.174603174603174,-321.8253968253968
78,-28.015873015873016,111.5079365079365,-19.92063492063492,1.8253968253968254,150.55555555555554,-13.253968253968253,-21.825396825396822,-12.777777777777777,292.6190476190476,3.253968253968254,-315.95238095238096,3.888888888888889,-22.46031746031746,18.80952380952381,-22.777777777777775,325.0,-21.507936507936506,-14.047619047619047,2.46031746031746,-62.3015873015873,325.0,-0.3968253968253968,-2.46031746031746,-321.8253968253968
79,-28.015873015873016,111.5079365079365,-19.92063492063492,1.8253968253968254,150.55555555555554,-13.253968253968253,-21.825396825396822,-12.777777777777777,292.6190476190476,3.253968253968254,-315.95238095238096,3.888888888888889,-22.46031746031746,18.80952380952381,-22.777777777777775,325.0,-21.507936507936506,-14.047619047619047,2.46031746031746,-62.3015873015873,325.0,-0.3968253968253968,-2.46031746031746,-321.8253968253968
80,-55.476190476190474,279.76190476190476,-48.01587301587301,-0.07936507936507936,287.85714285714283,-13.095238095238095,-48.650793650793645,-11.666666666666666,325.0,-0.3968253968253968,-215.63492063492063,-0.07936507936507936,-48.01587301587301,18.65079365079365,-48.96825396825397,325.0,-46.904761904761905,-13.73015873015873,-0.7142857142857142,-50.87301587301587,325.0,1.6666666666666665,1.349206349206349,-166.26984126984127
81,-55.476190476190474,279.76190476190476,-48.01587301587301,-0.07936507936507936,287.85714285714283,-13.095238095238095,-48.650793650793645,-11.666666666666666,325.0,-0.3968253968253968,-215.63492063492063,-0.07936507936507936,-48.01587301587301,18.65079365079365,-48.96825396825397,325.0,-46.904761904761905,-13.73015873015873,-0.7142857142857142,-50.87301587301587,325.0,1.6666666666666665,1.349206349206349,-166.26984126984127
82,-19.126984126984127,90.71428571428571,-11.349206349206348,-10.238095238095237,219.28571428571428,-12.777777777777777,-11.507936507936508,-12.3015873015873,290.7142857142857,-8.809523809523808,-319.6031746031746,-8.174603174603174,-12.3015873015873,18.174603174603174,-12.3015873015873,325.0,-9.761904761904761,-13.571428571428571,-9.920634920634921,-175.3174603174603,325.0,-0.07936507936507936,-1.984126984126984,-166.26984126984127
83,-19.126984126984127,90.71428571428571,-11.349206349206348,-10.238095238095237,219.28571428571428,-12.777777777777777,-11.507936507936508,-12.3015873015873,290.7142857142857,-8.809523809523808,-319.6031746031746,-8.174603174603174,-12.3015873015873,18.174603174603174,-12.3015873015873,325.0,-9.761904761904761,-13.571428571428571,-9.920634920634921,-175.3174603174603,325.0,-0.07936507936507936,-1.984126984126984,-166.26984126984127
84,-46.11111111111111,178.33333333333331,-38.49206349206349,1.507936507936508,283.25396825396825,-12.619047619047619,-42.61904761904761,-7.3809523809523805,308.968253968254,2.619047619047619,-296.74603174603175,3.253968253968254,-43.41269841269841,17.857142857142858,-44.2063492063492,325.0,-42.460317460317455,-13.253968253968253,1.1904761904761905,-184.04761904761904,325.0,-1.6666666666666665,-1.507936507936508,-166.26984126984127
85,-46.11111111111111,178.33333333333331,-38.49206349206349,1.507936507936508,283.25396825396825,-12.619047619047619,-42.61904761904761,-7.3809523809523805,308.968253968254,2.619047619047619,-296.74603174603175,3.253968253968254,-43.41269841269841,17.857142857142858,-44.2063492063492,325.0,-42.460317460317455,-13.253968253968253,1.1904761904761905,-184.04761904761904,325.0,-1.6666666666666665,-1.507936507936508,-166.26984126984127
86,35.0,162.93650793650792,43.57142857142857,-5.476190476190476,293.88888888888886,-2.3015873015873014,41.507936507936506,14.84126984126984,325.0,-3.571428571428571,-247.53968253968253,-3.571428571428571,41.34920634920635,13.412698412698411,38.49206349206349,154.36507936507937,42.61904761904761,6.111111111111111,-5.317460317460317,-246.42857142857142,325.0,-1.507936507936508,6.111111111111111,-166.26984126984127
87,35.0,162.93650793650792,43.57142857142857,-5.476190476190476,293.88888888888886,-2.3015873015873014,41.507936507936506,14.84126984126984,325.0,-3.571428571428571,-247.53968253968253,-3.571428571428571,41.34920634920635,13.412698412698411,38.49206349206349,154.36507936507937,42.61904761904761,6.111111111111111,-5.317460317460317,-246.42857142857142,325.0,-1.507936507936508,6.111111111111111,-166.26984126984127
88,-46.74603174603175,-45.95238095238095,-42.93650793650794,8.809523809523808,130.07936507936506,-31.19047619047619,-41.03174603174603,12.777777777777777,115.15873015873015,12.777777777777777,-74.68253968253968,13.253968253968253,-47.857142857142854,-325.0,-38.49206349206349,277.22222222222223,-47.857142857142854,-12.936507936507935,12.777777777777777,-325.0,194.52380952380952,2.142857142857143,-4.2063492063492065,-166.26984126984127
89,-46.74603174603175,-45.95238095238095,-42.93650793650794,8.809523809523808,130.07936507936506,-31.19047619047619,-41.03174603174603,12.777777777777777,115.15873015873015,12.777777777777777,-74.68253968253968,13.253968253968253,-47.857142857142854,-325.0,-38.49206349206349,277.22222222222223,-47.857142857142854,-12.936507936507935,12.777777777777777,-325.0,194.52380952380952,2.142857142857143,-4.2063492063492065,-166.26984126984127
90,119.44444444444444,-25.634920634920633,113.88888888888889,-5.7936507936507935,108.33333333333333,-1.0317460317460316,122.46031746031746,55.15873015873016,96.1111111111111,-4.0476190476190474,-62.61904761904761,-3.4126984126984126,120.39682539682539,-272.1428571428571,120.39682539682539,-325.0,122.6190476190476,74.84126984126983,-3.571428571428571,-278.968253968254,162.77777777777777,2.46031746031746,9.603174603174603,-321.8253968253968
91,119.44444444444444,-25.634920634920633,113.88888888888889,-5.7936507936507935,108.33333333333333,-1.0317460317460316,122.46031746031746,55.15873015873016,96.1111111111111,-4.0476190476190474,-62.61904761904761,-3.4126984126984126,120.39682539682539,-272.1428571428571,120.39682539682539,-325.0,122.6190476190476,74.84126984126983,-3.571428571428571,-278.968253968254,162.77777777777777,2.46031746031746,9.603174603174603,-321.8253968253968
92,119.44444444444444,-25.634920634920633,113.88888888888889,-5.7936507936507935,108.33333333333333,-1.0317460317460316,122.46031746031746,55.15873015873016,96.1111111111111,-4.0476190476190474,-62.61904761904761,-3.4126984126984126,120.39682539682539,-272.1428571428571,120.39682539682539,-325.0,122.6190476190476,74.84126984126983,-3.571428571428571,-278.968253968254,162.77777777777777,2.46031746031746,9.603174603174603,-321.8253968253968
93,119.44444444444444,-25.634920634920633,113.88888888888889,-5.7936507936507935,108.33333333333333,-1.0317460317460316,122.46031746031746,55.15873015873016,96.1111111111111,-4.0476190476190474,-62.61904761904761,-3.4126984126984126,120.39682539682539,-272.1428571428571,120.39682539682539,-325.0,122.6190476190476,74.84126984126983,-3.571428571428571,-278.968253968254,162.77777777777777,2.46031746031746,9.603174603174603,-321.8253968253968
94,119.44444444444444,-25.634920634920633,113.88888888888889,-5.7936507936507935,108.33333333333333,-1.0317460317460316,122.46031746031746,55.15873015873016,96.1111111111111,-4.0476190476190474,-62.61904761904761,-3.4126984126984126,120.39682539682539,-272.1428571428571,120.39682539682539,-325.0,122.6190476190476,74.84126984126983,-3.571428571428571,-278.968253968254,162.77777777777777,2.46031746031746,9.603174603174603,-321.8253968253968
95,119.44444444444444,-25.634920634920633,113.88888888888889,-5.7936507936507935,108.33333333333333,-1.0317460317460316,122.46031746031746,55.15873015873016,96.1111111111111,-4.0476190476190474,-62.61904761904761,-3.4126984126984126,120.39682539682539,-272.1428571428571,120.39682539682539,-325.0,122.6190476190476,74.84126984126983,-3.571428571428571,-278.968253968254,162.77777777777777,2.46031746031746,9.603174603174603,-321.8253968253968
96,119.44444444444444,-25.634920634920633,113.88888888888889,-5.7936507936507935,108.33333333333333,-1.0317460317460316,122.46031746031746,55.15873015873016,96.1111111111111,-4.0476190476190474,-62.61904761904761,-3.4126984126984126,120.39682539682539,-272.1428571428571,120.39682539682539,-325.0,122.6190476190476,74.84126984126983,-3.571428571428571,-278.968253968254,162.77777777777777,2.46031746031746,9.603174603174603,-321.8253968253968
97,119.44444444444444,-25.634920634920633,113.88888888888889,-5.7936507936507935,108.33333333333333,-1.0317460317460316,122.46031746031746,55.15873015873016,96.1111111111111,-4.0476190476190474,-62.61904761904761,-3.4126984126984126,120.39682539682539,-272.1428571428571,120.39682539682539,-325.0,122.6190476190476,74.84126984126983,-3.571428571428571,-278.968253968254,162.77777777777777,2.46031746031746,9.603174603174603,-321.8253968253968
98,33.73015873015873,134.04761904761904,29.6031746031746,-2.142857142857143,90.87301587301587,122.14285714285714,32.61904761904762,149.6031746031746,80.39682539682539,-1.0317460317460316,-53.25396825396825,-0.5555555555555556,36.11111111111111,-156.74603174603175,30.71428571428571,169.76190476190476,35.476190476190474,143.09523809523807,-0.23809523809523808,-235.15873015873015,117.6984126984127,0.3968253968253968,6.428571428571428,-321.8253968253968
99,33.73015873015873,134.04761904761904,29.6031746031746,-2.142857142857143,90.87301587301587,122.14285714285714,32.61904761904762,149.6031746031746,80.39682539682539,-1.0317460317460316,-53.25396825396825,-0.5555555555555556,36.11111111111111,-156.74603174603175,30.71428571428571,169.76190476190476,35.476190476190474,143.09523809523807,-0.23809523809523808,-235.15873015873015,117.6984126984127,0.3968253968253968,6.428571428571428,-321.8253968253968
100,29.76190476190476,168.17460317460316,29.920634920634917,1.8253968253968254,89.92063492063491,145.63492063492063,32.61904761904762,165.47619047619045,79.28571428571428,4.2063492063492065,-52.77777777777777,4.523809523809524,31.349206349206348,-140.07936507936506,30.71428571428571,83.73015873015872,29.126984126984127,140.55555555555554,4.523809523809524,-232.14285714285714,118.65079365079364,-0.23809523809523808,-8.333333333333332,-166.26984126984127
101,29.76190476190476,168.17460317460316,29.920634920634917,1.8253968253968254,89.92063492063491,145.63492063492063,32.61904761904762,165.47619047619045,79.28571428571428,4.2063492063492065,-52.77777777777777,4.523809523809524,31.349206349206348,-140.07936507936506,30.71428571428571,83.73015873015872,29.126984126984127,140.55555555555554,4.523809523809524,-232.14285714285714,118.65079365079364,-0.23809523809523808,-8.333333333333332,-166.26984126984127
102,85.95238095238095,25.952380952380953,83.09523809523809,0.873015873015873,86.74603174603175,23.88888888888889,86.58730158730158,71.98412698412697,76.58730158730158,2.3015873015873014,-50.71428571428571,3.253968253968254,86.9047619047619,-261.031746031746,85.95238095238095,-325.0,88.01587301587301,70.55555555555556,3.4126984126984126,-224.52380952380952,131.66666666666666,-0.07936507936507936,8.968253968253968,-166.26984126984127
103,85.95238095238095,25.952380952380953,83.09523809523809,0.873015873015873,86.74603174603175,23.88888888888889,86.58730158730158,71.98412698412697,76.58730158730158,2.3015873015873014,-50.71428571428571,3.253968253968254,86.9047619047619,-261.031746031746,85.95238095238095,-325.0,88.01587301587301,70.55555555555556,3.4126984126984126,-224.52380952380952,131.66666666666666,-0.07936507936507936,8.968253968253968,-166.26984126984127
104,87.53968253968253,20.873015873015873,86.74603174603175,-3.253968253968254,85.31746031746032,24.365079365079364,89.92063492063491,71.66666666666666,75.47619047619047,-1.984126984126984,-49.76190476190476,-0.5555555555555556,90.07936507936508,-275.95238095238096,89.28571428571428,-325.0,91.03174603174602,71.19047619047619,-0.3968253968253968,-220.7142857142857,129.12698412698413,-0.07936507936507936,9.285714285714285,-166.26984126984127
105,87.53968253968253,20.873015873015873,86.74603174603175,-3.253968253968254,85.31746031746032,24.365079365079364,89.92063492063491,71.66666666666666,75.47619047619047,-1.984126984126984,-49.76190476190476,-0.5555555555555556,90.07936507936508,-275.95238095238096,89.28571428571428,-325.0,91.03174603174602,71.19047619047619,-0.3968253968253968,-220.7142857142857,129.12698412698413,-0.07936507936507936,9.285714285714285,-166.26984126984127
106,99.76190476190476,98.01587301587301,102.61904761904762,3.73015873015873,68.01587301587301,75.95238095238095,107.38095238095238,91.5079365079365,60.079365079365076,5.0,-28.809523809523807,6.746031746031746,105.63492063492063,-217.38095238095238,108.65079365079364,-325.0,101.82539682539682,84.2063492063492,7.857142857142857,-176.11111111111111,80.55555555555556,0.5555555555555556,-4.841269841269841,-166.26984126984127
107,99.76190476190476,98.01587301587301,102.61904761904762,3.73015873015873,68.01587301587301,75.95238095238095,107.38095238095238,91.5079365079365,60.079365079365076,5.0,-28.809523809523807,6.746031746031746,105.63492063492063,-217.38095238095238,108.65079365079364,-325.0,101.82539682539682,84.2063492063492,7.857142857142857,-176.11111111111111,80.55555555555556,0.5555555555555556,-4.841269841269841,-166.26984126984127
108,133.73015873015873,158.015873015873,131.66666666666666,-3.4126984126984126,66.58730158730158,168.4920634920635,136.26984126984127,159.6031746031746,58.8095238095238,-2.9365079365079363,-10.555555555555555,-1.984126984126984,140.3968253968254,-127.85714285714285,134.2063492063492,-325.0,135.63492063492063,164.52380952380952,0.23809523809523808,-158.33333333333331,19.76190476190476,-1.1904761904761905,6.111111111111111,-166.26984126984127
109,133.73015873015873,158.015873015873,131.66666666666666,-3.4126984126984126,66.58730158730158,168.4920634920635,136.26984126984127,159.6031746031746,58.8095238095238,-2.9365079365079363,-10.555555555555555,-1.984126984126984,140.3968253968254,-127.85714285714285,134.2063492063492,-325.0,135.63492063492063,164.52380952380952,0.23809523809523808,-158.33333333333331,19.76190476190476,-1.1904761904761905,6.111111111111111,-166.26984126984127
110,93.73015873015872,85.15873015873015,96.9047619047619,-4.682539682539682,65.79365079365078,75.0,101.66666666666666,94.04761904761904,58.01587301587301,-3.253968253968254,-30.555555555555554,-1.8253968253968254,100.07936507936508,-229.60317460317458,102.77777777777777,-325.0,95.79365079365078,88.65079365079364,-0.07936507936507936,-171.19047619047618,80.87301587301587,0.3968253968253968,-6.111111111111111,-321.8253968253968
111,93.73015873015872,85.15873015873015,96.9047619047619,-4.682539682539682,65.79365079365078,75.0,101.66666666666666,94.04761904761904,58.01587301587301,-3.253968253968254,-30.555555555555554,-1.8253968253968254,100.07936507936508,-229.60317460317458,102.77777777777777,-325.0,95.79365079365078,88.65079365079364,-0.07936507936507936,-171.19047619047618,80.87301587301587,0.3968253968253968,-6.111111111111111,-321.8253968253968
112,99.92063492063491,106.9047619047619,100.39682539682539,-5.7936507936507935,64.84126984126983,117.22222222222221,105.0,123.25396825396825,57.22222222222222,-4.682539682539682,-18.015873015873016,-3.571428571428571,107.22222222222221,-188.17460317460316,105.47619047619047,-325.0,102.77777777777777,120.23809523809523,-1.6666666666666665,-162.77777777777777,29.444444444444443,-0.3968253968253968,-0.07936507936507936,-321.8253968253968
113,99.92063492063491,106.9047619047619,100.39682539682539,-5.7936507936507935,64.84126984126983,117.22222222222221,105.0,123.25396825396825,57.22222222222222,-4.682539682539682,-18.015873015873016,-3.571428571428571,107.22222222222221,-188.17460317460316,105.47619047619047,-325.0,102.77777777777777,120.23809523809523,-1.6666666666666665,-162.77777777777777,29.444444444444443,-0.3968253968253968,-0.07936507936507936,-321.8253968253968
114,103.09523809523809,179.9206349206349,102.30158730158729,-11.984126984126984,60.873015873015866,215.79365079365078,106.58730158730158,195.95238095238093,53.57142857142857,-11.349206349206348,-8.174603174603174,-10.396825396825395,110.39682539682539,-81.66666666666666,104.52380952380952,-325.0,104.2063492063492,184.68253968253967,-7.857142857142857,-152.77777777777777,0.3968253968253968,-1.0317460317460316,-3.253968253968254,-321.8253968253968
115,103.09523809523809,179.9206349206349,102.30158730158729,-11.984126984126984,60.873015873015866,215.79365079365078,106.58730158730158,195.95238095238093,53.57142857142857,-11.349206349206348,-8.174603174603174,-10.396825396825395,110.39682539682539,-81.66666666666666,104.52380952380952,-325.0,104.2063492063492,184.68253968253967,-7.857142857142857,-152.77777777777777,0.3968253968253968,-1.0317460317460316,-3.253968253968254,-321.8253968253968
116,71.03174603174602,138.4920634920635,71.98412698412697,-12.936507936507935,57.53968253968254,167.06349206349205,76.42857142857143,165.15873015873015,50.71428571428571,-11.984126984126984,-21.349206349206348,-10.555555555555555,76.1111111111111,-111.98412698412697,74.84126984126983,-325.0,70.39682539682539,147.06349206349205,-8.015873015873016,-150.7142857142857,50.39682539682539,-0.07936507936507936,-8.968253968253968,-321.8253968253968
117,71.03174603174602,138.4920634920635,71.98412698412697,-12.936507936507935,57.53968253968254,167.06349206349205,76.42857142857143,165.15873015873015,50.71428571428571,-11.984126984126984,-21.349206349206348,-10.555555555555555,76.1111111111111,-111.98412698412697,74.84126984126983,-325.0,70.39682539682539,147.06349206349205,-8.015873015873016,-150.7142857142857,50.39682539682539,-0.07936507936507936,-8.968253968253968,-321.8253968253968
118,71.03174603174602,138.4920634920635,71.98412698412697,-12.936507936507935,57.53968253968254,167.06349206349205,76.42857142857143,165.15873015873015,50.71428571428571,-11.984126984126984,-21.349206349206348,-10.555555555555555,76.1111111111111,-111.98412698412697,74.84126984126983,-325.0,70.39682539682539,147.06349206349205,-8.015873015873016,-150.7142857142857,50.39682539682539,-0.07936507936507936,-8.968253968253968,-321.8253968253968
119,71.03174603174602,138.4920634920635,71.98412698412697,-12.936507936507935,57.53968253968254,167.06349206349205,76.42857142857143,165.15873015873015,50.71428571428571,-11.984126984126984,-21.349206349206348,-10.555555555555555,76.1111111111111,-111.98412698412697,74.84126984126983,-325.0,70.39682539682539,147.06349206349205,-8.015873015873016,-150.7142857142857,50.39682539682539,-0.07936507936507936,-8.968253968253968,-321.8253968253968
120,71.03174603174602,138.4920634920635,71.98412698412697,-12.936507936507935,57.53968253968254,167.06349206349205,76.42857142857143,165.15873015873015,50.71428571428571,-11.984126984126984,-21.349206349206348,-10.555555555555555,76.1111111111111,-111.98412698412697,74.84126984126983,-325.0,70.39682539682539,147.06349206349205,-8.015873015873016,-150.7142857142857,50.39682539682539,-0.07936507936507936,-8.968253968253968,-166.26984126984127
121,71.03174603174602,138.4920634920635,71.98412698412697,-12.936507936507935,57.53968253968254,167.06349206349205,76.42857142857143,165.15873015873015,50.71428571428571,-11.984126984126984,-21.349206349206348,-10.555555555555555,76.1111111111111,-111.98412698412697,74.84126984126983,-325.0,70.39682539682539,147.06349206349205,-8.015873015873016,-150.7142857142857,50.39682539682539,-0.07936507936507936,-8.968253968253968,-166.26984126984127
122,71.03174603174602,138.4920634920635,71.98412698412697,-12.936507936507935,57.53968253968254,167.06349206349205,76.42857142857143,165.15873015873015,50.71428571428571,-11.984126984126984,-21.349206349206348,-10.555555555555555,76.1111111111111,-111.98412698412697,74.84126984126983,-325.0,70.39682539682539,147.06349206349205,-8.015873015873016,-150.7142857142857,50.39682539682539,-0.07936507936507936,-8.968253968253968,-166.26984126984127
123,71.03174603174602,138.4920634920635,71.98412698412697,-12.936507936507935,57.53968253968254,167.06349206349205,76.42857142857143,165.15873015873015,50.71428571428571,-11.984126984126984,-21.349206349206348,-10.555555555555555,76.1111111111111,-111.98412698412697,74.84126984126983,-325.0,70.39682539682539,147.06349206349205,-8.015873015873016,-150.7142857142857,50.39682539682539,-0.07936507936507936,-8.968253968253968,-166.26984126984127
124,71.03174603174602,138.4920634920635,71.98412698412697,-12.936507936507935,57.53968253968254,167.06349206349205,76.42857142857143,165.15873015873015,50.71428571428571,-11.984126984126984,-21.349206349206348,-10.555555555555555,76.1111111111111,-111.98412698412697,74.84126984126983,-325.0,70.39682539682539,147.06349206349205,-8.015873015873016,-150.7142857142857,50.39682539682539,-0.07936507936507936,-8.968253968253968,-166.26984126984127
125,71.03174603174602,138.4920634920635,71.98412698412697,-12.936507936507935,57.53968253968254,167.06349206349205,76.42857142857143,165.15873015873015,50.71428571428571,-11.984126984126984,-21.349206349206348,-10.555555555555555,76.1111111111111,-111.98412698412697,74.84126984126983,-325.0,70.39682539682539,147.06349206349205,-8.015873015873016,-150.7142857142857,50.39682539682539,-0.07936507936507936,-8.968253968253968,-166.26984126984127
126,71.03174603174602,138.4920634920635,71.98412698412697,-12.936507936507935,57.53968253968254,167.06349206349205,76.42857142857143,165.15873015873015,50.71428571428571,-11.984126984126984,-21.349206349206348,-10.555555555555555,76.1111111111111,-111.98412698412697,74.84126984126983,-325.0,70.39682539682539,147.06349206349205,-8.015873015873016,-150.7142857142857,50.39682539682539,-0.07936507936507936,-8.968253968253968,-166.26984126984127
127,71.03174603174602,138.4920634920635,71.98412698412697,-12.936507936507935,57.53968253968254,167.06349206349205,76.42857142857143,165.15873015873015,50.71428571428571,-11.984126984126984,-21.349206349206348,-10.555555555555555,76.1111111111111,-111.98412698412697,74.84126984126983,-325.0,70.39682539682539,147.06349206349205,-8.015873015873016,-150.7142857142857,50.39682539682539,-0.07936507936507936,-8.968253968253968,-166.26984126984127
128,198.015873015873,87.38095238095238,7.698412698412698,-7.698412698412698,-133.73015873015873,111.5079365079365,7.5396825396825395,110.39682539682539,-137.22222222222223,-5.7936507936507935,7.857142857142857,-4.0476190476190474,4.0476190476190474,-108.01587301587301,6.428571428571428,-0.07936507936507936,141.03174603174602,74.52380952380952,-3.73015873015873,-92.46031746031746,40.39682539682539,-0.873015873015873,-9.444444444444445,-166.26984126984127
129,198.015873015873,87.38095238095238,7.698412698412698,-7.698412698412698,-133.73015873015873,111.5079365079365,7.5396825396825395,110.39682539682539,-137.22222222222223,-5.7936507936507935,7.857142857142857,-4.0476190476190474,4.0476190476190474,-108.01587301587301,6.428571428571428,-0.07936507936507936,141.03174603174602,74.52380952380952,-3.73015873015873,-92.46031746031746,40.39682539682539,-0.873015873015873,-9.444444444444445,-166.26984126984127
130,325.0,40.55555555555555,-44.52380952380952,-5.476190476190476,-203.57142857142856,67.6984126984127,-46.269841269841265,69.6031746031746,-317.06349206349205,-4.2063492063492065,70.39682539682539,-1.8253968253968254,-44.2063492063492,-71.34920634920634,-44.68253968253968,325.0,208.015873015873,22.142857142857142,-3.571428571428571,-33.41269841269841,11.19047619047619,-0.07936507936507936,-1.0317460317460316,-321.8253968253968
131,325.0,40.55555555555555,-44.52380952380952,-5.476190476190476,-203.57142857142856,67.6984126984127,-46.269841269841265,69.6031746031746,-317.06349206349205,-4.2063492063492065,70.39682539682539,-1.8253968253968254,-44.2063492063492,-71.34920634920634,-44.68253968253968,325.0,208.015873015873,22.142857142857142,-3.571428571428571,-33.41269841269841,11.19047619047619,-0.07936507936507936,-1.0317460317460316,-321.8253968253968
132,325.0,19.285714285714285,-48.96825396825397,-4.365079365079365,-246.58730158730157,52.3015873015873,-51.82539682539682,63.41269841269841,-325.0,-2.3015873015873014,45.317460317460316,-0.3968253968253968,-49.76190476190476,-74.52380952380952,-50.55555555555555,325.0,200.7142857142857,10.396825396825395,-2.9365079365079363,-32.3015873015873,15.95238095238095,-0.873015873015873,-0.5555555555555556,-321.8253968253968
133,325.0,19.285714285714285,-48.96825396825397,-4.365079365079365,-246.58730158730157,52.3015873015873,-51.82539682539682,63.41269841269841,-325.0,-2.3015873015873014,45.317460317460316,-0.3968253968253968,-49.76190476190476,-74.52380952380952,-50.55555555555555,325.0,200.7142857142857,10.396825396825395,-2.9365079365079363,-32.3015873015873,15.95238095238095,-0.873015873015873,-0.5555555555555556,-321.8253968253968
134,325.0,26.9047619047619,-44.047619047619044,-1.984126984126984,-265.1587301587301,50.238095238095234,-47.53968253968254,59.76190476190476,-325.0,-0.23809523809523808,34.047619047619044,1.507936507936508,-45.95238095238095,-83.57142857142857,-46.58730158730158,325.0,193.88888888888889,14.365079365079364,-0.07936507936507936,-31.19047619047619,20.07936507936508,-0.07936507936507936,-1.507936507936508,-321.8253968253968
135,325.0,26.9047619047619,-44.047619047619044,-1.984126984126984,-265.1587301587301,50.238095238095234,-47.53968253968254,59.76190476190476,-325.0,-0.23809523809523808,34.047619047619044,1.507936507936508,-45.95238095238095,-83.57142857142857,-46.58730158730158,325.0,193.88888888888889,14.365079365079364,-0.07936507936507936,-31.19047619047619,20.07936507936508,-0.07936507936507936,-1.507936507936508,-321.8253968253968
136,325.0,23.41269841269841,-45.79365079365079,3.4126984126984126,-268.4920634920635,44.047619047619044,-49.76190476190476,51.82539682539682,-325.0,5.158730158730158,27.539682539682538,7.3809523809523805,-48.17460317460317,-76.42857142857143,-49.12698412698413,325.0,187.2222222222222,11.19047619047619,5.317460317460317,-30.238095238095237,20.555555555555554,-0.23809523809523808,-1.0317460317460316,-321.8253968253968
137,325.0,23.41269841269841,-45.79365079365079,3.4126984126984126,-268.4920634920635,44.047619047619044,-49.76190476190476,51.82539682539682,-325.0,5.158730158730158,27.539682539682538,7.3809523809523805,-48.17460317460317,-76.42857142857143,-49.12698412698413,325.0,187.2222222222222,11.19047619047619,5.317460317460317,-30.238095238095237,20.555555555555554,-0.23809523809523808,-1.0317460317460316,-321.8253968253968
138,325.0,159.9206349206349,-5.7936507936507935,0.3968253968253968,-211.98412698412696,202.93650793650792,-11.031746031746032,165.3174603174603,-325.0,1.6666666666666665,118.01587301587301,3.73015873015873,0.5555555555555556,81.34920634920634,-13.571428571428571,325.0,185.63492063492063,122.30158730158729,1.1904761904761905,-29.76190476190476,-23.095238095238095,-2.619047619047619,-4.365079365079365,-321.8253968253968
139,325.0,159.9206349206349,-5.7936507936507935,0.3968253968253968,-211.98412698412696,202.93650793650792,-11.031746031746032,165.3174603174603,-325.0,1.6666666666666665,118.01587301587301,3.73015873015873,0.5555555555555556,81.34920634920634,-13.571428571428571,325.0,185.63492063492063,122.30158730158729,1.1904761904761905,-29.76190476190476,-23.095238095238095,-2.619047619047619,-4.365079365079365,-321.8253968253968
140,325.0,159.9206349206349,-5.7936507936507935,0.3968253968253968,-211.98412698412696,202.93650793650792,-11.031746031746032,165.3174603174603,-325.0,1.6666666666666665,118.01587301587301,3.73015873015873,0.5555555555555556,81.34920634920634,-13.571428571428571,325.0,185.63492063492063,122.30158730158729,1.1904761904761905,-29.76190476190476,-23.095238095238095,-2.619047619047619,-4.365079365079365,-166.26984126984127
141,325.0,159.9206349206349,-5.7936507936507935,0.3968253968253968,-211.98412698412696,202.93650793650792,-11.031746031746032,165.3174603174603,-325.0,1.6666666666666665,118.01587301587301,3.73015873015873,0.5555555555555556,81.34920634920634,-13.571428571428571,325.0,185.63492063492063,122.30158730158729,1.1904761904761905,-29.76190476190476,-23.095238095238095,-2.619047619047619,-4.365079365079365,-166.26984126984127
142,325.0,159.9206349206349,-5.7936507936507935,0.3968253968253968,-211.98412698412696,202.93650793650792,-11.031746031746032,165.3174603174603,-325.0,1.6666666666666665,118.01587301587301,3.73015873015873,0.5555555555555556,81.34920634920634,-13.571428571428571,325.0,185.63492063492063,122.30158730158729,1.1904761904761905,-29.76190476190476,-23.095238095238095,-2.619047619047619,-4.365079365079365,-166.26984126984127
143,325.0,159.9206349206349,-5.7936507936507935,0.3968253968253968,-211.98412698412696,202.93650793650792,-11.031746031746032,165.3174603174603,-325.0,1.6666666666666665,118.01587301587301,3.73015873015873,0.5555555555555556,81.34920634920634,-13.571428571428571,325.0,185.63492063492063,122.30158730158729,1.1904761904761905,-29.76190476190476,-23.095238095238095,-2.619047619047619,-4.365079365079365,-166.26984126984127
144,325.0,159.9206349206349,-5.7936507936507935,0.3968253968253968,-211.98412698412696,202.93650793650792,-11.031746031746032,165.3174603174603,-325.0,1.6666666666666665,118.01587301587301,3.73015873015873,0.5555555555555556,81.34920634920634,-13.571428571428571,325.0,185.63492063492063,122.30158730158729,1.1904761904761905,-29.76190476190476,-23.095238095238095,-2.619047619047619,-4.365079365079365,-166.26984126984127
145,325.0,159.9206349206349,-5.7936507936507935,0.3968253968253968,-211.98412698412696,202.93650793650792,-11.031746031746032,165.3174603174603,-325.0,1.6666666666666665,118.01587301587301,3.73015873015873,0.5555555555555556,81.34920634920634,-13.571428571428571,325.0,185.63492063492063,122.30158730158729,1.1904761904761905,-29.76190476190476,-23.095238095238095,-2.619047619047619,-4.365079365079365,-166.26984126984127
146,325.0,159.9206349206349,-5.7936507936507935,0.3968253968253968,-211.98412698412696,202.93650793650792,-11.031746031746032,165.3174603174603,-325.0,1.6666666666666665,118.01587301587301,3.73015873015873,0.5555555555555556,81.34920634920634,-13.571428571428571,325.0,185.63492063492063,122.30158730158729,1.1904761904761905,-29.76190476190476,-23.095238095238095,-2.619047619047619,-4.365079365079365,-166.26984126984127
147,325.0,159.9206349206349,-5.7936507936507935,0.3968253968253968,-211.98412698412696,202.93650793650792,-11.031746031746032,165.3174603174603,-325.0,1.6666666666666665,118.01587301587301,3.73015873015873,0.5555555555555556,81.34920634920634,-13.571428571428571,325.0,185.63492063492063,122.30158730158729,1.1904761904761905,-29.76190476190476,-23.095238095238095,-2.619047619047619,-4.365079365079365,-166.26984126984127
148,325.0,159.9206349206349,-5.7936507936507935,0.3968253968253968,-211.98412698412696,202.93650793650792,-11.031746031746032,165.3174603174603,-325.0,1.6666666666666665,118.01587301587301,3.73015873015873,0.5555555555555556,81.34920634920634,-13.571428571428571,325.0,185.63492063492063,122.30158730158729,1.1904761904761905,-29.76190476190476,-23.095238095238095,-2.619047619047619,-4.365079365079365,-166.26984126984127
149,325.0,159.9206349206349,-5.7936507936507935,0.3968253968253968,-211.98412698412696,202.93650793650792,-11.031746031746032,165.3174603174603,-325.0,1.6666666666666665,118.01587301587301,3.73015873015873,0.5555555555555556,81.34920634920634,-13.571428571428571,325.0,185.63492063492063,122.30158730158729,1.1904761904761905,-29.76190476190476,-23.095238095238095,-2.619047619047619,-4.365079365079365,-166.26984126984127
150,325.0,159.9206349206349,-5.7936507936507935,0.3968253968253968,-211.98412698412696,202.93650793650792,-11.031746031746032,165.3174603174603,-325.0,1.6666666666666665,118.01587301587301,3.73015873015873,0.5555555555555556,81.34920634920634,-13.571428571428571,325.0,185.63492063492063,122.30158730158729,1.1904761904761905,-29.76190476190476,-23.095238095238095,-2.619047619047619,-4.365079365079365,-321.8253968253968
151,325.0,159.9206349206349,-5.7936507936507935,0.3968253968253968,-211.98412698412696,202.93650793650792,-11.031746031746032,165.3174603174603,-325.0,1.6666666666666665,118.01587301587301,3.73015873015873,0.5555555555555556,81.34920634920634,-13.571428571428571,325.0,185.63492063492063,122.30158730158729,1.1904761904761905,-29.76190476190476,-23.095238095238095,-2.619047619047619,-4.365079365079365,-321.8253968253968
152,325.0,159.9206349206349,-5.7936507936507935,0.3968253968253968,-211.98412698412696,202.93650793650792,-11.031746031746032,165.3174603174603,-325.0,1.6666666666666665,118.01587301587301,3.73015873015873,0.5555555555555556,81.34920634920634,-13.571428571428571,325.0,185.63492063492063,122.30158730158729,1.1904761904761905,-29.76190476190476,-23.095238095238095,-2.619047619047619,-4.365079365079365,-321.8253968253968
153,325.0,159.9206349206349,-5.7936507936507935,0.3968253968253968,-211.98412698412696,202.93650793650792,-11.031746031746032,165.3174603174603,-325.0,1.6666666666666665,118.01587301587301,3.73015873015873,0.5555555555555556,81.34920634920634,-13.571428571428571,325.0,185.63492063492063,122.30158730158729,1.1904761904761905,-29.76190476190476,-23.095238095238095,-2.619047619047619,-4.365079365079365,-321.8253968253968
154,158.96825396825395,-10.079365079365079,221.19047619047618,-8.809523809523808,-119.28571428571428,43.57142857142857,222.61904761904762,18.174603174603174,-136.11111111111111,-7.3809523809523805,63.41269841269841,-8.65079365079365,220.55555555555554,-40.079365079365076,221.8253968253968,-325.0,79.92063492063491,86.26984126984127,-10.079365079365079,42.61904761904761,-52.61904761904761,-0.07936507936507936,6.587301587301587,-321.8253968253968
155,158.96825396825395,-10.079365079365079,221.19047619047618,-8.809523809523808,-119.28571428571428,43.57142857142857,222.61904761904762,18.174603174603174,-136.11111111111111,-7.3809523809523805,63.41269841269841,-8.65079365079365,220.55555555555554,-40.079365079365076,221.8253968253968,-325.0,79.92063492063491,86.26984126984127,-10.079365079365079,42.61904761904761,-52.61904761904761,-0.07936507936507936,6.587301587301587,-321.8253968253968
156,156.9047619047619,172.3015873015873,245.63492063492063,-21.507936507936506,114.36507936507935,236.74603174603175,249.44444444444443,157.69841269841268,27.38095238095238,-20.555555555555554,233.25396825396825,-21.984126984126984,258.8095238095238,157.06349206349205,248.015873015873,-325.0,78.80952380952381,210.3968253968254,-23.57142857142857,11.666666666666666,-194.68253968253967,-0.3968253968253968,-4.365079365079365,-321.8253968253968
157,156.9047619047619,172.3015873015873,245.63492063492063,-21.507936507936506,114.36507936507935,236.74603174603175,249.44444444444443,157.69841269841268,27.38095238095238,-20.555555555555554,233.25396825396825,-21.984126984126984,258.8095238095238,157.06349206349205,248.015873015873,-325.0,78.80952380952381,210.3968253968254,-23.57142857142857,11.666666666666666,-194.68253968253967,-0.3968253968253968,-4.365079365079365,-321.8253968253968
158,154.36507936507937,-92.14285714285714,197.2222222222222,-8.65079365079365,-325.0,-46.904761904761905,200.87301587301587,-38.01587301587301,-321.8253968253968,-7.3809523809523805,-78.17460317460316,-8.333333333333332,197.38095238095238,-165.79365079365078,202.93650793650792,-325.0,77.53968253968253,24.523809523809522,-9.444444444444445,15.476190476190474,71.98412698412697,1.1904761904761905,4.2063492063492065,-321.8253968253968
159,154.36507936507937,-92.14285714285714,197.2222222222222,-8.65079365079365,-325.0,-46.904761904761905,200.87301587301587,-38.01587301587301,-321.8253968253968,-7.3809523809523805,-78.17460317460316,-8.333333333333332,197.38095238095238,-165.79365079365078,202.93650793650792,-325.0,77.53968253968253,24.523809523809522,-9.444444444444445,15.476190476190474,71.98412698412697,1.1904761904761905,4.2063492063492065,-321.8253968253968
160,152.14285714285714,-45.95238095238095,202.77777777777777,-13.095238095238095,-307.69841269841265,-9.920634920634921,204.52380952380952,-14.206349206349206,-307.22222222222223,-11.507936507936508,-45.95238095238095,-12.3015873015873,201.8253968253968,-113.09523809523809,205.15873015873015,-325.0,-123.73015873015872,41.82539682539682,-13.412698412698411,-1.0317460317460316,44.2063492063492,0.873015873015873,-2.619047619047619,-166.26984126984127
161,152.14285714285714,-45.95238095238095,202.77777777777777,-13.095238095238095,-307.69841269841265,-9.920634920634921,204.52380952380952,-14.206349206349206,-307.22222222222223,-11.507936507936508,-45.95238095238095,-12.3015873015873,201.8253968253968,-113.09523809523809,205.15873015873015,-325.0,-123.73015873015872,41.82539682539682,-13.412698412698411,-1.0317460317460316,44.2063492063492,0.873015873015873,-2.619047619047619,-166.26984126984127
162,148.65079365079364,39.6031746031746,243.09523809523807,-15.793650793650793,-90.07936507936508,91.19047619047619,242.3015873015873,53.25396825396825,-99.6031746031746,-13.888888888888888,102.30158730158729,-14.84126984126984,243.09523809523807,-4.841269841269841,239.76190476190476,-325.0,-165.0,107.38095238095238,-15.95238095238095,34.682539682539684,-78.01587301587301,-1.507936507936508,-1.1904761904761905,-166.26984126984127
163,148.65079365079364,39.6031746031746,243.09523809523807,-15.793650793650793,-90.07936507936508,91.19047619047619,242.3015873015873,53.25396825396825,-99.6031746031746,-13.888888888888888,102.30158730158729,-14.84126984126984,243.09523809523807,-4.841269841269841,239.76190476190476,-325.0,-165.0,107.38095238095238,-15.95238095238095,34.682539682539684,-78.01587301587301,-1.507936507936508,-1.1904761904761905,-166.26984126984127
164,224.52380952380952,41.98412698412698,-324.8412698412698,-62.3015873015873,-147.06349206349205,163.73015873015873,-226.58730158730157,-289.2857142857143,-231.66666666666666,-12.3015873015873,218.4920634920635,-33.73015873015873,-45.317460317460316,71.03174603174602,251.8253968253968,-304.68253968253964,299.76190476190476,155.79365079365078,-14.365079365079364,107.22222222222221,-192.93650793650792,-3.73015873015873,27.22222222222222,-166.26984126984127
165,224.52380952380952,41.98412698412698,-324.8412698412698,-62.3015873015873,-147.06349206349205,163.73015873015873,-226.58730158730157,-289.2857142857143,-231.66666666666666,-12.3015873015873,218.4920634920635,-33.73015873015873,-45.317460317460316,71.03174603174602,251.8253968253968,-304.68253968253964,299.76190476190476,155.79365079365078,-14.365079365079364,107.22222222222221,-192.93650793650792,-3.73015873015873,27.22222222222222,-166.26984126984127
166,140.23809523809524,71.19047619047619,159.6031746031746,-6.26984126984127,-98.01587301587301,120.07936507936508,159.9206349206349,74.2063492063492,-131.8253968253968,-4.841269841269841,93.57142857142857,-5.634920634920634,162.14285714285714,34.682539682539684,158.96825396825395,-325.0,81.82539682539682,106.1111111111111,-6.587301587301587,-3.571428571428571,-85.0,-0.3968253968253968,-7.063492063492063,-166.26984126984127
167,140.23809523809524,71.19047619047619,159.6031746031746,-6.26984126984127,-98.01587301587301,120.07936507936508,159.9206349206349,74.2063492063492,-131.8253968253968,-4.841269841269841,93.57142857142857,-5.634920634920634,162.14285714285714,34.682539682539684,158.96825396825395,-325.0,81.82539682539682,106.1111111111111,-6.587301587301587,-3.571428571428571,-85.0,-0.3968253968253968,-7.063492063492063,-166.26984126984127
168,137.85714285714286,-6.428571428571428,134.84126984126982,2.619047619047619,-115.15873015873015,46.11111111111111,137.38095238095238,21.666666666666664,-115.47619047619047,3.888888888888889,48.17460317460317,2.9365079365079363,137.53968253968253,-35.476190476190474,136.42857142857142,-325.0,70.07936507936508,66.11111111111111,1.8253968253968254,59.44444444444444,-47.857142857142854,0.07936507936507936,5.634920634920634,-166.26984126984127
169,137.85714285714286,-6.428571428571428,134.84126984126982,2.619047619047619,-115.15873015873015,46.11111111111111,137.38095238095238,21.666666666666664,-115.47619047619047,3.888888888888889,48.17460317460317,2.9365079365079363,137.53968253968253,-35.476190476190474,136.42857142857142,-325.0,70.07936507936508,66.11111111111111,1.8253968253968254,59.44444444444444,-47.857142857142854,0.07936507936507936,5.634920634920634,-166.26984126984127
170,135.3174603174603,66.26984126984127,165.15873015873015,-4.682539682539682,-104.36507936507935,120.23809523809523,166.74603174603175,71.19047619047619,-131.19047619047618,-3.73015873015873,81.5079365079365,-4.365079365079365,169.60317460317458,0.23809523809523808,166.42857142857142,-325.0,-204.04761904761904,101.98412698412697,-5.476190476190476,-3.095238095238095,-82.77777777777777,-1.0317460317460316,-7.063492063492063,-321.8253968253968
171,135.3174603174603,66.26984126984127,165.15873015873015,-4.682539682539682,-104.36507936507935,120.23809523809523,166.74603174603175,71.19047619047619,-131.19047619047618,-3.73015873015873,81.5079365079365,-4.365079365079365,169.60317460317458,0.23809523809523808,166.42857142857142,-325.0,-204.04761904761904,101.98412698412697,-5.476190476190476,-3.095238095238095,-82.77777777777777,-1.0317460317460316,-7.063492063492063,-321.8253968253968
172,132.93650793650792,-18.333333333333332,193.7301587301587,-1.349206349206349,-119.76190476190476,42.61904761904761,195.79365079365078,19.92063492063492,-122.46031746031746,-0.23809523809523808,39.285714285714285,-0.873015873015873,195.63492063492063,-42.77777777777778,194.2063492063492,-325.0,-166.74603174603175,59.44444444444444,-1.6666666666666665,51.666666666666664,-39.76190476190476,-0.873015873015873,5.634920634920634,-321.8253968253968
173,132.93650793650792,-18.333333333333332,193.7301587301587,-1.349206349206349,-119.76190476190476,42.61904761904761,195.79365079365078,19.92063492063492,-122.46031746031746,-0.23809523809523808,39.285714285714285,-0.873015873015873,195.63492063492063,-42.77777777777778,194.2063492063492,-325.0,-166.74603174603175,59.44444444444444,-1.6666666666666665,51.666666666666664,-39.76190476190476,-0.873015873015873,5.634920634920634,-321.8253968253968
174,132.46031746031744,64.36507936507937,180.55555555555554,4.2063492063492065,85.47619047619047,143.57142857142856,176.9047619047619,90.71428571428571,66.26984126984127,5.634920634920634,170.55555555555554,4.841269841269841,180.87301587301587,49.285714285714285,172.61904761904762,-325.0,-8.492063492063492,130.07936507936506,3.888888888888889,80.55555555555556,-164.36507936507937,-5.0,5.476190476190476,-321.8253968253968
175,132.46031746031744,64.36507936507937,180.55555555555554,4.2063492063492065,85.47619047619047,143.57142857142856,176.9047619047619,90.71428571428571,66.26984126984127,5.634920634920634,170.55555555555554,4.841269841269841,180.87301587301587,49.285714285714285,172.61904761904762,-325.0,-8.492063492063492,130.07936507936506,3.888888888888889,80.55555555555556,-164.36507936507937,-5.0,5.476190476190476,-321.8253968253968
176,132.46031746031744,64.36507936507937,180.55555555555554,4.2063492063492065,85.47619047619047,143.57142857142856,176.9047619047619,90.71428571428571,66.26984126984127,5.634920634920634,170.55555555555554,4.841269841269841,180.87301587301587,49.285714285714285,172.61904761904762,-325.0,-8.492063492063492,130.07936507936506,3.888888888888889,80.55555555555556,-164.36507936507937,-5.0,5.476190476190476,-321.8253968253968
177,132.46031746031744,64.36507936507937,180.55555555555554,4.2063492063492065,85.47619047619047,143.57142857142856,176.9047619047619,90.71428571428571,66.26984126984127,5.634920634920634,170.55555555555554,4.841269841269841,180.87301587301587,49.285714285714285,172.61904761904762,-325.0,-8.492063492063492,130.07936507936506,3.888888888888889,80.55555555555556,-164.36507936507937,-5.0,5.476190476190476,-321.8253968253968
178,132.46031746031744,64.36507936507937,180.55555555555554,4.2063492063492065,85.47619047619047,143.57142857142856,176.9047619047619,90.71428571428571,66.26984126984127,5.634920634920634,170.55555555555554,4.841269841269841,180.87301587301587,49.285714285714285,172.61904761904762,-325.0,-8.492063492063492,130.07936507936506,3.888888888888889,80.55555555555556,-164.36507936507937,-5.0,5.476190476190476,-321.8253968253968
179,132.46031746031744,64.36507936507937,180.55555555555554,4.2063492063492065,85.47619047619047,143.57142857142856,176.9047619047619,90.71428571428571,66.26984126984127,5.634920634920634,170.55555555555554,4.841269841269841,180.87301587301587,49.285714285714285,172.61904761904762,-325.0,-8.492063492063492,130.07936507936506,3.888888888888889,80.55555555555556,-164.36507936507937,-5.0,5.476190476190476,-321.8253968253968
180,124.36507936507935,-109.92063492063491,59.76190476190476,4.682539682539682,-325.0,-67.53968253968253,62.77777777777777,-56.904761904761905,-319.1269841269841,5.0,-94.84126984126983,4.841269841269841,59.285714285714285,-137.06349206349205,65.15873015873015,-325.0,-251.03174603174602,-20.396825396825395,4.841269841269841,24.047619047619047,86.74603174603175,1.1904761904761905,5.634920634920634,-166.26984126984127
181,124.36507936507935,-109.92063492063491,59.76190476190476,4.682539682539682,-325.0,-67.53968253968253,62.77777777777777,-56.904761904761905,-319.1269841269841,5.0,-94.84126984126983,4.841269841269841,59.285714285714285,-137.06349206349205,65.15873015873015,-325.0,-251.03174603174602,-20.396825396825395,4.841269841269841,24.047619047619047,86.74603174603175,1.1904761904761905,5.634920634920634,-166.26984126984127
182,122.6190476190476,-70.39682539682539,43.73015873015873,4.365079365079365,-315.1587301587301,-31.19047619047619,44.36507936507936,-31.349206349206348,-306.90476190476187,5.317460317460317,-70.71428571428571,4.682539682539682,40.55555555555555,-125.95238095238095,46.58730158730158,-325.0,-273.25396825396825,-1.0317460317460316,4.523809523809524,-0.23809523809523808,62.3015873015873,0.3968253968253968,-1.6666666666666665,-166.26984126984127
183,122.6190476190476,-70.39682539682539,43.73015873015873,4.365079365079365,-315.1587301587301,-31.19047619047619,44.36507936507936,-31.349206349206348,-306.90476190476187,5.317460317460317,-70.71428571428571,4.682539682539682,40.55555555555555,-125.95238095238095,46.58730158730158,-325.0,-273.25396825396825,-1.0317460317460316,4.523809523809524,-0.23809523809523808,62.3015873015873,0.3968253968253968,-1.6666666666666665,-166.26984126984127
184,49.92063492063492,-126.26984126984127,-75.47619047619047,-21.984126984126984,-146.26984126984127,129.28571428571428,-17.698412698412696,-125.0,-141.66666666666666,-147.06349206349205,-176.11111111111111,151.03174603174602,8.809523809523808,-169.28571428571428,84.04761904761904,-192.46031746031744,-136.11111111111111,117.38095238095238,6.111111111111111,-15.158730158730158,28.015873015873016,-10.555555555555555,-18.80952380952381,-166.26984126984127
185,49.92063492063492,-126.26984126984127,-75.47619047619047,-21.984126984126984,-146.26984126984127,129.28571428571428,-17.698412698412696,-125.0,-141.66666666666666,-147.06349206349205,-176.11111111111111,151.03174603174602,8.809523809523808,-169.28571428571428,84.04761904761904,-192.46031746031744,-136.11111111111111,117.38095238095238,6.111111111111111,-15.158730158730158,28.015873015873016,-10.555555555555555,-18.80952380952381,-166.26984126984127
186,114.84126984126983,-46.11111111111111,69.44444444444444,8.968253968253968,-129.6031746031746,28.96825396825397,70.55555555555556,15.0,-123.4126984126984,10.079365079365079,26.11111111111111,9.126984126984127,70.87301587301587,-47.857142857142854,69.92063492063491,-325.0,-325.0,47.38095238095238,8.492063492063492,60.39682539682539,-44.36507936507936,-1.507936507936508,5.952380952380952,-166.26984126984127
187,114.84126984126983,-46.11111111111111,69.44444444444444,8.968253968253968,-129.6031746031746,28.96825396825397,70.55555555555556,15.0,-123.4126984126984,10.079365079365079,26.11111111111111,9.126984126984127,70.87301587301587,-47.857142857142854,69.92063492063491,-325.0,-325.0,47.38095238095238,8.492063492063492,60.39682539682539,-44.36507936507936,-1.507936507936508,5.952380952380952,-166.26984126984127
188,112.93650793650794,25.476190476190474,76.9047619047619,2.7777777777777777,-135.15873015873015,92.14285714285714,78.01587301587301,56.58730158730158,-149.28571428571428,3.73015873015873,44.2063492063492,3.095238095238095,80.55555555555556,-5.634920634920634,77.53968253968253,-325.0,-325.0,75.15873015873015,2.3015873015873014,-9.603174603174603,-68.80952380952381,0.23809523809523808,-6.111111111111111,-166.26984126984127
189,112.93650793650794,25.476190476190474,76.9047619047619,2.7777777777777777,-135.15873015873015,92.14285714285714,78.01587301587301,56.58730158730158,-149.28571428571428,3.73015873015873,44.2063492063492,3.095238095238095,80.55555555555556,-5.634920634920634,77.53968253968253,-325.0,-325.0,75.15873015873015,2.3015873015873014,-9.603174603174603,-68.80952380952381,0.23809523809523808,-6.111111111111111,-166.26984126984127
190,111.03174603174602,-29.444444444444443,76.26984126984127,4.2063492063492065,-112.77777777777777,33.57142857142857,77.22222222222221,15.317460317460316,-97.38095238095238,5.158730158730158,36.74603174603175,4.365079365079365,77.53968253968253,-28.96825396825397,76.74603174603175,-325.0,-325.0,46.74603174603175,4.2063492063492065,68.65079365079364,-52.61904761904761,-1.0317460317460316,5.476190476190476,-321.8253968253968
191,111.03174603174602,-29.444444444444443,76.26984126984127,4.2063492063492065,-112.77777777777777,33.57142857142857,77.22222222222221,15.317460317460316,-97.38095238095238,5.158730158730158,36.74603174603175,4.365079365079365,77.53968253968253,-28.96825396825397,76.74603174603175,-325.0,-325.0,46.74603174603175,4.2063492063492065,68.65079365079364,-52.61904761904761,-1.0317460317460316,5.476190476190476,-321.8253968253968
192,109.6031746031746,-9.126984126984127,70.07936507936508,3.73015873015873,-96.42857142857142,52.14285714285714,68.65079365079364,24.206349206349206,-94.36507936507935,4.841269841269841,59.76190476190476,4.0476190476190474,69.44444444444444,-32.3015873015873,67.85714285714285,-325.0,-325.0,47.22222222222222,3.888888888888889,34.36507936507936,-78.17460317460316,-1.349206349206349,-0.873015873015873,-321.8253968253968
193,109.6031746031746,-9.126984126984127,70.07936507936508,3.73015873015873,-96.42857142857142,52.14285714285714,68.65079365079364,24.206349206349206,-94.36507936507935,4.841269841269841,59.76190476190476,4.0476190476190474,69.44444444444444,-32.3015873015873,67.85714285714285,-325.0,-325.0,47.22222222222222,3.888888888888889,34.36507936507936,-78.17460317460316,-1.349206349206349,-0.873015873015873,-321.8253968253968
194,106.9047619047619,-46.269841269841265,89.44444444444444,8.015873015873016,-105.31746031746032,18.174603174603174,90.87301587301587,1.507936507936508,-84.52380952380952,8.65079365079365,38.17460317460317,7.698412698412698,91.66666666666666,-30.87301587301587,89.92063492063491,-325.0,-325.0,31.19047619047619,7.3809523809523805,75.15873015873015,-58.17460317460317,-0.5555555555555556,5.476190476190476,-321.8253968253968
195,106.9047619047619,-46.269841269841265,89.44444444444444,8.015873015873016,-105.31746031746032,18.174603174603174,90.87301587301587,1.507936507936508,-84.52380952380952,8.65079365079365,38.17460317460317,7.698412698412698,91.66666666666666,-30.87301587301587,89.92063492063491,-325.0,-325.0,31.19047619047619,7.3809523809523805,75.15873015873015,-58.17460317460317,-0.5555555555555556,5.476190476190476,-321.8253968253968
196,105.15873015873015,29.76190476190476,73.4126984126984,-3.73015873015873,-121.19047619047619,89.92063492063491,73.88888888888889,52.3015873015873,-139.6031746031746,-2.9365079365079363,41.507936507936506,-3.253968253968254,76.1111111111111,-4.0476190476190474,73.73015873015872,-325.0,-325.0,68.80952380952381,-4.2063492063492065,-11.666666666666666,-70.39682539682539,-0.07936507936507936,-7.3809523809523805,-321.8253968253968
197,105.15873015873015,29.76190476190476,73.4126984126984,-3.73015873015873,-121.19047619047619,89.92063492063491,73.88888888888889,52.3015873015873,-139.6031746031746,-2.9365079365079363,41.507936507936506,-3.253968253968254,76.1111111111111,-4.0476190476190474,73.73015873015872,-325.0,-325.0,68.80952380952381,-4.2063492063492065,-11.666666666666666,-70.39682539682539,-0.07936507936507936,-7.3809523809523805,-321.8253968253968
198,103.25396825396825,-39.285714285714285,58.8095238095238,0.23809523809523808,-123.09523809523809,21.03174603174603,59.285714285714285,1.0317460317460316,-111.19047619047619,1.507936507936508,24.047619047619047,0.5555555555555556,60.079365079365076,-43.25396825396825,58.650793650793645,-325.0,-325.0,29.920634920634917,0.3968253968253968,75.47619047619047,-46.269841269841265,-1.349206349206349,4.841269841269841,-321.8253968253968
199,103.25396825396825,-39.285714285714285,58.8095238095238,0.23809523809523808,-123.09523809523809,21.03174603174603,59.285714285714285,1.0317460317460316,-111.19047619047619,1.507936507936508,24.047619047619047,0.5555555555555556,60.079365079365076,-43.25396825396825,58.650793650793645,-325.0,-325.0,29.920634920634917,0.3968253968253968,75.47619047619047,-46.269841269841265,-1.349206349206349,4.841269841269841,-321.8253968253968
200,101.98412698412697,111.34920634920634,57.22222222222222,0.07936507936507936,-11.507936507936508,178.65079365079364,59.44444444444444,112.77777777777777,-42.77777777777778,0.3968253968253968,109.44444444444444,-0.3968253968253968,66.74603174603175,100.39682539682539,57.857142857142854,-325.0,-325.0,123.09523809523809,-1.507936507936508,7.3809523809523805,-159.44444444444443,-1.0317460317460316,-5.317460317460317,-166.26984126984127
201,101.98412698412697,111.34920634920634,57.22222222222222,0.07936507936507936,-11.507936507936508,178.65079365079364,59.44444444444444,112.77777777777777,-42.77777777777778,0.3968253968253968,109.44444444444444,-0.3968253968253968,66.74603174603175,100.39682539682539,57.857142857142854,-325.0,-325.0,123.09523809523809,-1.507936507936508,7.3809523809523805,-159.44444444444443,-1.0317460317460316,-5.317460317460317,-166.26984126984127
202,100.23809523809523,-127.85714285714285,-10.079365079365079,10.555555555555555,-325.0,-84.2063492063492,-7.5396825396825395,-68.17460317460318,-295.7936507936508,10.555555555555555,-101.98412698412697,10.396825396825395,-10.396825396825395,-158.17460317460316,-5.0,-325.0,-325.0,-46.42857142857142,10.396825396825395,45.63492063492063,97.22222222222221,1.507936507936508,6.746031746031746,-166.26984126984127
203,100.23809523809523,-127.85714285714285,-10.079365079365079,10.555555555555555,-325.0,-84.2063492063492,-7.5396825396825395,-68.17460317460318,-295.7936507936508,10.555555555555555,-101.98412698412697,10.396825396825395,-10.396825396825395,-158.17460317460316,-5.0,-325.0,-325.0,-46.42857142857142,10.396825396825395,45.63492063492063,97.22222222222221,1.507936507936508,6.746031746031746,-166.26984126984127
204,100.23809523809523,-127.85714285714285,-10.079365079365079,10.555555555555555,-325.0,-84.2063492063492,-7.5396825396825395,-68.17460317460318,-295.7936507936508,10.555555555555555,-101.98412698412697,10.396825396825395,-10.396825396825395,-158.17460317460316,-5.0,-325.0,-325.0,-46.42857142857142,10.396825396825395,45.63492063492063,97.22222222222221,1.507936507936508,6.746031746031746,-166.26984126984127
205,100.23809523809523,-127.85714285714285,-10.079365079365079,10.555555555555555,-325.0,-84.2063492063492,-7.5396825396825395,-68.17460317460318,-295.7936507936508,10.555555555555555,-101.98412698412697,10.396825396825395,-10.396825396825395,-158.17460317460316,-5.0,-325.0,-325.0,-46.42857142857142,10.396825396825395,45.63492063492063,97.22222222222221,1.507936507936508,6.746031746031746,-166.26984126984127
206,100.23809523809523,-127.85714285714285,-10.079365079365079,10.555555555555555,-325.0,-84.2063492063492,-7.5396825396825395,-68.17460317460318,-295.7936507936508,10.555555555555555,-101.98412698412697,10.396825396825395,-10.396825396825395,-158.17460317460316,-5.0,-325.0,-325.0,-46.42857142857142,10.396825396825395,45.63492063492063,97.22222222222221,1.507936507936508,6.746031746031746,-166.26984126984127
207,100.23809523809523,-127.85714285714285,-10.079365079365079,10.555555555555555,-325.0,-84.2063492063492,-7.5396825396825395,-68.17460317460318,-295.7936507936508,10.555555555555555,-101.98412698412697,10.396825396825395,-10.396825396825395,-158.17460317460316,-5.0,-325.0,-325.0,-46.42857142857142,10.396825396825395,45.63492063492063,97.22222222222221,1.507936507936508,6.746031746031746,-166.26984126984127
208,100.23809523809523,-127.85714285714285,-10.079365079365079,10.555555555555555,-325.0,-84.2063492063492,-7.5396825396825395,-68.17460317460318,-295.7936507936508,10.555555555555555,-101.98412698412697,10.396825396825395,-10.396825396825395,-158.17460317460316,-5.0,-325.0,-325.0,-46.42857142857142,10.396825396825395,45.63492063492063,97.22222222222221,1.507936507936508,6.746031746031746,-166.26984126984127
209,100.23809523809523,-127.85714285714285,-10.079365079365079,10.555555555555555,-325.0,-84.2063492063492,-7.5396825396825395,-68.17460317460318,-295.7936507936508,10.555555555555555,-101.98412698412697,10.396825396825395,-10.396825396825395,-158.17460317460316,-5.0,-325.0,-325.0,-46.42857142857142,10.396825396825395,45.63492063492063,97.22222222222221,1.507936507936508,6.746031746031746,-166.26984126984127
210,100.23809523809523,-127.85714285714285,-10.079365079365079,10.555555555555555,-325.0,-84.2063492063492,-7.5396825396825395,-68.17460317460318,-295.7936507936508,10.555555555555555,-101.98412698412697,10.396825396825395,-10.396825396825395,-158.17460317460316,-5.0,-325.0,-325.0,-46.42857142857142,10.396825396825395,45.63492063492063,97.22222222222221,1.507936507936508,6.746031746031746,-321.8253968253968
211,100.23809523809523,-127.85714285714285,-10.079365079365079,10.555555555555555,-325.0,-84.2063492063492,-7.5396825396825395,-68.17460317460318,-295.7936507936508,10.555555555555555,-101.98412698412697,10.396825396825395,-10.396825396825395,-158.17460317460316,-5.0,-325.0,-325.0,-46.42857142857142,10.396825396825395,45.63492063492063,97.22222222222221,1.507936507936508,6.746031746031746,-321.8253968253968
212,88.80952380952381,52.93650793650794,-1.0317460317460316,8.65079365079365,53.73015873015873,130.55555555555554,-1.349206349206349,81.98412698412697,36.42857142857142,9.761904761904761,129.12698412698413,8.492063492063492,2.619047619047619,91.5079365079365,-4.682539682539682,-325.0,-325.0,123.4126984126984,8.174603174603174,77.06349206349206,-197.69841269841268,-3.095238095238095,5.7936507936507935,-321.8253968253968
213,88.80952380952381,52.93650793650794,-1.0317460317460316,8.65079365079365,53.73015873015873,130.55555555555554,-1.349206349206349,81.98412698412697,36.42857142857142,9.761904761904761,129.12698412698413,8.492063492063492,2.619047619047619,91.5079365079365,-4.682539682539682,-325.0,-325.0,123.4126984126984,8.174603174603174,77.06349206349206,-197.69841269841268,-3.095238095238095,5.7936507936507935,-321.8253968253968
214,86.9047619047619,-103.4126984126984,-78.01587301587301,11.825396825396824,-312.46031746031747,-67.22222222222221,-78.65079365079364,-61.19047619047619,-288.015873015873,12.619047619047619,-90.55555555555556,12.142857142857142,-82.77777777777777,-140.87301587301587,-75.79365079365078,-325.0,-325.0,-26.428571428571427,11.825396825396824,-2.142857142857143,84.52380952380952,0.7142857142857142,-0.5555555555555556,-321.8253968253968
215,86.9047619047619,-103.4126984126984,-78.01587301587301,11.825396825396824,-312.46031746031747,-67.22222222222221,-78.65079365079364,-61.19047619047619,-288.015873015873,12.619047619047619,-90.55555555555556,12.142857142857142,-82.77777777777777,-140.87301587301587,-75.79365079365078,-325.0,-325.0,-26.428571428571427,11.825396825396824,-2.142857142857143,84.52380952380952,0.7142857142857142,-0.5555555555555556,-321.8253968253968
216,85.31746031746032,74.36507936507937,6.26984126984127,-0.5555555555555556,13.73015873015873,158.4920634920635,5.952380952380952,100.71428571428571,-3.4126984126984126,-0.07936507936507936,104.52380952380952,-0.7142857142857142,12.46031746031746,63.57142857142857,3.095238095238095,-325.0,-325.0,132.46031746031744,-1.349206349206349,36.74603174603175,-181.34920634920633,-2.3015873015873014,-0.23809523809523808,-321.8253968253968
217,85.31746031746032,74.36507936507937,6.26984126984127,-0.5555555555555556,13.73015873015873,158.4920634920635,5.952380952380952,100.71428571428571,-3.4126984126984126,-0.07936507936507936,104.52380952380952,-0.7142857142857142,12.46031746031746,63.57142857142857,3.095238095238095,-325.0,-325.0,132.46031746031744,-1.349206349206349,36.74603174603175,-181.34920634920633,-2.3015873015873014,-0.23809523809523808,-321.8253968253968
218,83.88888888888889,-104.2063492063492,-79.28571428571428,14.047619047619047,-310.87301587301585,-60.873015873015866,-81.03174603174602,-52.14285714285714,-286.1111111111111,15.0,-91.66666666666666,14.84126984126984,-85.79365079365078,-172.93650793650792,-78.4920634920635,-325.0,-325.0,-23.41269841269841,14.682539682539682,-8.968253968253968,87.6984126984127,1.0317460317460316,-1.507936507936508,-321.8253968253968
219,83.88888888888889,-104.2063492063492,-79.28571428571428,14.047619047619047,-310.87301587301585,-60.873015873015866,-81.03174603174602,-52.14285714285714,-286.1111111111111,15.0,-91.66666666666666,14.84126984126984,-85.79365079365078,-172.93650793650792,-78.4920634920635,-325.0,-325.0,-23.41269841269841,14.682539682539682,-8.968253968253968,87.6984126984127,1.0317460317460316,-1.507936507936508,-321.8253968253968
220,82.14285714285714,86.58730158730158,-17.539682539682538,10.396825396825395,-0.7142857142857142,156.26984126984127,-18.49206349206349,99.92063492063491,-15.158730158730158,10.873015873015872,94.52380952380952,10.079365079365079,-12.142857142857142,87.85714285714285,-21.825396825396822,-325.0,-149.6031746031746,129.12698412698413,9.444444444444445,34.2063492063492,-157.53968253968253,-2.46031746031746,-0.23809523809523808,-166.26984126984127
221,82.14285714285714,86.58730158730158,-17.539682539682538,10.396825396825395,-0.7142857142857142,156.26984126984127,-18.49206349206349,99.92063492063491,-15.158730158730158,10.873015873015872,94.52380952380952,10.079365079365079,-12.142857142857142,87.85714285714285,-21.825396825396822,-325.0,-149.6031746031746,129.12698412698413,9.444444444444445,34.2063492063492,-157.53968253968253,-2.46031746031746,-0.23809523809523808,-166.26984126984127
222,79.44444444444444,76.58730158730158,-34.84126984126984,4.0476190476190474,-6.26984126984127,152.61904761904762,-36.11111111111111,92.61904761904762,-15.158730158730158,4.523809523809524,87.6984126984127,3.888888888888889,-29.920634920634917,88.80952380952381,-38.96825396825397,-325.0,-142.14285714285714,118.8095238095238,3.095238095238095,31.349206349206348,-156.74603174603175,-2.142857142857143,-1.0317460317460316,-166.26984126984127
223,79.44444444444444,76.58730158730158,-34.84126984126984,4.0476190476190474,-6.26984126984127,152.61904761904762,-36.11111111111111,92.61904761904762,-15.158730158730158,4.523809523809524,87.6984126984127,3.888888888888889,-29.920634920634917,88.80952380952381,-38.96825396825397,-325.0,-142.14285714285714,118.8095238095238,3.095238095238095,31.349206349206348,-156.74603174603175,-2.142857142857143,-1.0317460317460316,-166.26984126984127
224,78.33333333333333,-22.777777777777775,-79.76190476190476,7.222222222222221,-185.0,42.460317460317455,-81.19047619047619,16.904761904761905,-176.58730158730157,7.698412698412698,-21.666666666666664,7.3809523809523805,-79.6031746031746,-24.365079365079364,-80.55555555555556,-325.0,-132.14285714285714,42.3015873015873,6.587301587301587,1.0317460317460316,-9.444444444444445,0.07936507936507936,-0.7142857142857142,-166.26984126984127
225,78.33333333333333,-22.777777777777775,-79.76190476190476,7.222222222222221,-185.0,42.460317460317455,-81.19047619047619,16.904761904761905,-176.58730158730157,7.698412698412698,-21.666666666666664,7.3809523809523805,-79.6031746031746,-24.365079365079364,-80.55555555555556,-325.0,-132.14285714285714,42.3015873015873,6.587301587301587,1.0317460317460316,-9.444444444444445,0.07936507936507936,-0.7142857142857142,-166.26984126984127
226,77.06349206349206,-21.507936507936506,-77.53968253968253,3.73015873015873,-178.4920634920635,45.79365079365079,-77.38095238095238,21.825396825396822,-162.61904761904762,4.0476190476190474,-15.158730158730158,3.4126984126984126,-76.1111111111111,-36.11111111111111,-76.74603174603175,-325.0,53.57142857142857,47.06349206349206,2.9365079365079363,0.23809523809523808,-19.76190476190476,1.0317460317460316,0.23809523809523808,-166.26984126984127
227,77.06349206349206,-21.507936507936506,-77.53968253968253,3.73015873015873,-178.4920634920635,45.79365079365079,-77.38095238095238,21.825396825396822,-162.61904761904762,4.0476190476190474,-15.158730158730158,3.4126984126984126,-76.1111111111111,-36.11111111111111,-76.74603174603175,-325.0,53.57142857142857,47.06349206349206,2.9365079365079363,0.23809523809523808,-19.76190476190476,1.0317460317460316,0.23809523809523808,-166.26984126984127
228,75.63492063492063,-18.65079365079365,-60.55555555555555,-0.873015873015873,-178.4920634920635,41.98412698412698,-59.12698412698413,20.07936507936508,-156.11111111111111,-0.873015873015873,-15.0,-1.507936507936508,-57.698412698412696,-39.44444444444444,-58.96825396825397,-325.0,158.96825396825395,47.38095238095238,-1.8253968253968254,9.126984126984127,-20.873015873015873,1.349206349206349,0.873015873015873,-166.26984126984127
229,75.63492063492063,-18.65079365079365,-60.55555555555555,-0.873015873015873,-178.4920634920635,41.98412698412698,-59.12698412698413,20.07936507936508,-156.11111111111111,-0.873015873015873,-15.0,-1.507936507936508,-57.698412698412696,-39.44444444444444,-58.96825396825397,-325.0,158.96825396825395,47.38095238095238,-1.8253968253968254,9.126984126984127,-20.873015873015873,1.349206349206349,0.873015873015873,-166.26984126984127
230,74.2063492063492,64.04761904761905,-83.4126984126984,1.984126984126984,52.460317460317455,144.36507936507937,-88.80952380952381,97.85714285714285,85.47619047619047,2.7777777777777777,124.84126984126983,1.984126984126984,-83.09523809523809,61.03174603174603,-91.82539682539682,-325.0,325.0,135.3174603174603,0.7142857142857142,80.55555555555556,-202.61904761904762,-3.253968253968254,6.111111111111111,-321.8253968253968
231,74.2063492063492,64.04761904761905,-83.4126984126984,1.984126984126984,52.460317460317455,144.36507936507937,-88.80952380952381,97.85714285714285,85.47619047619047,2.7777777777777777,124.84126984126983,1.984126984126984,-83.09523809523809,61.03174603174603,-91.82539682539682,-325.0,325.0,135.3174603174603,0.7142857142857142,80.55555555555556,-202.61904761904762,-3.253968253968254,6.111111111111111,-321.8253968253968
232,73.25396825396825,-38.80952380952381,-128.65079365079364,11.19047619047619,-136.26984126984127,25.634920634920633,-132.14285714285714,12.936507936507935,-95.47619047619047,11.666666666666666,6.904761904761904,11.349206349206348,-131.8253968253968,-33.57142857142857,-132.14285714285714,-325.0,325.0,49.285714285714285,10.555555555555555,57.53968253968254,-44.52380952380952,-1.1904761904761905,5.952380952380952,-321.8253968253968
233,73.25396825396825,-38.80952380952381,-128.65079365079364,11.19047619047619,-136.26984126984127,25.634920634920633,-132.14285714285714,12.936507936507935,-95.47619047619047,11.666666666666666,6.904761904761904,11.349206349206348,-131.8253968253968,-33.57142857142857,-132.14285714285714,-325.0,325.0,49.285714285714285,10.555555555555555,57.53968253968254,-44.52380952380952,-1.1904761904761905,5.952380952380952,-321.8253968253968
234,71.19047619047619,68.65079365079364,-108.33333333333333,10.396825396825395,11.984126984126984,149.28571428571428,-110.71428571428571,95.63492063492063,26.587301587301585,10.555555555555555,98.01587301587301,9.761904761904761,-104.52380952380952,105.31746031746032,-112.93650793650794,-319.9206349206349,325.0,121.98412698412697,8.65079365079365,51.34920634920635,-175.63492063492063,-1.984126984126984,-0.23809523809523808,-321.8253968253968
235,71.19047619047619,68.65079365079364,-108.33333333333333,10.396825396825395,11.984126984126984,149.28571428571428,-110.71428571428571,95.63492063492063,26.587301587301585,10.555555555555555,98.01587301587301,9.761904761904761,-104.52380952380952,105.31746031746032,-112.93650793650794,-319.9206349206349,325.0,121.98412698412697,8.65079365079365,51.34920634920635,-175.63492063492063,-1.984126984126984,-0.23809523809523808,-321.8253968253968
236,70.07936507936508,-15.476190476190474,-141.984126984127,5.952380952380952,-170.23809523809524,43.41269841269841,-143.4126984126984,23.41269841269841,-142.3015873015873,6.428571428571428,-15.0,5.634920634920634,-141.8253968253968,-7.5396825396825395,-142.3015873015873,-312.3015873015873,325.0,48.80952380952381,4.523809523809524,18.96825396825397,-21.349206349206348,-0.07936507936507936,0.3968253968253968,-321.8253968253968
237,70.07936507936508,-15.476190476190474,-141.984126984127,5.952380952380952,-170.23809523809524,43.41269841269841,-143.4126984126984,23.41269841269841,-142.3015873015873,6.428571428571428,-15.0,5.634920634920634,-141.8253968253968,-7.5396825396825395,-142.3015873015873,-312.3015873015873,325.0,48.80952380952381,4.523809523809524,18.96825396825397,-21.349206349206348,-0.07936507936507936,0.3968253968253968,-321.8253968253968
238,68.65079365079364,82.14285714285714,-103.73015873015872,3.4126984126984126,11.984126984126984,159.6031746031746,-105.79365079365078,106.1111111111111,21.666666666666664,3.73015873015873,92.30158730158729,3.095238095238095,-99.76190476190476,72.46031746031746,-107.38095238095238,170.07936507936506,325.0,128.8095238095238,2.3015873015873014,47.22222222222222,-164.84126984126982,-0.873015873015873,-1.1904761904761905,-321.8253968253968
239,68.65079365079364,82.14285714285714,-103.73015873015872,3.4126984126984126,11.984126984126984,159.6031746031746,-105.79365079365078,106.1111111111111,21.666666666666664,3.73015873015873,92.30158730158729,3.095238095238095,-99.76190476190476,72.46031746031746,-107.38095238095238,170.07936507936506,325.0,128.8095238095238,2.3015873015873014,47.22222222222222,-164.84126984126982,-0.873015873015873,-1.1904761904761905,-321.8253968253968
240,68.4920634920635,100.55555555555554,-102.77777777777777,-0.3968253968253968,-29.126984126984127,170.87301587301587,-104.52380952380952,112.46031746031746,-28.809523809523807,-0.23809523809523808,72.93650793650794,-1.1904761904761905,-96.42857142857142,71.82539682539682,-104.84126984126983,324.04761904761904,325.0,127.38095238095238,-2.142857142857143,2.7777777777777777,-143.73015873015873,-0.3968253968253968,-7.222222222222221,-166.26984126984127
241,68.4920634920635,100.55555555555554,-102.77777777777777,-0.3968253968253968,-29.126984126984127,170.87301587301587,-104.52380952380952,112.46031746031746,-28.809523809523807,-0.23809523809523808,72.93650793650794,-1.1904761904761905,-96.42857142857142,71.82539682539682,-104.84126984126983,324.04761904761904,325.0,127.38095238095238,-2.142857142857143,2.7777777777777777,-143.73015873015873,-0.3968253968253968,-7.222222222222221,-166.26984126984127
242,66.58730158730158,55.15873015873016,-140.3968253968254,12.142857142857142,55.317460317460316,133.57142857142856,-145.47619047619048,93.09523809523809,76.74603174603175,12.936507936507935,111.34920634920634,12.142857142857142,-141.66666666666666,79.6031746031746,-147.2222222222222,-96.1111111111111,325.0,117.22222222222221,11.349206349206348,89.92063492063491,-204.52380952380952,-3.253968253968254,5.952380952380952,-166.26984126984127
243,66.58730158730158,55.15873015873016,-140.3968253968254,12.142857142857142,55.317460317460316,133.57142857142856,-145.47619047619048,93.09523809523809,76.74603174603175,12.936507936507935,111.34920634920634,12.142857142857142,-141.66666666666666,79.6031746031746,-147.2222222222222,-96.1111111111111,325.0,117.22222222222221,11.349206349206348,89.92063492063491,-204.52380952380952,-3.253968253968254,5.952380952380952,-166.26984126984127
244,63.73015873015873,78.17460317460316,-105.31746031746032,-0.23809523809523808,20.396825396825395,150.7142857142857,-108.96825396825396,103.73015873015872,30.71428571428571,-0.23809523809523808,95.15873015873015,-0.873015873015873,-104.2063492063492,73.88888888888889,-110.71428571428571,106.42857142857142,325.0,119.92063492063491,-1.507936507936508,51.19047619047619,-165.63492063492063,-1.6666666666666665,-0.5555555555555556,-166.26984126984127
245,63.73015873015873,78.17460317460316,-105.31746031746032,-0.23809523809523808,20.396825396825395,150.7142857142857,-108.96825396825396,103.73015873015872,30.71428571428571,-0.23809523809523808,95.15873015873015,-0.873015873015873,-104.2063492063492,73.88888888888889,-110.71428571428571,106.42857142857142,325.0,119.92063492063491,-1.507936507936508,51.19047619047619,-165.63492063492063,-1.6666666666666665,-0.5555555555555556,-166.26984126984127
246,63.57142857142857,100.23809523809523,-107.38095238095238,-4.682539682539682,-26.26984126984127,165.95238095238093,-110.71428571428571,116.1111111111111,-25.634920634920633,-4.523809523809524,69.28571428571428,-5.0,-104.84126984126983,75.0,-112.30158730158729,325.0,325.0,123.88888888888889,-6.111111111111111,1.507936507936508,-135.15873015873015,-1.0317460317460316,-5.476190476190476,-166.26984126984127
247,63.57142857142857,100.23809523809523,-107.38095238095238,-4.682539682539682,-26.26984126984127,165.95238095238093,-110.71428571428571,116.1111111111111,-25.634920634920633,-4.523809523809524,69.28571428571428,-5.0,-104.84126984126983,75.0,-112.30158730158729,325.0,325.0,123.88888888888889,-6.111111111111111,1.507936507936508,-135.15873015873015,-1.0317460317460316,-5.476190476190476,-166.26984126984127
248,61.507936507936506,69.12698412698413,-88.17460317460316,4.365079365079365,40.39682539682539,144.68253968253967,-91.5079365079365,103.09523809523809,44.36507936507936,4.2063492063492065,98.01587301587301,4.0476190476190474,-86.42857142857143,97.38095238095238,-93.4126984126984,-238.49206349206347,325.0,107.6984126984127,3.888888888888889,48.96825396825397,-190.23809523809524,-1.349206349206349,-0.5555555555555556,-166.26984126984127
249,61.507936507936506,69.12698412698413,-88.17460317460316,4.365079365079365,40.39682539682539,144.68253968253967,-91.5079365079365,103.09523809523809,44.36507936507936,4.2063492063492065,98.01587301587301,4.0476190476190474,-86.42857142857143,97.38095238095238,-93.4126984126984,-238.49206349206347,325.0,107.6984126984127,3.888888888888889,48.96825396825397,-190.23809523809524,-1.349206349206349,-0.5555555555555556,-166.26984126984127
250,60.71428571428571,-22.142857142857142,-87.06349206349206,8.65079365079365,-152.14285714285714,32.460317460317455,-88.17460317460316,24.206349206349206,-132.14285714285714,8.174603174603174,-17.857142857142858,8.333333333333332,-87.38095238095238,-14.523809523809524,-87.6984126984127,-325.0,288.8095238095238,24.84126984126984,8.65079365079365,29.76190476190476,-21.666666666666664,0.5555555555555556,-0.7142857142857142,-321.8253968253968
251,60.71428571428571,-22.142857142857142,-87.06349206349206,8.65079365079365,-152.14285714285714,32.460317460317455,-88.17460317460316,24.206349206349206,-132.14285714285714,8.174603174603174,-17.857142857142858,8.333333333333332,-87.38095238095238,-14.523809523809524,-87.6984126984127,-325.0,288.8095238095238,24.84126984126984,8.65079365079365,29.76190476190476,-21.666666666666664,0.5555555555555556,-0.7142857142857142,-321.8253968253968
252,59.44444444444444,71.03174603174602,-78.01587301587301,11.666666666666666,38.80952380952381,147.2222222222222,-81.82539682539682,106.42857142857142,21.349206349206348,11.825396825396824,92.46031746031746,11.19047619047619,-76.58730158730158,91.03174603174602,-83.88888888888889,-317.22222222222223,273.73015873015873,103.25396825396825,11.349206349206348,47.38095238095238,-171.19047619047618,-0.7142857142857142,-1.1904761904761905,-321.8253968253968
253,59.44444444444444,71.03174603174602,-78.01587301587301,11.666666666666666,38.80952380952381,147.2222222222222,-81.82539682539682,106.42857142857142,21.349206349206348,11.825396825396824,92.46031746031746,11.19047619047619,-76.58730158730158,91.03174603174602,-83.88888888888889,-317.22222222222223,273.73015873015873,103.25396825396825,11.349206349206348,47.38095238095238,-171.19047619047618,-0.7142857142857142,-1.1904761904761905,-321.8253968253968
254,58.650793650793645,-26.746031746031743,-63.73015873015873,8.333333333333332,-154.68253968253967,33.57142857142857,-64.68253968253968,22.936507936507937,-146.11111111111111,8.174603174603174,-23.730158730158728,8.174603174603174,-63.73015873015873,-38.65079365079365,-64.2063492063492,-316.4285714285714,145.47619047619048,21.666666666666664,8.015873015873016,19.76190476190476,-9.761904761904761,1.0317460317460316,-0.5555555555555556,-321.8253968253968
255,58.650793650793645,-26.746031746031743,-63.73015873015873,8.333333333333332,-154.68253968253967,33.57142857142857,-64.68253968253968,22.936507936507937,-146.11111111111111,8.174603174603174,-23.730158730158728,8.174603174603174,-63.73015873015873,-38.65079365079365,-64.2063492063492,-316.4285714285714,145.47619047619048,21.666666666666664,8.015873015873016,19.76190476190476,-9.761904761904761,1.0317460317460316,-0.5555555555555556,-321.8253968253968
256,57.698412698412696,65.31746031746032,-50.87301587301587,5.7936507936507935,93.73015873015872,146.58730158730157,-58.17460317460317,102.14285714285714,63.095238095238095,5.158730158730158,112.14285714285714,4.841269841269841,-52.460317460317455,91.5079365079365,-60.55555555555555,-297.06349206349205,325.0,107.85714285714285,5.0,76.74603174603175,-204.84126984126982,-3.095238095238095,4.2063492063492065,-321.8253968253968
257,57.698412698412696,65.31746031746032,-50.87301587301587,5.7936507936507935,93.73015873015872,146.58730158730157,-58.17460317460317,102.14285714285714,63.095238095238095,5.158730158730158,112.14285714285714,4.841269841269841,-52.460317460317455,91.5079365079365,-60.55555555555555,-297.06349206349205,325.0,107.85714285714285,5.0,76.74603174603175,-204.84126984126982,-3.095238095238095,4.2063492063492065,-321.8253968253968
258,56.74603174603174,-28.96825396825397,-49.92063492063492,6.746031746031746,-91.82539682539682,36.904761904761905,-54.047619047619044,27.22222222222222,-87.22222222222221,6.26984126984127,4.2063492063492065,5.952380952380952,-52.3015873015873,-6.428571428571428,-53.888888888888886,-302.9365079365079,-0.07936507936507936,30.87301587301587,6.26984126984127,61.507936507936506,-49.44444444444444,-1.349206349206349,5.158730158730158,-321.8253968253968
259,56.74603174603174,-28.96825396825397,-49.92063492063492,6.746031746031746,-91.82539682539682,36.904761904761905,-54.047619047619044,27.22222222222222,-87.22222222222221,6.26984126984127,4.2063492063492065,5.952380952380952,-52.3015873015873,-6.428571428571428,-53.888888888888886,-302.9365079365079,-0.07936507936507936,30.87301587301587,6.26984126984127,61.507936507936506,-49.44444444444444,-1.349206349206349,5.158730158730158,-321.8253968253968
260,55.15873015873016,83.09523809523809,-3.095238095238095,5.952380952380952,54.36507936507936,152.77777777777777,-6.904761904761904,109.76190476190476,26.428571428571427,5.7936507936507935,94.36507936507935,5.476190476190476,-1.8253968253968254,92.14285714285714,-8.968253968253968,-304.8412698412698,-325.0,103.4126984126984,5.7936507936507935,47.698412698412696,-174.84126984126982,-2.3015873015873014,-1.349206349206349,-166.26984126984127
261,55.15873015873016,83.09523809523809,-3.095238095238095,5.952380952380952,54.36507936507936,152.77777777777777,-6.904761904761904,109.76190476190476,26.428571428571427,5.7936507936507935,94.36507936507935,5.476190476190476,-1.8253968253968254,92.14285714285714,-8.968253968253968,-304.8412698412698,-325.0,103.4126984126984,5.7936507936507935,47.698412698412696,-174.84126984126982,-2.3015873015873014,-1.349206349206349,-166.26984126984127
262,55.15873015873016,103.4126984126984,-5.7936507936507935,4.0476190476190474,-14.523809523809524,166.26984126984127,-8.65079365079365,119.76190476190476,-41.34920634920635,3.253968253968254,58.01587301587301,3.095238095238095,-3.4126984126984126,81.34920634920634,-9.603174603174603,-302.1428571428571,-325.0,107.06349206349206,3.4126984126984126,-4.0476190476190474,-124.84126984126983,-1.1904761904761905,-7.3809523809523805,-166.26984126984127
263,55.15873015873016,103.4126984126984,-5.7936507936507935,4.0476190476190474,-14.523809523809524,166.26984126984127,-8.65079365079365,119.76190476190476,-41.34920634920635,3.253968253968254,58.01587301587301,3.095238095238095,-3.4126984126984126,81.34920634920634,-9.603174603174603,-302.1428571428571,-325.0,107.06349206349206,3.4126984126984126,-4.0476190476190474,-124.84126984126983,-1.1904761904761905,-7.3809523809523805,-166.26984126984127
264,51.98412698412698,-32.93650793650794,-51.666666666666664,4.841269841269841,-67.38095238095238,25.634920634920633,-54.52380952380952,17.539682539682538,-68.33333333333333,4.841269841269841,14.523809523809524,4.523809523809524,-53.57142857142857,-21.19047619047619,-54.68253968253968,325.0,-325.0,20.555555555555554,4.841269841269841,76.9047619047619,-55.79365079365079,-0.5555555555555556,5.7936507936507935,-166.26984126984127
265,51.98412698412698,-32.93650793650794,-51.666666666666664,4.841269841269841,-67.38095238095238,25.634920634920633,-54.52380952380952,17.539682539682538,-68.33333333333333,4.841269841269841,14.523809523809524,4.523809523809524,-53.57142857142857,-21.19047619047619,-54.68253968253968,325.0,-325.0,20.555555555555554,4.841269841269841,76.9047619047619,-55.79365079365079,-0.5555555555555556,5.7936507936507935,-166.26984126984127
266,51.19047619047619,85.0,-41.98412698412698,-3.253968253968254,-13.095238095238095,151.8253968253968,-45.95238095238095,103.73015873015872,-44.84126984126984,-3.4126984126984126,52.14285714285714,-4.2063492063492065,-39.44444444444444,71.34920634920634,-46.74603174603175,325.0,-37.38095238095238,91.82539682539682,-3.73015873015873,-11.031746031746032,-117.06349206349206,-1.349206349206349,-8.015873015873016,-166.26984126984127
267,51.19047619047619,85.0,-41.98412698412698,-3.253968253968254,-13.095238095238095,151.8253968253968,-45.95238095238095,103.73015873015872,-44.84126984126984,-3.4126984126984126,52.14285714285714,-4.2063492063492065,-39.44444444444444,71.34920634920634,-46.74603174603175,325.0,-37.38095238095238,91.82539682539682,-3.73015873015873,-11.031746031746032,-117.06349206349206,-1.349206349206349,-8.015873015873016,-166.26984126984127
268,50.079365079365076,-35.95238095238095,-65.47619047619047,3.73015873015873,-68.01587301587301,23.57142857142857,-68.96825396825396,17.539682539682538,-64.84126984126983,3.4126984126984126,18.80952380952381,3.253968253968254,-68.17460317460318,17.22222222222222,-68.65079365079364,205.63492063492063,31.349206349206348,17.38095238095238,3.4126984126984126,73.25396825396825,-56.269841269841265,-1.984126984126984,6.746031746031746,-166.26984126984127
269,50.079365079365076,-35.95238095238095,-65.47619047619047,3.73015873015873,-68.01587301587301,23.57142857142857,-68.96825396825396,17.539682539682538,-64.84126984126983,3.4126984126984126,18.80952380952381,3.253968253968254,-68.17460317460318,17.22222222222222,-68.65079365079364,205.63492063492063,31.349206349206348,17.38095238095238,3.4126984126984126,73.25396825396825,-56.269841269841265,-1.984126984126984,6.746031746031746,-166.26984126984127
270,49.44444444444444,89.6031746031746,-36.42857142857142,-6.587301587301587,-19.285714285714285,147.06349206349205,-37.38095238095238,104.52380952380952,-45.317460317460316,-7.698412698412698,56.904761904761905,-8.015873015873016,-30.555555555555554,38.80952380952381,-39.285714285714285,294.8412698412698,325.0,91.03174603174602,-7.698412698412698,-14.523809523809524,-118.96825396825396,0.07936507936507936,-5.634920634920634,-321.8253968253968
271,49.44444444444444,89.6031746031746,-36.42857142857142,-6.587301587301587,-19.285714285714285,147.06349206349205,-37.38095238095238,104.52380952380952,-45.317460317460316,-7.698412698412698,56.904761904761905,-8.015873015873016,-30.555555555555554,38.80952380952381,-39.285714285714285,294.8412698412698,325.0,91.03174603174602,-7.698412698412698,-14.523809523809524,-118.96825396825396,0.07936507936507936,-5.634920634920634,-321.8253968253968
272,48.80952380952381,81.34920634920634,-51.98412698412698,-0.5555555555555556,66.9047619047619,143.4126984126984,-55.79365079365079,103.73015873015872,38.96825396825397,-1.0317460317460316,108.80952380952381,-1.349206349206349,-49.12698412698413,88.96825396825396,-58.49206349206349,-15.158730158730158,325.0,96.58730158730158,-0.873015873015873,44.047619047619044,-181.984126984127,-1.984126984126984,-0.7142857142857142,-321.8253968253968
273,48.80952380952381,81.34920634920634,-51.98412698412698,-0.5555555555555556,66.9047619047619,143.4126984126984,-55.79365079365079,103.73015873015872,38.96825396825397,-1.0317460317460316,108.80952380952381,-1.349206349206349,-49.12698412698413,88.96825396825396,-58.49206349206349,-15.158730158730158,325.0,96.58730158730158,-0.873015873015873,44.047619047619044,-181.984126984127,-1.984126984126984,-0.7142857142857142,-321.8253968253968
274,47.53968253968254,81.34920634920634,25.476190476190474,-6.26984126984127,-9.603174603174603,143.09523809523807,26.11111111111111,104.36507936507935,-35.0,-6.26984126984127,63.095238095238095,-6.428571428571428,30.396825396825395,88.01587301587301,23.41269841269841,-312.77777777777777,-32.14285714285714,89.44444444444444,-6.428571428571428,-6.746031746031746,-132.61904761904762,1.507936507936508,-7.063492063492063,-321.8253968253968
275,47.53968253968254,81.34920634920634,25.476190476190474,-6.26984126984127,-9.603174603174603,143.09523809523807,26.11111111111111,104.36507936507935,-35.0,-6.26984126984127,63.095238095238095,-6.428571428571428,30.396825396825395,88.01587301587301,23.41269841269841,-312.77777777777777,-32.14285714285714,89.44444444444444,-6.428571428571428,-6.746031746031746,-132.61904761904762,1.507936507936508,-7.063492063492063,-321.8253968253968
276,46.42857142857142,88.17460317460316,20.555555555555554,-1.507936507936508,8.492063492063492,18.96825396825397,18.015873015873016,18.96825396825397,3.253968253968254,-1.507936507936508,-110.87301587301587,-1.507936507936508,19.285714285714285,-17.539682539682538,17.857142857142858,-301.66666666666663,-107.85714285714285,14.84126984126984,-1.1904761904761905,111.34920634920634,-93.4126984126984,-0.7142857142857142,5.317460317460317,-321.8253968253968
277,46.42857142857142,88.17460317460316,20.555555555555554,-1.507936507936508,8.492063492063492,18.96825396825397,18.015873015873016,18.96825396825397,3.253968253968254,-1.507936507936508,-110.87301587301587,-1.507936507936508,19.285714285714285,-17.539682539682538,17.857142857142858,-301.66666666666663,-107.85714285714285,14.84126984126984,-1.1904761904761905,111.34920634920634,-93.4126984126984,-0.7142857142857142,5.317460317460317,-321.8253968253968
278,46.269841269841265,250.3968253968254,43.095238095238095,-3.888888888888889,259.76190476190476,133.25396825396825,36.269841269841265,100.55555555555554,213.57142857142856,-4.0476190476190474,-108.33333333333333,-4.0476190476190474,40.714285714285715,105.31746031746032,31.825396825396822,-300.23809523809524,109.44444444444444,95.15873015873015,-3.571428571428571,155.15873015873015,-290.39682539682536,-3.253968253968254,3.73015873015873,-321.8253968253968
