Fp1[1],Fp2[2],F3[3],F4[4],C3[5],C4[6],P3[7],P4[8],O1[9],O2[10],F7[11],F8[12],T3[13],T4[14],T5[15],T6[16],Fz[17],Pz[18],Cz[19],Pg1[20],Pg2[21],EOGR[22],EOOGL[23],EMG[24]
-325.0,325.0,-325.0,147.69841269841268,-325.0,55.0,-325.0,75.63492063492063,-325.0,64.84126984126983,39.76190476190476,14.206349206349206,-325.0,89.28571428571428,-325.0,119.12698412698413,-325.0,44.2063492063492,-45.79365079365079,-10.079365079365079,88.65079365079364,-0.873015873015873,-0.07936507936507936,-166.26984126984127
-325.0,325.0,-325.0,147.69841269841268,-325.0,55.0,-325.0,75.63492063492063,-325.0,64.84126984126983,39.76190476190476,14.206349206349206,-325.0,89.28571428571428,-325.0,119.12698412698413,-325.0,44.2063492063492,-45.79365079365079,-10.079365079365079,88.65079365079364,-0.873015873015873,-0.07936507936507936,-166.26984126984127
-325.0,325.0,-325.0,151.34920634920633,-325.0,41.98412698412698,-325.0,58.17460317460317,-325.0,106.74603174603175,30.71428571428571,20.238095238095237,-325.0,68.17460317460318,-325.0,92.14285714285714,-325.0,33.888888888888886,70.71428571428571,-8.492063492063492,-122.6190476190476,-0.5555555555555556,0.07936507936507936,-166.26984126984127
-325.0,325.0,-325.0,151.34920634920633,-325.0,41.98412698412698,-325.0,58.17460317460317,-325.0,106.74603174603175,30.71428571428571,20.238095238095237,-325.0,68.17460317460318,-325.0,92.14285714285714,-325.0,33.888888888888886,70.71428571428571,-8.492063492063492,-122.6190476190476,-0.5555555555555556,0.07936507936507936,-166.26984126984127
-325.0,325.0,-325.0,157.85714285714286,-325.0,37.06349206349206,-325.0,51.666666666666664,-325.0,123.57142857142857,27.22222222222222,21.666666666666664,-318.968253968254,60.079365079365076,-314.8412698412698,81.66666666666666,-325.0,30.07936507936508,99.12698412698413,-8.015873015873016,-108.33333333333333,-0.5555555555555556,-3.095238095238095,-166.26984126984127
-325.0,325.0,-325.0,157.85714285714286,-325.0,37.06349206349206,-325.0,51.666666666666664,-325.0,123.57142857142857,27.22222222222222,21.666666666666664,-318.968253968254,60.079365079365076,-314.8412698412698,81.66666666666666,-325.0,30.07936507936508,99.12698412698413,-8.015873015873016,-108.33333333333333,-0.5555555555555556,-3.095238095238095,-166.26984126984127
-325.0,325.0,-325.0,165.15873015873015,-325.0,32.77777777777778,-325.0,45.79365079365079,-325.0,140.55555555555554,24.047619047619047,24.68253968253968,-312.9365079365079,52.61904761904761,-304.68253968253964,72.3015873015873,-325.0,26.587301587301585,126.1111111111111,-7.5396825396825395,-95.0,0.07936507936507936,-3.253968253968254,-166.26984126984127
-325.0,325.0,-325.0,165.15873015873015,-325.0,32.77777777777778,-325.0,45.79365079365079,-325.0,140.55555555555554,24.047619047619047,24.68253968253968,-312.9365079365079,52.61904761904761,-304.68253968253964,72.3015873015873,-325.0,26.587301587301585,126.1111111111111,-7.5396825396825395,-95.0,0.07936507936507936,-3.253968253968254,-166.26984126984127
-325.0,325.0,-325.0,165.15873015873015,-325.0,32.77777777777778,-325.0,45.79365079365079,-325.0,140.55555555555554,24.047619047619047,24.68253968253968,-312.9365079365079,52.61904761904761,-304.68253968253964,72.3015873015873,-325.0,26.587301587301585,126.1111111111111,-7.5396825396825395,-95.0,0.07936507936507936,-3.253968253968254,-166.26984126984127
-325.0,325.0,-325.0,165.15873015873015,-325.0,32.77777777777778,-325.0,45.79365079365079,-325.0,140.55555555555554,24.047619047619047,24.68253968253968,-312.9365079365079,52.61904761904761,-304.68253968253964,72.3015873015873,-325.0,26.587301587301585,126.1111111111111,-7.5396825396825395,-95.0,0.07936507936507936,-3.253968253968254,-166.26984126984127
-321.19047619047615,325.0,-323.73015873015873,163.25396825396825,-325.0,31.19047619047619,-325.0,43.25396825396825,-325.0,144.52380952380952,22.936507936507937,24.047619047619047,-298.3333333333333,49.6031746031746,-292.1428571428571,68.17460317460318,-324.68253968253964,25.158730158730158,130.3968253968254,-7.222222222222221,-89.92063492063491,-0.23809523809523808,-3.73015873015873,-321.8253968253968
-321.19047619047615,325.0,-323.73015873015873,163.25396825396825,-325.0,31.19047619047619,-325.0,43.25396825396825,-325.0,144.52380952380952,22.936507936507937,24.047619047619047,-298.3333333333333,49.6031746031746,-292.1428571428571,68.17460317460318,-324.68253968253964,25.158730158730158,130.3968253968254,-7.222222222222221,-89.92063492063491,-0.23809523809523808,-3.73015873015873,-321.8253968253968
-322.9365079365079,325.0,-323.73015873015873,162.3015873015873,-325.0,30.71428571428571,-325.0,42.61904761904761,-325.0,144.84126984126982,22.46031746031746,22.936507936507937,-303.57142857142856,48.80952380952381,-296.4285714285714,67.22222222222221,-324.68253968253964,24.68253968253968,130.87301587301587,-7.222222222222221,-88.65079365079364,0.07936507936507936,-0.873015873015873,-321.8253968253968
-322.9365079365079,325.0,-323.73015873015873,162.3015873015873,-325.0,30.71428571428571,-325.0,42.61904761904761,-325.0,144.84126984126982,22.46031746031746,22.936507936507937,-303.57142857142856,48.80952380952381,-296.4285714285714,67.22222222222221,-324.68253968253964,24.68253968253968,130.87301587301587,-7.222222222222221,-88.65079365079364,0.07936507936507936,-0.873015873015873,-321.8253968253968
-320.23809523809524,325.0,-318.8095238095238,163.09523809523807,-325.0,30.07936507936508,-325.0,41.82539682539682,-325.0,147.69841269841268,21.984126984126984,24.047619047619047,-299.4444444444444,47.857142857142854,-292.3015873015873,66.11111111111111,-320.23809523809524,24.206349206349206,134.2063492063492,-7.063492063492063,-86.9047619047619,-0.3968253968253968,-0.23809523809523808,-321.8253968253968
-320.23809523809524,325.0,-318.8095238095238,163.09523809523807,-325.0,30.07936507936508,-325.0,41.82539682539682,-325.0,147.69841269841268,21.984126984126984,24.047619047619047,-299.4444444444444,47.857142857142854,-292.3015873015873,66.11111111111111,-320.23809523809524,24.206349206349206,134.2063492063492,-7.063492063492063,-86.9047619047619,-0.3968253968253968,-0.23809523809523808,-321.8253968253968
-318.4920634920635,325.0,-312.46031746031747,167.2222222222222,-325.0,29.285714285714285,-325.0,40.87301587301587,-325.0,153.09523809523807,21.507936507936506,27.22222222222222,-291.66666666666663,46.58730158730158,-284.04761904761904,64.36507936507937,-318.4920634920635,23.730158730158728,139.76190476190476,-7.063492063492063,-84.84126984126983,-0.5555555555555556,2.9365079365079363,-321.8253968253968
-318.4920634920635,325.0,-312.46031746031747,167.2222222222222,-325.0,29.285714285714285,-325.0,40.87301587301587,-325.0,153.09523809523807,21.507936507936506,27.22222222222222,-291.66666666666663,46.58730158730158,-284.04761904761904,64.36507936507937,-318.4920634920635,23.730158730158728,139.76190476190476,-7.063492063492063,-84.84126984126983,-0.5555555555555556,2.9365079365079363,-321.8253968253968
-313.25396825396825,324.68253968253964,-305.95238095238096,165.15873015873015,-325.0,28.96825396825397,-324.68253968253964,40.238095238095234,-325.0,153.25396825396825,21.19047619047619,25.634920634920633,-285.3174603174603,45.95238095238095,-278.17460317460313,63.41269841269841,-311.66666666666663,23.41269841269841,139.6031746031746,-7.063492063492063,-83.4126984126984,-0.7142857142857142,-0.7142857142857142,-321.8253968253968
-313.25396825396825,324.68253968253964,-305.95238095238096,165.15873015873015,-325.0,28.96825396825397,-324.68253968253964,40.238095238095234,-325.0,153.25396825396825,21.19047619047619,25.634920634920633,-285.3174603174603,45.95238095238095,-278.17460317460313,63.41269841269841,-311.66666666666663,23.41269841269841,139.6031746031746,-7.063492063492063,-83.4126984126984,-0.7142857142857142,-0.7142857142857142,-321.8253968253968
-309.4444444444444,320.23809523809524,-298.6507936507936,162.3015873015873,-325.0,28.174603174603174,-320.23809523809524,39.12698412698413,-325.0,154.68253968253967,20.555555555555554,22.3015873015873,-279.76190476190476,44.68253968253968,-271.8253968253968,61.98412698412698,-306.1111111111111,22.777777777777775,138.65079365079364,-6.746031746031746,-81.34920634920634,-0.07936507936507936,2.3015873015873014,-166.26984126984127
-309.4444444444444,320.23809523809524,-298.6507936507936,162.3015873015873,-325.0,28.174603174603174,-320.23809523809524,39.12698412698413,-325.0,154.68253968253967,20.555555555555554,22.3015873015873,-279.76190476190476,44.68253968253968,-271.8253968253968,61.98412698412698,-306.1111111111111,22.777777777777775,138.65079365079364,-6.746031746031746,-81.34920634920634,-0.07936507936507936,2.3015873015873014,-166.26984126984127
-299.1269841269841,315.0,-286.74603174603175,156.74603174603175,-325.0,27.38095238095238,-309.9206349206349,38.49206349206349,-323.57142857142856,152.77777777777777,20.238095238095237,19.126984126984127,-267.6984126984127,43.888888888888886,-261.1904761904762,60.71428571428571,-293.73015873015873,22.3015873015873,135.79365079365078,-6.746031746031746,-79.92063492063491,-1.0317460317460316,-2.9365079365079363,-166.26984126984127
-299.1269841269841,315.0,-286.74603174603175,156.74603174603175,-325.0,27.38095238095238,-309.9206349206349,38.49206349206349,-323.57142857142856,152.77777777777777,20.238095238095237,19.126984126984127,-267.6984126984127,43.888888888888886,-261.1904761904762,60.71428571428571,-293.73015873015873,22.3015873015873,135.79365079365078,-6.746031746031746,-79.92063492063491,-1.0317460317460316,-2.9365079365079363,-166.26984126984127
-298.3333333333333,295.4761904761905,-274.68253968253964,171.34920634920633,-322.3015873015873,25.476190476190474,-301.66666666666663,35.79365079365079,-317.06349206349205,177.85714285714286,18.65079365079365,34.84126984126984,-259.6031746031746,40.714285714285715,-251.5079365079365,56.42857142857142,-286.26984126984127,20.873015873015873,155.3174603174603,-6.587301587301587,-74.2063492063492,-1.1904761904761905,-10.396825396825395,-166.26984126984127
-298.3333333333333,295.4761904761905,-274.68253968253964,171.34920634920633,-322.3015873015873,25.476190476190474,-301.66666666666663,35.79365079365079,-317.06349206349205,177.85714285714286,18.65079365079365,34.84126984126984,-259.6031746031746,40.714285714285715,-251.5079365079365,56.42857142857142,-286.26984126984127,20.873015873015873,155.3174603174603,-6.587301587301587,-74.2063492063492,-1.1904761904761905,-10.396825396825395,-166.26984126984127
105.63492063492063,-325.0,-30.87301587301587,84.04761904761904,323.88888888888886,10.396825396825395,-40.079365079365076,14.206349206349206,325.0,142.3015873015873,7.857142857142857,5.317460317460317,-15.158730158730158,15.317460317460316,-7.063492063492063,22.46031746031746,-43.41269841269841,8.492063492063492,96.42857142857142,-3.888888888888889,-28.96825396825397,-1.0317460317460316,-9.126984126984127,-166.26984126984127
105.63492063492063,-325.0,-30.87301587301587,84.04761904761904,323.88888888888886,10.396825396825395,-40.079365079365076,14.206349206349206,325.0,142.3015873015873,7.857142857142857,5.317460317460317,-15.158730158730158,15.317460317460316,-7.063492063492063,22.46031746031746,-43.41269841269841,8.492063492063492,96.42857142857142,-3.888888888888889,-28.96825396825397,-1.0317460317460316,-9.126984126984127,-166.26984126984127
225.15873015873015,-243.09523809523807,134.2063492063492,20.71428571428571,155.0,-325.0,129.6031746031746,-325.0,195.0,55.63492063492063,3.888888888888889,-3.888888888888889,151.03174603174602,-325.0,151.5079365079365,-325.0,325.0,-325.0,50.079365079365076,325.0,-12.936507936507935,0.5555555555555556,7.5396825396825395,-166.26984126984127
225.15873015873015,-243.09523809523807,134.2063492063492,20.71428571428571,155.0,-325.0,129.6031746031746,-325.0,195.0,55.63492063492063,3.888888888888889,-3.888888888888889,151.03174603174602,-325.0,151.5079365079365,-325.0,325.0,-325.0,50.079365079365076,325.0,-12.936507936507935,0.5555555555555556,7.5396825396825395,-166.26984126984127
225.15873015873015,-243.09523809523807,134.2063492063492,20.71428571428571,155.0,-325.0,129.6031746031746,-325.0,195.0,55.63492063492063,3.888888888888889,-3.888888888888889,151.03174603174602,-325.0,151.5079365079365,-325.0,325.0,-325.0,50.079365079365076,325.0,-12.936507936507935,0.5555555555555556,7.5396825396825395,-321.8253968253968
225.15873015873015,-243.09523809523807,134.2063492063492,20.71428571428571,155.0,-325.0,129.6031746031746,-325.0,195.0,55.63492063492063,3.888888888888889,-3.888888888888889,151.03174603174602,-325.0,151.5079365079365,-325.0,325.0,-325.0,50.079365079365076,325.0,-12.936507936507935,0.5555555555555556,7.5396825396825395,-321.8253968253968
194.84126984126982,-213.25396825396825,72.77777777777777,20.396825396825395,134.84126984126982,-325.0,65.79365079365078,-325.0,169.76190476190476,49.6031746031746,3.253968253968254,2.142857142857143,85.95238095238095,-325.0,89.6031746031746,-325.0,312.77777777777777,-325.0,47.857142857142854,325.0,-11.349206349206348,-0.5555555555555556,0.3968253968253968,-321.8253968253968
194.84126984126982,-213.25396825396825,72.77777777777777,20.396825396825395,134.84126984126982,-325.0,65.79365079365078,-325.0,169.76190476190476,49.6031746031746,3.253968253968254,2.142857142857143,85.95238095238095,-325.0,89.6031746031746,-325.0,312.77777777777777,-325.0,47.857142857142854,325.0,-11.349206349206348,-0.5555555555555556,0.3968253968253968,-321.8253968253968
161.984126984127,-181.19047619047618,23.57142857142857,13.888888888888888,113.09523809523809,-325.0,15.158730158730158,-325.0,142.61904761904762,36.42857142857142,2.9365079365079363,3.095238095238095,34.682539682539684,-325.0,38.49206349206349,-325.0,296.4285714285714,-325.0,40.238095238095234,325.0,-9.603174603174603,-1.8253968253968254,-1.6666666666666665,-321.8253968253968
161.984126984127,-181.19047619047618,23.57142857142857,13.888888888888888,113.09523809523809,-325.0,15.158730158730158,-325.0,142.61904761904762,36.42857142857142,2.9365079365079363,3.095238095238095,34.682539682539684,-325.0,38.49206349206349,-325.0,296.4285714285714,-325.0,40.238095238095234,325.0,-9.603174603174603,-1.8253968253968254,-1.6666666666666665,-321.8253968253968
161.19047619047618,-180.3968253968254,24.84126984126984,12.936507936507935,112.77777777777777,-325.0,16.11111111111111,-325.0,141.984126984127,35.63492063492063,2.9365079365079363,2.3015873015873014,36.42857142857142,-325.0,39.285714285714285,-325.0,295.1587301587301,-325.0,38.96825396825397,325.0,-9.603174603174603,-1.0317460317460316,5.634920634920634,-321.8253968253968
161.19047619047618,-180.3968253968254,24.84126984126984,12.936507936507935,112.77777777777777,-325.0,16.11111111111111,-325.0,141.984126984127,35.63492063492063,2.9365079365079363,2.3015873015873014,36.42857142857142,-325.0,39.285714285714285,-325.0,295.1587301587301,-325.0,38.96825396825397,325.0,-9.603174603174603,-1.0317460317460316,5.634920634920634,-321.8253968253968
161.19047619047618,-180.3968253968254,24.84126984126984,12.936507936507935,112.77777777777777,-325.0,16.11111111111111,-325.0,141.984126984127,35.63492063492063,2.9365079365079363,2.3015873015873014,36.42857142857142,-325.0,39.285714285714285,-325.0,295.1587301587301,-325.0,38.96825396825397,325.0,-9.603174603174603,-1.0317460317460316,5.634920634920634,-321.8253968253968
161.19047619047618,-180.3968253968254,24.84126984126984,12.936507936507935,112.77777777777777,-325.0,16.11111111111111,-325.0,141.984126984127,35.63492063492063,2.9365079365079363,2.3015873015873014,36.42857142857142,-325.0,39.285714285714285,-325.0,295.1587301587301,-325.0,38.96825396825397,325.0,-9.603174603174603,-1.0317460317460316,5.634920634920634,-321.8253968253968
161.19047619047618,-180.3968253968254,24.84126984126984,12.936507936507935,112.77777777777777,-325.0,16.11111111111111,-325.0,141.984126984127,35.63492063492063,2.9365079365079363,2.3015873015873014,36.42857142857142,-325.0,39.285714285714285,-325.0,295.1587301587301,-325.0,38.96825396825397,325.0,-9.603174603174603,-1.0317460317460316,5.634920634920634,-166.26984126984127
161.19047619047618,-180.3968253968254,24.84126984126984,12.936507936507935,112.77777777777777,-325.0,16.11111111111111,-325.0,141.984126984127,35.63492063492063,2.9365079365079363,2.3015873015873014,36.42857142857142,-325.0,39.285714285714285,-325.0,295.1587301587301,-325.0,38.96825396825397,325.0,-9.603174603174603,-1.0317460317460316,5.634920634920634,-166.26984126984127
151.34920634920633,-170.23809523809524,1.1904761904761905,14.047619047619047,106.1111111111111,-325.0,-7.857142857142857,-325.0,133.4126984126984,34.2063492063492,2.7777777777777777,4.2063492063492065,11.031746031746032,-319.6031746031746,16.428571428571427,-325.0,277.22222222222223,-325.0,38.80952380952381,325.0,-8.809523809523808,-2.619047619047619,-8.65079365079365,-166.26984126984127
151.34920634920633,-170.23809523809524,1.1904761904761905,14.047619047619047,106.1111111111111,-325.0,-7.857142857142857,-325.0,133.4126984126984,34.2063492063492,2.7777777777777777,4.2063492063492065,11.031746031746032,-319.6031746031746,16.428571428571427,-325.0,277.22222222222223,-325.0,38.80952380952381,325.0,-8.809523809523808,-2.619047619047619,-8.65079365079365,-166.26984126984127
145.79365079365078,-164.52380952380952,-6.428571428571428,18.333333333333332,102.46031746031746,-325.0,-15.476190476190474,-325.0,128.65079365079364,36.74603174603175,2.7777777777777777,8.968253968253968,3.095238095238095,-308.6507936507936,8.015873015873016,-325.0,267.6984126984127,-325.0,42.61904761904761,325.0,-8.65079365079365,-1.507936507936508,-8.65079365079365,-166.26984126984127
145.79365079365078,-164.52380952380952,-6.428571428571428,18.333333333333332,102.46031746031746,-325.0,-15.476190476190474,-325.0,128.65079365079364,36.74603174603175,2.7777777777777777,8.968253968253968,3.095238095238095,-308.6507936507936,8.015873015873016,-325.0,267.6984126984127,-325.0,42.61904761904761,325.0,-8.65079365079365,-1.507936507936508,-8.65079365079365,-166.26984126984127
145.79365079365078,-164.52380952380952,-6.428571428571428,18.333333333333332,102.46031746031746,-325.0,-15.476190476190474,-325.0,128.65079365079364,36.74603174603175,2.7777777777777777,8.968253968253968,3.095238095238095,-308.6507936507936,8.015873015873016,-325.0,267.6984126984127,-325.0,42.61904761904761,325.0,-8.65079365079365,-1.507936507936508,-8.65079365079365,-166.26984126984127
145.79365079365078,-164.52380952380952,-6.428571428571428,18.333333333333332,102.46031746031746,-325.0,-15.476190476190474,-325.0,128.65079365079364,36.74603174603175,2.7777777777777777,8.968253968253968,3.095238095238095,-308.6507936507936,8.015873015873016,-325.0,267.6984126984127,-325.0,42.61904761904761,325.0,-8.65079365079365,-1.507936507936508,-8.65079365079365,-166.26984126984127
145.79365079365078,-164.52380952380952,-6.428571428571428,18.333333333333332,102.46031746031746,-325.0,-15.476190476190474,-325.0,128.65079365079364,36.74603174603175,2.7777777777777777,8.968253968253968,3.095238095238095,-308.6507936507936,8.015873015873016,-325.0,267.6984126984127,-325.0,42.61904761904761,325.0,-8.65079365079365,-1.507936507936508,-8.65079365079365,-166.26984126984127
145.79365079365078,-164.52380952380952,-6.428571428571428,18.333333333333332,102.46031746031746,-325.0,-15.476190476190474,-325.0,128.65079365079364,36.74603174603175,2.7777777777777777,8.968253968253968,3.095238095238095,-308.6507936507936,8.015873015873016,-325.0,267.6984126984127,-325.0,42.61904761904761,325.0,-8.65079365079365,-1.507936507936508,-8.65079365079365,-166.26984126984127
86.42857142857143,-102.93650793650794,162.77777777777777,18.333333333333332,62.14285714285714,-254.2063492063492,-60.873015873015866,-225.0,78.17460317460316,22.936507936507937,1.8253968253968254,11.666666666666666,-44.36507936507936,-190.87301587301587,-44.68253968253968,-229.60317460317458,161.984126984127,-250.07936507936506,31.666666666666664,325.0,-5.952380952380952,-1.8253968253968254,-1.8253968253968254,-321.8253968253968
86.42857142857143,-102.93650793650794,162.77777777777777,18.333333333333332,62.14285714285714,-254.2063492063492,-60.873015873015866,-225.0,78.17460317460316,22.936507936507937,1.8253968253968254,11.666666666666666,-44.36507936507936,-190.87301587301587,-44.68253968253968,-229.60317460317458,161.984126984127,-250.07936507936506,31.666666666666664,325.0,-5.952380952380952,-1.8253968253968254,-1.8253968253968254,-321.8253968253968
67.85714285714285,-82.61904761904762,281.984126984127,-154.2063492063492,49.285714285714285,-205.0,-27.38095238095238,-181.8253968253968,61.82539682539682,15.476190476190474,-161.66666666666666,6.746031746031746,-15.634920634920634,-152.3015873015873,-16.904761904761905,-184.68253968253967,128.015873015873,-202.3015873015873,25.634920634920633,266.74603174603175,159.44444444444443,-0.23809523809523808,6.428571428571428,-321.8253968253968
67.85714285714285,-82.61904761904762,281.984126984127,-154.2063492063492,49.285714285714285,-205.0,-27.38095238095238,-181.8253968253968,61.82539682539682,15.476190476190474,-161.66666666666666,6.746031746031746,-15.634920634920634,-152.3015873015873,-16.904761904761905,-184.68253968253967,128.015873015873,-202.3015873015873,25.634920634920633,266.74603174603175,159.44444444444443,-0.23809523809523808,6.428571428571428,-321.8253968253968
50.079365079365076,-63.25396825396825,303.88888888888886,-325.0,37.06349206349206,-157.69841269841268,5.317460317460317,-140.55555555555554,46.42857142857142,9.920634920634921,-325.0,2.7777777777777777,11.666666666666666,-115.31746031746032,11.031746031746032,-141.34920634920636,95.47619047619047,-156.42857142857142,20.873015873015873,208.4920634920635,325.0,0.3968253968253968,7.3809523809523805,-321.8253968253968
50.079365079365076,-63.25396825396825,303.88888888888886,-325.0,37.06349206349206,-157.69841269841268,5.317460317460317,-140.55555555555554,46.42857142857142,9.920634920634921,-325.0,2.7777777777777777,11.666666666666666,-115.31746031746032,11.031746031746032,-141.34920634920636,95.47619047619047,-156.42857142857142,20.873015873015873,208.4920634920635,325.0,0.3968253968253968,7.3809523809523805,-321.8253968253968
50.079365079365076,-63.25396825396825,303.88888888888886,-325.0,37.06349206349206,-157.69841269841268,5.317460317460317,-140.55555555555554,46.42857142857142,9.920634920634921,-325.0,2.7777777777777777,11.666666666666666,-115.31746031746032,11.031746031746032,-141.34920634920636,95.47619047619047,-156.42857142857142,20.873015873015873,208.4920634920635,325.0,0.3968253968253968,7.3809523809523805,-321.8253968253968
50.079365079365076,-63.25396825396825,303.88888888888886,-325.0,37.06349206349206,-157.69841269841268,5.317460317460317,-140.55555555555554,46.42857142857142,9.920634920634921,-325.0,2.7777777777777777,11.666666666666666,-115.31746031746032,11.031746031746032,-141.34920634920636,95.47619047619047,-156.42857142857142,20.873015873015873,208.4920634920635,325.0,0.3968253968253968,7.3809523809523805,-321.8253968253968
35.15873015873016,-45.95238095238095,216.42857142857142,-284.2063492063492,26.428571428571427,-115.15873015873015,18.80952380952381,-103.09523809523809,33.25396825396825,-325.0,-325.0,-1.984126984126984,20.555555555555554,-83.09523809523809,18.333333333333332,-102.77777777777777,67.53968253968253,-115.0,9.444444444444445,151.34920634920633,325.0,0.07936507936507936,-0.3968253968253968,-321.8253968253968
35.15873015873016,-45.95238095238095,216.42857142857142,-284.2063492063492,26.428571428571427,-115.15873015873015,18.80952380952381,-103.09523809523809,33.25396825396825,-325.0,-325.0,-1.984126984126984,20.555555555555554,-83.09523809523809,18.333333333333332,-102.77777777777777,67.53968253968253,-115.0,9.444444444444445,151.34920634920633,325.0,0.07936507936507936,-0.3968253968253968,-321.8253968253968
34.36507936507936,-45.15873015873016,211.5079365079365,-277.6984126984127,25.79365079365079,-112.6190476190476,16.746031746031743,-101.03174603174602,32.61904761904762,-325.0,-325.0,-0.5555555555555556,18.96825396825397,-81.19047619047619,17.539682539682538,-100.55555555555554,65.79365079365078,-112.6190476190476,11.19047619047619,147.85714285714286,325.0,0.5555555555555556,-1.349206349206349,-166.26984126984127
34.36507936507936,-45.15873015873016,211.5079365079365,-277.6984126984127,25.79365079365079,-112.6190476190476,16.746031746031743,-101.03174603174602,32.61904761904762,-325.0,-325.0,-0.5555555555555556,18.96825396825397,-81.19047619047619,17.539682539682538,-100.55555555555554,65.79365079365078,-112.6190476190476,11.19047619047619,147.85714285714286,325.0,0.5555555555555556,-1.349206349206349,-166.26984126984127
33.888888888888886,-44.52380952380952,208.8095238095238,-274.04761904761904,25.476190476190474,-111.34920634920634,28.174603174603174,-99.92063492063491,32.3015873015873,-325.0,-325.0,-4.0476190476190474,32.93650793650794,-80.07936507936508,28.49206349206349,-99.6031746031746,65.15873015873015,-111.34920634920634,6.428571428571428,146.11111111111111,325.0,-1.349206349206349,-7.063492063492063,-166.26984126984127
33.888888888888886,-44.52380952380952,208.8095238095238,-274.04761904761904,25.476190476190474,-111.34920634920634,28.174603174603174,-99.92063492063491,32.3015873015873,-325.0,-325.0,-4.0476190476190474,32.93650793650794,-80.07936507936508,28.49206349206349,-99.6031746031746,65.15873015873015,-111.34920634920634,6.428571428571428,146.11111111111111,325.0,-1.349206349206349,-7.063492063492063,-166.26984126984127
33.095238095238095,-43.73015873015873,204.04761904761904,-267.85714285714283,24.84126984126984,-108.96825396825396,14.84126984126984,-97.85714285714285,31.507936507936506,-325.0,-325.0,-4.0476190476190474,16.587301587301585,-78.33333333333333,15.158730158730158,-97.22222222222221,63.57142857142857,-108.96825396825396,6.904761904761904,143.09523809523807,325.0,-0.07936507936507936,-2.46031746031746,-166.26984126984127
33.095238095238095,-43.73015873015873,204.04761904761904,-267.85714285714283,24.84126984126984,-108.96825396825396,14.84126984126984,-97.85714285714285,31.507936507936506,-325.0,-325.0,-4.0476190476190474,16.587301587301585,-78.33333333333333,15.158730158730158,-97.22222222222221,63.57142857142857,-108.96825396825396,6.904761904761904,143.09523809523807,325.0,-0.07936507936507936,-2.46031746031746,-166.26984126984127
32.61904761904762,-43.25396825396825,201.34920634920633,-264.2063492063492,24.523809523809522,-107.53968253968253,9.285714285714285,-96.74603174603175,31.03174603174603,-325.0,-325.0,-0.873015873015873,10.079365079365079,-77.38095238095238,8.015873015873016,-95.95238095238095,62.61904761904761,-107.85714285714285,9.920634920634921,141.19047619047618,325.0,-1.0317460317460316,-1.6666666666666665,-166.26984126984127
32.61904761904762,-43.25396825396825,201.34920634920633,-264.2063492063492,24.523809523809522,-107.53968253968253,9.285714285714285,-96.74603174603175,31.03174603174603,-325.0,-325.0,-0.873015873015873,10.079365079365079,-77.38095238095238,8.015873015873016,-95.95238095238095,62.61904761904761,-107.85714285714285,9.920634920634921,141.19047619047618,325.0,-1.0317460317460316,-1.6666666666666665,-166.26984126984127
31.98412698412698,-42.3015873015873,196.9047619047619,-258.4920634920635,24.047619047619047,-105.47619047619047,13.73015873015873,-94.84126984126983,30.238095238095237,-325.0,-325.0,-5.158730158730158,15.158730158730158,-75.79365079365078,13.73015873015873,-93.88888888888889,61.34920634920635,-105.47619047619047,5.317460317460317,138.33333333333331,325.0,0.23809523809523808,-2.3015873015873014,-166.26984126984127
31.98412698412698,-42.3015873015873,196.9047619047619,-258.4920634920635,24.047619047619047,-105.47619047619047,13.73015873015873,-94.84126984126983,30.238095238095237,-325.0,-325.0,-5.158730158730158,15.158730158730158,-75.79365079365078,13.73015873015873,-93.88888888888889,61.34920634920635,-105.47619047619047,5.317460317460317,138.33333333333331,325.0,0.23809523809523808,-2.3015873015873014,-166.26984126984127
31.19047619047619,-41.507936507936506,193.4126984126984,-254.04761904761904,23.88888888888889,-103.73015873015872,18.333333333333332,-93.09523809523809,29.76190476190476,-325.0,-325.0,-6.904761904761904,19.92063492063492,-74.52380952380952,16.746031746031743,-92.30158730158729,60.079365079365076,-103.88888888888889,3.095238095238095,135.95238095238093,325.0,-1.1904761904761905,0.5555555555555556,-321.8253968253968
31.19047619047619,-41.507936507936506,193.4126984126984,-254.04761904761904,23.88888888888889,-103.73015873015872,18.333333333333332,-93.09523809523809,29.76190476190476,-325.0,-325.0,-6.904761904761904,19.92063492063492,-74.52380952380952,16.746031746031743,-92.30158730158729,60.079365079365076,-103.88888888888889,3.095238095238095,135.95238095238093,325.0,-1.1904761904761905,0.5555555555555556,-321.8253968253968
30.555555555555554,-40.87301587301587,189.9206349206349,-249.44444444444443,23.253968253968253,-101.98412698412697,5.158730158730158,-91.66666666666666,29.126984126984127,-325.0,-325.0,0.23809523809523808,6.428571428571428,-73.09523809523809,4.841269841269841,-90.87301587301587,58.96825396825397,-101.98412698412697,9.920634920634921,133.57142857142856,325.0,-0.873015873015873,-1.8253968253968254,-321.8253968253968
30.555555555555554,-40.87301587301587,189.9206349206349,-249.44444444444443,23.253968253968253,-101.98412698412697,5.158730158730158,-91.66666666666666,29.126984126984127,-325.0,-325.0,0.23809523809523808,6.428571428571428,-73.09523809523809,4.841269841269841,-90.87301587301587,58.96825396825397,-101.98412698412697,9.920634920634921,133.57142857142856,325.0,-0.873015873015873,-1.8253968253968254,-321.8253968253968
30.07936507936508,-40.238095238095234,186.42857142857142,-245.15873015873015,22.936507936507937,-100.23809523809523,7.698412698412698,-90.07936507936508,28.809523809523807,-325.0,-325.0,3.4126984126984126,8.809523809523808,-71.98412698412697,5.7936507936507935,-89.28571428571428,57.857142857142854,-100.55555555555554,12.936507936507935,131.19047619047618,325.0,-1.0317460317460316,-0.23809523809523808,-321.8253968253968
30.07936507936508,-40.238095238095234,186.42857142857142,-245.15873015873015,22.936507936507937,-100.23809523809523,7.698412698412698,-90.07936507936508,28.809523809523807,-325.0,-325.0,3.4126984126984126,8.809523809523808,-71.98412698412697,5.7936507936507935,-89.28571428571428,57.857142857142854,-100.55555555555554,12.936507936507935,131.19047619047618,325.0,-1.0317460317460316,-0.23809523809523808,-321.8253968253968
28.809523809523807,-38.65079365079365,178.4920634920635,-234.52380952380952,21.666666666666664,-96.1111111111111,-3.888888888888889,-86.9047619047619,27.539682539682538,-325.0,-325.0,0.23809523809523808,-4.0476190476190474,-68.96825396825396,-4.682539682539682,-85.79365079365078,55.317460317460316,-96.58730158730158,9.126984126984127,125.79365079365078,325.0,0.23809523809523808,7.063492063492063,-321.8253968253968
28.809523809523807,-38.65079365079365,178.4920634920635,-234.52380952380952,21.666666666666664,-96.1111111111111,-3.888888888888889,-86.9047619047619,27.539682539682538,-325.0,-325.0,0.23809523809523808,-4.0476190476190474,-68.96825396825396,-4.682539682539682,-85.79365079365078,55.317460317460316,-96.58730158730158,9.126984126984127,125.79365079365078,325.0,0.23809523809523808,7.063492063492063,-321.8253968253968
28.174603174603174,-38.01587301587301,175.3174603174603,-230.07936507936506,21.349206349206348,-94.52380952380952,-1.8253968253968254,-85.15873015873015,27.063492063492063,-325.0,-325.0,2.7777777777777777,-0.873015873015873,-67.6984126984127,-4.2063492063492065,-84.36507936507937,54.36507936507936,-95.0,11.19047619047619,123.57142857142857,325.0,-1.8253968253968254,-8.492063492063492,-321.8253968253968
28.174603174603174,-38.01587301587301,175.3174603174603,-230.07936507936506,21.349206349206348,-94.52380952380952,-1.8253968253968254,-85.15873015873015,27.063492063492063,-325.0,-325.0,2.7777777777777777,-0.873015873015873,-67.6984126984127,-4.2063492063492065,-84.36507936507937,54.36507936507936,-95.0,11.19047619047619,123.57142857142857,325.0,-1.8253968253968254,-8.492063492063492,-321.8253968253968
27.539682539682538,-37.38095238095238,172.14285714285714,-226.1111111111111,21.03174603174603,-92.93650793650794,-8.333333333333332,-84.04761904761904,26.746031746031743,-325.0,-325.0,2.619047619047619,-8.968253968253968,-66.74603174603175,-9.603174603174603,-82.93650793650794,53.41269841269841,-93.4126984126984,11.19047619047619,121.5079365079365,325.0,0.5555555555555556,7.857142857142857,-166.26984126984127
27.539682539682538,-37.38095238095238,172.14285714285714,-226.1111111111111,21.03174603174603,-92.93650793650794,-8.333333333333332,-84.04761904761904,26.746031746031743,-325.0,-325.0,2.619047619047619,-8.968253968253968,-66.74603174603175,-9.603174603174603,-82.93650793650794,53.41269841269841,-93.4126984126984,11.19047619047619,121.5079365079365,325.0,0.5555555555555556,7.857142857142857,-166.26984126984127
27.22222222222222,-36.58730158730159,168.96825396825395,-221.98412698412696,20.71428571428571,-91.5079365079365,-7.3809523809523805,-82.46031746031746,26.11111111111111,-325.0,-325.0,3.888888888888889,-5.952380952380952,-65.47619047619047,-9.285714285714285,-81.5079365079365,52.61904761904761,-91.82539682539682,12.3015873015873,119.6031746031746,325.0,-2.3015873015873014,-8.015873015873016,-166.26984126984127
27.22222222222222,-36.58730158730159,168.96825396825395,-221.98412698412696,20.71428571428571,-91.5079365079365,-7.3809523809523805,-82.46031746031746,26.11111111111111,-325.0,-325.0,3.888888888888889,-5.952380952380952,-65.47619047619047,-9.285714285714285,-81.5079365079365,52.61904761904761,-91.82539682539682,12.3015873015873,119.6031746031746,325.0,-2.3015873015873014,-8.015873015873016,-166.26984126984127
27.063492063492063,-36.42857142857142,168.17460317460316,-221.03174603174602,20.71428571428571,-91.19047619047619,1.1904761904761905,-82.14285714285714,26.11111111111111,-325.0,-325.0,2.142857142857143,4.0476190476190474,-65.15873015873015,-0.7142857142857142,-81.34920634920634,52.460317460317455,-91.5079365079365,10.238095238095237,119.12698412698413,325.0,-1.8253968253968254,-7.063492063492063,-166.26984126984127
27.063492063492063,-36.42857142857142,168.17460317460316,-221.03174603174602,20.71428571428571,-91.19047619047619,1.1904761904761905,-82.14285714285714,26.11111111111111,-325.0,-325.0,2.142857142857143,4.0476190476190474,-65.15873015873015,-0.7142857142857142,-81.34920634920634,52.460317460317455,-91.5079365079365,10.238095238095237,119.12698412698413,325.0,-1.8253968253968254,-7.063492063492063,-166.26984126984127
26.587301587301585,-35.95238095238095,165.3174603174603,-217.38095238095238,20.238095238095237,-89.6031746031746,3.095238095238095,-80.87301587301587,25.476190476190474,-325.0,-325.0,-3.095238095238095,5.317460317460317,-64.04761904761905,0.7142857142857142,-79.92063492063491,51.34920634920635,-89.92063492063491,4.841269841269841,117.06349206349206,325.0,-1.507936507936508,-7.063492063492063,-166.26984126984127
26.587301587301585,-35.95238095238095,165.3174603174603,-217.38095238095238,20.238095238095237,-89.6031746031746,3.095238095238095,-80.87301587301587,25.476190476190474,-325.0,-325.0,-3.095238095238095,5.317460317460317,-64.04761904761905,0.7142857142857142,-79.92063492063491,51.34920634920635,-89.92063492063491,4.841269841269841,117.06349206349206,325.0,-1.507936507936508,-7.063492063492063,-166.26984126984127
25.79365079365079,-35.15873015873016,159.9206349206349,-210.3968253968254,19.444444444444443,-86.9047619047619,-9.761904761904761,-78.65079365079364,24.68253968253968,-323.25396825396825,-325.0,-8.015873015873016,-11.031746031746032,-62.14285714285714,-11.666666666666666,-77.22222222222221,49.6031746031746,-87.53968253968253,0.23809523809523808,113.57142857142857,320.7142857142857,1.0317460317460316,7.063492063492063,-166.26984126984127
25.79365079365079,-35.15873015873016,159.9206349206349,-210.3968253968254,19.444444444444443,-86.9047619047619,-9.761904761904761,-78.65079365079364,24.68253968253968,-323.25396825396825,-325.0,-8.015873015873016,-11.031746031746032,-62.14285714285714,-11.666666666666666,-77.22222222222221,49.6031746031746,-87.53968253968253,0.23809523809523808,113.57142857142857,320.7142857142857,1.0317460317460316,7.063492063492063,-166.26984126984127
25.634920634920633,-35.0,159.28571428571428,-209.60317460317458,19.444444444444443,-86.26984126984127,-8.968253968253968,-78.33333333333333,24.523809523809522,-321.66666666666663,-325.0,-8.809523809523808,-10.079365079365079,-61.82539682539682,-9.285714285714285,-76.9047619047619,49.12698412698413,-87.06349206349206,-0.3968253968253968,113.09523809523809,316.4285714285714,1.984126984126984,6.111111111111111,-321.8253968253968
25.634920634920633,-35.0,159.28571428571428,-209.60317460317458,19.444444444444443,-86.26984126984127,-8.968253968253968,-78.33333333333333,24.523809523809522,-321.66666666666663,-325.0,-8.809523809523808,-10.079365079365079,-61.82539682539682,-9.285714285714285,-76.9047619047619,49.12698412698413,-87.06349206349206,-0.3968253968253968,113.09523809523809,316.4285714285714,1.984126984126984,6.111111111111111,-321.8253968253968
25.158730158730158,-34.36507936507936,156.42857142857142,-205.79365079365078,19.126984126984127,-85.15873015873015,-14.047619047619047,-77.22222222222221,24.206349206349206,-316.1111111111111,-325.0,-5.634920634920634,-15.317460317460316,-60.873015873015866,-14.365079365079364,-75.79365079365078,48.33333333333333,-85.79365079365078,2.46031746031746,111.03174603174602,320.7142857142857,2.142857142857143,5.952380952380952,-321.8253968253968
25.158730158730158,-34.36507936507936,156.42857142857142,-205.79365079365078,19.126984126984127,-85.15873015873015,-14.047619047619047,-77.22222222222221,24.206349206349206,-316.1111111111111,-325.0,-5.634920634920634,-15.317460317460316,-60.873015873015866,-14.365079365079364,-75.79365079365078,48.33333333333333,-85.79365079365078,2.46031746031746,111.03174603174602,320.7142857142857,2.142857142857143,5.952380952380952,-321.8253968253968
24.206349206349206,-32.93650793650794,149.6031746031746,-196.58730158730157,18.333333333333332,-81.82539682539682,-27.063492063492063,-73.88888888888889,23.095238095238095,-302.3015873015873,-325.0,-4.523809523809524,-28.015873015873016,-58.33333333333333,-29.285714285714285,-72.61904761904762,46.42857142857142,-82.3015873015873,2.619047619047619,106.58730158730158,325.0,-1.8253968253968254,-9.920634920634921,-321.8253968253968
24.206349206349206,-32.93650793650794,149.6031746031746,-196.58730158730157,18.333333333333332,-81.82539682539682,-27.063492063492063,-73.88888888888889,23.095238095238095,-302.3015873015873,-325.0,-4.523809523809524,-28.015873015873016,-58.33333333333333,-29.285714285714285,-72.61904761904762,46.42857142857142,-82.3015873015873,2.619047619047619,106.58730158730158,325.0,-1.8253968253968254,-9.920634920634921,-321.8253968253968
23.253968253968253,-31.98412698412698,144.68253968253967,-190.87301587301587,17.698412698412696,-79.44444444444444,-21.349206349206348,-71.82539682539682,22.46031746031746,-293.0952380952381,-325.0,0.07936507936507936,-21.825396825396822,-56.58730158730158,-24.523809523809522,-70.71428571428571,44.84126984126984,-80.07936507936508,6.26984126984127,103.4126984126984,325.0,-0.5555555555555556,0.873015873015873,-321.8253968253968
23.253968253968253,-31.98412698412698,144.68253968253967,-190.87301587301587,17.698412698412696,-79.44444444444444,-21.349206349206348,-71.82539682539682,22.46031746031746,-293.0952380952381,-325.0,0.07936507936507936,-21.825396825396822,-56.58730158730158,-24.523809523809522,-70.71428571428571,44.84126984126984,-80.07936507936508,6.26984126984127,103.4126984126984,325.0,-0.5555555555555556,0.873015873015873,-321.8253968253968
22.777777777777775,-31.507936507936506,142.3015873015873,-187.53968253968253,17.38095238095238,-78.17460317460316,-33.41269841269841,-70.71428571428571,18.65079365079365,-287.85714285714283,-325.0,2.7777777777777777,-35.317460317460316,-55.63492063492063,-34.682539682539684,-69.44444444444444,43.888888888888886,-78.80952380952381,8.968253968253968,101.66666666666666,310.07936507936506,0.23809523809523808,-1.349206349206349,-321.8253968253968
22.777777777777775,-31.507936507936506,142.3015873015873,-187.53968253968253,17.38095238095238,-78.17460317460316,-33.41269841269841,-70.71428571428571,18.65079365079365,-287.85714285714283,-325.0,2.7777777777777777,-35.317460317460316,-55.63492063492063,-34.682539682539684,-69.44444444444444,43.888888888888886,-78.80952380952381,8.968253968253968,101.66666666666666,310.07936507936506,0.23809523809523808,-1.349206349206349,-321.8253968253968
22.3015873015873,-31.03174603174603,139.76190476190476,-184.36507936507937,17.063492063492063,-76.74603174603175,-18.174603174603174,-69.6031746031746,19.285714285714285,-282.9365079365079,-325.0,0.3968253968253968,-18.96825396825397,-54.68253968253968,-21.507936507936506,-68.33333333333333,43.25396825396825,-77.53968253968253,5.952380952380952,99.76190476190476,325.0,-1.6666666666666665,-0.3968253968253968,-166.26984126984127
22.3015873015873,-31.03174603174603,139.76190476190476,-184.36507936507937,17.063492063492063,-76.74603174603175,-18.174603174603174,-69.6031746031746,19.285714285714285,-282.9365079365079,-325.0,0.3968253968253968,-18.96825396825397,-54.68253968253968,-21.507936507936506,-68.33333333333333,43.25396825396825,-77.53968253968253,5.952380952380952,99.76190476190476,325.0,-1.6666666666666665,-0.3968253968253968,-166.26984126984127
21.984126984126984,-30.555555555555554,137.22222222222223,-180.87301587301587,16.904761904761905,-75.47619047619047,-31.507936507936506,-68.65079365079364,18.333333333333332,-277.85714285714283,-325.0,1.0317460317460316,-33.888888888888886,-53.73015873015873,-32.93650793650794,-67.06349206349206,42.3015873015873,-76.26984126984127,6.428571428571428,98.17460317460316,289.9206349206349,0.07936507936507936,-1.349206349206349,-166.26984126984127
21.984126984126984,-30.555555555555554,137.22222222222223,-180.87301587301587,16.904761904761905,-75.47619047619047,-31.507936507936506,-68.65079365079364,18.333333333333332,-277.85714285714283,-325.0,1.0317460317460316,-33.888888888888886,-53.73015873015873,-32.93650793650794,-67.06349206349206,42.3015873015873,-76.26984126984127,6.428571428571428,98.17460317460316,289.9206349206349,0.07936507936507936,-1.349206349206349,-166.26984126984127
21.507936507936506,-30.07936507936508,134.84126984126982,-177.53968253968253,16.587301587301585,-74.36507936507937,-22.46031746031746,-67.38095238095238,18.96825396825397,-272.9365079365079,-325.0,-3.4126984126984126,-23.253968253968253,-52.77777777777777,-25.952380952380953,-66.11111111111111,41.666666666666664,-75.0,1.6666666666666665,96.42857142857142,325.0,-0.7142857142857142,1.0317460317460316,-166.26984126984127
21.507936507936506,-30.07936507936508,134.84126984126982,-177.53968253968253,16.587301587301585,-74.36507936507937,-22.46031746031746,-67.38095238095238,18.96825396825397,-272.9365079365079,-325.0,-3.4126984126984126,-23.253968253968253,-52.77777777777777,-25.952380952380953,-66.11111111111111,41.666666666666664,-75.0,1.6666666666666665,96.42857142857142,325.0,-0.7142857142857142,1.0317460317460316,-166.26984126984127
21.19047619047619,-29.6031746031746,132.14285714285714,-174.2063492063492,15.793650793650793,-73.09523809523809,-32.61904761904762,-66.26984126984127,2.3015873015873014,-268.015873015873,-325.0,-5.952380952380952,-35.0,-51.82539682539682,-34.36507936507936,-64.84126984126983,40.87301587301587,-73.88888888888889,-1.1904761904761905,95.0,283.73015873015873,-0.5555555555555556,-3.095238095238095,-166.26984126984127
21.19047619047619,-29.6031746031746,132.14285714285714,-174.2063492063492,15.793650793650793,-73.09523809523809,-32.61904761904762,-66.26984126984127,2.3015873015873014,-268.015873015873,-325.0,-5.952380952380952,-35.0,-51.82539682539682,-34.36507936507936,-64.84126984126983,40.87301587301587,-73.88888888888889,-1.1904761904761905,95.0,283.73015873015873,-0.5555555555555556,-3.095238095238095,-166.26984126984127
20.873015873015873,-29.126984126984127,129.76190476190476,-171.5079365079365,8.174603174603174,-71.98412698412697,-20.555555555555554,-65.15873015873015,7.3809523809523805,-263.25396825396825,-321.19047619047615,-5.158730158730158,-21.349206349206348,-51.19047619047619,-24.206349206349206,-63.73015873015873,40.238095238095234,-72.77777777777777,-0.5555555555555556,93.25396825396825,325.0,-0.5555555555555556,0.07936507936507936,-166.26984126984127
20.873015873015873,-29.126984126984127,129.76190476190476,-171.5079365079365,8.174603174603174,-71.98412698412697,-20.555555555555554,-65.15873015873015,7.3809523809523805,-263.25396825396825,-321.19047619047615,-5.158730158730158,-21.349206349206348,-51.19047619047619,-24.206349206349206,-63.73015873015873,40.238095238095234,-72.77777777777777,-0.5555555555555556,93.25396825396825,325.0,-0.5555555555555556,0.07936507936507936,-166.26984126984127
20.238095238095237,-28.65079365079365,127.53968253968253,-168.4920634920635,-1.1904761904761905,-70.71428571428571,-46.269841269841265,-64.2063492063492,-15.0,-258.6507936507936,-316.26984126984127,5.317460317460317,-49.12698412698413,-50.238095238095234,-47.698412698412696,-62.77777777777777,39.285714285714285,-71.34920634920634,9.603174603174603,91.66666666666666,295.0,-0.23809523809523808,-1.8253968253968254,-321.8253968253968
20.238095238095237,-28.65079365079365,127.53968253968253,-168.4920634920635,-1.1904761904761905,-70.71428571428571,-46.269841269841265,-64.2063492063492,-15.0,-258.6507936507936,-316.26984126984127,5.317460317460317,-49.12698412698413,-50.238095238095234,-47.698412698412696,-62.77777777777777,39.285714285714285,-71.34920634920634,9.603174603174603,91.66666666666666,295.0,-0.23809523809523808,-1.8253968253968254,-321.8253968253968
20.07936507936508,-28.174603174603174,125.31746031746032,-165.3174603174603,-10.555555555555555,-69.6031746031746,-30.07936507936508,-63.095238095238095,-7.5396825396825395,-254.2063492063492,-311.031746031746,8.333333333333332,-30.87301587301587,-49.6031746031746,-33.57142857142857,-61.82539682539682,38.80952380952381,-70.39682539682539,12.142857142857142,89.92063492063491,325.0,-0.873015873015873,0.07936507936507936,-321.8253968253968
20.07936507936508,-28.174603174603174,125.31746031746032,-165.3174603174603,-10.555555555555555,-69.6031746031746,-30.07936507936508,-63.095238095238095,-7.5396825396825395,-254.2063492063492,-311.031746031746,8.333333333333332,-30.87301587301587,-49.6031746031746,-33.57142857142857,-61.82539682539682,38.80952380952381,-70.39682539682539,12.142857142857142,89.92063492063491,325.0,-0.873015873015873,0.07936507936507936,-321.8253968253968
19.444444444444443,-27.38095238095238,121.5079365079365,-160.23809523809524,-33.095238095238095,-67.38095238095238,-38.65079365079365,-61.507936507936506,-52.14285714285714,-246.42857142857142,-302.3015873015873,4.841269841269841,-40.55555555555555,-48.01587301587301,-41.03174603174603,-59.92063492063492,37.53968253968254,-68.33333333333333,8.492063492063492,87.53968253968253,325.0,-0.5555555555555556,-1.1904761904761905,-321.8253968253968
19.444444444444443,-27.38095238095238,121.5079365079365,-160.23809523809524,-33.095238095238095,-67.38095238095238,-38.65079365079365,-61.507936507936506,-52.14285714285714,-246.42857142857142,-302.3015873015873,4.841269841269841,-40.55555555555555,-48.01587301587301,-41.03174603174603,-59.92063492063492,37.53968253968254,-68.33333333333333,8.492063492063492,87.53968253968253,325.0,-0.5555555555555556,-1.1904761904761905,-321.8253968253968
18.80952380952381,-26.746031746031743,118.65079365079364,-156.58730158730157,-44.68253968253968,-66.11111111111111,-49.12698412698413,-60.238095238095234,-74.52380952380952,-241.03174603174602,-296.26984126984127,12.619047619047619,-52.460317460317455,-46.904761904761905,-50.39682539682539,-58.8095238095238,36.58730158730159,-67.06349206349206,15.95238095238095,85.47619047619047,285.95238095238096,0.07936507936507936,-2.619047619047619,-321.8253968253968
18.80952380952381,-26.746031746031743,118.65079365079364,-156.58730158730157,-44.68253968253968,-66.11111111111111,-49.12698412698413,-60.238095238095234,-74.52380952380952,-241.03174603174602,-296.26984126984127,12.619047619047619,-52.460317460317455,-46.904761904761905,-50.39682539682539,-58.8095238095238,36.58730158730159,-67.06349206349206,15.95238095238095,85.47619047619047,285.95238095238096,0.07936507936507936,-2.619047619047619,-321.8253968253968
18.65079365079365,-26.428571428571427,116.42857142857142,-154.04761904761904,-52.93650793650794,-65.0,-23.41269841269841,-59.285714285714285,-91.34920634920634,-236.58730158730157,-291.5079365079365,8.492063492063492,-24.206349206349206,-46.11111111111111,-27.22222222222222,-57.698412698412696,36.11111111111111,-65.95238095238095,11.507936507936508,84.2063492063492,325.0,-1.6666666666666665,1.349206349206349,-321.8253968253968
18.65079365079365,-26.428571428571427,116.42857142857142,-154.04761904761904,-52.93650793650794,-65.0,-23.41269841269841,-59.285714285714285,-91.34920634920634,-236.58730158730157,-291.5079365079365,8.492063492063492,-24.206349206349206,-46.11111111111111,-27.22222222222222,-57.698412698412696,36.11111111111111,-65.95238095238095,11.507936507936508,84.2063492063492,325.0,-1.6666666666666665,1.349206349206349,-321.8253968253968
18.49206349206349,-26.11111111111111,115.0,-151.66666666666666,-53.25396825396825,-64.04761904761905,-35.317460317460316,-58.49206349206349,-4.2063492063492065,-233.4126984126984,-288.015873015873,8.492063492063492,-40.39682539682539,-45.476190476190474,-38.01587301587301,-56.74603174603174,35.476190476190474,-65.15873015873015,12.46031746031746,83.25396825396825,261.8253968253968,1.984126984126984,6.428571428571428,-166.26984126984127
18.49206349206349,-26.11111111111111,115.0,-151.66666666666666,-53.25396825396825,-64.04761904761905,-35.317460317460316,-58.49206349206349,-4.2063492063492065,-233.4126984126984,-288.015873015873,8.492063492063492,-40.39682539682539,-45.476190476190474,-38.01587301587301,-56.74603174603174,35.476190476190474,-65.15873015873015,12.46031746031746,83.25396825396825,261.8253968253968,1.984126984126984,6.428571428571428,-166.26984126984127
18.174603174603174,-25.634920634920633,112.93650793650794,-148.8095238095238,-77.06349206349206,-63.095238095238095,-9.285714285714285,-57.53968253968254,-162.77777777777777,-229.28571428571428,-283.0952380952381,3.4126984126984126,-11.031746031746032,-44.68253968253968,-13.73015873015873,-46.42857142857142,34.84126984126984,-63.888888888888886,6.904761904761904,81.5079365079365,325.0,-2.3015873015873014,-6.428571428571428,-166.26984126984127
18.174603174603174,-25.634920634920633,112.93650793650794,-148.8095238095238,-77.06349206349206,-63.095238095238095,-9.285714285714285,-57.53968253968254,-162.77777777777777,-229.28571428571428,-283.0952380952381,3.4126984126984126,-11.031746031746032,-44.68253968253968,-13.73015873015873,-46.42857142857142,34.84126984126984,-63.888888888888886,6.904761904761904,81.5079365079365,325.0,-2.3015873015873014,-6.428571428571428,-166.26984126984127
17.539682539682538,-25.158730158730158,110.39682539682539,-145.79365079365078,-97.06349206349206,-61.82539682539682,-25.0,-56.58730158730158,-150.55555555555554,-224.36507936507934,-277.53968253968253,-1.984126984126984,-30.555555555555554,-43.73015873015873,-27.857142857142854,271.66666666666663,34.2063492063492,-62.61904761904761,1.0317460317460316,79.92063492063491,318.015873015873,-0.07936507936507936,-2.3015873015873014,-166.26984126984127
17.539682539682538,-25.158730158730158,110.39682539682539,-145.79365079365078,-97.06349206349206,-61.82539682539682,-25.0,-56.58730158730158,-150.55555555555554,-224.36507936507934,-277.53968253968253,-1.984126984126984,-30.555555555555554,-43.73015873015873,-27.857142857142854,271.66666666666663,34.2063492063492,-62.61904761904761,1.0317460317460316,79.92063492063491,318.015873015873,-0.07936507936507936,-2.3015873015873014,-166.26984126984127
17.22222222222222,-24.68253968253968,108.17460317460316,-143.25396825396825,-105.15873015873015,-60.873015873015866,39.6031746031746,-55.476190476190474,-185.3174603174603,-220.2380952380952,-272.9365079365079,-1.6666666666666665,-6.428571428571428,-43.095238095238095,-9.761904761904761,291.66666666666663,33.57142857142857,-61.82539682539682,1.349206349206349,78.65079365079364,325.0,-1.1904761904761905,1.507936507936508,-166.26984126984127
17.22222222222222,-24.68253968253968,108.17460317460316,-143.25396825396825,-105.15873015873015,-60.873015873015866,39.6031746031746,-55.476190476190474,-185.3174603174603,-220.2380952380952,-272.9365079365079,-1.6666666666666665,-6.428571428571428,-43.095238095238095,-9.761904761904761,291.66666666666663,33.57142857142857,-61.82539682539682,1.349206349206349,78.65079365079364,325.0,-1.1904761904761905,1.507936507936508,-166.26984126984127
17.063492063492063,-24.523809523809522,106.9047619047619,-141.34920634920636,-133.57142857142856,-60.079365079365076,43.73015873015873,-54.68253968253968,-248.17460317460316,-217.53968253968253,-269.76190476190476,3.253968253968254,-31.666666666666664,-42.460317460317455,-31.825396825396822,291.66666666666663,32.93650793650794,-61.03174603174603,5.952380952380952,77.53968253968253,325.0,-0.23809523809523808,-0.5555555555555556,-166.26984126984127
17.063492063492063,-24.523809523809522,106.9047619047619,-141.34920634920636,-133.57142857142856,-60.079365079365076,43.73015873015873,-54.68253968253968,-248.17460317460316,-217.53968253968253,-269.76190476190476,3.253968253968254,-31.666666666666664,-42.460317460317455,-31.825396825396822,291.66666666666663,32.93650793650794,-61.03174603174603,5.952380952380952,77.53968253968253,325.0,-0.23809523809523808,-0.5555555555555556,-166.26984126984127
-11.19047619047619,53.41269841269841,43.41269841269841,-231.03174603174602,-146.9047619047619,-156.26984126984127,55.63492063492063,-185.79365079365078,-64.2063492063492,-67.6984126984127,-31.666666666666664,-82.3015873015873,118.96825396825396,-38.65079365079365,-135.79365079365078,264.04761904761904,-45.476190476190474,-55.15873015873016,125.63492063492063,-93.73015873015872,216.42857142857142,-61.666666666666664,115.79365079365078,-321.8253968253968
-11.19047619047619,53.41269841269841,43.41269841269841,-231.03174603174602,-146.9047619047619,-156.26984126984127,55.63492063492063,-185.79365079365078,-64.2063492063492,-67.6984126984127,-31.666666666666664,-82.3015873015873,118.96825396825396,-38.65079365079365,-135.79365079365078,264.04761904761904,-45.476190476190474,-55.15873015873016,125.63492063492063,-93.73015873015872,216.42857142857142,-61.666666666666664,115.79365079365078,-321.8253968253968
-39.285714285714285,130.87301587301587,-19.126984126984127,-321.984126984127,-138.96825396825395,-252.93650793650792,103.09523809523809,-317.38095238095235,178.17460317460316,80.55555555555556,204.36507936507937,-168.96825396825395,290.39682539682536,-35.317460317460316,-222.46031746031744,203.25396825396825,-123.4126984126984,-49.6031746031746,244.36507936507934,-264.04761904761904,107.85714285714285,-122.14285714285714,242.46031746031744,-321.8253968253968
-39.285714285714285,130.87301587301587,-19.126984126984127,-321.984126984127,-138.96825396825395,-252.93650793650792,103.09523809523809,-317.38095238095235,178.17460317460316,80.55555555555556,204.36507936507937,-168.96825396825395,290.39682539682536,-35.317460317460316,-222.46031746031744,203.25396825396825,-123.4126984126984,-49.6031746031746,244.36507936507934,-264.04761904761904,107.85714285714285,-122.14285714285714,242.46031746031744,-321.8253968253968
-39.285714285714285,130.87301587301587,-19.126984126984127,-321.984126984127,-138.96825396825395,-252.93650793650792,103.09523809523809,-317.38095238095235,178.17460317460316,80.55555555555556,204.36507936507937,-168.96825396825395,290.39682539682536,-35.317460317460316,-222.46031746031744,203.25396825396825,-123.4126984126984,-49.6031746031746,244.36507936507934,-264.04761904761904,107.85714285714285,-122.14285714285714,242.46031746031744,-321.8253968253968
-39.285714285714285,130.87301587301587,-19.126984126984127,-321.984126984127,-138.96825396825395,-252.93650793650792,103.09523809523809,-317.38095238095235,178.17460317460316,80.55555555555556,204.36507936507937,-168.96825396825395,290.39682539682536,-35.317460317460316,-222.46031746031744,203.25396825396825,-123.4126984126984,-49.6031746031746,244.36507936507934,-264.04761904761904,107.85714285714285,-122.14285714285714,242.46031746031744,-321.8253968253968
-39.285714285714285,130.87301587301587,-19.126984126984127,-321.984126984127,-138.96825396825395,-252.93650793650792,103.09523809523809,-317.38095238095235,178.17460317460316,80.55555555555556,204.36507936507937,-168.96825396825395,290.39682539682536,-35.317460317460316,-222.46031746031744,203.25396825396825,-123.4126984126984,-49.6031746031746,244.36507936507934,-264.04761904761904,107.85714285714285,-122.14285714285714,242.46031746031744,-321.8253968253968
-39.285714285714285,130.87301587301587,-19.126984126984127,-321.984126984127,-138.96825396825395,-252.93650793650792,103.09523809523809,-317.38095238095235,178.17460317460316,80.55555555555556,204.36507936507937,-168.96825396825395,290.39682539682536,-35.317460317460316,-222.46031746031744,203.25396825396825,-123.4126984126984,-49.6031746031746,244.36507936507934,-264.04761904761904,107.85714285714285,-122.14285714285714,242.46031746031744,-321.8253968253968
-39.285714285714285,130.87301587301587,-19.126984126984127,-321.984126984127,-138.96825396825395,-252.93650793650792,103.09523809523809,-317.38095238095235,178.17460317460316,80.55555555555556,204.36507936507937,-168.96825396825395,290.39682539682536,-35.317460317460316,-222.46031746031744,203.25396825396825,-123.4126984126984,-49.6031746031746,244.36507936507934,-264.04761904761904,107.85714285714285,-122.14285714285714,242.46031746031744,-321.8253968253968
-39.285714285714285,130.87301587301587,-19.126984126984127,-321.984126984127,-138.96825396825395,-252.93650793650792,103.09523809523809,-317.38095238095235,178.17460317460316,80.55555555555556,204.36507936507937,-168.96825396825395,290.39682539682536,-35.317460317460316,-222.46031746031744,203.25396825396825,-123.4126984126984,-49.6031746031746,244.36507936507934,-264.04761904761904,107.85714285714285,-122.14285714285714,242.46031746031744,-321.8253968253968
-13.412698412698411,57.857142857142854,29.6031746031746,-212.93650793650792,-194.36507936507937,-149.12698412698413,214.04761904761904,-179.60317460317458,-62.77777777777777,-40.079365079365076,-0.07936507936507936,-84.84126984126983,113.88888888888889,-33.73015873015873,-142.77777777777777,55.79365079365079,-51.19047619047619,-48.01587301587301,122.14285714285714,-103.09523809523809,216.42857142857142,-61.82539682539682,118.17460317460316,-166.26984126984127
-13.412698412698411,57.857142857142854,29.6031746031746,-212.93650793650792,-194.36507936507937,-149.12698412698413,214.04761904761904,-179.60317460317458,-62.77777777777777,-40.079365079365076,-0.07936507936507936,-84.84126984126983,113.88888888888889,-33.73015873015873,-142.77777777777777,55.79365079365079,-51.19047619047619,-48.01587301587301,122.14285714285714,-103.09523809523809,216.42857142857142,-61.82539682539682,118.17460317460316,-166.26984126984127
12.3015873015873,32.14285714285714,77.22222222222221,-102.77777777777777,-236.42857142857142,-44.84126984126984,325.0,-41.34920634920635,-216.9047619047619,-158.4920634920635,-202.3015873015873,4.523809523809524,-81.82539682539682,-31.666666666666664,-82.77777777777777,-90.39682539682539,24.206349206349206,-46.11111111111111,3.73015873015873,57.22222222222222,314.5238095238095,0.23809523809523808,6.587301587301587,-166.26984126984127
12.3015873015873,32.14285714285714,77.22222222222221,-102.77777777777777,-236.42857142857142,-44.84126984126984,325.0,-41.34920634920635,-216.9047619047619,-158.4920634920635,-202.3015873015873,4.523809523809524,-81.82539682539682,-31.666666666666664,-82.77777777777777,-90.39682539682539,24.206349206349206,-46.11111111111111,3.73015873015873,57.22222222222222,314.5238095238095,0.23809523809523808,6.587301587301587,-166.26984126984127
12.3015873015873,79.28571428571428,76.74603174603175,-102.30158730158729,-161.5079365079365,-44.52380952380952,325.0,-41.34920634920635,-108.65079365079364,-157.69841269841268,-201.34920634920633,5.476190476190476,-84.36507936507937,-31.507936507936506,-82.14285714285714,-90.07936507936508,24.523809523809522,-45.95238095238095,5.0,57.06349206349206,304.2063492063492,0.7142857142857142,4.841269841269841,-166.26984126984127
12.3015873015873,79.28571428571428,76.74603174603175,-102.30158730158729,-161.5079365079365,-44.52380952380952,325.0,-41.34920634920635,-108.65079365079364,-157.69841269841268,-201.34920634920633,5.476190476190476,-84.36507936507937,-31.507936507936506,-82.14285714285714,-90.07936507936508,24.523809523809522,-45.95238095238095,5.0,57.06349206349206,304.2063492063492,0.7142857142857142,4.841269841269841,-166.26984126984127
11.984126984126984,36.58730158730159,74.36507936507937,-99.12698412698413,-242.46031746031744,-43.41269841269841,325.0,-40.079365079365076,-215.47619047619045,-152.93650793650792,-195.63492063492063,1.984126984126984,-79.92063492063491,-30.555555555555554,-80.87301587301587,-86.9047619047619,23.41269841269841,-44.52380952380952,0.873015873015873,55.317460317460316,311.031746031746,0.23809523809523808,7.222222222222221,-166.26984126984127
11.984126984126984,36.58730158730159,74.36507936507937,-99.12698412698413,-242.46031746031744,-43.41269841269841,325.0,-40.079365079365076,-215.47619047619045,-152.93650793650792,-195.63492063492063,1.984126984126984,-79.92063492063491,-30.555555555555554,-80.87301587301587,-86.9047619047619,23.41269841269841,-44.52380952380952,0.873015873015873,55.317460317460316,311.031746031746,0.23809523809523808,7.222222222222221,-166.26984126984127
11.825396825396824,34.682539682539684,73.4126984126984,-97.6984126984127,-218.8095238095238,-42.93650793650794,325.0,-39.44444444444444,-209.76190476190476,-150.7142857142857,-193.25396825396825,-2.142857142857143,-71.98412698412697,-30.396825396825395,-71.34920634920634,-85.47619047619047,22.777777777777775,-43.888888888888886,-2.7777777777777777,54.68253968253968,310.87301587301585,-0.7142857142857142,-0.5555555555555556,-166.26984126984127
11.825396825396824,34.682539682539684,73.4126984126984,-97.6984126984127,-218.8095238095238,-42.93650793650794,325.0,-39.44444444444444,-209.76190476190476,-150.7142857142857,-193.25396825396825,-2.142857142857143,-71.98412698412697,-30.396825396825395,-71.34920634920634,-85.47619047619047,22.777777777777775,-43.888888888888886,-2.7777777777777777,54.68253968253968,310.87301587301585,-0.7142857142857142,-0.5555555555555556,-166.26984126984127
9.761904761904761,-8.333333333333332,72.14285714285714,-95.95238095238095,-325.0,-42.460317460317455,325.0,-38.96825396825397,-325.0,-148.17460317460316,-190.23809523809524,-2.142857142857143,-67.38095238095238,-29.76190476190476,-71.34920634920634,-84.36507936507937,22.619047619047617,-43.41269841269841,-4.0476190476190474,53.73015873015873,322.3015873015873,-0.23809523809523808,8.968253968253968,-321.8253968253968
9.761904761904761,-8.333333333333332,72.14285714285714,-95.95238095238095,-325.0,-42.460317460317455,325.0,-38.96825396825397,-325.0,-148.17460317460316,-190.23809523809524,-2.142857142857143,-67.38095238095238,-29.76190476190476,-71.34920634920634,-84.36507936507937,22.619047619047617,-43.41269841269841,-4.0476190476190474,53.73015873015873,322.3015873015873,-0.23809523809523808,8.968253968253968,-321.8253968253968
9.761904761904761,-8.333333333333332,72.14285714285714,-95.95238095238095,-325.0,-42.460317460317455,325.0,-38.96825396825397,-325.0,-148.17460317460316,-190.23809523809524,-2.142857142857143,-67.38095238095238,-29.76190476190476,-71.34920634920634,-84.36507936507937,22.619047619047617,-43.41269841269841,-4.0476190476190474,53.73015873015873,322.3015873015873,-0.23809523809523808,8.968253968253968,-321.8253968253968
9.761904761904761,-8.333333333333332,72.14285714285714,-95.95238095238095,-325.0,-42.460317460317455,325.0,-38.96825396825397,-325.0,-148.17460317460316,-190.23809523809524,-2.142857142857143,-67.38095238095238,-29.76190476190476,-71.34920634920634,-84.36507936507937,22.619047619047617,-43.41269841269841,-4.0476190476190474,53.73015873015873,322.3015873015873,-0.23809523809523808,8.968253968253968,-321.8253968253968
-24.206349206349206,-7.063492063492063,67.38095238095238,-89.6031746031746,-325.0,-39.76190476190476,325.0,-36.58730158730159,-325.0,-138.4920634920635,-178.96825396825395,-7.3809523809523805,-5.158730158730158,-27.857142857142854,-8.015873015873016,-78.17460317460316,-27.38095238095238,-40.714285714285715,-8.809523809523808,50.39682539682539,301.984126984127,-0.7142857142857142,2.619047619047619,-321.8253968253968
-24.206349206349206,-7.063492063492063,67.38095238095238,-89.6031746031746,-325.0,-39.76190476190476,325.0,-36.58730158730159,-325.0,-138.4920634920635,-178.96825396825395,-7.3809523809523805,-5.158730158730158,-27.857142857142854,-8.015873015873016,-78.17460317460316,-27.38095238095238,-40.714285714285715,-8.809523809523808,50.39682539682539,301.984126984127,-0.7142857142857142,2.619047619047619,-321.8253968253968
-26.11111111111111,-1.507936507936508,67.06349206349206,-89.12698412698413,-325.0,-39.6031746031746,325.0,-36.42857142857142,-325.0,-138.17460317460316,-178.17460317460316,-4.365079365079365,-11.031746031746032,-27.698412698412696,-15.95238095238095,-77.6984126984127,12.936507936507935,-40.55555555555555,-6.428571428571428,50.238095238095234,300.87301587301585,0.3968253968253968,10.079365079365079,-321.8253968253968
-26.11111111111111,-1.507936507936508,67.06349206349206,-89.12698412698413,-325.0,-39.6031746031746,325.0,-36.42857142857142,-325.0,-138.17460317460316,-178.17460317460316,-4.365079365079365,-11.031746031746032,-27.698412698412696,-15.95238095238095,-77.6984126984127,12.936507936507935,-40.55555555555555,-6.428571428571428,50.238095238095234,300.87301587301585,0.3968253968253968,10.079365079365079,-321.8253968253968
-38.17460317460317,-10.238095238095237,65.15873015873015,-86.74603174603175,-325.0,-38.17460317460317,323.88888888888886,-35.476190476190474,-325.0,-133.88888888888889,-173.73015873015873,-8.492063492063492,22.46031746031746,-27.063492063492063,21.825396825396822,-75.31746031746032,-126.58730158730158,-39.44444444444444,-8.809523809523808,48.96825396825397,292.9365079365079,-1.507936507936508,-5.634920634920634,-321.8253968253968
-38.17460317460317,-10.238095238095237,65.15873015873015,-86.74603174603175,-325.0,-38.17460317460317,323.88888888888886,-35.476190476190474,-325.0,-133.88888888888889,-173.73015873015873,-8.492063492063492,22.46031746031746,-27.063492063492063,21.825396825396822,-75.31746031746032,-126.58730158730158,-39.44444444444444,-8.809523809523808,48.96825396825397,292.9365079365079,-1.507936507936508,-5.634920634920634,-321.8253968253968
-47.53968253968254,111.82539682539682,63.73015873015873,-84.84126984126983,-269.6031746031746,-37.857142857142854,317.06349206349205,-35.0,-253.88888888888889,-131.19047619047618,-170.23809523809524,0.7142857142857142,-21.507936507936506,-26.746031746031743,-17.539682539682538,-73.88888888888889,-154.36507936507937,-38.96825396825397,-1.349206349206349,47.857142857142854,286.4285714285714,-0.07936507936507936,-2.7777777777777777,-166.26984126984127
-47.53968253968254,111.82539682539682,63.73015873015873,-84.84126984126983,-269.6031746031746,-37.857142857142854,317.06349206349205,-35.0,-253.88888888888889,-131.19047619047618,-170.23809523809524,0.7142857142857142,-21.507936507936506,-26.746031746031743,-17.539682539682538,-73.88888888888889,-154.36507936507937,-38.96825396825397,-1.349206349206349,47.857142857142854,286.4285714285714,-0.07936507936507936,-2.7777777777777777,-166.26984126984127
-53.095238095238095,49.285714285714285,62.93650793650793,-83.57142857142857,-325.0,-37.38095238095238,312.9365079365079,-34.52380952380952,-325.0,-129.44444444444443,-168.17460317460316,-0.07936507936507936,-7.063492063492063,-26.428571428571427,-6.587301587301587,-72.93650793650794,-244.68253968253967,-38.49206349206349,-2.7777777777777777,47.38095238095238,282.6190476190476,0.5555555555555556,-0.07936507936507936,-166.26984126984127
-53.095238095238095,49.285714285714285,62.93650793650793,-83.57142857142857,-325.0,-37.38095238095238,312.9365079365079,-34.52380952380952,-325.0,-129.44444444444443,-168.17460317460316,-0.07936507936507936,-7.063492063492063,-26.428571428571427,-6.587301587301587,-72.93650793650794,-244.68253968253967,-38.49206349206349,-2.7777777777777777,47.38095238095238,282.6190476190476,0.5555555555555556,-0.07936507936507936,-166.26984126984127
-61.98412698412698,125.79365079365078,61.34920634920635,-81.66666666666666,-284.2063492063492,-36.58730158730159,306.26984126984127,-33.888888888888886,-273.73015873015873,-126.58730158730158,-164.68253968253967,-5.476190476190476,20.07936507936508,-25.79365079365079,23.41269841269841,-71.19047619047619,-171.8253968253968,-37.698412698412696,-7.698412698412698,46.269841269841265,276.58730158730157,-0.3968253968253968,-3.253968253968254,-166.26984126984127
-61.98412698412698,125.79365079365078,61.34920634920635,-81.66666666666666,-284.2063492063492,-36.58730158730159,306.26984126984127,-33.888888888888886,-273.73015873015873,-126.58730158730158,-164.68253968253967,-5.476190476190476,20.07936507936508,-25.79365079365079,23.41269841269841,-71.19047619047619,-171.8253968253968,-37.698412698412696,-7.698412698412698,46.269841269841265,276.58730158730157,-0.3968253968253968,-3.253968253968254,-166.26984126984127
-66.9047619047619,56.269841269841265,60.55555555555555,-80.55555555555556,-325.0,-36.11111111111111,302.1428571428571,-33.57142857142857,-325.0,-125.0,-162.61904761904762,-2.142857142857143,27.698412698412696,-25.317460317460316,27.857142857142854,-70.07936507936508,-325.0,-37.22222222222222,-4.523809523809524,45.79365079365079,273.25396825396825,-0.23809523809523808,-0.23809523809523808,-166.26984126984127
-66.9047619047619,56.269841269841265,60.55555555555555,-80.55555555555556,-325.0,-36.11111111111111,302.1428571428571,-33.57142857142857,-325.0,-125.0,-162.61904761904762,-2.142857142857143,27.698412698412696,-25.317460317460316,27.857142857142854,-70.07936507936508,-325.0,-37.22222222222222,-4.523809523809524,45.79365079365079,273.25396825396825,-0.23809523809523808,-0.23809523809523808,-166.26984126984127
-73.25396825396825,163.57142857142856,59.6031746031746,-79.12698412698413,-262.1428571428571,-35.476190476190474,296.90476190476187,-32.77777777777778,-234.84126984126982,-122.46031746031746,-160.07936507936506,-1.0317460317460316,79.6031746031746,-25.0,79.76190476190476,-68.80952380952381,-98.17460317460316,-36.269841269841265,-3.571428571428571,45.0,268.3333333333333,-1.1904761904761905,3.888888888888889,-166.26984126984127
-73.25396825396825,163.57142857142856,59.6031746031746,-79.12698412698413,-262.1428571428571,-35.476190476190474,296.90476190476187,-32.77777777777778,-234.84126984126982,-122.46031746031746,-160.07936507936506,-1.0317460317460316,79.6031746031746,-25.0,79.76190476190476,-68.80952380952381,-98.17460317460316,-36.269841269841265,-3.571428571428571,45.0,268.3333333333333,-1.1904761904761905,3.888888888888889,-166.26984126984127
-77.85714285714285,85.15873015873015,58.650793650793645,-78.17460317460316,-293.57142857142856,-35.15873015873016,293.0952380952381,-32.61904761904762,-279.9206349206349,-121.03174603174602,-158.33333333333331,3.888888888888889,32.3015873015873,-24.68253968253968,30.71428571428571,-68.01587301587301,-158.65079365079364,-36.11111111111111,0.7142857142857142,44.36507936507936,264.8412698412698,0.07936507936507936,6.746031746031746,-321.8253968253968
-77.85714285714285,85.15873015873015,58.650793650793645,-78.17460317460316,-293.57142857142856,-35.15873015873016,293.0952380952381,-32.61904761904762,-279.9206349206349,-121.03174603174602,-158.33333333333331,3.888888888888889,32.3015873015873,-24.68253968253968,30.71428571428571,-68.01587301587301,-158.65079365079364,-36.11111111111111,0.7142857142857142,44.36507936507936,264.8412698412698,0.07936507936507936,6.746031746031746,-321.8253968253968
-88.01587301587301,126.74603174603173,56.904761904761905,-76.1111111111111,-325.0,-34.047619047619044,284.04761904761904,-31.507936507936506,-325.0,-117.22222222222221,-153.73015873015873,7.698412698412698,-24.206349206349206,-24.047619047619047,-20.71428571428571,-65.95238095238095,-325.0,-35.0,4.0476190476190474,43.095238095238095,256.90476190476187,-1.0317460317460316,-10.873015873015872,-321.8253968253968
-88.01587301587301,126.74603174603173,56.904761904761905,-76.1111111111111,-325.0,-34.047619047619044,284.04761904761904,-31.507936507936506,-325.0,-117.22222222222221,-153.73015873015873,7.698412698412698,-24.206349206349206,-24.047619047619047,-20.71428571428571,-65.95238095238095,-325.0,-35.0,4.0476190476190474,43.095238095238095,256.90476190476187,-1.0317460317460316,-10.873015873015872,-321.8253968253968
-96.58730158730158,192.14285714285714,55.15873015873016,-73.73015873015872,-258.968253968254,-33.57142857142857,276.74603174603175,-30.87301587301587,-223.4126984126984,-114.04761904761904,-150.23809523809524,-4.2063492063492065,23.57142857142857,-23.41269841269841,23.095238095238095,-64.04761904761905,-37.22222222222222,-34.36507936507936,-7.3809523809523805,41.98412698412698,250.07936507936506,0.5555555555555556,3.888888888888889,-321.8253968253968
-96.58730158730158,192.14285714285714,55.15873015873016,-73.73015873015872,-258.968253968254,-33.57142857142857,276.74603174603175,-30.87301587301587,-223.4126984126984,-114.04761904761904,-150.23809523809524,-4.2063492063492065,23.57142857142857,-23.41269841269841,23.095238095238095,-64.04761904761905,-37.22222222222222,-34.36507936507936,-7.3809523809523805,41.98412698412698,250.07936507936506,0.5555555555555556,3.888888888888889,-321.8253968253968
-102.77777777777777,8.492063492063492,53.888888888888886,-72.3015873015873,-325.0,-32.61904761904762,270.7142857142857,-30.238095238095237,-325.0,-111.5079365079365,-146.9047619047619,2.46031746031746,-7.063492063492063,-23.095238095238095,-7.5396825396825395,-62.460317460317455,-218.015873015873,-33.73015873015873,-0.3968253968253968,41.19047619047619,244.84126984126982,0.5555555555555556,3.095238095238095,-321.8253968253968
-102.77777777777777,8.492063492063492,53.888888888888886,-72.3015873015873,-325.0,-32.61904761904762,270.7142857142857,-30.238095238095237,-325.0,-111.5079365079365,-146.9047619047619,2.46031746031746,-7.063492063492063,-23.095238095238095,-7.5396825396825395,-62.460317460317455,-218.015873015873,-33.73015873015873,-0.3968253968253968,41.19047619047619,244.84126984126982,0.5555555555555556,3.095238095238095,-321.8253968253968
-107.6984126984127,152.14285714285714,52.93650793650794,-70.71428571428571,-287.38095238095235,-32.3015873015873,265.95238095238096,-30.07936507936508,-270.55555555555554,-109.6031746031746,-144.68253968253967,-4.0476190476190474,-14.047619047619047,-22.619047619047617,-12.936507936507935,-61.34920634920635,-169.44444444444443,-33.25396825396825,-7.222222222222221,40.55555555555555,240.7142857142857,-0.873015873015873,-2.7777777777777777,-321.8253968253968
-107.6984126984127,152.14285714285714,52.93650793650794,-70.71428571428571,-287.38095238095235,-32.3015873015873,265.95238095238096,-30.07936507936508,-270.55555555555554,-109.6031746031746,-144.68253968253967,-4.0476190476190474,-14.047619047619047,-22.619047619047617,-12.936507936507935,-61.34920634920635,-169.44444444444443,-33.25396825396825,-7.222222222222221,40.55555555555555,240.7142857142857,-0.873015873015873,-2.7777777777777777,-321.8253968253968
-112.30158730158729,0.23809523809523808,51.98412698412698,-69.6031746031746,-325.0,-31.666666666666664,261.3492063492063,-29.444444444444443,-325.0,-107.38095238095238,-142.14285714285714,1.0317460317460316,-9.444444444444445,-22.3015873015873,-10.079365079365079,-60.238095238095234,-228.65079365079364,-32.61904761904762,-2.142857142857143,39.6031746031746,236.42857142857142,0.07936507936507936,1.8253968253968254,-166.26984126984127
-112.30158730158729,0.23809523809523808,51.98412698412698,-69.6031746031746,-325.0,-31.666666666666664,261.3492063492063,-29.444444444444443,-325.0,-107.38095238095238,-142.14285714285714,1.0317460317460316,-9.444444444444445,-22.3015873015873,-10.079365079365079,-60.238095238095234,-228.65079365079364,-32.61904761904762,-2.142857142857143,39.6031746031746,236.42857142857142,0.07936507936507936,1.8253968253968254,-166.26984126984127
-113.4126984126984,17.22222222222222,51.82539682539682,-69.28571428571428,-325.0,-31.666666666666664,260.23809523809524,-29.285714285714285,-325.0,-106.9047619047619,-141.66666666666666,8.333333333333332,-34.047619047619044,-22.46031746031746,-36.269841269841265,-59.92063492063492,-238.65079365079364,-32.61904761904762,4.0476190476190474,39.6031746031746,235.47619047619045,1.0317460317460316,8.968253968253968,-166.26984126984127
-113.4126984126984,17.22222222222222,51.82539682539682,-69.28571428571428,-325.0,-31.666666666666664,260.23809523809524,-29.285714285714285,-325.0,-106.9047619047619,-141.66666666666666,8.333333333333332,-34.047619047619044,-22.46031746031746,-36.269841269841265,-59.92063492063492,-238.65079365079364,-32.61904761904762,4.0476190476190474,39.6031746031746,235.47619047619045,1.0317460317460316,8.968253968253968,-166.26984126984127
-117.53968253968253,30.71428571428571,50.87301587301587,-68.17460317460318,-325.0,-31.19047619047619,255.63492063492063,-28.96825396825397,-325.0,-105.15873015873015,-139.28571428571428,8.333333333333332,-61.98412698412698,-21.984126984126984,-63.73015873015873,-58.96825396825397,-140.7142857142857,-32.14285714285714,4.2063492063492065,38.96825396825397,231.34920634920633,1.0317460317460316,8.809523809523808,-166.26984126984127
-117.53968253968253,30.71428571428571,50.87301587301587,-68.17460317460318,-325.0,-31.19047619047619,255.63492063492063,-28.96825396825397,-325.0,-105.15873015873015,-139.28571428571428,8.333333333333332,-61.98412698412698,-21.984126984126984,-63.73015873015873,-58.96825396825397,-140.7142857142857,-32.14285714285714,4.2063492063492065,38.96825396825397,231.34920634920633,1.0317460317460316,8.809523809523808,-166.26984126984127
-125.0,189.12698412698413,49.12698412698413,-65.79365079365078,-275.0,-30.238095238095237,247.85714285714283,-28.333333333333332,-259.1269841269841,-102.14285714285714,-135.3174603174603,6.904761904761904,-54.2063492063492,-21.19047619047619,-53.095238095238095,-57.22222222222222,-139.44444444444443,-31.19047619047619,2.46031746031746,37.698412698412696,224.36507936507934,-0.5555555555555556,-3.73015873015873,-166.26984126984127
-125.0,189.12698412698413,49.12698412698413,-65.79365079365078,-275.0,-30.238095238095237,247.85714285714283,-28.333333333333332,-259.1269841269841,-102.14285714285714,-135.3174603174603,6.904761904761904,-54.2063492063492,-21.19047619047619,-53.095238095238095,-57.22222222222222,-139.44444444444443,-31.19047619047619,2.46031746031746,37.698412698412696,224.36507936507934,-0.5555555555555556,-3.73015873015873,-166.26984126984127
-129.12698412698413,39.44444444444444,48.33333333333333,-64.68253968253968,-325.0,-29.444444444444443,243.57142857142856,-27.698412698412696,-325.0,-100.23809523809523,-133.0952380952381,-5.158730158730158,3.4126984126984126,-20.873015873015873,2.619047619047619,-55.95238095238095,-268.17460317460313,-30.71428571428571,-8.968253968253968,37.06349206349206,220.3968253968254,-1.1904761904761905,1.8253968253968254,-166.26984126984127
-129.12698412698413,39.44444444444444,48.33333333333333,-64.68253968253968,-325.0,-29.444444444444443,243.57142857142856,-27.698412698412696,-325.0,-100.23809523809523,-133.0952380952381,-5.158730158730158,3.4126984126984126,-20.873015873015873,2.619047619047619,-55.95238095238095,-268.17460317460313,-30.71428571428571,-8.968253968253968,37.06349206349206,220.3968253968254,-1.1904761904761905,1.8253968253968254,-166.26984126984127
-131.66666666666666,121.98412698412697,47.53968253968254,-64.04761904761905,-325.0,-29.285714285714285,240.2380952380952,-27.38095238095238,-325.0,-98.96825396825396,-131.66666666666666,6.26984126984127,-46.42857142857142,-20.71428571428571,-46.11111111111111,-55.476190476190474,-293.0952380952381,-30.555555555555554,1.507936507936508,36.74603174603175,217.53968253968253,-1.0317460317460316,-1.349206349206349,-321.8253968253968
-131.66666666666666,121.98412698412697,47.53968253968254,-64.04761904761905,-325.0,-29.285714285714285,240.2380952380952,-27.38095238095238,-325.0,-98.96825396825396,-131.66666666666666,6.26984126984127,-46.42857142857142,-20.71428571428571,-46.11111111111111,-55.476190476190474,-293.0952380952381,-30.555555555555554,1.507936507936508,36.74603174603175,217.53968253968253,-1.0317460317460316,-1.349206349206349,-321.8253968253968
-141.03174603174602,98.96825396825396,45.317460317460316,-60.873015873015866,-325.0,-28.174603174603174,228.65079365079364,-26.11111111111111,-325.0,-94.2063492063492,-125.79365079365078,-0.07936507936507936,-34.36507936507936,-19.92063492063492,-32.460317460317455,-52.77777777777777,-286.26984126984127,-29.126984126984127,-2.9365079365079363,34.84126984126984,207.2222222222222,-1.0317460317460316,-8.333333333333332,-321.8253968253968
-141.03174603174602,98.96825396825396,45.317460317460316,-60.873015873015866,-325.0,-28.174603174603174,228.65079365079364,-26.11111111111111,-325.0,-94.2063492063492,-125.79365079365078,-0.07936507936507936,-34.36507936507936,-19.92063492063492,-32.460317460317455,-52.77777777777777,-286.26984126984127,-29.126984126984127,-2.9365079365079363,34.84126984126984,207.2222222222222,-1.0317460317460316,-8.333333333333332,-321.8253968253968
-142.93650793650792,62.61904761904761,44.68253968253968,-60.079365079365076,-325.0,-27.539682539682538,225.79365079365078,-25.952380952380953,-325.0,-92.93650793650794,-124.2063492063492,7.5396825396825395,-48.01587301587301,-19.6031746031746,-50.71428571428571,-51.98412698412698,-282.3015873015873,-28.809523809523807,3.4126984126984126,33.73015873015873,202.77777777777777,0.873015873015873,8.65079365079365,-321.8253968253968
-142.93650793650792,62.61904761904761,44.68253968253968,-60.079365079365076,-325.0,-27.539682539682538,225.79365079365078,-25.952380952380953,-325.0,-92.93650793650794,-124.2063492063492,7.5396825396825395,-48.01587301587301,-19.6031746031746,-50.71428571428571,-51.98412698412698,-282.3015873015873,-28.809523809523807,3.4126984126984126,33.73015873015873,202.77777777777777,0.873015873015873,8.65079365079365,-321.8253968253968
-142.93650793650792,62.61904761904761,44.68253968253968,-60.079365079365076,-325.0,-27.539682539682538,225.79365079365078,-25.952380952380953,-325.0,-92.93650793650794,-124.2063492063492,7.5396825396825395,-48.01587301587301,-19.6031746031746,-50.71428571428571,-51.98412698412698,-282.3015873015873,-28.809523809523807,3.4126984126984126,33.73015873015873,202.77777777777777,0.873015873015873,8.65079365079365,-321.8253968253968
-142.93650793650792,62.61904761904761,44.68253968253968,-60.079365079365076,-325.0,-27.539682539682538,225.79365079365078,-25.952380952380953,-325.0,-92.93650793650794,-124.2063492063492,7.5396825396825395,-48.01587301587301,-19.6031746031746,-50.71428571428571,-51.98412698412698,-282.3015873015873,-28.809523809523807,3.4126984126984126,33.73015873015873,202.77777777777777,0.873015873015873,8.65079365079365,-321.8253968253968
-149.6031746031746,196.74603174603175,42.93650793650794,-57.698412698412696,-272.3015873015873,-26.428571428571427,217.06349206349205,-25.0,-254.04761904761904,-89.28571428571428,-119.76190476190476,7.5396825396825395,-26.11111111111111,-18.96825396825397,-27.38095238095238,-50.079365079365076,-215.0,-27.857142857142854,3.095238095238095,17.38095238095238,197.06349206349205,-0.07936507936507936,6.746031746031746,-321.8253968253968
-149.6031746031746,196.74603174603175,42.93650793650794,-57.698412698412696,-272.3015873015873,-26.428571428571427,217.06349206349205,-25.0,-254.04761904761904,-89.28571428571428,-119.76190476190476,7.5396825396825395,-26.11111111111111,-18.96825396825397,-27.38095238095238,-50.079365079365076,-215.0,-27.857142857142854,3.095238095238095,17.38095238095238,197.06349206349205,-0.07936507936507936,6.746031746031746,-321.8253968253968
-152.14285714285714,179.9206349206349,42.14285714285714,-56.58730158730158,-325.0,-26.26984126984127,213.09523809523807,-24.68253968253968,-325.0,-88.01587301587301,-117.85714285714285,4.682539682539682,-28.174603174603174,-18.49206349206349,-26.587301587301585,-49.285714285714285,-325.0,-27.38095238095238,1.349206349206349,-7.698412698412698,192.93650793650792,-1.0317460317460316,-7.698412698412698,-166.26984126984127
-152.14285714285714,179.9206349206349,42.14285714285714,-56.58730158730158,-325.0,-26.26984126984127,213.09523809523807,-24.68253968253968,-325.0,-88.01587301587301,-117.85714285714285,4.682539682539682,-28.174603174603174,-18.49206349206349,-26.587301587301585,-49.285714285714285,-325.0,-27.38095238095238,1.349206349206349,-7.698412698412698,192.93650793650792,-1.0317460317460316,-7.698412698412698,-166.26984126984127
-154.52380952380952,255.95238095238093,41.34920634920635,-55.63492063492063,-271.8253968253968,-25.79365079365079,209.60317460317458,-24.365079365079364,-255.0,-85.95238095238095,-115.79365079365078,4.841269841269841,-1.6666666666666665,-18.333333333333332,-2.619047619047619,-48.33333333333333,-325.0,-27.063492063492063,0.23809523809523808,20.873015873015873,185.95238095238093,0.5555555555555556,7.063492063492063,-166.26984126984127
-154.52380952380952,255.95238095238093,41.34920634920635,-55.63492063492063,-271.8253968253968,-25.79365079365079,209.60317460317458,-24.365079365079364,-255.0,-85.95238095238095,-115.79365079365078,4.841269841269841,-1.6666666666666665,-18.333333333333332,-2.619047619047619,-48.33333333333333,-325.0,-27.063492063492063,0.23809523809523808,20.873015873015873,185.95238095238093,0.5555555555555556,7.063492063492063,-166.26984126984127
-155.3174603174603,325.0,41.19047619047619,-55.15873015873016,-218.65079365079364,-25.634920634920633,208.65079365079364,-24.365079365079364,-185.0,-85.47619047619047,-115.31746031746032,1.6666666666666665,28.96825396825397,-18.174603174603174,29.285714285714285,-48.17460317460317,-325.0,-26.9047619047619,-2.619047619047619,30.555555555555554,187.85714285714283,1.0317460317460316,4.2063492063492065,-166.26984126984127
-155.3174603174603,325.0,41.19047619047619,-55.15873015873016,-218.65079365079364,-25.634920634920633,208.65079365079364,-24.365079365079364,-185.0,-85.47619047619047,-115.31746031746032,1.6666666666666665,28.96825396825397,-18.174603174603174,29.285714285714285,-48.17460317460317,-325.0,-26.9047619047619,-2.619047619047619,30.555555555555554,187.85714285714283,1.0317460317460316,4.2063492063492065,-166.26984126984127
-157.69841269841268,325.0,40.39682539682539,-54.2063492063492,-213.09523809523807,-25.317460317460316,205.0,-23.88888888888889,-179.44444444444443,-84.04761904761904,-113.57142857142857,0.5555555555555556,19.6031746031746,-17.857142857142858,19.76190476190476,-47.38095238095238,-325.0,-26.587301587301585,-4.0476190476190474,27.22222222222222,185.3174603174603,0.5555555555555556,3.4126984126984126,-166.26984126984127
-157.69841269841268,325.0,40.39682539682539,-54.2063492063492,-213.09523809523807,-25.317460317460316,205.0,-23.88888888888889,-179.44444444444443,-84.04761904761904,-113.57142857142857,0.5555555555555556,19.6031746031746,-17.857142857142858,19.76190476190476,-47.38095238095238,-325.0,-26.587301587301585,-4.0476190476190474,27.22222222222222,185.3174603174603,0.5555555555555556,3.4126984126984126,-166.26984126984127
-161.03174603174602,215.47619047619045,39.12698412698413,-52.93650793650794,-266.26984126984127,-24.84126984126984,199.60317460317458,-23.095238095238095,-249.44444444444443,-81.82539682539682,-110.87301587301587,-4.841269841269841,10.396825396825395,-17.539682539682538,10.396825396825395,-46.11111111111111,-325.0,-25.952380952380953,-8.65079365079365,-7.857142857142857,181.19047619047618,-0.23809523809523808,-0.3968253968253968,-166.26984126984127
-161.03174603174602,215.47619047619045,39.12698412698413,-52.93650793650794,-266.26984126984127,-24.84126984126984,199.60317460317458,-23.095238095238095,-249.44444444444443,-81.82539682539682,-110.87301587301587,-4.841269841269841,10.396825396825395,-17.539682539682538,10.396825396825395,-46.11111111111111,-325.0,-25.952380952380953,-8.65079365079365,-7.857142857142857,181.19047619047618,-0.23809523809523808,-0.3968253968253968,-166.26984126984127
-161.984126984127,105.95238095238095,38.80952380952381,-52.460317460317455,-325.0,-24.523809523809522,197.85714285714283,-22.777777777777775,-325.0,-81.03174603174602,-109.76190476190476,-9.126984126984127,10.555555555555555,-17.539682539682538,10.555555555555555,-45.63492063492063,-325.0,-25.634920634920633,-11.825396825396824,-39.6031746031746,179.76190476190476,-0.7142857142857142,-3.571428571428571,-321.8253968253968
-161.984126984127,105.95238095238095,38.80952380952381,-52.460317460317455,-325.0,-24.523809523809522,197.85714285714283,-22.777777777777775,-325.0,-81.03174603174602,-109.76190476190476,-9.126984126984127,10.555555555555555,-17.539682539682538,10.555555555555555,-45.63492063492063,-325.0,-25.634920634920633,-11.825396825396824,-39.6031746031746,179.76190476190476,-0.7142857142857142,-3.571428571428571,-321.8253968253968
-163.57142857142856,114.04761904761904,38.17460317460317,-51.666666666666664,-223.7301587301587,-24.206349206349206,194.2063492063492,-22.619047619047617,-188.33333333333331,-79.6031746031746,-38.96825396825397,-3.4126984126984126,-47.38095238095238,-17.22222222222222,-47.22222222222222,-44.84126984126984,-299.9206349206349,-25.317460317460316,-6.111111111111111,-7.5396825396825395,176.74603174603175,-1.6666666666666665,-4.2063492063492065,-321.8253968253968
-163.57142857142856,114.04761904761904,38.17460317460317,-51.666666666666664,-223.7301587301587,-24.206349206349206,194.2063492063492,-22.619047619047617,-188.33333333333331,-79.6031746031746,-38.96825396825397,-3.4126984126984126,-47.38095238095238,-17.22222222222222,-47.22222222222222,-44.84126984126984,-299.9206349206349,-25.317460317460316,-6.111111111111111,-7.5396825396825395,176.74603174603175,-1.6666666666666665,-4.2063492063492065,-321.8253968253968
-166.74603174603175,258.17460317460313,37.06349206349206,-49.92063492063492,-112.77777777777777,-23.57142857142857,188.17460317460316,-22.3015873015873,-93.57142857142857,-77.22222222222221,325.0,0.23809523809523808,-108.01587301587301,-16.746031746031743,-106.58730158730158,-43.73015873015873,-174.04761904761904,-24.68253968253968,-4.523809523809524,36.269841269841265,-142.61904761904762,-0.07936507936507936,6.111111111111111,-321.8253968253968
-166.74603174603175,258.17460317460313,37.06349206349206,-49.92063492063492,-112.77777777777777,-23.57142857142857,188.17460317460316,-22.3015873015873,-93.57142857142857,-77.22222222222221,325.0,0.23809523809523808,-108.01587301587301,-16.746031746031743,-106.58730158730158,-43.73015873015873,-174.04761904761904,-24.68253968253968,-4.523809523809524,36.269841269841265,-142.61904761904762,-0.07936507936507936,6.111111111111111,-321.8253968253968
-168.015873015873,203.09523809523807,36.269841269841265,-49.285714285714285,252.77777777777777,-23.57142857142857,185.0,-22.142857142857142,202.77777777777777,-76.1111111111111,325.0,7.063492063492063,-257.22222222222223,-16.746031746031743,-257.6984126984127,-43.25396825396825,253.57142857142856,-24.523809523809522,3.095238095238095,34.52380952380952,25.0,-3.253968253968254,-8.968253968253968,-321.8253968253968
-168.015873015873,203.09523809523807,36.269841269841265,-49.285714285714285,252.77777777777777,-23.57142857142857,185.0,-22.142857142857142,202.77777777777777,-76.1111111111111,325.0,7.063492063492063,-257.22222222222223,-16.746031746031743,-257.6984126984127,-43.25396825396825,253.57142857142856,-24.523809523809522,3.095238095238095,34.52380952380952,25.0,-3.253968253968254,-8.968253968253968,-321.8253968253968
-168.17460317460316,120.07936507936508,35.95238095238095,-49.12698412698413,248.015873015873,-23.41269841269841,184.2063492063492,-22.142857142857142,234.36507936507934,-75.79365079365078,325.0,12.142857142857142,-316.26984126984127,-16.746031746031743,-314.68253968253964,-43.095238095238095,258.968253968254,-24.68253968253968,9.126984126984127,34.2063492063492,148.015873015873,-2.9365079365079363,-6.111111111111111,-321.8253968253968
-168.17460317460316,120.07936507936508,35.95238095238095,-49.12698412698413,248.015873015873,-23.41269841269841,184.2063492063492,-22.142857142857142,234.36507936507934,-75.79365079365078,325.0,12.142857142857142,-316.26984126984127,-16.746031746031743,-314.68253968253964,-43.095238095238095,258.968253968254,-24.68253968253968,9.126984126984127,34.2063492063492,148.015873015873,-2.9365079365079363,-6.111111111111111,-321.8253968253968
-170.7142857142857,209.9206349206349,35.0,-47.698412698412696,97.6984126984127,-22.619047619047617,178.4920634920635,-21.349206349206348,32.3015873015873,-73.25396825396825,325.0,8.015873015873016,-242.6190476190476,-16.11111111111111,-242.77777777777777,-41.666666666666664,42.77777777777778,-23.730158730158728,5.0,33.095238095238095,106.74603174603175,-1.8253968253968254,-7.222222222222221,-166.26984126984127
-170.7142857142857,209.9206349206349,35.0,-47.698412698412696,97.6984126984127,-22.619047619047617,178.4920634920635,-21.349206349206348,32.3015873015873,-73.25396825396825,325.0,8.015873015873016,-242.6190476190476,-16.11111111111111,-242.77777777777777,-41.666666666666664,42.77777777777778,-23.730158730158728,5.0,33.095238095238095,106.74603174603175,-1.8253968253968254,-7.222222222222221,-166.26984126984127
-171.66666666666666,191.8253968253968,34.682539682539684,-46.904761904761905,109.44444444444444,-22.3015873015873,176.11111111111111,-21.666666666666664,77.06349206349206,-72.46031746031746,325.0,11.031746031746032,-274.5238095238095,-16.11111111111111,-274.2063492063492,-41.19047619047619,150.7142857142857,-23.57142857142857,7.857142857142857,32.77777777777778,117.53968253968253,0.5555555555555556,9.603174603174603,-166.26984126984127
-171.66666666666666,191.8253968253968,34.682539682539684,-46.904761904761905,109.44444444444444,-22.3015873015873,176.11111111111111,-21.666666666666664,77.06349206349206,-72.46031746031746,325.0,11.031746031746032,-274.5238095238095,-16.11111111111111,-274.2063492063492,-41.19047619047619,150.7142857142857,-23.57142857142857,7.857142857142857,32.77777777777778,117.53968253968253,0.5555555555555556,9.603174603174603,-166.26984126984127
-172.46031746031744,146.11111111111111,34.2063492063492,-46.269841269841265,81.66666666666666,-21.984126984126984,173.57142857142856,-21.19047619047619,54.2063492063492,-71.34920634920634,266.74603174603175,11.666666666666666,-232.14285714285714,-15.793650793650793,-233.25396825396825,-40.55555555555555,80.87301587301587,-23.253968253968253,9.126984126984127,32.3015873015873,144.52380952380952,-1.0317460317460316,2.619047619047619,-166.26984126984127
-172.46031746031744,146.11111111111111,34.2063492063492,-46.269841269841265,81.66666666666666,-21.984126984126984,173.57142857142856,-21.19047619047619,54.2063492063492,-71.34920634920634,266.74603174603175,11.666666666666666,-232.14285714285714,-15.793650793650793,-233.25396825396825,-40.55555555555555,80.87301587301587,-23.253968253968253,9.126984126984127,32.3015873015873,144.52380952380952,-1.0317460317460316,2.619047619047619,-166.26984126984127
-173.88888888888889,247.06349206349205,33.25396825396825,-45.15873015873016,122.93650793650794,-21.825396825396822,169.12698412698413,-20.555555555555554,120.71428571428571,-69.44444444444444,325.0,15.95238095238095,-213.09523809523807,-15.634920634920634,-212.61904761904762,-39.285714285714285,90.87301587301587,-22.777777777777775,12.46031746031746,31.349206349206348,87.38095238095238,0.3968253968253968,5.7936507936507935,-166.26984126984127
-173.88888888888889,247.06349206349205,33.25396825396825,-45.15873015873016,122.93650793650794,-21.825396825396822,169.12698412698413,-20.555555555555554,120.71428571428571,-69.44444444444444,325.0,15.95238095238095,-213.09523809523807,-15.634920634920634,-212.61904761904762,-39.285714285714285,90.87301587301587,-22.777777777777775,12.46031746031746,31.349206349206348,87.38095238095238,0.3968253968253968,5.7936507936507935,-166.26984126984127
-175.15873015873015,191.66666666666666,32.61904761904762,-44.047619047619044,-101.5079365079365,-21.19047619047619,166.11111111111111,-20.07936507936508,-135.47619047619048,-68.01587301587301,145.47619047619048,8.65079365079365,-151.03174603174602,-15.158730158730158,-148.8095238095238,-20.07936507936508,-252.14285714285714,-22.142857142857142,6.111111111111111,30.87301587301587,140.7142857142857,0.3968253968253968,-7.3809523809523805,-166.26984126984127
-175.15873015873015,191.66666666666666,32.61904761904762,-44.047619047619044,-101.5079365079365,-21.19047619047619,166.11111111111111,-20.07936507936508,-135.47619047619048,-68.01587301587301,145.47619047619048,8.65079365079365,-151.03174603174602,-15.158730158730158,-148.8095238095238,-20.07936507936508,-252.14285714285714,-22.142857142857142,6.111111111111111,30.87301587301587,140.7142857142857,0.3968253968253968,-7.3809523809523805,-166.26984126984127
-175.95238095238093,249.9206349206349,31.825396825396822,-43.57142857142857,45.79365079365079,-20.873015873015873,163.25396825396825,-20.07936507936508,43.73015873015873,-67.06349206349206,304.2063492063492,7.222222222222221,-102.30158730158729,-15.0,-103.4126984126984,-36.11111111111111,-48.49206349206349,-22.142857142857142,3.571428571428571,30.396825396825395,106.26984126984127,-1.0317460317460316,5.317460317460317,-321.8253968253968
-175.95238095238093,249.9206349206349,31.825396825396822,-43.57142857142857,45.79365079365079,-20.873015873015873,163.25396825396825,-20.07936507936508,43.73015873015873,-67.06349206349206,304.2063492063492,7.222222222222221,-102.30158730158729,-15.0,-103.4126984126984,-36.11111111111111,-48.49206349206349,-22.142857142857142,3.571428571428571,30.396825396825395,106.26984126984127,-1.0317460317460316,5.317460317460317,-321.8253968253968
-176.9047619047619,293.57142857142856,31.19047619047619,-42.460317460317455,-36.74603174603175,-20.396825396825395,158.8095238095238,-19.285714285714285,-40.55555555555555,-65.31746031746032,265.3174603174603,13.73015873015873,-134.68253968253967,-14.84126984126984,-127.85714285714285,-35.79365079365079,-114.2063492063492,-21.507936507936506,9.761904761904761,29.6031746031746,113.88888888888889,0.3968253968253968,-3.571428571428571,-321.8253968253968
-176.9047619047619,293.57142857142856,31.19047619047619,-42.460317460317455,-36.74603174603175,-20.396825396825395,158.8095238095238,-19.285714285714285,-40.55555555555555,-65.31746031746032,265.3174603174603,13.73015873015873,-134.68253968253967,-14.84126984126984,-127.85714285714285,-35.79365079365079,-114.2063492063492,-21.507936507936506,9.761904761904761,29.6031746031746,113.88888888888889,0.3968253968253968,-3.571428571428571,-321.8253968253968
-178.015873015873,173.73015873015873,30.238095238095237,-41.03174603174603,-190.23809523809524,-19.92063492063492,154.68253968253967,-18.96825396825397,-196.42857142857142,-63.41269841269841,-54.047619047619044,4.841269841269841,-90.39682539682539,-14.365079365079364,-87.6984126984127,-36.74603174603175,-212.93650793650792,-21.03174603174603,2.142857142857143,28.809523809523807,149.9206349206349,-0.07936507936507936,-7.698412698412698,-321.8253968253968
-178.015873015873,173.73015873015873,30.238095238095237,-41.03174603174603,-190.23809523809524,-19.92063492063492,154.68253968253967,-18.96825396825397,-196.42857142857142,-63.41269841269841,-54.047619047619044,4.841269841269841,-90.39682539682539,-14.365079365079364,-87.6984126984127,-36.74603174603175,-212.93650793650792,-21.03174603174603,2.142857142857143,28.809523809523807,149.9206349206349,-0.07936507936507936,-7.698412698412698,-321.8253968253968
-178.65079365079364,168.65079365079364,29.920634920634917,-40.714285714285715,-222.14285714285714,-19.76190476190476,152.61904761904762,-18.80952380952381,-259.44444444444446,-62.460317460317455,101.98412698412697,1.507936507936508,-27.22222222222222,-14.047619047619047,-33.57142857142857,-36.42857142857142,-199.12698412698413,-20.873015873015873,-2.142857142857143,28.49206349206349,153.88888888888889,0.873015873015873,7.698412698412698,-321.8253968253968
-178.65079365079364,168.65079365079364,29.920634920634917,-40.714285714285715,-222.14285714285714,-19.76190476190476,152.61904761904762,-18.80952380952381,-259.44444444444446,-62.460317460317455,101.98412698412697,1.507936507936508,-27.22222222222222,-14.047619047619047,-33.57142857142857,-36.42857142857142,-199.12698412698413,-20.873015873015873,-2.142857142857143,28.49206349206349,153.88888888888889,0.873015873015873,7.698412698412698,-321.8253968253968
-178.65079365079364,168.65079365079364,29.920634920634917,-40.714285714285715,-222.14285714285714,-19.76190476190476,152.61904761904762,-18.80952380952381,-259.44444444444446,-62.460317460317455,101.98412698412697,1.507936507936508,-27.22222222222222,-14.047619047619047,-33.57142857142857,-36.42857142857142,-199.12698412698413,-20.873015873015873,-2.142857142857143,28.49206349206349,153.88888888888889,0.873015873015873,7.698412698412698,-321.8253968253968
-178.65079365079364,168.65079365079364,29.920634920634917,-40.714285714285715,-222.14285714285714,-19.76190476190476,152.61904761904762,-18.80952380952381,-259.44444444444446,-62.460317460317455,101.98412698412697,1.507936507936508,-27.22222222222222,-14.047619047619047,-33.57142857142857,-36.42857142857142,-199.12698412698413,-20.873015873015873,-2.142857142857143,28.49206349206349,153.88888888888889,0.873015873015873,7.698412698412698,-321.8253968253968
-179.60317460317458,246.9047619047619,28.65079365079365,-38.33333333333333,-91.34920634920634,-19.285714285714285,146.42857142857142,-18.174603174603174,-98.96825396825396,-60.079365079365076,135.63492063492063,6.26984126984127,-11.19047619047619,-10.555555555555555,-12.936507936507935,-34.84126984126984,-161.19047619047618,-20.07936507936508,2.46031746031746,27.063492063492063,134.68253968253967,0.07936507936507936,6.587301587301587,-166.26984126984127
-179.60317460317458,246.9047619047619,28.65079365079365,-38.33333333333333,-91.34920634920634,-19.285714285714285,146.42857142857142,-18.174603174603174,-98.96825396825396,-60.079365079365076,135.63492063492063,6.26984126984127,-11.19047619047619,-10.555555555555555,-12.936507936507935,-34.84126984126984,-161.19047619047618,-20.07936507936508,2.46031746031746,27.063492063492063,134.68253968253967,0.07936507936507936,6.587301587301587,-166.26984126984127
-179.9206349206349,85.47619047619047,28.015873015873016,-13.888888888888888,-186.26984126984127,-18.49206349206349,143.4126984126984,-17.698412698412696,-156.58730158730157,-58.33333333333333,-250.07936507936506,1.0317460317460316,-9.126984126984127,-13.412698412698411,-10.238095238095237,-34.047619047619044,-263.73015873015873,-19.444444444444443,-1.1904761904761905,25.158730158730158,150.23809523809524,0.07936507936507936,-3.888888888888889,-166.26984126984127
-179.9206349206349,85.47619047619047,28.015873015873016,-13.888888888888888,-186.26984126984127,-18.49206349206349,143.4126984126984,-17.698412698412696,-156.58730158730157,-58.33333333333333,-250.07936507936506,1.0317460317460316,-9.126984126984127,-13.412698412698411,-10.238095238095237,-34.047619047619044,-263.73015873015873,-19.444444444444443,-1.1904761904761905,25.158730158730158,150.23809523809524,0.07936507936507936,-3.888888888888889,-166.26984126984127
-180.07936507936506,168.8095238095238,27.539682539682538,-23.730158730158728,-248.33333333333331,-18.333333333333332,141.5079365079365,-17.539682539682538,-240.87301587301587,-57.698412698412696,-174.84126984126982,6.111111111111111,-27.063492063492063,-13.253968253968253,-25.317460317460316,-33.888888888888886,-294.36507936507934,-19.444444444444443,3.095238095238095,23.095238095238095,145.95238095238093,0.23809523809523808,-7.063492063492063,-166.26984126984127
-180.07936507936506,168.8095238095238,27.539682539682538,-23.730158730158728,-248.33333333333331,-18.333333333333332,141.5079365079365,-17.539682539682538,-240.87301587301587,-57.698412698412696,-174.84126984126982,6.111111111111111,-27.063492063492063,-13.253968253968253,-25.317460317460316,-33.888888888888886,-294.36507936507934,-19.444444444444443,3.095238095238095,23.095238095238095,145.95238095238093,0.23809523809523808,-7.063492063492063,-166.26984126984127
-180.3968253968254,205.47619047619045,27.063492063492063,-28.809523809523807,-317.69841269841265,-18.015873015873016,138.33333333333331,-17.38095238095238,-325.0,-56.58730158730158,-76.58730158730158,9.285714285714285,-17.38095238095238,-12.936507936507935,-17.063492063492063,-33.25396825396825,-325.0,-19.126984126984127,5.317460317460317,22.777777777777775,143.09523809523807,0.873015873015873,0.23809523809523808,-166.26984126984127
-180.3968253968254,205.47619047619045,27.063492063492063,-28.809523809523807,-317.69841269841265,-18.015873015873016,138.33333333333331,-17.38095238095238,-325.0,-56.58730158730158,-76.58730158730158,9.285714285714285,-17.38095238095238,-12.936507936507935,-17.063492063492063,-33.25396825396825,-325.0,-19.126984126984127,5.317460317460317,22.777777777777775,143.09523809523807,0.873015873015873,0.23809523809523808,-166.26984126984127
-180.7142857142857,213.4126984126984,26.587301587301585,-23.88888888888889,-325.0,-17.857142857142858,135.79365079365078,-17.063492063492063,-325.0,-55.63492063492063,-52.3015873015873,7.698412698412698,-7.857142857142857,-11.507936507936508,-8.015873015873016,-32.460317460317455,-325.0,-18.80952380952381,3.571428571428571,10.873015873015872,140.07936507936506,-0.23809523809523808,0.23809523809523808,-166.26984126984127
-180.7142857142857,213.4126984126984,26.587301587301585,-23.88888888888889,-325.0,-17.857142857142858,135.79365079365078,-17.063492063492063,-325.0,-55.63492063492063,-52.3015873015873,7.698412698412698,-7.857142857142857,-11.507936507936508,-8.015873015873016,-32.460317460317455,-325.0,-18.80952380952381,3.571428571428571,10.873015873015872,140.07936507936506,-0.23809523809523808,0.23809523809523808,-166.26984126984127
-180.87301587301587,120.23809523809523,25.952380952380953,9.126984126984127,-272.46031746031747,-17.38095238095238,132.77777777777777,-16.746031746031743,-249.9206349206349,-54.36507936507936,-211.8253968253968,-1.6666666666666665,18.333333333333332,-12.619047619047619,16.904761904761905,-31.98412698412698,-291.8253968253968,-18.49206349206349,-4.523809523809524,11.666666666666666,140.23809523809524,-0.5555555555555556,3.253968253968254,-321.8253968253968
-180.87301587301587,120.23809523809523,25.952380952380953,9.126984126984127,-272.46031746031747,-17.38095238095238,132.77777777777777,-16.746031746031743,-249.9206349206349,-54.36507936507936,-211.8253968253968,-1.6666666666666665,18.333333333333332,-12.619047619047619,16.904761904761905,-31.98412698412698,-291.8253968253968,-18.49206349206349,-4.523809523809524,11.666666666666666,140.23809523809524,-0.5555555555555556,3.253968253968254,-321.8253968253968
-180.55555555555554,149.12698412698413,25.952380952380953,-13.571428571428571,-325.0,-17.22222222222222,132.3015873015873,-16.587301587301585,-325.0,-54.2063492063492,-159.76190476190476,5.634920634920634,10.873015873015872,-12.777777777777777,8.015873015873016,-31.666666666666664,-325.0,-18.333333333333332,1.6666666666666665,21.666666666666664,139.76190476190476,0.873015873015873,9.920634920634921,-321.8253968253968
-180.55555555555554,149.12698412698413,25.952380952380953,-13.571428571428571,-325.0,-17.22222222222222,132.3015873015873,-16.587301587301585,-325.0,-54.2063492063492,-159.76190476190476,5.634920634920634,10.873015873015872,-12.777777777777777,8.015873015873016,-31.666666666666664,-325.0,-18.333333333333332,1.6666666666666665,21.666666666666664,139.76190476190476,0.873015873015873,9.920634920634921,-321.8253968253968
-180.7142857142857,122.77777777777777,25.0,50.71428571428571,-276.26984126984127,-16.746031746031743,128.17460317460316,-16.11111111111111,-251.8253968253968,-52.460317460317455,-210.55555555555554,-4.682539682539682,34.36507936507936,-12.46031746031746,32.93650793650794,-30.71428571428571,-325.0,-17.857142857142858,-7.222222222222221,-18.174603174603174,135.47619047619048,-0.23809523809523808,3.571428571428571,-321.8253968253968
-180.7142857142857,122.77777777777777,25.0,50.71428571428571,-276.26984126984127,-16.746031746031743,128.17460317460316,-16.11111111111111,-251.8253968253968,-52.460317460317455,-210.55555555555554,-4.682539682539682,34.36507936507936,-12.46031746031746,32.93650793650794,-30.71428571428571,-325.0,-17.857142857142858,-7.222222222222221,-18.174603174603174,135.47619047619048,-0.23809523809523808,3.571428571428571,-321.8253968253968
-180.7142857142857,210.7142857142857,23.88888888888889,38.65079365079365,-105.63492063492063,-16.26984126984127,122.93650793650794,-15.793650793650793,-72.77777777777777,-50.39682539682539,-94.36507936507935,-11.031746031746032,46.74603174603175,-10.873015873015872,46.74603174603175,-16.428571428571427,-195.0,-17.22222222222222,-13.412698412698411,-29.76190476190476,125.95238095238095,-1.0317460317460316,-0.3968253968253968,-321.8253968253968
-180.7142857142857,210.7142857142857,23.88888888888889,38.65079365079365,-105.63492063492063,-16.26984126984127,122.93650793650794,-15.793650793650793,-72.77777777777777,-50.39682539682539,-94.36507936507935,-11.031746031746032,46.74603174603175,-10.873015873015872,46.74603174603175,-16.428571428571427,-195.0,-17.22222222222222,-13.412698412698411,-29.76190476190476,125.95238095238095,-1.0317460317460316,-0.3968253968253968,-321.8253968253968
-180.55555555555554,325.0,23.730158730158728,-37.698412698412696,16.428571428571427,-16.11111111111111,121.82539682539682,-15.793650793650793,33.25396825396825,-50.079365079365076,72.46031746031746,-7.222222222222221,35.63492063492063,-9.603174603174603,35.63492063492063,-2.9365079365079363,-64.84126984126983,-17.063492063492063,-10.873015873015872,-1.507936507936508,120.71428571428571,-0.7142857142857142,1.984126984126984,-321.8253968253968
-180.55555555555554,325.0,23.730158730158728,-37.698412698412696,16.428571428571427,-16.11111111111111,121.82539682539682,-15.793650793650793,33.25396825396825,-50.079365079365076,72.46031746031746,-7.222222222222221,35.63492063492063,-9.603174603174603,35.63492063492063,-2.9365079365079363,-64.84126984126983,-17.063492063492063,-10.873015873015872,-1.507936507936508,120.71428571428571,-0.7142857142857142,1.984126984126984,-321.8253968253968
-179.76190476190476,153.25396825396825,23.095238095238095,24.523809523809522,-325.0,-15.634920634920634,118.8095238095238,-15.158730158730158,-325.0,-48.650793650793645,-201.5079365079365,3.888888888888889,14.047619047619047,-11.825396825396824,12.142857142857142,-26.26984126984127,-325.0,-16.746031746031743,0.23809523809523808,-0.7142857142857142,125.79365079365078,1.1904761904761905,10.555555555555555,-166.26984126984127
-179.76190476190476,153.25396825396825,23.095238095238095,24.523809523809522,-325.0,-15.634920634920634,118.8095238095238,-15.158730158730158,-325.0,-48.650793650793645,-201.5079365079365,3.888888888888889,14.047619047619047,-11.825396825396824,12.142857142857142,-26.26984126984127,-325.0,-16.746031746031743,0.23809523809523808,-0.7142857142857142,125.79365079365078,1.1904761904761905,10.555555555555555,-166.26984126984127
-179.60317460317458,178.8095238095238,22.619047619047617,121.03174603174602,-284.5238095238095,-15.634920634920634,115.95238095238095,-14.682539682539682,-265.3174603174603,-47.53968253968254,-209.28571428571428,-2.142857142857143,31.19047619047619,-7.222222222222221,32.14285714285714,3.4126984126984126,-319.6031746031746,-16.587301587301585,-4.682539682539682,-198.8095238095238,121.82539682539682,-1.0317460317460316,-6.904761904761904,-166.26984126984127
-179.60317460317458,178.8095238095238,22.619047619047617,121.03174603174602,-284.5238095238095,-15.634920634920634,115.95238095238095,-14.682539682539682,-265.3174603174603,-47.53968253968254,-209.28571428571428,-2.142857142857143,31.19047619047619,-7.222222222222221,32.14285714285714,3.4126984126984126,-319.6031746031746,-16.587301587301585,-4.682539682539682,-198.8095238095238,121.82539682539682,-1.0317460317460316,-6.904761904761904,-166.26984126984127
-178.96825396825395,167.85714285714286,22.142857142857142,38.17460317460317,-325.0,-15.317460317460316,114.68253968253967,-14.84126984126984,-325.0,-46.74603174603175,-225.3174603174603,4.2063492063492065,16.26984126984127,-11.666666666666666,13.888888888888888,31.03174603174603,-325.0,-16.587301587301585,0.23809523809523808,-31.19047619047619,121.5079365079365,1.1904761904761905,9.920634920634921,-166.26984126984127
-178.96825396825395,167.85714285714286,22.142857142857142,38.17460317460317,-325.0,-15.317460317460316,114.68253968253967,-14.84126984126984,-325.0,-46.74603174603175,-225.3174603174603,4.2063492063492065,16.26984126984127,-11.666666666666666,13.888888888888888,31.03174603174603,-325.0,-16.587301587301585,0.23809523809523808,-31.19047619047619,121.5079365079365,1.1904761904761905,9.920634920634921,-166.26984126984127
-178.96825396825395,167.85714285714286,22.142857142857142,38.17460317460317,-325.0,-15.317460317460316,114.68253968253967,-14.84126984126984,-325.0,-46.74603174603175,-225.3174603174603,4.2063492063492065,16.26984126984127,-11.666666666666666,13.888888888888888,31.03174603174603,-325.0,-16.587301587301585,0.23809523809523808,-31.19047619047619,121.5079365079365,1.1904761904761905,9.920634920634921,-166.26984126984127
-178.96825396825395,167.85714285714286,22.142857142857142,38.17460317460317,-325.0,-15.317460317460316,114.68253968253967,-14.84126984126984,-325.0,-46.74603174603175,-225.3174603174603,4.2063492063492065,16.26984126984127,-11.666666666666666,13.888888888888888,31.03174603174603,-325.0,-16.587301587301585,0.23809523809523808,-31.19047619047619,121.5079365079365,1.1904761904761905,9.920634920634921,-166.26984126984127
-178.33333333333331,241.98412698412696,21.19047619047619,3.253968253968254,-187.2222222222222,-14.84126984126984,109.92063492063491,-12.46031746031746,-177.53968253968253,-45.0,-182.3015873015873,3.571428571428571,39.12698412698413,10.873015873015872,38.01587301587301,-32.14285714285714,-188.65079365079364,-15.793650793650793,-0.3968253968253968,-111.66666666666666,116.42857142857142,-0.5555555555555556,6.428571428571428,-166.26984126984127
-178.33333333333331,241.98412698412696,21.19047619047619,3.253968253968254,-187.2222222222222,-14.84126984126984,109.92063492063491,-12.46031746031746,-177.53968253968253,-45.0,-182.3015873015873,3.571428571428571,39.12698412698413,10.873015873015872,38.01587301587301,-32.14285714285714,-188.65079365079364,-15.793650793650793,-0.3968253968253968,-111.66666666666666,116.42857142857142,-0.5555555555555556,6.428571428571428,-166.26984126984127
-178.65079365079364,197.69841269841268,8.809523809523808,209.60317460317458,-307.53968253968253,-14.523809523809524,107.85714285714285,-12.936507936507935,-291.5079365079365,-44.2063492063492,-224.68253968253967,-2.3015873015873014,43.57142857142857,-1.8253968253968254,44.36507936507936,-35.317460317460316,-294.36507936507934,-15.476190476190474,-5.158730158730158,-325.0,114.2063492063492,-0.07936507936507936,-6.428571428571428,-321.8253968253968
-178.65079365079364,197.69841269841268,8.809523809523808,209.60317460317458,-307.53968253968253,-14.523809523809524,107.85714285714285,-12.936507936507935,-291.5079365079365,-44.2063492063492,-224.68253968253967,-2.3015873015873014,43.57142857142857,-1.8253968253968254,44.36507936507936,-35.317460317460316,-294.36507936507934,-15.476190476190474,-5.158730158730158,-325.0,114.2063492063492,-0.07936507936507936,-6.428571428571428,-321.8253968253968
-222.77777777777777,90.39682539682539,-13.412698412698411,95.63492063492063,-152.3015873015873,-14.365079365079364,106.42857142857142,-24.206349206349206,-325.0,-43.57142857142857,-66.11111111111111,15.317460317460316,-143.4126984126984,-15.793650793650793,-135.47619047619048,-23.57142857142857,-152.3015873015873,-15.476190476190474,-151.03174603174602,-185.63492063492063,-59.76190476190476,11.666666666666666,19.76190476190476,-321.8253968253968
-222.77777777777777,90.39682539682539,-13.412698412698411,95.63492063492063,-152.3015873015873,-14.365079365079364,106.42857142857142,-24.206349206349206,-325.0,-43.57142857142857,-66.11111111111111,15.317460317460316,-143.4126984126984,-15.793650793650793,-135.47619047619048,-23.57142857142857,-152.3015873015873,-15.476190476190474,-151.03174603174602,-185.63492063492063,-59.76190476190476,11.666666666666666,19.76190476190476,-321.8253968253968
-176.26984126984127,306.26984126984127,-48.80952380952381,74.52380952380952,-209.60317460317458,-13.888888888888888,101.34920634920634,-6.746031746031746,-197.38095238095238,-41.507936507936506,-230.3968253968254,-6.428571428571428,76.1111111111111,5.0,76.26984126984127,15.793650793650793,-169.9206349206349,-14.84126984126984,-10.396825396825395,-325.0,107.53968253968253,-1.984126984126984,-5.317460317460317,-321.8253968253968
-176.26984126984127,306.26984126984127,-48.80952380952381,74.52380952380952,-209.60317460317458,-13.888888888888888,101.34920634920634,-6.746031746031746,-197.38095238095238,-41.507936507936506,-230.3968253968254,-6.428571428571428,76.1111111111111,5.0,76.26984126984127,15.793650793650793,-169.9206349206349,-14.84126984126984,-10.396825396825395,-325.0,107.53968253968253,-1.984126984126984,-5.317460317460317,-321.8253968253968
-175.3174603174603,156.26984126984127,-82.77777777777777,249.28571428571428,-325.0,-13.571428571428571,99.44444444444444,-13.253968253968253,-325.0,-38.65079365079365,-230.7142857142857,0.3968253968253968,79.76190476190476,-9.920634920634921,78.65079365079364,-33.73015873015873,-301.5079365079365,-14.523809523809524,-2.7777777777777777,-325.0,105.47619047619047,0.5555555555555556,3.253968253968254,-321.8253968253968
-175.3174603174603,156.26984126984127,-82.77777777777777,249.28571428571428,-325.0,-13.571428571428571,99.44444444444444,-13.253968253968253,-325.0,-38.65079365079365,-230.7142857142857,0.3968253968253968,79.76190476190476,-9.920634920634921,78.65079365079364,-33.73015873015873,-301.5079365079365,-14.523809523809524,-2.7777777777777777,-325.0,105.47619047619047,0.5555555555555556,3.253968253968254,-321.8253968253968
-174.84126984126982,325.0,-24.206349206349206,-10.714285714285714,-109.76190476190476,-13.412698412698411,98.01587301587301,-5.317460317460317,-79.92063492063491,-40.079365079365076,-227.53968253968253,-0.7142857142857142,101.5079365079365,40.55555555555555,100.07936507936508,-32.61904761904762,-56.74603174603174,-14.365079365079364,-4.841269841269841,-325.0,104.2063492063492,-0.5555555555555556,1.349206349206349,-321.8253968253968
-174.84126984126982,325.0,-24.206349206349206,-10.714285714285714,-109.76190476190476,-13.412698412698411,98.01587301587301,-5.317460317460317,-79.92063492063491,-40.079365079365076,-227.53968253968253,-0.7142857142857142,101.5079365079365,40.55555555555555,100.07936507936508,-32.61904761904762,-56.74603174603174,-14.365079365079364,-4.841269841269841,-325.0,104.2063492063492,-0.5555555555555556,1.349206349206349,-321.8253968253968
