Fp1[1],Fp2[2],F3[3],F4[4],C3[5],C4[6],P3[7],P4[8],O1[9],O2[10],F7[11],F8[12],T3[13],T4[14],T5[15],T6[16],Fz[17],Pz[18],Cz[19],Pg1[20],Pg2[21],EOGR[22],EOOGL[23],EMG[24]
-219.60317460317458,82.93650793650794,-228.49206349206347,-81.98412698412697,-218.4920634920635,100.39682539682539,-141.66666666666666,155.95238095238093,-307.06349206349205,-325.0,-308.015873015873,-8.015873015873016,-304.2063492063492,325.0,-305.7936507936508,325.0,-312.46031746031747,325.0,-202.3015873015873,-325.0,-247.69841269841268,-0.23809523809523808,0.3968253968253968,-166.26984126984127
-219.60317460317458,82.93650793650794,-228.49206349206347,-81.98412698412697,-218.4920634920635,100.39682539682539,-141.66666666666666,155.95238095238093,-307.06349206349205,-325.0,-308.015873015873,-8.015873015873016,-304.2063492063492,325.0,-305.7936507936508,325.0,-312.46031746031747,325.0,-202.3015873015873,-325.0,-247.69841269841268,-0.23809523809523808,0.3968253968253968,-166.26984126984127
-305.6349206349206,325.0,-302.77777777777777,11.984126984126984,-306.1111111111111,325.0,-308.968253968254,325.0,-314.68253968253964,-325.0,-314.68253968253964,0.07936507936507936,-307.53968253968253,325.0,-309.4444444444444,325.0,-321.3492063492063,325.0,-146.58730158730157,-325.0,-186.9047619047619,4.2063492063492065,10.555555555555555,-166.26984126984127
-305.6349206349206,325.0,-302.77777777777777,11.984126984126984,-306.1111111111111,325.0,-308.968253968254,325.0,-314.68253968253964,-325.0,-314.68253968253964,0.07936507936507936,-307.53968253968253,325.0,-309.4444444444444,325.0,-321.3492063492063,325.0,-146.58730158730157,-325.0,-186.9047619047619,4.2063492063492065,10.555555555555555,-166.26984126984127
-288.3333333333333,325.0,-285.3174603174603,14.523809523809524,-289.1269841269841,325.0,-290.87301587301585,325.0,-299.76190476190476,-325.0,-299.4444444444444,8.65079365079365,-291.3492063492063,325.0,-291.66666666666663,325.0,-309.6031746031746,325.0,-90.71428571428571,-325.0,-121.82539682539682,0.3968253968253968,1.507936507936508,-166.26984126984127
-288.3333333333333,325.0,-285.3174603174603,14.523809523809524,-289.1269841269841,325.0,-290.87301587301585,325.0,-299.76190476190476,-325.0,-299.4444444444444,8.65079365079365,-291.3492063492063,325.0,-291.66666666666663,325.0,-309.6031746031746,325.0,-90.71428571428571,-325.0,-121.82539682539682,0.3968253968253968,1.507936507936508,-166.26984126984127
-284.5238095238095,325.0,-282.77777777777777,15.0,-285.4761904761905,325.0,-287.38095238095235,325.0,-295.6349206349206,-325.0,-296.4285714285714,11.825396825396824,-287.53968253968253,325.0,-287.22222222222223,325.0,-302.3015873015873,325.0,-68.80952380952381,-325.0,-92.30158730158729,-0.7142857142857142,-2.142857142857143,-166.26984126984127
-284.5238095238095,325.0,-282.77777777777777,15.0,-285.4761904761905,325.0,-287.38095238095235,325.0,-295.6349206349206,-325.0,-296.4285714285714,11.825396825396824,-287.53968253968253,325.0,-287.22222222222223,325.0,-302.3015873015873,325.0,-68.80952380952381,-325.0,-92.30158730158729,-0.7142857142857142,-2.142857142857143,-166.26984126984127
-292.6190476190476,325.0,-289.4444444444444,20.07936507936508,-293.4126984126984,325.0,-295.6349206349206,325.0,-305.0,-325.0,-305.4761904761905,17.22222222222222,-296.4285714285714,325.0,-296.26984126984127,325.0,-311.984126984127,325.0,-54.68253968253968,-325.0,-72.93650793650794,0.3968253968253968,0.5555555555555556,-166.26984126984127
-292.6190476190476,325.0,-289.4444444444444,20.07936507936508,-293.4126984126984,325.0,-295.6349206349206,325.0,-305.0,-325.0,-305.4761904761905,17.22222222222222,-296.4285714285714,325.0,-296.26984126984127,325.0,-311.984126984127,325.0,-54.68253968253968,-325.0,-72.93650793650794,0.3968253968253968,0.5555555555555556,-166.26984126984127
-302.46031746031747,325.0,-299.9206349206349,20.71428571428571,-303.25396825396825,325.0,-305.6349206349206,325.0,-314.5238095238095,-325.0,-315.6349206349206,19.126984126984127,-306.1111111111111,325.0,-305.6349206349206,325.0,-317.06349206349205,325.0,-45.0,-325.0,-59.92063492063492,-0.5555555555555556,-1.349206349206349,-321.8253968253968
-302.46031746031747,325.0,-299.9206349206349,20.71428571428571,-303.25396825396825,325.0,-305.6349206349206,325.0,-314.5238095238095,-325.0,-315.6349206349206,19.126984126984127,-306.1111111111111,325.0,-305.6349206349206,325.0,-317.06349206349205,325.0,-45.0,-325.0,-59.92063492063492,-0.5555555555555556,-1.349206349206349,-321.8253968253968
-298.4920634920635,325.0,-296.26984126984127,19.92063492063492,-299.76190476190476,325.0,-301.19047619047615,325.0,-310.39682539682536,-325.0,-312.1428571428571,18.65079365079365,-301.8253968253968,325.0,-301.66666666666663,325.0,-312.9365079365079,325.0,-39.285714285714285,-325.0,-50.71428571428571,0.5555555555555556,-0.07936507936507936,-321.8253968253968
-298.4920634920635,325.0,-296.26984126984127,19.92063492063492,-299.76190476190476,325.0,-301.19047619047615,325.0,-310.39682539682536,-325.0,-312.1428571428571,18.65079365079365,-301.8253968253968,325.0,-301.66666666666663,325.0,-312.9365079365079,325.0,-39.285714285714285,-325.0,-50.71428571428571,0.5555555555555556,-0.07936507936507936,-321.8253968253968
-295.95238095238096,325.0,-293.0952380952381,19.444444444444443,-297.38095238095235,325.0,-298.8095238095238,325.0,-308.4920634920635,-325.0,-310.39682539682536,19.444444444444443,-299.76190476190476,325.0,-298.968253968254,325.0,-307.69841269841265,325.0,-27.38095238095238,-325.0,-33.41269841269841,-0.5555555555555556,0.07936507936507936,-321.8253968253968
-295.95238095238096,325.0,-293.0952380952381,19.444444444444443,-297.38095238095235,325.0,-298.8095238095238,325.0,-308.4920634920635,-325.0,-310.39682539682536,19.444444444444443,-299.76190476190476,325.0,-298.968253968254,325.0,-307.69841269841265,325.0,-27.38095238095238,-325.0,-33.41269841269841,-0.5555555555555556,0.07936507936507936,-321.8253968253968
-302.3015873015873,325.0,-298.6507936507936,17.698412698412696,-303.4126984126984,325.0,-305.1587301587301,325.0,-314.8412698412698,-325.0,-317.06349206349205,18.65079365079365,-306.74603174603175,325.0,-305.0,325.0,-312.46031746031747,325.0,-19.444444444444443,-325.0,-20.873015873015873,-5.476190476190476,-9.603174603174603,-321.8253968253968
-302.3015873015873,325.0,-298.6507936507936,17.698412698412696,-303.4126984126984,325.0,-305.1587301587301,325.0,-314.8412698412698,-325.0,-317.06349206349205,18.65079365079365,-306.74603174603175,325.0,-305.0,325.0,-312.46031746031747,325.0,-19.444444444444443,-325.0,-20.873015873015873,-5.476190476190476,-9.603174603174603,-321.8253968253968
-297.85714285714283,325.0,-294.68253968253964,17.063492063492063,-299.4444444444444,325.0,-301.5079365079365,325.0,-310.87301587301585,-325.0,-313.57142857142856,18.65079365079365,-301.3492063492063,325.0,-301.8253968253968,325.0,-305.4761904761905,325.0,-12.777777777777777,-325.0,-10.873015873015872,4.523809523809524,8.968253968253968,-321.8253968253968
-297.85714285714283,325.0,-294.68253968253964,17.063492063492063,-299.4444444444444,325.0,-301.5079365079365,325.0,-310.87301587301585,-325.0,-313.57142857142856,18.65079365079365,-301.3492063492063,325.0,-301.8253968253968,325.0,-305.4761904761905,325.0,-12.777777777777777,-325.0,-10.873015873015872,4.523809523809524,8.968253968253968,-321.8253968253968
-288.015873015873,325.0,-285.0,13.253968253968253,-290.07936507936506,325.0,-290.07936507936506,325.0,-300.23809523809524,-325.0,-303.57142857142856,14.682539682539682,-292.46031746031747,325.0,-290.55555555555554,325.0,-295.3174603174603,325.0,-11.507936507936508,-325.0,-6.26984126984127,-4.841269841269841,-8.333333333333332,-166.26984126984127
-288.015873015873,325.0,-285.0,13.253968253968253,-290.07936507936506,325.0,-290.07936507936506,325.0,-300.23809523809524,-325.0,-303.57142857142856,14.682539682539682,-292.46031746031747,325.0,-290.55555555555554,325.0,-295.3174603174603,325.0,-11.507936507936508,-325.0,-6.26984126984127,-4.841269841269841,-8.333333333333332,-166.26984126984127
-226.1111111111111,325.0,-222.46031746031744,23.41269841269841,-229.28571428571428,325.0,-228.65079365079364,325.0,-237.38095238095238,-94.04761904761904,-242.93650793650792,28.96825396825397,-229.12698412698413,325.0,-229.28571428571428,325.0,-221.19047619047618,325.0,43.888888888888886,-322.46031746031747,73.4126984126984,0.3968253968253968,-0.23809523809523808,-166.26984126984127
-226.1111111111111,325.0,-222.46031746031744,23.41269841269841,-229.28571428571428,325.0,-228.65079365079364,325.0,-237.38095238095238,-94.04761904761904,-242.93650793650792,28.96825396825397,-229.12698412698413,325.0,-229.28571428571428,325.0,-221.19047619047618,325.0,43.888888888888886,-322.46031746031747,73.4126984126984,0.3968253968253968,-0.23809523809523808,-166.26984126984127
-211.34920634920633,325.0,-208.015873015873,23.730158730158728,-215.15873015873015,325.0,-214.36507936507937,325.0,-223.09523809523807,-271.66666666666663,-229.28571428571428,29.920634920634917,-216.1111111111111,325.0,-215.63492063492063,325.0,-206.9047619047619,325.0,51.03174603174603,-313.25396825396825,84.04761904761904,-5.7936507936507935,-10.079365079365079,-166.26984126984127
-211.34920634920633,325.0,-208.015873015873,23.730158730158728,-215.15873015873015,325.0,-214.36507936507937,325.0,-223.09523809523807,-271.66666666666663,-229.28571428571428,29.920634920634917,-216.1111111111111,325.0,-215.63492063492063,325.0,-206.9047619047619,325.0,51.03174603174603,-313.25396825396825,84.04761904761904,-5.7936507936507935,-10.079365079365079,-166.26984126984127
-170.55555555555554,325.0,-169.60317460317458,16.428571428571427,-176.74603174603175,325.0,-174.36507936507937,325.0,-183.7301587301587,-298.968253968254,-191.03174603174602,22.3015873015873,-176.42857142857142,325.0,-177.85714285714286,325.0,-167.2222222222222,325.0,44.68253968253968,-311.8253968253968,77.6984126984127,-5.0,-8.968253968253968,-166.26984126984127
-170.55555555555554,325.0,-169.60317460317458,16.428571428571427,-176.74603174603175,325.0,-174.36507936507937,325.0,-183.7301587301587,-298.968253968254,-191.03174603174602,22.3015873015873,-176.42857142857142,325.0,-177.85714285714286,325.0,-167.2222222222222,325.0,44.68253968253968,-311.8253968253968,77.6984126984127,-5.0,-8.968253968253968,-166.26984126984127
-181.984126984127,325.0,-178.17460317460316,8.809523809523808,-185.63492063492063,325.0,-184.04761904761904,325.0,-190.7142857142857,325.0,-198.33333333333331,15.0,-184.36507936507937,315.7936507936508,-184.84126984126982,325.0,-172.93650793650792,325.0,50.87301587301587,-286.1111111111111,91.82539682539682,3.4126984126984126,6.428571428571428,-166.26984126984127
-181.984126984127,325.0,-178.17460317460316,8.809523809523808,-185.63492063492063,325.0,-184.04761904761904,325.0,-190.7142857142857,325.0,-198.33333333333331,15.0,-184.36507936507937,315.7936507936508,-184.84126984126982,325.0,-172.93650793650792,325.0,50.87301587301587,-286.1111111111111,91.82539682539682,3.4126984126984126,6.428571428571428,-166.26984126984127
-3.253968253968254,-0.07936507936507936,1.8253968253968254,-1.984126984126984,3.253968253968254,204.68253968253967,2.46031746031746,192.3015873015873,-4.0476190476190474,276.90476190476187,-0.23809523809523808,1.8253968253968254,1.507936507936508,195.79365079365078,2.46031746031746,204.04761904761904,5.476190476190476,205.0,28.65079365079365,-179.44444444444443,43.41269841269841,-2.3015873015873014,-3.888888888888889,-321.8253968253968
-3.253968253968254,-0.07936507936507936,1.8253968253968254,-1.984126984126984,3.253968253968254,204.68253968253967,2.46031746031746,192.3015873015873,-4.0476190476190474,276.90476190476187,-0.23809523809523808,1.8253968253968254,1.507936507936508,195.79365079365078,2.46031746031746,204.04761904761904,5.476190476190476,205.0,28.65079365079365,-179.44444444444443,43.41269841269841,-2.3015873015873014,-3.888888888888889,-321.8253968253968
218.17460317460316,-325.0,221.03174603174602,-11.031746031746032,231.98412698412696,83.09523809523809,228.65079365079364,-35.79365079365079,223.57142857142856,149.9206349206349,237.2222222222222,-9.761904761904761,233.57142857142856,74.68253968253968,228.49206349206347,82.3015873015873,231.66666666666666,84.04761904761904,6.26984126984127,-71.82539682539682,-6.428571428571428,1.507936507936508,0.23809523809523808,-321.8253968253968
218.17460317460316,-325.0,221.03174603174602,-11.031746031746032,231.98412698412696,83.09523809523809,228.65079365079364,-35.79365079365079,223.57142857142856,149.9206349206349,237.2222222222222,-9.761904761904761,233.57142857142856,74.68253968253968,228.49206349206347,82.3015873015873,231.66666666666666,84.04761904761904,6.26984126984127,-71.82539682539682,-6.428571428571428,1.507936507936508,0.23809523809523808,-321.8253968253968
249.12698412698413,-325.0,255.15873015873015,-10.079365079365079,264.04761904761904,81.98412698412697,261.5079365079365,-149.76190476190476,253.88888888888889,77.22222222222221,269.6031746031746,-8.809523809523808,263.73015873015873,73.88888888888889,260.07936507936506,81.03174603174602,258.968253968254,82.93650793650794,7.5396825396825395,-70.87301587301587,-3.888888888888889,5.7936507936507935,8.65079365079365,-321.8253968253968
249.12698412698413,-325.0,255.15873015873015,-10.079365079365079,264.04761904761904,81.98412698412697,261.5079365079365,-149.76190476190476,253.88888888888889,77.22222222222221,269.6031746031746,-8.809523809523808,263.73015873015873,73.88888888888889,260.07936507936506,81.03174603174602,258.968253968254,82.93650793650794,7.5396825396825395,-70.87301587301587,-3.888888888888889,5.7936507936507935,8.65079365079365,-321.8253968253968
287.06349206349205,-325.0,290.07936507936506,-14.523809523809524,294.5238095238095,-121.5079365079365,293.25396825396825,-237.38095238095238,289.4444444444444,148.015873015873,297.22222222222223,-13.571428571428571,294.36507936507934,-125.63492063492063,292.46031746031747,-121.98412698412697,291.984126984127,-121.03174603174602,-2.46031746031746,-60.39682539682539,-164.52380952380952,3.4126984126984126,5.7936507936507935,-321.8253968253968
287.06349206349205,-325.0,290.07936507936506,-14.523809523809524,294.5238095238095,-121.5079365079365,293.25396825396825,-237.38095238095238,289.4444444444444,148.015873015873,297.22222222222223,-13.571428571428571,294.36507936507934,-125.63492063492063,292.46031746031747,-121.98412698412697,291.984126984127,-121.03174603174602,-2.46031746031746,-60.39682539682539,-164.52380952380952,3.4126984126984126,5.7936507936507935,-321.8253968253968
299.2857142857143,-323.4126984126984,297.53968253968253,-15.634920634920634,304.04761904761904,-325.0,303.0952380952381,-325.0,298.3333333333333,239.76190476190476,308.8095238095238,-14.84126984126984,303.88888888888886,-325.0,302.6190476190476,-325.0,325.0,-325.0,-9.285714285714285,-49.44444444444444,-325.0,-0.3968253968253968,-0.7142857142857142,-321.8253968253968
299.2857142857143,-323.4126984126984,297.53968253968253,-15.634920634920634,304.04761904761904,-325.0,303.0952380952381,-325.0,298.3333333333333,239.76190476190476,308.8095238095238,-14.84126984126984,303.88888888888886,-325.0,302.6190476190476,-325.0,325.0,-325.0,-9.285714285714285,-49.44444444444444,-325.0,-0.3968253968253968,-0.7142857142857142,-321.8253968253968
260.07936507936506,-318.015873015873,254.2063492063492,-6.746031746031746,267.85714285714283,-325.0,266.1111111111111,-325.0,256.74603174603175,253.25396825396825,276.74603174603175,-5.634920634920634,270.07936507936506,-325.0,265.0,-325.0,325.0,-325.0,-0.873015873015873,-48.49206349206349,-325.0,6.904761904761904,10.079365079365079,-166.26984126984127
260.07936507936506,-318.015873015873,254.2063492063492,-6.746031746031746,267.85714285714283,-325.0,266.1111111111111,-325.0,256.74603174603175,253.25396825396825,276.74603174603175,-5.634920634920634,270.07936507936506,-325.0,265.0,-325.0,325.0,-325.0,-0.873015873015873,-48.49206349206349,-325.0,6.904761904761904,10.079365079365079,-166.26984126984127
255.47619047619045,-314.2063492063492,249.60317460317458,-8.333333333333332,262.6190476190476,-325.0,261.5079365079365,-325.0,252.3015873015873,249.28571428571428,272.1428571428571,-7.3809523809523805,264.8412698412698,-325.0,260.7142857142857,-325.0,325.0,-325.0,-3.095238095238095,-47.857142857142854,-325.0,-0.23809523809523808,-0.23809523809523808,-166.26984126984127
255.47619047619045,-314.2063492063492,249.60317460317458,-8.333333333333332,262.6190476190476,-325.0,261.5079365079365,-325.0,252.3015873015873,249.28571428571428,272.1428571428571,-7.3809523809523805,264.8412698412698,-325.0,260.7142857142857,-325.0,325.0,-325.0,-3.095238095238095,-47.857142857142854,-325.0,-0.23809523809523808,-0.23809523809523808,-166.26984126984127
231.5079365079365,-302.77777777777777,224.36507936507934,-7.222222222222221,236.9047619047619,-325.0,235.95238095238093,-325.0,227.69841269841268,239.12698412698413,246.42857142857142,-6.111111111111111,238.49206349206347,-325.0,235.47619047619045,-325.0,325.0,-325.0,-2.9365079365079363,-45.95238095238095,-325.0,-6.904761904761904,-11.19047619047619,-166.26984126984127
231.5079365079365,-302.77777777777777,224.36507936507934,-7.222222222222221,236.9047619047619,-325.0,235.95238095238093,-325.0,227.69841269841268,239.12698412698413,246.42857142857142,-6.111111111111111,238.49206349206347,-325.0,235.47619047619045,-325.0,325.0,-325.0,-2.9365079365079363,-45.95238095238095,-325.0,-6.904761904761904,-11.19047619047619,-166.26984126984127
213.7301587301587,-293.88888888888886,205.15873015873015,-4.841269841269841,217.69841269841268,-325.0,217.06349206349205,-325.0,209.12698412698413,231.34920634920633,227.2222222222222,-3.888888888888889,219.60317460317458,-325.0,216.42857142857142,-325.0,325.0,-325.0,-1.507936507936508,-44.52380952380952,-325.0,-10.873015873015872,-18.49206349206349,-166.26984126984127
213.7301587301587,-293.88888888888886,205.15873015873015,-4.841269841269841,217.69841269841268,-325.0,217.06349206349205,-325.0,209.12698412698413,231.34920634920633,227.2222222222222,-3.888888888888889,219.60317460317458,-325.0,216.42857142857142,-325.0,325.0,-325.0,-1.507936507936508,-44.52380952380952,-325.0,-10.873015873015872,-18.49206349206349,-166.26984126984127
153.09523809523807,-248.65079365079364,140.3968253968254,-2.46031746031746,151.34920634920633,-325.0,152.61904761904762,-325.0,147.06349206349205,-65.63492063492063,162.46031746031744,-1.507936507936508,155.0,-325.0,154.36507936507937,-325.0,325.0,-325.0,-4.0476190476190474,-37.698412698412696,-325.0,-11.349206349206348,-16.587301587301585,-166.26984126984127
153.09523809523807,-248.65079365079364,140.3968253968254,-2.46031746031746,151.34920634920633,-325.0,152.61904761904762,-325.0,147.06349206349205,-65.63492063492063,162.46031746031744,-1.507936507936508,155.0,-325.0,154.36507936507937,-325.0,325.0,-325.0,-4.0476190476190474,-37.698412698412696,-325.0,-11.349206349206348,-16.587301587301585,-166.26984126984127
107.06349206349206,-229.76190476190476,94.04761904761904,0.07936507936507936,103.57142857142857,-325.0,104.84126984126983,-325.0,100.07936507936508,75.95238095238095,113.25396825396825,1.0317460317460316,105.63492063492063,-325.0,105.47619047619047,-325.0,302.6190476190476,-325.0,-1.8253968253968254,143.57142857142856,-318.968253968254,-11.031746031746032,-16.11111111111111,-321.8253968253968
107.06349206349206,-229.76190476190476,94.04761904761904,0.07936507936507936,103.57142857142857,-325.0,104.84126984126983,-325.0,100.07936507936508,75.95238095238095,113.25396825396825,1.0317460317460316,105.63492063492063,-325.0,105.47619047619047,-325.0,302.6190476190476,-325.0,-1.8253968253968254,143.57142857142856,-318.968253968254,-11.031746031746032,-16.11111111111111,-321.8253968253968
-214.2063492063492,-125.31746031746032,-208.8095238095238,22.619047619047617,-214.52380952380952,-252.46031746031744,-212.3015873015873,-239.12698412698413,-208.33333333333331,118.65079365079364,-209.28571428571428,18.174603174603174,-212.46031746031744,-238.8095238095238,-210.2380952380952,-249.76190476190476,163.4126984126984,-277.53968253968253,11.507936507936508,325.0,-180.55555555555554,6.746031746031746,11.507936507936508,-321.8253968253968
-214.2063492063492,-125.31746031746032,-208.8095238095238,22.619047619047617,-214.52380952380952,-252.46031746031744,-212.3015873015873,-239.12698412698413,-208.33333333333331,118.65079365079364,-209.28571428571428,18.174603174603174,-212.46031746031744,-238.8095238095238,-210.2380952380952,-249.76190476190476,163.4126984126984,-277.53968253968253,11.507936507936508,325.0,-180.55555555555554,6.746031746031746,11.507936507936508,-321.8253968253968
-214.2063492063492,-125.31746031746032,-208.8095238095238,22.619047619047617,-214.52380952380952,-252.46031746031744,-212.3015873015873,-239.12698412698413,-208.33333333333331,118.65079365079364,-209.28571428571428,18.174603174603174,-212.46031746031744,-238.8095238095238,-210.2380952380952,-249.76190476190476,163.4126984126984,-277.53968253968253,11.507936507936508,325.0,-180.55555555555554,6.746031746031746,11.507936507936508,-321.8253968253968
-214.2063492063492,-125.31746031746032,-208.8095238095238,22.619047619047617,-214.52380952380952,-252.46031746031744,-212.3015873015873,-239.12698412698413,-208.33333333333331,118.65079365079364,-209.28571428571428,18.174603174603174,-212.46031746031744,-238.8095238095238,-210.2380952380952,-249.76190476190476,163.4126984126984,-277.53968253968253,11.507936507936508,325.0,-180.55555555555554,6.746031746031746,11.507936507936508,-321.8253968253968
-214.2063492063492,-125.31746031746032,-208.8095238095238,22.619047619047617,-214.52380952380952,-252.46031746031744,-212.3015873015873,-239.12698412698413,-208.33333333333331,118.65079365079364,-209.28571428571428,18.174603174603174,-212.46031746031744,-238.8095238095238,-210.2380952380952,-249.76190476190476,163.4126984126984,-277.53968253968253,11.507936507936508,325.0,-180.55555555555554,6.746031746031746,11.507936507936508,-321.8253968253968
-214.2063492063492,-125.31746031746032,-208.8095238095238,22.619047619047617,-214.52380952380952,-252.46031746031744,-212.3015873015873,-239.12698412698413,-208.33333333333331,118.65079365079364,-209.28571428571428,18.174603174603174,-212.46031746031744,-238.8095238095238,-210.2380952380952,-249.76190476190476,163.4126984126984,-277.53968253968253,11.507936507936508,325.0,-180.55555555555554,6.746031746031746,11.507936507936508,-321.8253968253968
-214.2063492063492,-125.31746031746032,-208.8095238095238,22.619047619047617,-214.52380952380952,-252.46031746031744,-212.3015873015873,-239.12698412698413,-208.33333333333331,118.65079365079364,-209.28571428571428,18.174603174603174,-212.46031746031744,-238.8095238095238,-210.2380952380952,-249.76190476190476,163.4126984126984,-277.53968253968253,11.507936507936508,325.0,-180.55555555555554,6.746031746031746,11.507936507936508,-321.8253968253968
-214.2063492063492,-125.31746031746032,-208.8095238095238,22.619047619047617,-214.52380952380952,-252.46031746031744,-212.3015873015873,-239.12698412698413,-208.33333333333331,118.65079365079364,-209.28571428571428,18.174603174603174,-212.46031746031744,-238.8095238095238,-210.2380952380952,-249.76190476190476,163.4126984126984,-277.53968253968253,11.507936507936508,325.0,-180.55555555555554,6.746031746031746,11.507936507936508,-321.8253968253968
-214.2063492063492,-125.31746031746032,-208.8095238095238,22.619047619047617,-214.52380952380952,-252.46031746031744,-212.3015873015873,-239.12698412698413,-208.33333333333331,118.65079365079364,-209.28571428571428,18.174603174603174,-212.46031746031744,-238.8095238095238,-210.2380952380952,-249.76190476190476,163.4126984126984,-277.53968253968253,11.507936507936508,325.0,-180.55555555555554,6.746031746031746,11.507936507936508,-166.26984126984127
-214.2063492063492,-125.31746031746032,-208.8095238095238,22.619047619047617,-214.52380952380952,-252.46031746031744,-212.3015873015873,-239.12698412698413,-208.33333333333331,118.65079365079364,-209.28571428571428,18.174603174603174,-212.46031746031744,-238.8095238095238,-210.2380952380952,-249.76190476190476,163.4126984126984,-277.53968253968253,11.507936507936508,325.0,-180.55555555555554,6.746031746031746,11.507936507936508,-166.26984126984127
-214.2063492063492,-125.31746031746032,-208.8095238095238,22.619047619047617,-214.52380952380952,-252.46031746031744,-212.3015873015873,-239.12698412698413,-208.33333333333331,118.65079365079364,-209.28571428571428,18.174603174603174,-212.46031746031744,-238.8095238095238,-210.2380952380952,-249.76190476190476,163.4126984126984,-277.53968253968253,11.507936507936508,325.0,-180.55555555555554,6.746031746031746,11.507936507936508,-166.26984126984127
-214.2063492063492,-125.31746031746032,-208.8095238095238,22.619047619047617,-214.52380952380952,-252.46031746031744,-212.3015873015873,-239.12698412698413,-208.33333333333331,118.65079365079364,-209.28571428571428,18.174603174603174,-212.46031746031744,-238.8095238095238,-210.2380952380952,-249.76190476190476,163.4126984126984,-277.53968253968253,11.507936507936508,325.0,-180.55555555555554,6.746031746031746,11.507936507936508,-166.26984126984127
-201.34920634920633,-94.52380952380952,-197.2222222222222,15.95238095238095,-202.14285714285714,-191.19047619047618,-201.98412698412696,-181.8253968253968,41.82539682539682,-103.25396825396825,-200.3968253968254,12.619047619047619,-202.14285714285714,-178.8095238095238,-200.23809523809524,-188.65079365079364,121.66666666666666,-211.34920634920633,6.111111111111111,286.90476190476187,-134.36507936507937,-2.3015873015873014,-2.9365079365079363,-166.26984126984127
-201.34920634920633,-94.52380952380952,-197.2222222222222,15.95238095238095,-202.14285714285714,-191.19047619047618,-201.98412698412696,-181.8253968253968,41.82539682539682,-103.25396825396825,-200.3968253968254,12.619047619047619,-202.14285714285714,-178.8095238095238,-200.23809523809524,-188.65079365079364,121.66666666666666,-211.34920634920633,6.111111111111111,286.90476190476187,-134.36507936507937,-2.3015873015873014,-2.9365079365079363,-166.26984126984127
-174.84126984126982,-63.25396825396825,-173.09523809523807,12.142857142857142,-177.2222222222222,-128.33333333333331,-179.9206349206349,-123.57142857142857,289.9206349206349,-325.0,-180.23809523809524,10.555555555555555,-179.12698412698413,-117.53968253968253,-180.55555555555554,-126.26984126984127,79.28571428571428,-143.73015873015873,4.2063492063492065,246.58730158730157,-86.9047619047619,-1.0317460317460316,-0.7142857142857142,-166.26984126984127
-174.84126984126982,-63.25396825396825,-173.09523809523807,12.142857142857142,-177.2222222222222,-128.33333333333331,-179.9206349206349,-123.57142857142857,289.9206349206349,-325.0,-180.23809523809524,10.555555555555555,-179.12698412698413,-117.53968253968253,-180.55555555555554,-126.26984126984127,79.28571428571428,-143.73015873015873,4.2063492063492065,246.58730158730157,-86.9047619047619,-1.0317460317460316,-0.7142857142857142,-166.26984126984127
-189.60317460317458,-62.14285714285714,-186.9047619047619,12.3015873015873,-191.8253968253968,-125.95238095238095,-192.77777777777777,-121.03174603174602,283.57142857142856,-325.0,-194.04761904761904,10.079365079365079,-194.52380952380952,-115.0,-192.77777777777777,-123.73015873015872,77.6984126984127,-141.03174603174602,4.2063492063492065,241.8253968253968,-85.15873015873015,-6.428571428571428,-9.444444444444445,-166.26984126984127
-189.60317460317458,-62.14285714285714,-186.9047619047619,12.3015873015873,-191.8253968253968,-125.95238095238095,-192.77777777777777,-121.03174603174602,283.57142857142856,-325.0,-194.04761904761904,10.079365079365079,-194.52380952380952,-115.0,-192.77777777777777,-123.73015873015872,77.6984126984127,-141.03174603174602,4.2063492063492065,241.8253968253968,-85.15873015873015,-6.428571428571428,-9.444444444444445,-166.26984126984127
-165.47619047619045,-61.34920634920635,-164.52380952380952,6.746031746031746,-168.17460317460316,-124.2063492063492,-170.55555555555554,-119.28571428571428,280.07936507936506,-325.0,-170.23809523809524,5.158730158730158,-168.65079365079364,-113.57142857142857,-170.07936507936506,-122.14285714285714,76.26984126984127,-139.28571428571428,-1.507936507936508,238.49206349206347,-83.88888888888889,0.7142857142857142,0.07936507936507936,-321.8253968253968
-165.47619047619045,-61.34920634920635,-164.52380952380952,6.746031746031746,-168.17460317460316,-124.2063492063492,-170.55555555555554,-119.28571428571428,280.07936507936506,-325.0,-170.23809523809524,5.158730158730158,-168.65079365079364,-113.57142857142857,-170.07936507936506,-122.14285714285714,76.26984126984127,-139.28571428571428,-1.507936507936508,238.49206349206347,-83.88888888888889,0.7142857142857142,0.07936507936507936,-321.8253968253968
-165.47619047619045,-61.34920634920635,-164.52380952380952,6.746031746031746,-168.17460317460316,-124.2063492063492,-170.55555555555554,-119.28571428571428,280.07936507936506,-325.0,-170.23809523809524,5.158730158730158,-168.65079365079364,-113.57142857142857,-170.07936507936506,-122.14285714285714,76.26984126984127,-139.28571428571428,-1.507936507936508,238.49206349206347,-83.88888888888889,0.7142857142857142,0.07936507936507936,-321.8253968253968
-165.47619047619045,-61.34920634920635,-164.52380952380952,6.746031746031746,-168.17460317460316,-124.2063492063492,-170.55555555555554,-119.28571428571428,280.07936507936506,-325.0,-170.23809523809524,5.158730158730158,-168.65079365079364,-113.57142857142857,-170.07936507936506,-122.14285714285714,76.26984126984127,-139.28571428571428,-1.507936507936508,238.49206349206347,-83.88888888888889,0.7142857142857142,0.07936507936507936,-321.8253968253968
-194.36507936507937,-58.96825396825397,-193.4126984126984,2.619047619047619,-197.38095238095238,-119.92063492063491,-199.76190476190476,-115.31746031746032,269.6031746031746,289.9206349206349,-200.87301587301587,1.1904761904761905,-198.8095238095238,-109.28571428571428,-200.3968253968254,-117.85714285714285,73.73015873015872,-134.52380952380952,-5.0,229.76190476190476,-80.87301587301587,6.587301587301587,8.968253968253968,-321.8253968253968
-194.36507936507937,-58.96825396825397,-193.4126984126984,2.619047619047619,-197.38095238095238,-119.92063492063491,-199.76190476190476,-115.31746031746032,269.6031746031746,289.9206349206349,-200.87301587301587,1.1904761904761905,-198.8095238095238,-109.28571428571428,-200.3968253968254,-117.85714285714285,73.73015873015872,-134.52380952380952,-5.0,229.76190476190476,-80.87301587301587,6.587301587301587,8.968253968253968,-321.8253968253968
-237.2222222222222,-58.33333333333333,-233.88888888888889,11.984126984126984,-238.65079365079364,-118.49206349206348,-242.77777777777777,-113.88888888888889,266.1111111111111,295.0,-243.25396825396825,10.555555555555555,-243.25396825396825,-108.17460317460316,-242.6190476190476,-116.42857142857142,72.77777777777777,-132.93650793650792,4.682539682539682,226.9047619047619,-79.92063492063491,-0.23809523809523808,-0.5555555555555556,-321.8253968253968
-237.2222222222222,-58.33333333333333,-233.88888888888889,11.984126984126984,-238.65079365079364,-118.49206349206348,-242.77777777777777,-113.88888888888889,266.1111111111111,295.0,-243.25396825396825,10.555555555555555,-243.25396825396825,-108.17460317460316,-242.6190476190476,-116.42857142857142,72.77777777777777,-132.93650793650792,4.682539682539682,226.9047619047619,-79.92063492063491,-0.23809523809523808,-0.5555555555555556,-321.8253968253968
-255.3174603174603,-57.53968253968254,-253.88888888888889,16.428571428571427,-257.85714285714283,-115.95238095238095,-261.3492063492063,-111.66666666666666,260.7142857142857,325.0,-262.6190476190476,15.158730158730158,-261.031746031746,-105.79365079365078,-261.3492063492063,-114.04761904761904,71.03174603174602,-130.23809523809524,9.126984126984127,222.14285714285714,-78.01587301587301,6.746031746031746,9.126984126984127,-321.8253968253968
-255.3174603174603,-57.53968253968254,-253.88888888888889,16.428571428571427,-257.85714285714283,-115.95238095238095,-261.3492063492063,-111.66666666666666,260.7142857142857,325.0,-262.6190476190476,15.158730158730158,-261.031746031746,-105.79365079365078,-261.3492063492063,-114.04761904761904,71.03174603174602,-130.23809523809524,9.126984126984127,222.14285714285714,-78.01587301587301,6.746031746031746,9.126984126984127,-321.8253968253968
-248.65079365079364,-56.74603174603174,-246.74603174603172,14.365079365079364,-251.66666666666666,-114.52380952380952,-254.04761904761904,-110.39682539682539,257.38095238095235,325.0,-255.63492063492063,12.936507936507935,-254.68253968253967,-104.36507936507935,-254.04761904761904,-112.77777777777777,69.92063492063491,-128.8095238095238,7.3809523809523805,219.28571428571428,-76.9047619047619,-0.3968253968253968,-0.7142857142857142,-166.26984126984127
-248.65079365079364,-56.74603174603174,-246.74603174603172,14.365079365079364,-251.66666666666666,-114.52380952380952,-254.04761904761904,-110.39682539682539,257.38095238095235,325.0,-255.63492063492063,12.936507936507935,-254.68253968253967,-104.36507936507935,-254.04761904761904,-112.77777777777777,69.92063492063491,-128.8095238095238,7.3809523809523805,219.28571428571428,-76.9047619047619,-0.3968253968253968,-0.7142857142857142,-166.26984126984127
-158.015873015873,-54.68253968253968,-158.33333333333331,10.555555555555555,-163.25396825396825,-110.87301587301587,-160.07936507936506,-106.74603174603175,248.8095238095238,84.2063492063492,-164.84126984126982,7.857142857142857,-163.4126984126984,-100.55555555555554,-161.5079365079365,-108.80952380952381,67.6984126984127,-124.68253968253967,2.619047619047619,212.3015873015873,-74.2063492063492,-0.7142857142857142,-1.507936507936508,-166.26984126984127
-158.015873015873,-54.68253968253968,-158.33333333333331,10.555555555555555,-163.25396825396825,-110.87301587301587,-160.07936507936506,-106.74603174603175,248.8095238095238,84.2063492063492,-164.84126984126982,7.857142857142857,-163.4126984126984,-100.55555555555554,-161.5079365079365,-108.80952380952381,67.6984126984127,-124.68253968253967,2.619047619047619,212.3015873015873,-74.2063492063492,-0.7142857142857142,-1.507936507936508,-166.26984126984127
-134.36507936507937,-53.73015873015873,-133.88888888888889,6.26984126984127,-138.015873015873,-109.12698412698413,-140.7142857142857,-105.0,244.68253968253967,-62.3015873015873,-141.66666666666666,5.7936507936507935,-138.8095238095238,-99.28571428571428,-142.14285714285714,-107.06349206349206,66.42857142857143,-122.6190476190476,-0.5555555555555556,208.65079365079364,-73.09523809523809,0.873015873015873,1.507936507936508,-166.26984126984127
-134.36507936507937,-53.73015873015873,-133.88888888888889,6.26984126984127,-138.015873015873,-109.12698412698413,-140.7142857142857,-105.0,244.68253968253967,-62.3015873015873,-141.66666666666666,5.7936507936507935,-138.8095238095238,-99.28571428571428,-142.14285714285714,-107.06349206349206,66.42857142857143,-122.6190476190476,-0.5555555555555556,208.65079365079364,-73.09523809523809,0.873015873015873,1.507936507936508,-166.26984126984127
-186.11111111111111,-53.095238095238095,-181.8253968253968,15.793650793650793,-186.26984126984127,-107.22222222222221,-190.23809523809524,-103.25396825396825,240.2380952380952,-249.76190476190476,-190.87301587301587,14.206349206349206,-192.77777777777777,-97.38095238095238,-189.60317460317458,-105.31746031746032,65.31746031746032,-120.55555555555554,9.444444444444445,205.15873015873015,-71.66666666666666,-2.619047619047619,-3.73015873015873,-166.26984126984127
-186.11111111111111,-53.095238095238095,-181.8253968253968,15.793650793650793,-186.26984126984127,-107.22222222222221,-190.23809523809524,-103.25396825396825,240.2380952380952,-249.76190476190476,-190.87301587301587,14.206349206349206,-192.77777777777777,-97.38095238095238,-189.60317460317458,-105.31746031746032,65.31746031746032,-120.55555555555554,9.444444444444445,205.15873015873015,-71.66666666666666,-2.619047619047619,-3.73015873015873,-166.26984126984127
-113.88888888888889,-51.98412698412698,-112.77777777777777,7.698412698412698,-116.26984126984127,-105.0,-119.28571428571428,-101.34920634920634,235.47619047619045,-261.5079365079365,-120.71428571428571,6.904761904761904,-118.65079365079364,-95.15873015873015,-120.39682539682539,-103.25396825396825,63.888888888888886,-118.33333333333333,1.507936507936508,200.7142857142857,-70.07936507936508,5.7936507936507935,10.079365079365079,-166.26984126984127
-113.88888888888889,-51.98412698412698,-112.77777777777777,7.698412698412698,-116.26984126984127,-105.0,-119.28571428571428,-101.34920634920634,235.47619047619045,-261.5079365079365,-120.71428571428571,6.904761904761904,-118.65079365079364,-95.15873015873015,-120.39682539682539,-103.25396825396825,63.888888888888886,-118.33333333333333,1.507936507936508,200.7142857142857,-70.07936507936508,5.7936507936507935,10.079365079365079,-166.26984126984127
-143.4126984126984,-51.03174603174603,-141.5079365079365,9.920634920634921,-144.84126984126982,-103.4126984126984,-148.015873015873,-99.6031746031746,231.5079365079365,100.07936507936508,-149.44444444444443,8.809523809523808,-150.55555555555554,-93.73015873015872,-148.4920634920635,-101.5079365079365,62.61904761904761,-116.42857142857142,3.4126984126984126,197.38095238095238,-68.96825396825396,-7.3809523809523805,-10.238095238095237,-321.8253968253968
-143.4126984126984,-51.03174603174603,-141.5079365079365,9.920634920634921,-144.84126984126982,-103.4126984126984,-148.015873015873,-99.6031746031746,231.5079365079365,100.07936507936508,-149.44444444444443,8.809523809523808,-150.55555555555554,-93.73015873015872,-148.4920634920635,-101.5079365079365,62.61904761904761,-116.42857142857142,3.4126984126984126,197.38095238095238,-68.96825396825396,-7.3809523809523805,-10.238095238095237,-321.8253968253968
-94.68253968253968,-50.39682539682539,-96.9047619047619,3.253968253968254,-99.12698412698413,-101.82539682539682,-101.5079365079365,-98.33333333333333,228.49206349206347,-105.63492063492063,-104.68253968253968,2.619047619047619,-102.30158730158729,-92.30158730158729,-105.0,-100.23809523809523,61.82539682539682,-114.84126984126983,-2.9365079365079363,194.84126984126982,-67.85714285714285,2.3015873015873014,4.365079365079365,-321.8253968253968
-94.68253968253968,-50.39682539682539,-96.9047619047619,3.253968253968254,-99.12698412698413,-101.82539682539682,-101.5079365079365,-98.33333333333333,228.49206349206347,-105.63492063492063,-104.68253968253968,2.619047619047619,-102.30158730158729,-92.30158730158729,-105.0,-100.23809523809523,61.82539682539682,-114.84126984126983,-2.9365079365079363,194.84126984126982,-67.85714285714285,2.3015873015873014,4.365079365079365,-321.8253968253968
-107.06349206349206,-49.76190476190476,-107.6984126984127,7.857142857142857,-110.23809523809523,-100.55555555555554,-113.09523809523809,-97.22222222222221,225.47619047619045,-215.3174603174603,-115.63492063492063,7.222222222222221,-115.0,-91.19047619047619,-115.63492063492063,-98.96825396825396,61.03174603174603,-113.57142857142857,1.8253968253968254,192.46031746031744,-67.06349206349206,-4.523809523809524,-6.26984126984127,-321.8253968253968
-107.06349206349206,-49.76190476190476,-107.6984126984127,7.857142857142857,-110.23809523809523,-100.55555555555554,-113.09523809523809,-97.22222222222221,225.47619047619045,-215.3174603174603,-115.63492063492063,7.222222222222221,-115.0,-91.19047619047619,-115.63492063492063,-98.96825396825396,61.03174603174603,-113.57142857142857,1.8253968253968254,192.46031746031744,-67.06349206349206,-4.523809523809524,-6.26984126984127,-321.8253968253968
-110.07936507936508,-48.650793650793645,-111.03174603174602,7.3809523809523805,-112.93650793650794,-98.80952380952381,-116.74603174603173,-94.84126984126983,220.87301587301587,-325.0,-118.01587301587301,7.063492063492063,-116.74603174603173,-89.44444444444444,-118.01587301587301,-97.06349206349206,59.76190476190476,-111.19047619047619,0.873015873015873,188.4920634920635,-65.63492063492063,3.253968253968254,5.317460317460317,-321.8253968253968
-110.07936507936508,-48.650793650793645,-111.03174603174602,7.3809523809523805,-112.93650793650794,-98.80952380952381,-116.74603174603173,-94.84126984126983,220.87301587301587,-325.0,-118.01587301587301,7.063492063492063,-116.74603174603173,-89.44444444444444,-118.01587301587301,-97.06349206349206,59.76190476190476,-111.19047619047619,0.873015873015873,188.4920634920635,-65.63492063492063,3.253968253968254,5.317460317460317,-321.8253968253968
-138.17460317460316,-47.857142857142854,-137.22222222222223,9.126984126984127,-140.55555555555554,-96.74603174603175,-143.25396825396825,-93.25396825396825,216.1111111111111,-325.0,-145.47619047619048,8.333333333333332,-145.63492063492063,-87.53968253968253,-144.2063492063492,-95.0,58.650793650793645,-109.12698412698413,3.095238095238095,184.52380952380952,-64.36507936507937,-6.587301587301587,-10.555555555555555,-321.8253968253968
-138.17460317460316,-47.857142857142854,-137.22222222222223,9.126984126984127,-140.55555555555554,-96.74603174603175,-143.25396825396825,-93.25396825396825,216.1111111111111,-325.0,-145.47619047619048,8.333333333333332,-145.63492063492063,-87.53968253968253,-144.2063492063492,-95.0,58.650793650793645,-109.12698412698413,3.095238095238095,184.52380952380952,-64.36507936507937,-6.587301587301587,-10.555555555555555,-321.8253968253968
-127.06349206349206,-47.22222222222222,-128.33333333333331,15.317460317460316,-129.9206349206349,-95.47619047619047,-134.04761904761904,-92.30158730158729,213.57142857142856,-325.0,-134.84126984126982,15.158730158730158,-132.61904761904762,-86.26984126984127,-134.52380952380952,-93.57142857142857,57.857142857142854,-107.85714285714285,9.444444444444445,182.46031746031744,-63.25396825396825,4.0476190476190474,5.317460317460317,-166.26984126984127
-127.06349206349206,-47.22222222222222,-128.33333333333331,15.317460317460316,-129.9206349206349,-95.47619047619047,-134.04761904761904,-92.30158730158729,213.57142857142856,-325.0,-134.84126984126982,15.158730158730158,-132.61904761904762,-86.26984126984127,-134.52380952380952,-93.57142857142857,57.857142857142854,-107.85714285714285,9.444444444444445,182.46031746031744,-63.25396825396825,4.0476190476190474,5.317460317460317,-166.26984126984127
-126.1111111111111,-46.11111111111111,-125.95238095238095,13.095238095238095,-128.4920634920635,-93.25396825396825,-131.984126984127,-90.23809523809523,208.17460317460316,-325.0,-133.73015873015873,12.619047619047619,-133.0952380952381,-84.2063492063492,-132.77777777777777,-91.34920634920634,56.269841269841265,-105.47619047619047,7.3809523809523805,177.85714285714286,-61.666666666666664,-0.3968253968253968,-0.873015873015873,-166.26984126984127
-126.1111111111111,-46.11111111111111,-125.95238095238095,13.095238095238095,-128.4920634920635,-93.25396825396825,-131.984126984127,-90.23809523809523,208.17460317460316,-325.0,-133.73015873015873,12.619047619047619,-133.0952380952381,-84.2063492063492,-132.77777777777777,-91.34920634920634,56.269841269841265,-105.47619047619047,7.3809523809523805,177.85714285714286,-61.666666666666664,-0.3968253968253968,-0.873015873015873,-166.26984126984127
-94.52380952380952,-44.52380952380952,-95.79365079365078,7.857142857142857,-97.38095238095238,-89.92063492063491,-100.07936507936508,-87.22222222222221,201.19047619047618,-325.0,-102.77777777777777,8.015873015873016,-102.77777777777777,-81.19047619047619,-101.66666666666666,-88.4920634920635,54.2063492063492,-101.82539682539682,3.253968253968254,171.5079365079365,-59.44444444444444,-10.714285714285714,-16.11111111111111,-166.26984126984127
-94.52380952380952,-44.52380952380952,-95.79365079365078,7.857142857142857,-97.38095238095238,-89.92063492063491,-100.07936507936508,-87.22222222222221,201.19047619047618,-325.0,-102.77777777777777,8.015873015873016,-102.77777777777777,-81.19047619047619,-101.66666666666666,-88.4920634920635,54.2063492063492,-101.82539682539682,3.253968253968254,171.5079365079365,-59.44444444444444,-10.714285714285714,-16.11111111111111,-166.26984126984127
-122.14285714285714,-44.047619047619044,-121.19047619047619,11.825396825396824,-123.88888888888889,-88.96825396825396,-127.85714285714285,-86.26984126984127,198.65079365079364,-37.22222222222222,-130.23809523809524,11.349206349206348,-131.34920634920636,-80.23809523809523,-129.28571428571428,-87.53968253968253,53.41269841269841,-100.71428571428571,7.063492063492063,169.28571428571428,-58.8095238095238,-8.174603174603174,-12.142857142857142,-166.26984126984127
-122.14285714285714,-44.047619047619044,-121.19047619047619,11.825396825396824,-123.88888888888889,-88.96825396825396,-127.85714285714285,-86.26984126984127,198.65079365079364,-37.22222222222222,-130.23809523809524,11.349206349206348,-131.34920634920636,-80.23809523809523,-129.28571428571428,-87.53968253968253,53.41269841269841,-100.71428571428571,7.063492063492063,169.28571428571428,-58.8095238095238,-8.174603174603174,-12.142857142857142,-166.26984126984127
-66.26984126984127,-42.93650793650794,-68.65079365079364,-4.0476190476190474,-69.28571428571428,-86.74603174603175,-71.82539682539682,-83.88888888888889,193.57142857142856,75.15873015873015,-73.73015873015872,-3.888888888888889,-71.03174603174602,-78.17460317460316,-72.61904761904762,-85.31746031746032,52.14285714285714,-98.17460317460316,-9.285714285714285,165.3174603174603,-57.22222222222222,-2.142857142857143,-4.0476190476190474,-166.26984126984127
-66.26984126984127,-42.93650793650794,-68.65079365079364,-4.0476190476190474,-69.28571428571428,-86.74603174603175,-71.82539682539682,-83.88888888888889,193.57142857142856,75.15873015873015,-73.73015873015872,-3.888888888888889,-71.03174603174602,-78.17460317460316,-72.61904761904762,-85.31746031746032,52.14285714285714,-98.17460317460316,-9.285714285714285,165.3174603174603,-57.22222222222222,-2.142857142857143,-4.0476190476190474,-166.26984126984127
-96.42857142857142,-42.3015873015873,-94.36507936507935,3.253968253968254,-97.38095238095238,-85.47619047619047,-101.5079365079365,-82.77777777777777,190.07936507936506,-307.06349206349205,-103.88888888888889,2.619047619047619,-103.88888888888889,-76.9047619047619,-103.4126984126984,-83.73015873015872,51.34920634920635,-96.74603174603175,-1.507936507936508,162.77777777777777,-56.42857142857142,1.507936507936508,4.523809523809524,-321.8253968253968
-96.42857142857142,-42.3015873015873,-94.36507936507935,3.253968253968254,-97.38095238095238,-85.47619047619047,-101.5079365079365,-82.77777777777777,190.07936507936506,-307.06349206349205,-103.88888888888889,2.619047619047619,-103.88888888888889,-76.9047619047619,-103.4126984126984,-83.73015873015872,51.34920634920635,-96.74603174603175,-1.507936507936508,162.77777777777777,-56.42857142857142,1.507936507936508,4.523809523809524,-321.8253968253968
-68.4920634920635,-41.666666666666664,-69.6031746031746,1.984126984126984,-71.34920634920634,-84.36507936507937,-74.2063492063492,-81.5079365079365,187.69841269841268,-186.42857142857142,-77.38095238095238,1.8253968253968254,-76.42857142857143,-75.95238095238095,-76.74603174603175,-82.61904761904762,50.55555555555555,-95.63492063492063,-2.7777777777777777,160.7142857142857,-55.476190476190474,0.07936507936507936,0.873015873015873,-321.8253968253968
-68.4920634920635,-41.666666666666664,-69.6031746031746,1.984126984126984,-71.34920634920634,-84.36507936507937,-74.2063492063492,-81.5079365079365,187.69841269841268,-186.42857142857142,-77.38095238095238,1.8253968253968254,-76.42857142857143,-75.95238095238095,-76.74603174603175,-82.61904761904762,50.55555555555555,-95.63492063492063,-2.7777777777777777,160.7142857142857,-55.476190476190474,0.07936507936507936,0.873015873015873,-321.8253968253968
-111.82539682539682,-41.03174603174603,-109.44444444444444,8.015873015873016,-112.30158730158729,-82.77777777777777,-117.06349206349206,-80.39682539682539,183.88888888888889,-48.49206349206349,-118.33333333333333,7.698412698412698,-118.33333333333333,-74.52380952380952,-117.53968253968253,-81.34920634920634,49.44444444444444,-93.88888888888889,2.7777777777777777,157.06349206349205,-54.52380952380952,1.6666666666666665,3.253968253968254,-321.8253968253968
-111.82539682539682,-41.03174603174603,-109.44444444444444,8.015873015873016,-112.30158730158729,-82.77777777777777,-117.06349206349206,-80.39682539682539,183.88888888888889,-48.49206349206349,-118.33333333333333,7.698412698412698,-118.33333333333333,-74.52380952380952,-117.53968253968253,-81.34920634920634,49.44444444444444,-93.88888888888889,2.7777777777777777,157.06349206349205,-54.52380952380952,1.6666666666666665,3.253968253968254,-321.8253968253968
-81.34920634920634,-40.39682539682539,-83.88888888888889,2.46031746031746,-84.84126984126983,-81.19047619047619,-89.12698412698413,-78.80952380952381,180.7142857142857,-255.0,-91.34920634920634,3.571428571428571,-89.92063492063491,-72.93650793650794,-91.34920634920634,-79.76190476190476,48.49206349206349,-92.14285714285714,-1.349206349206349,154.36507936507937,-53.25396825396825,-2.3015873015873014,-3.888888888888889,-321.8253968253968
-81.34920634920634,-40.39682539682539,-83.88888888888889,2.46031746031746,-84.84126984126983,-81.19047619047619,-89.12698412698413,-78.80952380952381,180.7142857142857,-255.0,-91.34920634920634,3.571428571428571,-89.92063492063491,-72.93650793650794,-91.34920634920634,-79.76190476190476,48.49206349206349,-92.14285714285714,-1.349206349206349,154.36507936507937,-53.25396825396825,-2.3015873015873014,-3.888888888888889,-321.8253968253968
-101.82539682539682,-39.76190476190476,-100.39682539682539,3.4126984126984126,-103.09523809523809,-80.07936507936508,-107.6984126984127,-77.6984126984127,177.69841269841268,120.39682539682539,-109.12698412698413,3.095238095238095,-108.49206349206348,-71.82539682539682,-108.17460317460316,-78.4920634920635,47.53968253968254,-90.87301587301587,-1.0317460317460316,151.8253968253968,-52.460317460317455,0.873015873015873,2.3015873015873014,-321.8253968253968
-101.82539682539682,-39.76190476190476,-100.39682539682539,3.4126984126984126,-103.09523809523809,-80.07936507936508,-107.6984126984127,-77.6984126984127,177.69841269841268,120.39682539682539,-109.12698412698413,3.095238095238095,-108.49206349206348,-71.82539682539682,-108.17460317460316,-78.4920634920635,47.53968253968254,-90.87301587301587,-1.0317460317460316,151.8253968253968,-52.460317460317455,0.873015873015873,2.3015873015873014,-321.8253968253968
-113.57142857142857,-38.96825396825397,-116.74603174603173,4.523809523809524,-117.06349206349206,-78.80952380952381,-120.07936507936508,-76.42857142857143,174.84126984126982,305.0,-122.6190476190476,5.158730158730158,-121.19047619047619,-70.55555555555556,-121.03174603174602,-77.22222222222221,46.904761904761905,-89.44444444444444,0.3968253968253968,149.44444444444443,-51.507936507936506,-0.23809523809523808,-2.46031746031746,-166.26984126984127
-113.57142857142857,-38.96825396825397,-116.74603174603173,4.523809523809524,-117.06349206349206,-78.80952380952381,-120.07936507936508,-76.42857142857143,174.84126984126982,305.0,-122.6190476190476,5.158730158730158,-121.19047619047619,-70.55555555555556,-121.03174603174602,-77.22222222222221,46.904761904761905,-89.44444444444444,0.3968253968253968,149.44444444444443,-51.507936507936506,-0.23809523809523808,-2.46031746031746,-166.26984126984127
-83.73015873015872,-38.80952380952381,-88.4920634920635,1.0317460317460316,-88.01587301587301,-78.33333333333333,-89.12698412698413,-76.1111111111111,174.2063492063492,285.1587301587301,-91.66666666666666,1.0317460317460316,-87.85714285714285,-70.07936507936508,-89.12698412698413,-76.9047619047619,46.74603174603175,-88.96825396825396,-3.73015873015873,148.65079365079364,-51.19047619047619,8.968253968253968,10.714285714285714,-166.26984126984127
-83.73015873015872,-38.80952380952381,-88.4920634920635,1.0317460317460316,-88.01587301587301,-78.33333333333333,-89.12698412698413,-76.1111111111111,174.2063492063492,285.1587301587301,-91.66666666666666,1.0317460317460316,-87.85714285714285,-70.07936507936508,-89.12698412698413,-76.9047619047619,46.74603174603175,-88.96825396825396,-3.73015873015873,148.65079365079364,-51.19047619047619,8.968253968253968,10.714285714285714,-166.26984126984127
-83.73015873015872,-38.80952380952381,-88.4920634920635,1.0317460317460316,-88.01587301587301,-78.33333333333333,-89.12698412698413,-76.1111111111111,174.2063492063492,285.1587301587301,-91.66666666666666,1.0317460317460316,-87.85714285714285,-70.07936507936508,-89.12698412698413,-76.9047619047619,46.74603174603175,-88.96825396825396,-3.73015873015873,148.65079365079364,-51.19047619047619,8.968253968253968,10.714285714285714,-166.26984126984127
-83.73015873015872,-38.80952380952381,-88.4920634920635,1.0317460317460316,-88.01587301587301,-78.33333333333333,-89.12698412698413,-76.1111111111111,174.2063492063492,285.1587301587301,-91.66666666666666,1.0317460317460316,-87.85714285714285,-70.07936507936508,-89.12698412698413,-76.9047619047619,46.74603174603175,-88.96825396825396,-3.73015873015873,148.65079365079364,-51.19047619047619,8.968253968253968,10.714285714285714,-166.26984126984127
-83.73015873015872,-38.80952380952381,-88.4920634920635,1.0317460317460316,-88.01587301587301,-78.33333333333333,-89.12698412698413,-76.1111111111111,174.2063492063492,285.1587301587301,-91.66666666666666,1.0317460317460316,-87.85714285714285,-70.07936507936508,-89.12698412698413,-76.9047619047619,46.74603174603175,-88.96825396825396,-3.73015873015873,148.65079365079364,-51.19047619047619,8.968253968253968,10.714285714285714,-166.26984126984127
-83.73015873015872,-38.80952380952381,-88.4920634920635,1.0317460317460316,-88.01587301587301,-78.33333333333333,-89.12698412698413,-76.1111111111111,174.2063492063492,285.1587301587301,-91.66666666666666,1.0317460317460316,-87.85714285714285,-70.07936507936508,-89.12698412698413,-76.9047619047619,46.74603174603175,-88.96825396825396,-3.73015873015873,148.65079365079364,-51.19047619047619,8.968253968253968,10.714285714285714,-166.26984126984127
-70.07936507936508,-35.79365079365079,-71.82539682539682,5.0,-72.93650793650794,-71.98412698412697,-77.22222222222221,-69.92063492063491,158.8095238095238,-325.0,-79.12698412698413,5.7936507936507935,-78.4920634920635,-64.36507936507937,-78.17460317460316,-70.39682539682539,42.61904761904761,-81.66666666666666,1.349206349206349,136.11111111111111,-46.11111111111111,-8.492063492063492,-12.3015873015873,-166.26984126984127
-70.07936507936508,-35.79365079365079,-71.82539682539682,5.0,-72.93650793650794,-71.98412698412697,-77.22222222222221,-69.92063492063491,158.8095238095238,-325.0,-79.12698412698413,5.7936507936507935,-78.4920634920635,-64.36507936507937,-78.17460317460316,-70.39682539682539,42.61904761904761,-81.66666666666666,1.349206349206349,136.11111111111111,-46.11111111111111,-8.492063492063492,-12.3015873015873,-166.26984126984127
-58.01587301587301,-27.063492063492063,-61.03174603174603,-0.5555555555555556,-61.507936507936506,-70.71428571428571,-65.79365079365078,-68.80952380952381,156.26984126984127,-325.0,-67.6984126984127,0.23809523809523808,-65.63492063492063,-63.095238095238095,-67.22222222222221,-69.44444444444444,41.98412698412698,-80.55555555555556,-4.2063492063492065,133.73015873015873,-45.79365079365079,8.015873015873016,11.349206349206348,-321.8253968253968
-58.01587301587301,-27.063492063492063,-61.03174603174603,-0.5555555555555556,-61.507936507936506,-70.71428571428571,-65.79365079365078,-68.80952380952381,156.26984126984127,-325.0,-67.6984126984127,0.23809523809523808,-65.63492063492063,-63.095238095238095,-67.22222222222221,-69.44444444444444,41.98412698412698,-80.55555555555556,-4.2063492063492065,133.73015873015873,-45.79365079365079,8.015873015873016,11.349206349206348,-321.8253968253968
-61.507936507936506,-30.396825396825395,-64.04761904761905,3.73015873015873,-65.15873015873015,-69.6031746031746,-68.96825396825396,-67.6984126984127,153.57142857142856,-325.0,-71.19047619047619,4.841269841269841,-70.55555555555556,-62.14285714285714,-70.55555555555556,-68.17460317460318,41.19047619047619,-79.28571428571428,0.23809523809523808,131.5079365079365,-42.14285714285714,-7.857142857142857,-12.777777777777777,-321.8253968253968
-61.507936507936506,-30.396825396825395,-64.04761904761905,3.73015873015873,-65.15873015873015,-69.6031746031746,-68.96825396825396,-67.6984126984127,153.57142857142856,-325.0,-71.19047619047619,4.841269841269841,-70.55555555555556,-62.14285714285714,-70.55555555555556,-68.17460317460318,41.19047619047619,-79.28571428571428,0.23809523809523808,131.5079365079365,-42.14285714285714,-7.857142857142857,-12.777777777777777,-321.8253968253968
-7.857142857142857,-34.682539682539684,-56.74603174603174,4.2063492063492065,-57.53968253968254,-68.4920634920635,-62.14285714285714,-66.42857142857143,150.87301587301587,-325.0,-63.25396825396825,5.0,-61.03174603174603,-61.19047619047619,-62.77777777777777,-67.06349206349206,40.39682539682539,-77.85714285714285,0.3968253968253968,129.28571428571428,-43.57142857142857,7.3809523809523805,12.3015873015873,-321.8253968253968
-7.857142857142857,-34.682539682539684,-56.74603174603174,4.2063492063492065,-57.53968253968254,-68.4920634920635,-62.14285714285714,-66.42857142857143,150.87301587301587,-325.0,-63.25396825396825,5.0,-61.03174603174603,-61.19047619047619,-62.77777777777777,-67.06349206349206,40.39682539682539,-77.85714285714285,0.3968253968253968,129.28571428571428,-43.57142857142857,7.3809523809523805,12.3015873015873,-321.8253968253968
1.1904761904761905,-33.888888888888886,-49.6031746031746,5.7936507936507935,-51.98412698412698,-67.53968253968253,-55.63492063492063,-65.95238095238095,149.12698412698413,-325.0,-58.8095238095238,6.746031746031746,-59.285714285714285,-60.238095238095234,-58.33333333333333,-66.26984126984127,39.92063492063492,-77.06349206349206,3.095238095238095,127.53968253968253,-44.047619047619044,-8.015873015873016,-11.984126984126984,-321.8253968253968
1.1904761904761905,-33.888888888888886,-49.6031746031746,5.7936507936507935,-51.98412698412698,-67.53968253968253,-55.63492063492063,-65.95238095238095,149.12698412698413,-325.0,-58.8095238095238,6.746031746031746,-59.285714285714285,-60.238095238095234,-58.33333333333333,-66.26984126984127,39.92063492063492,-77.06349206349206,3.095238095238095,127.53968253968253,-44.047619047619044,-8.015873015873016,-11.984126984126984,-321.8253968253968
296.90476190476187,-33.25396825396825,-53.25396825396825,-0.5555555555555556,-54.047619047619044,-66.26984126984127,-58.8095238095238,-64.36507936507937,146.11111111111111,-302.46031746031747,-60.079365079365076,0.07936507936507936,-58.01587301587301,-59.12698412698413,-60.079365079365076,-65.0,38.96825396825397,-75.47619047619047,-4.365079365079365,124.84126984126983,-41.82539682539682,7.857142857142857,11.825396825396824,-321.8253968253968
296.90476190476187,-33.25396825396825,-53.25396825396825,-0.5555555555555556,-54.047619047619044,-66.26984126984127,-58.8095238095238,-64.36507936507937,146.11111111111111,-302.46031746031747,-60.079365079365076,0.07936507936507936,-58.01587301587301,-59.12698412698413,-60.079365079365076,-65.0,38.96825396825397,-75.47619047619047,-4.365079365079365,124.84126984126983,-41.82539682539682,7.857142857142857,11.825396825396824,-321.8253968253968
325.0,-32.93650793650794,-95.63492063492063,0.873015873015873,-97.22222222222221,-65.47619047619047,-101.5079365079365,-63.73015873015873,144.04761904761904,-325.0,-103.57142857142857,0.873015873015873,-104.04761904761904,-58.33333333333333,-102.61904761904762,-64.04761904761905,38.49206349206349,-74.52380952380952,-2.9365079365079363,123.25396825396825,-42.77777777777778,-9.126984126984127,-12.619047619047619,-166.26984126984127
325.0,-32.93650793650794,-95.63492063492063,0.873015873015873,-97.22222222222221,-65.47619047619047,-101.5079365079365,-63.73015873015873,144.04761904761904,-325.0,-103.57142857142857,0.873015873015873,-104.04761904761904,-58.33333333333333,-102.61904761904762,-64.04761904761905,38.49206349206349,-74.52380952380952,-2.9365079365079363,123.25396825396825,-42.77777777777778,-9.126984126984127,-12.619047619047619,-166.26984126984127
325.0,-31.19047619047619,-49.12698412698413,1.984126984126984,-49.76190476190476,-62.61904761904761,-54.047619047619044,-61.19047619047619,137.38095238095238,-325.0,-55.79365079365079,3.571428571428571,-54.047619047619044,-55.476190476190474,-55.79365079365079,-61.34920634920635,36.74603174603175,-71.34920634920634,-0.5555555555555556,117.6984126984127,12.46031746031746,-1.0317460317460316,-1.1904761904761905,-166.26984126984127
325.0,-31.19047619047619,-49.12698412698413,1.984126984126984,-49.76190476190476,-62.61904761904761,-54.047619047619044,-61.19047619047619,137.38095238095238,-325.0,-55.79365079365079,3.571428571428571,-54.047619047619044,-55.476190476190474,-55.79365079365079,-61.34920634920635,36.74603174603175,-71.34920634920634,-0.5555555555555556,117.6984126984127,12.46031746031746,-1.0317460317460316,-1.1904761904761905,-166.26984126984127
325.0,-27.698412698412696,-79.6031746031746,4.841269841269841,-81.5079365079365,-61.666666666666664,-85.0,-60.238095238095234,135.0,-325.0,-87.38095238095238,5.634920634920634,-86.74603174603175,-54.68253968253968,-85.79365079365078,-60.39682539682539,36.11111111111111,-70.23809523809524,1.984126984126984,115.79365079365078,-34.682539682539684,-1.349206349206349,-1.0317460317460316,-166.26984126984127
325.0,-27.698412698412696,-79.6031746031746,4.841269841269841,-81.5079365079365,-61.666666666666664,-85.0,-60.238095238095234,135.0,-325.0,-87.38095238095238,5.634920634920634,-86.74603174603175,-54.68253968253968,-85.79365079365078,-60.39682539682539,36.11111111111111,-70.23809523809524,1.984126984126984,115.79365079365078,-34.682539682539684,-1.349206349206349,-1.0317460317460316,-166.26984126984127
325.0,-30.396825396825395,-57.06349206349206,5.476190476190476,-57.22222222222222,-60.55555555555555,-61.507936507936506,-59.12698412698413,132.93650793650792,-325.0,-63.888888888888886,6.904761904761904,-61.19047619047619,-53.73015873015873,-63.41269841269841,-59.12698412698413,35.317460317460316,-68.96825396825396,2.9365079365079363,113.88888888888889,79.12698412698413,0.3968253968253968,-0.23809523809523808,-166.26984126984127
325.0,-30.396825396825395,-57.06349206349206,5.476190476190476,-57.22222222222222,-60.55555555555555,-61.507936507936506,-59.12698412698413,132.93650793650792,-325.0,-63.888888888888886,6.904761904761904,-61.19047619047619,-53.73015873015873,-63.41269841269841,-59.12698412698413,35.317460317460316,-68.96825396825396,2.9365079365079363,113.88888888888889,79.12698412698413,0.3968253968253968,-0.23809523809523808,-166.26984126984127
325.0,-27.063492063492063,-65.0,5.476190476190476,-67.22222222222221,-59.76190476190476,-70.23809523809524,-58.49206349206349,130.7142857142857,-325.0,-71.98412698412697,5.7936507936507935,-71.5079365079365,-52.93650793650794,-70.39682539682539,-58.49206349206349,35.0,-68.33333333333333,2.142857142857143,111.98412698412697,-17.063492063492063,-0.07936507936507936,-0.3968253968253968,-166.26984126984127
325.0,-27.063492063492063,-65.0,5.476190476190476,-67.22222222222221,-59.76190476190476,-70.23809523809524,-58.49206349206349,130.7142857142857,-325.0,-71.98412698412697,5.7936507936507935,-71.5079365079365,-52.93650793650794,-70.39682539682539,-58.49206349206349,35.0,-68.33333333333333,2.142857142857143,111.98412698412697,-17.063492063492063,-0.07936507936507936,-0.3968253968253968,-166.26984126984127
325.0,-26.746031746031743,-53.73015873015873,1.8253968253968254,-55.317460317460316,-58.96825396825397,-58.49206349206349,-57.698412698412696,128.96825396825395,-325.0,-60.71428571428571,2.9365079365079363,-59.285714285714285,-52.14285714285714,-60.079365079365076,-57.698412698412696,34.52380952380952,-67.38095238095238,-0.873015873015873,110.55555555555554,51.507936507936506,0.3968253968253968,-0.07936507936507936,-321.8253968253968
325.0,-26.746031746031743,-53.73015873015873,1.8253968253968254,-55.317460317460316,-58.96825396825397,-58.49206349206349,-57.698412698412696,128.96825396825395,-325.0,-60.71428571428571,2.9365079365079363,-59.285714285714285,-52.14285714285714,-60.079365079365076,-57.698412698412696,34.52380952380952,-67.38095238095238,-0.873015873015873,110.55555555555554,51.507936507936506,0.3968253968253968,-0.07936507936507936,-321.8253968253968
325.0,25.79365079365079,-79.76190476190476,0.23809523809523808,-82.14285714285714,-58.01587301587301,-86.26984126984127,-56.904761904761905,126.74603174603173,-261.031746031746,-87.38095238095238,0.5555555555555556,-85.0,-51.34920634920635,-86.26984126984127,-56.74603174603174,33.73015873015873,-66.42857142857143,-2.9365079365079363,108.49206349206348,-1.507936507936508,7.698412698412698,10.714285714285714,-321.8253968253968
325.0,25.79365079365079,-79.76190476190476,0.23809523809523808,-82.14285714285714,-58.01587301587301,-86.26984126984127,-56.904761904761905,126.74603174603173,-261.031746031746,-87.38095238095238,0.5555555555555556,-85.0,-51.34920634920635,-86.26984126984127,-56.74603174603174,33.73015873015873,-66.42857142857143,-2.9365079365079363,108.49206349206348,-1.507936507936508,7.698412698412698,10.714285714285714,-321.8253968253968
325.0,38.80952380952381,-63.41269841269841,-1.8253968253968254,-64.2063492063492,-56.74603174603174,-67.6984126984127,-55.63492063492063,124.04761904761904,-313.25396825396825,-70.23809523809524,0.23809523809523808,-67.85714285714285,-50.39682539682539,-69.92063492063491,-55.476190476190474,33.095238095238095,-65.0,-3.888888888888889,106.26984126984127,281.031746031746,1.507936507936508,0.873015873015873,-321.8253968253968
325.0,38.80952380952381,-63.41269841269841,-1.8253968253968254,-64.2063492063492,-56.74603174603174,-67.6984126984127,-55.63492063492063,124.04761904761904,-313.25396825396825,-70.23809523809524,0.23809523809523808,-67.85714285714285,-50.39682539682539,-69.92063492063491,-55.476190476190474,33.095238095238095,-65.0,-3.888888888888889,106.26984126984127,281.031746031746,1.507936507936508,0.873015873015873,-321.8253968253968
325.0,46.74603174603175,-46.58730158730158,-4.682539682539682,-48.01587301587301,-55.95238095238095,-50.39682539682539,-55.0,122.46031746031746,-325.0,-53.095238095238095,-3.253968253968254,-51.19047619047619,-49.76190476190476,-52.3015873015873,-54.841269841269835,32.61904761904762,-64.2063492063492,-6.904761904761904,105.0,133.4126984126984,-0.07936507936507936,-0.07936507936507936,-321.8253968253968
325.0,46.74603174603175,-46.58730158730158,-4.682539682539682,-48.01587301587301,-55.95238095238095,-50.39682539682539,-55.0,122.46031746031746,-325.0,-53.095238095238095,-3.253968253968254,-51.19047619047619,-49.76190476190476,-52.3015873015873,-54.841269841269835,32.61904761904762,-64.2063492063492,-6.904761904761904,105.0,133.4126984126984,-0.07936507936507936,-0.07936507936507936,-321.8253968253968
325.0,-28.333333333333332,-56.904761904761905,3.095238095238095,-57.53968253968254,-54.841269841269835,-62.14285714285714,-53.888888888888886,119.76190476190476,-325.0,-64.2063492063492,5.158730158730158,-62.3015873015873,-48.49206349206349,-64.36507936507937,-53.73015873015873,31.98412698412698,-62.93650793650793,1.349206349206349,102.61904761904762,282.3015873015873,0.23809523809523808,0.7142857142857142,-321.8253968253968
325.0,-28.333333333333332,-56.904761904761905,3.095238095238095,-57.53968253968254,-54.841269841269835,-62.14285714285714,-53.888888888888886,119.76190476190476,-325.0,-64.2063492063492,5.158730158730158,-62.3015873015873,-48.49206349206349,-64.36507936507937,-53.73015873015873,31.98412698412698,-62.93650793650793,1.349206349206349,102.61904761904762,282.3015873015873,0.23809523809523808,0.7142857142857142,-321.8253968253968
325.0,0.07936507936507936,-15.95238095238095,-5.634920634920634,-17.38095238095238,-52.77777777777777,-20.07936507936508,-51.666666666666664,114.68253968253967,-325.0,-22.777777777777775,-4.2063492063492065,-20.238095238095237,-46.58730158730158,-22.46031746031746,-51.666666666666664,30.71428571428571,-60.39682539682539,-7.857142857142857,98.49206349206348,141.66666666666666,7.857142857142857,12.142857142857142,-166.26984126984127
325.0,0.07936507936507936,-15.95238095238095,-5.634920634920634,-17.38095238095238,-52.77777777777777,-20.07936507936508,-51.666666666666664,114.68253968253967,-325.0,-22.777777777777775,-4.2063492063492065,-20.238095238095237,-46.58730158730158,-22.46031746031746,-51.666666666666664,30.71428571428571,-60.39682539682539,-7.857142857142857,98.49206349206348,141.66666666666666,7.857142857142857,12.142857142857142,-166.26984126984127
325.0,-16.904761904761905,-35.317460317460316,-3.888888888888889,-36.269841269841265,-51.82539682539682,-39.92063492063492,-50.71428571428571,112.6190476190476,-325.0,-41.507936507936506,-2.142857142857143,-41.03174603174603,-45.79365079365079,-41.03174603174603,-50.71428571428571,30.07936507936508,-59.44444444444444,-5.7936507936507935,96.74603174603175,188.65079365079364,-8.174603174603174,-11.349206349206348,-166.26984126984127
325.0,-16.904761904761905,-35.317460317460316,-3.888888888888889,-36.269841269841265,-51.82539682539682,-39.92063492063492,-50.71428571428571,112.6190476190476,-325.0,-41.507936507936506,-2.142857142857143,-41.03174603174603,-45.79365079365079,-41.03174603174603,-50.71428571428571,30.07936507936508,-59.44444444444444,-5.7936507936507935,96.74603174603175,188.65079365079364,-8.174603174603174,-11.349206349206348,-166.26984126984127
325.0,-22.936507936507937,-24.047619047619047,0.23809523809523808,-25.158730158730158,-51.03174603174603,-29.126984126984127,-50.238095238095234,110.87301587301587,180.55555555555554,-31.03174603174603,1.349206349206349,-28.809523809523807,-45.0,-31.03174603174603,-50.079365079365076,29.6031746031746,-58.49206349206349,-1.984126984126984,95.15873015873015,155.63492063492063,7.3809523809523805,11.984126984126984,-166.26984126984127
325.0,-22.936507936507937,-24.047619047619047,0.23809523809523808,-25.158730158730158,-51.03174603174603,-29.126984126984127,-50.238095238095234,110.87301587301587,180.55555555555554,-31.03174603174603,1.349206349206349,-28.809523809523807,-45.0,-31.03174603174603,-50.079365079365076,29.6031746031746,-58.49206349206349,-1.984126984126984,95.15873015873015,155.63492063492063,7.3809523809523805,11.984126984126984,-166.26984126984127
325.0,-27.22222222222222,-47.06349206349206,-7.5396825396825395,-47.698412698412696,-50.39682539682539,-51.34920634920635,-49.285714285714285,108.96825396825396,325.0,-53.095238095238095,-6.26984126984127,-52.77777777777777,-44.36507936507936,-52.14285714285714,-49.285714285714285,29.126984126984127,-57.53968253968254,-9.761904761904761,93.57142857142857,203.09523809523807,-8.333333333333332,-12.3015873015873,-166.26984126984127
325.0,-27.22222222222222,-47.06349206349206,-7.5396825396825395,-47.698412698412696,-50.39682539682539,-51.34920634920635,-49.285714285714285,108.96825396825396,325.0,-53.095238095238095,-6.26984126984127,-52.77777777777777,-44.36507936507936,-52.14285714285714,-49.285714285714285,29.126984126984127,-57.53968253968254,-9.761904761904761,93.57142857142857,203.09523809523807,-8.333333333333332,-12.3015873015873,-166.26984126984127
325.0,45.476190476190474,-36.74603174603175,-8.968253968253968,-37.698412698412696,-49.44444444444444,-41.98412698412698,-48.49206349206349,107.06349206349206,325.0,-44.36507936507936,-7.857142857142857,-41.666666666666664,-43.57142857142857,-44.52380952380952,-48.33333333333333,28.65079365079365,-56.74603174603174,-10.555555555555555,91.98412698412697,184.68253968253967,6.904761904761904,11.507936507936508,-166.26984126984127
325.0,45.476190476190474,-36.74603174603175,-8.968253968253968,-37.698412698412696,-49.44444444444444,-41.98412698412698,-48.49206349206349,107.06349206349206,325.0,-44.36507936507936,-7.857142857142857,-41.666666666666664,-43.57142857142857,-44.52380952380952,-48.33333333333333,28.65079365079365,-56.74603174603174,-10.555555555555555,91.98412698412697,184.68253968253967,6.904761904761904,11.507936507936508,-166.26984126984127
325.0,41.82539682539682,-49.12698412698413,-2.7777777777777777,-50.55555555555555,-48.80952380952381,-55.15873015873016,-48.01587301587301,105.63492063492063,201.5079365079365,-56.58730158730158,-1.507936507936508,-55.63492063492063,-43.095238095238095,-56.58730158730158,-47.698412698412696,28.333333333333332,-55.95238095238095,-4.2063492063492065,90.87301587301587,184.68253968253967,-0.7142857142857142,-0.23809523809523808,-321.8253968253968
325.0,41.82539682539682,-49.12698412698413,-2.7777777777777777,-50.55555555555555,-48.80952380952381,-55.15873015873016,-48.01587301587301,105.63492063492063,201.5079365079365,-56.58730158730158,-1.507936507936508,-55.63492063492063,-43.095238095238095,-56.58730158730158,-47.698412698412696,28.333333333333332,-55.95238095238095,-4.2063492063492065,90.87301587301587,184.68253968253967,-0.7142857142857142,-0.23809523809523808,-321.8253968253968
325.0,10.079365079365079,-12.936507936507935,0.5555555555555556,-14.206349206349206,-48.01587301587301,-17.698412698412696,-47.06349206349206,103.57142857142857,257.06349206349205,-19.92063492063492,1.984126984126984,-16.746031746031743,-42.14285714285714,-20.07936507936508,-46.904761904761905,27.539682539682538,-54.841269841269835,-1.0317460317460316,88.96825396825396,182.46031746031744,6.904761904761904,12.142857142857142,-321.8253968253968
325.0,10.079365079365079,-12.936507936507935,0.5555555555555556,-14.206349206349206,-48.01587301587301,-17.698412698412696,-47.06349206349206,103.57142857142857,257.06349206349205,-19.92063492063492,1.984126984126984,-16.746031746031743,-42.14285714285714,-20.07936507936508,-46.904761904761905,27.539682539682538,-54.841269841269835,-1.0317460317460316,88.96825396825396,182.46031746031744,6.904761904761904,12.142857142857142,-321.8253968253968
325.0,5.952380952380952,-44.36507936507936,4.0476190476190474,-45.79365079365079,-47.06349206349206,-49.76190476190476,-46.58730158730158,101.82539682539682,325.0,-51.507936507936506,5.158730158730158,-52.460317460317455,-41.34920634920635,-51.19047619047619,-45.95238095238095,27.063492063492063,-54.047619047619044,1.984126984126984,87.53968253968253,217.53968253968253,-8.809523809523808,-11.349206349206348,-321.8253968253968
325.0,5.952380952380952,-44.36507936507936,4.0476190476190474,-45.79365079365079,-47.06349206349206,-49.76190476190476,-46.58730158730158,101.82539682539682,325.0,-51.507936507936506,5.158730158730158,-52.460317460317455,-41.34920634920635,-51.19047619047619,-45.95238095238095,27.063492063492063,-54.047619047619044,1.984126984126984,87.53968253968253,217.53968253968253,-8.809523809523808,-11.349206349206348,-321.8253968253968
325.0,-32.93650793650794,-10.555555555555555,-5.7936507936507935,-11.507936507936508,-46.42857142857142,-13.571428571428571,-45.63492063492063,100.07936507936508,100.07936507936508,-15.793650793650793,-5.158730158730158,-12.777777777777777,-40.714285714285715,-15.317460317460316,-45.317460317460316,26.587301587301585,-53.41269841269841,-8.174603174603174,85.95238095238095,181.34920634920633,7.698412698412698,11.825396825396824,-321.8253968253968
325.0,-32.93650793650794,-10.555555555555555,-5.7936507936507935,-11.507936507936508,-46.42857142857142,-13.571428571428571,-45.63492063492063,100.07936507936508,100.07936507936508,-15.793650793650793,-5.158730158730158,-12.777777777777777,-40.714285714285715,-15.317460317460316,-45.317460317460316,26.587301587301585,-53.41269841269841,-8.174603174603174,85.95238095238095,181.34920634920633,7.698412698412698,11.825396825396824,-321.8253968253968
325.0,-28.65079365079365,-11.825396825396824,-2.7777777777777777,-13.888888888888888,-46.11111111111111,-16.587301587301585,-45.63492063492063,99.76190476190476,-124.68253968253967,-18.49206349206349,-2.619047619047619,-15.95238095238095,-40.55555555555555,-17.698412698412696,-45.0,26.587301587301585,-53.25396825396825,-5.317460317460317,85.63492063492063,37.698412698412696,4.2063492063492065,7.5396825396825395,-321.8253968253968
325.0,-28.65079365079365,-11.825396825396824,-2.7777777777777777,-13.888888888888888,-46.11111111111111,-16.587301587301585,-45.63492063492063,99.76190476190476,-124.68253968253967,-18.49206349206349,-2.619047619047619,-15.95238095238095,-40.55555555555555,-17.698412698412696,-45.0,26.587301587301585,-53.25396825396825,-5.317460317460317,85.63492063492063,37.698412698412696,4.2063492063492065,7.5396825396825395,-321.8253968253968
325.0,8.968253968253968,61.507936507936506,-3.253968253968254,60.71428571428571,-44.84126984126984,58.650793650793645,-44.36507936507936,97.06349206349206,-325.0,55.79365079365079,-1.8253968253968254,57.857142857142854,-39.44444444444444,54.841269841269835,-43.888888888888886,25.952380952380953,-51.82539682539682,-5.158730158730158,83.4126984126984,325.0,10.238095238095237,15.158730158730158,-166.26984126984127
325.0,8.968253968253968,61.507936507936506,-3.253968253968254,60.71428571428571,-44.84126984126984,58.650793650793645,-44.36507936507936,97.06349206349206,-325.0,55.79365079365079,-1.8253968253968254,57.857142857142854,-39.44444444444444,54.841269841269835,-43.888888888888886,25.952380952380953,-51.82539682539682,-5.158730158730158,83.4126984126984,325.0,10.238095238095237,15.158730158730158,-166.26984126984127
325.0,83.25396825396825,21.984126984126984,-1.1904761904761905,20.71428571428571,-43.095238095238095,18.015873015873016,-42.3015873015873,93.09523809523809,-325.0,16.26984126984127,0.3968253968253968,16.904761904761905,-38.01587301587301,16.11111111111111,-42.3015873015873,24.84126984126984,-49.76190476190476,-2.7777777777777777,79.92063492063491,81.5079365079365,3.4126984126984126,5.952380952380952,-166.26984126984127
325.0,83.25396825396825,21.984126984126984,-1.1904761904761905,20.71428571428571,-43.095238095238095,18.015873015873016,-42.3015873015873,93.09523809523809,-325.0,16.26984126984127,0.3968253968253968,16.904761904761905,-38.01587301587301,16.11111111111111,-42.3015873015873,24.84126984126984,-49.76190476190476,-2.7777777777777777,79.92063492063491,81.5079365079365,3.4126984126984126,5.952380952380952,-166.26984126984127
325.0,-36.58730158730159,48.01587301587301,-7.5396825396825395,48.80952380952381,-42.3015873015873,44.68253968253968,-41.666666666666664,90.87301587301587,-325.0,43.73015873015873,-5.7936507936507935,45.476190476190474,-37.22222222222222,42.61904761904761,-41.34920634920635,24.206349206349206,-48.80952380952381,-8.968253968253968,78.17460317460316,325.0,2.142857142857143,5.476190476190476,-166.26984126984127
325.0,-36.58730158730159,48.01587301587301,-7.5396825396825395,48.80952380952381,-42.3015873015873,44.68253968253968,-41.666666666666664,90.87301587301587,-325.0,43.73015873015873,-5.7936507936507935,45.476190476190474,-37.22222222222222,42.61904761904761,-41.34920634920635,24.206349206349206,-48.80952380952381,-8.968253968253968,78.17460317460316,325.0,2.142857142857143,5.476190476190476,-166.26984126984127
325.0,-37.698412698412696,56.42857142857142,-8.65079365079365,56.904761904761905,-41.666666666666664,55.317460317460316,-41.19047619047619,89.44444444444444,-325.0,53.57142857142857,-8.015873015873016,53.888888888888886,-36.58730158730159,54.2063492063492,-40.87301587301587,23.88888888888889,-48.01587301587301,-10.396825396825395,76.74603174603175,102.30158730158729,-3.253968253968254,-5.0,-166.26984126984127
325.0,-37.698412698412696,56.42857142857142,-8.65079365079365,56.904761904761905,-41.666666666666664,55.317460317460316,-41.19047619047619,89.44444444444444,-325.0,53.57142857142857,-8.015873015873016,53.888888888888886,-36.58730158730159,54.2063492063492,-40.87301587301587,23.88888888888889,-48.01587301587301,-10.396825396825395,76.74603174603175,102.30158730158729,-3.253968253968254,-5.0,-166.26984126984127
325.0,-36.58730158730159,63.57142857142857,-10.079365079365079,64.04761904761905,-41.03174603174603,61.507936507936506,-40.714285714285715,88.33333333333333,-325.0,59.76190476190476,-8.968253968253968,60.873015873015866,-36.11111111111111,59.44444444444444,-40.39682539682539,23.57142857142857,-47.53968253968254,-11.507936507936508,75.63492063492063,248.015873015873,-0.23809523809523808,-0.07936507936507936,-166.26984126984127
325.0,-36.58730158730159,63.57142857142857,-10.079365079365079,64.04761904761905,-41.03174603174603,61.507936507936506,-40.714285714285715,88.33333333333333,-325.0,59.76190476190476,-8.968253968253968,60.873015873015866,-36.11111111111111,59.44444444444444,-40.39682539682539,23.57142857142857,-47.53968253968254,-11.507936507936508,75.63492063492063,248.015873015873,-0.23809523809523808,-0.07936507936507936,-166.26984126984127
325.0,-35.95238095238095,34.682539682539684,-0.7142857142857142,34.2063492063492,-40.55555555555555,31.349206349206348,-40.079365079365076,86.74603174603175,-325.0,29.6031746031746,-0.5555555555555556,29.6031746031746,-35.317460317460316,29.76190476190476,-39.44444444444444,23.253968253968253,-46.58730158730158,-2.46031746031746,74.68253968253968,20.396825396825395,3.095238095238095,5.634920634920634,-321.8253968253968
325.0,-35.95238095238095,34.682539682539684,-0.7142857142857142,34.2063492063492,-40.55555555555555,31.349206349206348,-40.079365079365076,86.74603174603175,-325.0,29.6031746031746,-0.5555555555555556,29.6031746031746,-35.317460317460316,29.76190476190476,-39.44444444444444,23.253968253968253,-46.58730158730158,-2.46031746031746,74.68253968253968,20.396825396825395,3.095238095238095,5.634920634920634,-321.8253968253968
325.0,-35.0,48.33333333333333,-2.7777777777777777,49.285714285714285,-39.92063492063492,44.52380952380952,-39.285714285714285,85.0,-318.17460317460313,44.2063492063492,-0.873015873015873,46.42857142857142,-34.682539682539684,42.93650793650794,-38.80952380952381,22.777777777777775,-45.79365079365079,-3.888888888888889,73.09523809523809,325.0,2.9365079365079363,5.158730158730158,-321.8253968253968
325.0,-35.0,48.33333333333333,-2.7777777777777777,49.285714285714285,-39.92063492063492,44.52380952380952,-39.285714285714285,85.0,-318.17460317460313,44.2063492063492,-0.873015873015873,46.42857142857142,-34.682539682539684,42.93650793650794,-38.80952380952381,22.777777777777775,-45.79365079365079,-3.888888888888889,73.09523809523809,325.0,2.9365079365079363,5.158730158730158,-321.8253968253968
325.0,-34.52380952380952,35.476190476190474,-2.7777777777777777,35.15873015873016,-39.285714285714285,32.93650793650794,-38.80952380952381,83.73015873015872,-313.88888888888886,30.87301587301587,-2.46031746031746,30.238095238095237,-34.36507936507936,31.349206349206348,-38.01587301587301,22.619047619047617,-45.15873015873016,-4.2063492063492065,72.3015873015873,15.634920634920634,3.253968253968254,4.523809523809524,-321.8253968253968
325.0,-34.52380952380952,35.476190476190474,-2.7777777777777777,35.15873015873016,-39.285714285714285,32.93650793650794,-38.80952380952381,83.73015873015872,-313.88888888888886,30.87301587301587,-2.46031746031746,30.238095238095237,-34.36507936507936,31.349206349206348,-38.01587301587301,22.619047619047617,-45.15873015873016,-4.2063492063492065,72.3015873015873,15.634920634920634,3.253968253968254,4.523809523809524,-321.8253968253968
325.0,-33.73015873015873,57.06349206349206,-4.2063492063492065,57.857142857142854,-38.49206349206349,54.2063492063492,-38.17460317460317,82.14285714285714,-307.38095238095235,53.25396825396825,-2.619047619047619,55.79365079365079,-33.73015873015873,52.3015873015873,-37.53968253968254,21.825396825396822,-44.36507936507936,-5.317460317460317,70.55555555555556,325.0,3.571428571428571,5.317460317460317,-321.8253968253968
325.0,-33.73015873015873,57.06349206349206,-4.2063492063492065,57.857142857142854,-38.49206349206349,54.2063492063492,-38.17460317460317,82.14285714285714,-307.38095238095235,53.25396825396825,-2.619047619047619,55.79365079365079,-33.73015873015873,52.3015873015873,-37.53968253968254,21.825396825396822,-44.36507936507936,-5.317460317460317,70.55555555555556,325.0,3.571428571428571,5.317460317460317,-321.8253968253968
325.0,-29.920634920634917,34.682539682539684,-2.46031746031746,34.52380952380952,-38.01587301587301,32.3015873015873,-37.698412698412696,81.03174603174602,-303.0952380952381,31.19047619047619,-1.984126984126984,30.555555555555554,-33.25396825396825,31.825396825396822,-37.06349206349206,21.666666666666664,-43.888888888888886,-4.0476190476190474,69.92063492063491,54.36507936507936,3.095238095238095,4.365079365079365,-321.8253968253968
325.0,-29.920634920634917,34.682539682539684,-2.46031746031746,34.52380952380952,-38.01587301587301,32.3015873015873,-37.698412698412696,81.03174603174602,-303.0952380952381,31.19047619047619,-1.984126984126984,30.555555555555554,-33.25396825396825,31.825396825396822,-37.06349206349206,21.666666666666664,-43.888888888888886,-4.0476190476190474,69.92063492063491,54.36507936507936,3.095238095238095,4.365079365079365,-321.8253968253968
325.0,-31.19047619047619,36.58730158730159,-1.507936507936508,36.74603174603175,-37.698412698412696,34.2063492063492,-37.22222222222222,79.92063492063491,-296.4285714285714,32.93650793650794,-0.3968253968253968,33.73015873015873,-32.93650793650794,32.93650793650794,-36.74603174603175,21.349206349206348,-43.41269841269841,-2.7777777777777777,68.96825396825396,189.60317460317458,6.746031746031746,10.555555555555555,-166.26984126984127
325.0,-31.19047619047619,36.58730158730159,-1.507936507936508,36.74603174603175,-37.698412698412696,34.2063492063492,-37.22222222222222,79.92063492063491,-296.4285714285714,32.93650793650794,-0.3968253968253968,33.73015873015873,-32.93650793650794,32.93650793650794,-36.74603174603175,21.349206349206348,-43.41269841269841,-2.7777777777777777,68.96825396825396,189.60317460317458,6.746031746031746,10.555555555555555,-166.26984126984127
325.0,-31.98412698412698,45.79365079365079,-0.23809523809523808,46.11111111111111,-36.58730158730159,44.68253968253968,-36.269841269841265,78.01587301587301,-291.3492063492063,42.61904761904761,0.3968253968253968,42.14285714285714,-31.98412698412698,42.93650793650794,-35.79365079365079,20.71428571428571,-42.460317460317455,-1.6666666666666665,67.06349206349206,158.33333333333331,-4.523809523809524,-6.904761904761904,-166.26984126984127
325.0,-31.98412698412698,45.79365079365079,-0.23809523809523808,46.11111111111111,-36.58730158730159,44.68253968253968,-36.269841269841265,78.01587301587301,-291.3492063492063,42.61904761904761,0.3968253968253968,42.14285714285714,-31.98412698412698,42.93650793650794,-35.79365079365079,20.71428571428571,-42.460317460317455,-1.6666666666666665,67.06349206349206,158.33333333333331,-4.523809523809524,-6.904761904761904,-166.26984126984127
325.0,-31.825396825396822,67.22222222222221,-4.841269841269841,68.33333333333333,-36.269841269841265,67.06349206349206,-36.11111111111111,77.53968253968253,-290.55555555555554,64.68253968253968,-3.73015873015873,64.84126984126983,-31.825396825396822,64.68253968253968,-35.476190476190474,20.71428571428571,-41.98412698412698,-5.7936507936507935,66.9047619047619,279.6031746031746,-11.19047619047619,-17.38095238095238,-166.26984126984127
325.0,-31.825396825396822,67.22222222222221,-4.841269841269841,68.33333333333333,-36.269841269841265,67.06349206349206,-36.11111111111111,77.53968253968253,-290.55555555555554,64.68253968253968,-3.73015873015873,64.84126984126983,-31.825396825396822,64.68253968253968,-35.476190476190474,20.71428571428571,-41.98412698412698,-5.7936507936507935,66.9047619047619,279.6031746031746,-11.19047619047619,-17.38095238095238,-166.26984126984127
325.0,-31.825396825396822,67.22222222222221,-4.841269841269841,68.33333333333333,-36.269841269841265,67.06349206349206,-36.11111111111111,77.53968253968253,-290.55555555555554,64.68253968253968,-3.73015873015873,64.84126984126983,-31.825396825396822,64.68253968253968,-35.476190476190474,20.71428571428571,-41.98412698412698,-5.7936507936507935,66.9047619047619,279.6031746031746,-11.19047619047619,-17.38095238095238,-166.26984126984127
325.0,-31.825396825396822,67.22222222222221,-4.841269841269841,68.33333333333333,-36.269841269841265,67.06349206349206,-36.11111111111111,77.53968253968253,-290.55555555555554,64.68253968253968,-3.73015873015873,64.84126984126983,-31.825396825396822,64.68253968253968,-35.476190476190474,20.71428571428571,-41.98412698412698,-5.7936507936507935,66.9047619047619,279.6031746031746,-11.19047619047619,-17.38095238095238,-166.26984126984127
320.39682539682536,-29.76190476190476,33.73015873015873,-8.492063492063492,32.93650793650794,-34.52380952380952,31.349206349206348,-34.2063492063492,72.93650793650794,-272.46031746031747,30.238095238095237,-7.3809523809523805,27.698412698412696,-30.07936507936508,30.71428571428571,-33.888888888888886,19.444444444444443,-39.76190476190476,-9.285714285714285,62.77777777777777,126.1111111111111,0.5555555555555556,2.619047619047619,-166.26984126984127
320.39682539682536,-29.76190476190476,33.73015873015873,-8.492063492063492,32.93650793650794,-34.52380952380952,31.349206349206348,-34.2063492063492,72.93650793650794,-272.46031746031747,30.238095238095237,-7.3809523809523805,27.698412698412696,-30.07936507936508,30.71428571428571,-33.888888888888886,19.444444444444443,-39.76190476190476,-9.285714285714285,62.77777777777777,126.1111111111111,0.5555555555555556,2.619047619047619,-166.26984126984127
316.26984126984127,-29.444444444444443,46.904761904761905,-12.936507936507935,46.269841269841265,-34.2063492063492,44.36507936507936,-33.888888888888886,71.98412698412697,26.26984126984127,42.77777777777778,-11.349206349206348,41.98412698412698,-29.76190476190476,42.3015873015873,-33.57142857142857,19.285714285714285,-39.44444444444444,-13.253968253968253,61.98412698412698,225.47619047619045,5.158730158730158,9.761904761904761,-321.8253968253968
316.26984126984127,-29.444444444444443,46.904761904761905,-12.936507936507935,46.269841269841265,-34.2063492063492,44.36507936507936,-33.888888888888886,71.98412698412697,26.26984126984127,42.77777777777778,-11.349206349206348,41.98412698412698,-29.76190476190476,42.3015873015873,-33.57142857142857,19.285714285714285,-39.44444444444444,-13.253968253968253,61.98412698412698,225.47619047619045,5.158730158730158,9.761904761904761,-321.8253968253968
309.2857142857143,-28.65079365079365,-16.26984126984127,-1.0317460317460316,-16.428571428571427,-33.57142857142857,-19.126984126984127,-33.25396825396825,70.71428571428571,325.0,-18.96825396825397,-0.5555555555555556,-22.777777777777775,-29.126984126984127,-17.857142857142858,-33.095238095238095,19.126984126984127,-38.80952380952381,-2.3015873015873014,60.71428571428571,87.53968253968253,1.0317460317460316,2.46031746031746,-321.8253968253968
309.2857142857143,-28.65079365079365,-16.26984126984127,-1.0317460317460316,-16.428571428571427,-33.57142857142857,-19.126984126984127,-33.25396825396825,70.71428571428571,325.0,-18.96825396825397,-0.5555555555555556,-22.777777777777775,-29.126984126984127,-17.857142857142858,-33.095238095238095,19.126984126984127,-38.80952380952381,-2.3015873015873014,60.71428571428571,87.53968253968253,1.0317460317460316,2.46031746031746,-321.8253968253968
302.6190476190476,-28.015873015873016,38.01587301587301,0.23809523809523808,38.96825396825397,-32.93650793650794,36.74603174603175,-32.460317460317455,68.96825396825396,325.0,35.317460317460316,1.984126984126984,39.285714285714285,-28.65079365079365,34.52380952380952,-31.98412698412698,18.49206349206349,-37.857142857142854,-0.5555555555555556,59.6031746031746,325.0,4.523809523809524,7.857142857142857,-321.8253968253968
302.6190476190476,-28.015873015873016,38.01587301587301,0.23809523809523808,38.96825396825397,-32.93650793650794,36.74603174603175,-32.460317460317455,68.96825396825396,325.0,35.317460317460316,1.984126984126984,39.285714285714285,-28.65079365079365,34.52380952380952,-31.98412698412698,18.49206349206349,-37.857142857142854,-0.5555555555555556,59.6031746031746,325.0,4.523809523809524,7.857142857142857,-321.8253968253968
297.22222222222223,-27.698412698412696,0.873015873015873,3.73015873015873,0.873015873015873,-32.3015873015873,-1.507936507936508,-32.14285714285714,67.85714285714285,325.0,-2.46031746031746,4.523809523809524,-3.888888888888889,-28.174603174603174,-1.984126984126984,-31.507936507936506,18.174603174603174,-37.38095238095238,2.9365079365079363,58.49206349206349,232.14285714285714,-6.746031746031746,-7.857142857142857,-321.8253968253968
297.22222222222223,-27.698412698412696,0.873015873015873,3.73015873015873,0.873015873015873,-32.3015873015873,-1.507936507936508,-32.14285714285714,67.85714285714285,325.0,-2.46031746031746,4.523809523809524,-3.888888888888889,-28.174603174603174,-1.984126984126984,-31.507936507936506,18.174603174603174,-37.38095238095238,2.9365079365079363,58.49206349206349,232.14285714285714,-6.746031746031746,-7.857142857142857,-321.8253968253968
290.87301587301585,-27.22222222222222,28.96825396825397,-4.365079365079365,29.126984126984127,-31.507936507936506,27.38095238095238,-31.666666666666664,66.74603174603175,325.0,26.746031746031743,-3.73015873015873,29.285714285714285,-27.539682539682538,27.38095238095238,-31.03174603174603,17.698412698412696,-36.74603174603175,-5.476190476190476,57.22222222222222,325.0,10.873015873015872,16.11111111111111,-321.8253968253968
290.87301587301585,-27.22222222222222,28.96825396825397,-4.365079365079365,29.126984126984127,-31.507936507936506,27.38095238095238,-31.666666666666664,66.74603174603175,325.0,26.746031746031743,-3.73015873015873,29.285714285714285,-27.539682539682538,27.38095238095238,-31.03174603174603,17.698412698412696,-36.74603174603175,-5.476190476190476,57.22222222222222,325.0,10.873015873015872,16.11111111111111,-321.8253968253968
278.17460317460313,-7.5396825396825395,2.9365079365079363,-7.3809523809523805,1.984126984126984,-30.555555555555554,0.7142857142857142,-30.238095238095237,63.73015873015873,325.0,-0.3968253968253968,-6.428571428571428,-1.6666666666666665,-26.428571428571427,0.3968253968253968,-29.76190476190476,-2.619047619047619,-35.317460317460316,-8.015873015873016,54.841269841269835,325.0,-0.23809523809523808,-0.23809523809523808,-166.26984126984127
278.17460317460313,-7.5396825396825395,2.9365079365079363,-7.3809523809523805,1.984126984126984,-30.555555555555554,0.7142857142857142,-30.238095238095237,63.73015873015873,325.0,-0.3968253968253968,-6.428571428571428,-1.6666666666666665,-26.428571428571427,0.3968253968253968,-29.76190476190476,-2.619047619047619,-35.317460317460316,-8.015873015873016,54.841269841269835,325.0,-0.23809523809523808,-0.23809523809523808,-166.26984126984127
278.17460317460313,-7.5396825396825395,2.9365079365079363,-7.3809523809523805,1.984126984126984,-30.555555555555554,0.7142857142857142,-30.238095238095237,63.73015873015873,325.0,-0.3968253968253968,-6.428571428571428,-1.6666666666666665,-26.428571428571427,0.3968253968253968,-29.76190476190476,-2.619047619047619,-35.317460317460316,-8.015873015873016,54.841269841269835,325.0,-0.23809523809523808,-0.23809523809523808,-166.26984126984127
278.17460317460313,-7.5396825396825395,2.9365079365079363,-7.3809523809523805,1.984126984126984,-30.555555555555554,0.7142857142857142,-30.238095238095237,63.73015873015873,325.0,-0.3968253968253968,-6.428571428571428,-1.6666666666666665,-26.428571428571427,0.3968253968253968,-29.76190476190476,-2.619047619047619,-35.317460317460316,-8.015873015873016,54.841269841269835,325.0,-0.23809523809523808,-0.23809523809523808,-166.26984126984127
278.17460317460313,-7.5396825396825395,2.9365079365079363,-7.3809523809523805,1.984126984126984,-30.555555555555554,0.7142857142857142,-30.238095238095237,63.73015873015873,325.0,-0.3968253968253968,-6.428571428571428,-1.6666666666666665,-26.428571428571427,0.3968253968253968,-29.76190476190476,-2.619047619047619,-35.317460317460316,-8.015873015873016,54.841269841269835,325.0,-0.23809523809523808,-0.23809523809523808,-166.26984126984127
278.17460317460313,-7.5396825396825395,2.9365079365079363,-7.3809523809523805,1.984126984126984,-30.555555555555554,0.7142857142857142,-30.238095238095237,63.73015873015873,325.0,-0.3968253968253968,-6.428571428571428,-1.6666666666666665,-26.428571428571427,0.3968253968253968,-29.76190476190476,-2.619047619047619,-35.317460317460316,-8.015873015873016,54.841269841269835,325.0,-0.23809523809523808,-0.23809523809523808,-166.26984126984127
278.17460317460313,-7.5396825396825395,2.9365079365079363,-7.3809523809523805,1.984126984126984,-30.555555555555554,0.7142857142857142,-30.238095238095237,63.73015873015873,325.0,-0.3968253968253968,-6.428571428571428,-1.6666666666666665,-26.428571428571427,0.3968253968253968,-29.76190476190476,-2.619047619047619,-35.317460317460316,-8.015873015873016,54.841269841269835,325.0,-0.23809523809523808,-0.23809523809523808,-166.26984126984127
278.17460317460313,-7.5396825396825395,2.9365079365079363,-7.3809523809523805,1.984126984126984,-30.555555555555554,0.7142857142857142,-30.238095238095237,63.73015873015873,325.0,-0.3968253968253968,-6.428571428571428,-1.6666666666666665,-26.428571428571427,0.3968253968253968,-29.76190476190476,-2.619047619047619,-35.317460317460316,-8.015873015873016,54.841269841269835,325.0,-0.23809523809523808,-0.23809523809523808,-166.26984126984127
231.19047619047618,45.476190476190474,79.12698412698413,-4.523809523809524,80.55555555555556,-25.79365079365079,78.4920634920635,-25.634920634920633,53.095238095238095,279.2857142857143,78.96825396825396,-1.8253968253968254,77.85714285714285,-22.46031746031746,77.6984126984127,-25.0,-89.44444444444444,-29.920634920634917,-4.0476190476190474,46.11111111111111,325.0,-11.984126984126984,-18.015873015873016,-166.26984126984127
231.19047619047618,45.476190476190474,79.12698412698413,-4.523809523809524,80.55555555555556,-25.79365079365079,78.4920634920635,-25.634920634920633,53.095238095238095,279.2857142857143,78.96825396825396,-1.8253968253968254,77.85714285714285,-22.46031746031746,77.6984126984127,-25.0,-89.44444444444444,-29.920634920634917,-4.0476190476190474,46.11111111111111,325.0,-11.984126984126984,-18.015873015873016,-166.26984126984127
231.19047619047618,45.476190476190474,79.12698412698413,-4.523809523809524,80.55555555555556,-25.79365079365079,78.4920634920635,-25.634920634920633,53.095238095238095,279.2857142857143,78.96825396825396,-1.8253968253968254,77.85714285714285,-22.46031746031746,77.6984126984127,-25.0,-89.44444444444444,-29.920634920634917,-4.0476190476190474,46.11111111111111,325.0,-11.984126984126984,-18.015873015873016,-321.8253968253968
231.19047619047618,45.476190476190474,79.12698412698413,-4.523809523809524,80.55555555555556,-25.79365079365079,78.4920634920635,-25.634920634920633,53.095238095238095,279.2857142857143,78.96825396825396,-1.8253968253968254,77.85714285714285,-22.46031746031746,77.6984126984127,-25.0,-89.44444444444444,-29.920634920634917,-4.0476190476190474,46.11111111111111,325.0,-11.984126984126984,-18.015873015873016,-321.8253968253968
231.19047619047618,45.476190476190474,79.12698412698413,-4.523809523809524,80.55555555555556,-25.79365079365079,78.4920634920635,-25.634920634920633,53.095238095238095,279.2857142857143,78.96825396825396,-1.8253968253968254,77.85714285714285,-22.46031746031746,77.6984126984127,-25.0,-89.44444444444444,-29.920634920634917,-4.0476190476190474,46.11111111111111,325.0,-11.984126984126984,-18.015873015873016,-321.8253968253968
231.19047619047618,45.476190476190474,79.12698412698413,-4.523809523809524,80.55555555555556,-25.79365079365079,78.4920634920635,-25.634920634920633,53.095238095238095,279.2857142857143,78.96825396825396,-1.8253968253968254,77.85714285714285,-22.46031746031746,77.6984126984127,-25.0,-89.44444444444444,-29.920634920634917,-4.0476190476190474,46.11111111111111,325.0,-11.984126984126984,-18.015873015873016,-321.8253968253968
231.19047619047618,45.476190476190474,79.12698412698413,-4.523809523809524,80.55555555555556,-25.79365079365079,78.4920634920635,-25.634920634920633,53.095238095238095,279.2857142857143,78.96825396825396,-1.8253968253968254,77.85714285714285,-22.46031746031746,77.6984126984127,-25.0,-89.44444444444444,-29.920634920634917,-4.0476190476190474,46.11111111111111,325.0,-11.984126984126984,-18.015873015873016,-321.8253968253968
231.19047619047618,45.476190476190474,79.12698412698413,-4.523809523809524,80.55555555555556,-25.79365079365079,78.4920634920635,-25.634920634920633,53.095238095238095,279.2857142857143,78.96825396825396,-1.8253968253968254,77.85714285714285,-22.46031746031746,77.6984126984127,-25.0,-89.44444444444444,-29.920634920634917,-4.0476190476190474,46.11111111111111,325.0,-11.984126984126984,-18.015873015873016,-321.8253968253968
231.19047619047618,45.476190476190474,79.12698412698413,-4.523809523809524,80.55555555555556,-25.79365079365079,78.4920634920635,-25.634920634920633,53.095238095238095,279.2857142857143,78.96825396825396,-1.8253968253968254,77.85714285714285,-22.46031746031746,77.6984126984127,-25.0,-89.44444444444444,-29.920634920634917,-4.0476190476190474,46.11111111111111,325.0,-11.984126984126984,-18.015873015873016,-321.8253968253968
231.19047619047618,45.476190476190474,79.12698412698413,-4.523809523809524,80.55555555555556,-25.79365079365079,78.4920634920635,-25.634920634920633,53.095238095238095,279.2857142857143,78.96825396825396,-1.8253968253968254,77.85714285714285,-22.46031746031746,77.6984126984127,-25.0,-89.44444444444444,-29.920634920634917,-4.0476190476190474,46.11111111111111,325.0,-11.984126984126984,-18.015873015873016,-321.8253968253968
207.38095238095238,2.3015873015873014,123.57142857142857,-1.507936507936508,124.2063492063492,-23.41269841269841,124.36507936507935,-23.57142857142857,48.01587301587301,-22.936507936507937,124.36507936507935,0.07936507936507936,122.77777777777777,-20.396825396825395,122.77777777777777,-22.777777777777775,-145.15873015873015,-27.22222222222222,-1.6666666666666665,41.34920634920635,325.0,-0.873015873015873,-1.0317460317460316,-321.8253968253968
207.38095238095238,2.3015873015873014,123.57142857142857,-1.507936507936508,124.2063492063492,-23.41269841269841,124.36507936507935,-23.57142857142857,48.01587301587301,-22.936507936507937,124.36507936507935,0.07936507936507936,122.77777777777777,-20.396825396825395,122.77777777777777,-22.777777777777775,-145.15873015873015,-27.22222222222222,-1.6666666666666665,41.34920634920635,325.0,-0.873015873015873,-1.0317460317460316,-321.8253968253968
183.7301587301587,-40.87301587301587,168.17460317460316,1.507936507936508,167.85714285714286,-20.873015873015873,170.23809523809524,-21.507936507936506,42.93650793650794,-325.0,169.9206349206349,2.142857142857143,167.69841269841268,-18.174603174603174,167.85714285714286,-20.396825396825395,-200.87301587301587,-24.523809523809522,0.873015873015873,36.74603174603175,325.0,10.238095238095237,15.95238095238095,-166.26984126984127
183.7301587301587,-40.87301587301587,168.17460317460316,1.507936507936508,167.85714285714286,-20.873015873015873,170.23809523809524,-21.507936507936506,42.93650793650794,-325.0,169.9206349206349,2.142857142857143,167.69841269841268,-18.174603174603174,167.85714285714286,-20.396825396825395,-200.87301587301587,-24.523809523809522,0.873015873015873,36.74603174603175,325.0,10.238095238095237,15.95238095238095,-166.26984126984127
178.96825396825395,-39.6031746031746,144.84126984126982,-3.095238095238095,146.11111111111111,-20.396825396825395,145.0,-21.03174603174603,41.666666666666664,-325.0,146.42857142857142,-1.349206349206349,148.17460317460316,-17.698412698412696,142.77777777777777,-19.92063492063492,-218.96825396825395,-24.047619047619047,-2.9365079365079363,35.95238095238095,325.0,2.9365079365079363,6.428571428571428,-166.26984126984127
178.96825396825395,-39.6031746031746,144.84126984126982,-3.095238095238095,146.11111111111111,-20.396825396825395,145.0,-21.03174603174603,41.666666666666664,-325.0,146.42857142857142,-1.349206349206349,148.17460317460316,-17.698412698412696,142.77777777777777,-19.92063492063492,-218.96825396825395,-24.047619047619047,-2.9365079365079363,35.95238095238095,325.0,2.9365079365079363,6.428571428571428,-166.26984126984127
174.84126984126982,-38.65079365079365,161.5079365079365,0.5555555555555556,163.57142857142856,-20.07936507936508,165.3174603174603,-20.396825396825395,40.714285714285715,-325.0,167.06349206349205,1.8253968253968254,166.42857142857142,-17.38095238095238,165.15873015873015,-19.444444444444443,-264.5238095238095,-23.57142857142857,0.07936507936507936,35.15873015873016,325.0,-7.5396825396825395,-12.3015873015873,-166.26984126984127
174.84126984126982,-38.65079365079365,161.5079365079365,0.5555555555555556,163.57142857142856,-20.07936507936508,165.3174603174603,-20.396825396825395,40.714285714285715,-325.0,167.06349206349205,1.8253968253968254,166.42857142857142,-17.38095238095238,165.15873015873015,-19.444444444444443,-264.5238095238095,-23.57142857142857,0.07936507936507936,35.15873015873016,325.0,-7.5396825396825395,-12.3015873015873,-166.26984126984127
171.8253968253968,-38.01587301587301,150.55555555555554,1.1904761904761905,151.03174603174602,-19.76190476190476,151.34920634920633,-20.07936507936508,40.079365079365076,-325.0,156.42857142857142,2.46031746031746,151.5079365079365,-17.22222222222222,149.44444444444443,-19.285714285714285,-274.2063492063492,-23.253968253968253,0.873015873015873,34.682539682539684,325.0,6.746031746031746,11.031746031746032,-166.26984126984127
171.8253968253968,-38.01587301587301,150.55555555555554,1.1904761904761905,151.03174603174602,-19.76190476190476,151.34920634920633,-20.07936507936508,40.079365079365076,-325.0,156.42857142857142,2.46031746031746,151.5079365079365,-17.22222222222222,149.44444444444443,-19.285714285714285,-274.2063492063492,-23.253968253968253,0.873015873015873,34.682539682539684,325.0,6.746031746031746,11.031746031746032,-166.26984126984127
168.8095238095238,-37.06349206349206,165.79365079365078,-7.857142857142857,167.38095238095238,-19.444444444444443,169.76190476190476,-19.76190476190476,39.44444444444444,-149.12698412698413,174.36507936507937,-7.222222222222221,169.9206349206349,-16.746031746031743,169.12698412698413,-18.80952380952381,-299.76190476190476,-22.777777777777775,-8.809523809523808,34.2063492063492,325.0,-7.5396825396825395,-12.142857142857142,-166.26984126984127
168.8095238095238,-37.06349206349206,165.79365079365078,-7.857142857142857,167.38095238095238,-19.444444444444443,169.76190476190476,-19.76190476190476,39.44444444444444,-149.12698412698413,174.36507936507937,-7.222222222222221,169.9206349206349,-16.746031746031743,169.12698412698413,-18.80952380952381,-299.76190476190476,-22.777777777777775,-8.809523809523808,34.2063492063492,325.0,-7.5396825396825395,-12.142857142857142,-166.26984126984127
165.79365079365078,-36.42857142857142,174.52380952380952,-9.444444444444445,175.47619047619045,-19.126984126984127,176.42857142857142,-19.6031746031746,38.65079365079365,-27.063492063492063,265.3174603174603,-8.65079365079365,178.17460317460316,-16.587301587301585,174.52380952380952,-18.65079365079365,-314.2063492063492,-22.619047619047617,-9.920634920634921,33.57142857142857,325.0,5.634920634920634,11.825396825396824,-321.8253968253968
165.79365079365078,-36.42857142857142,174.52380952380952,-9.444444444444445,175.47619047619045,-19.126984126984127,176.42857142857142,-19.6031746031746,38.65079365079365,-27.063492063492063,265.3174603174603,-8.65079365079365,178.17460317460316,-16.587301587301585,174.52380952380952,-18.65079365079365,-314.2063492063492,-22.619047619047617,-9.920634920634921,33.57142857142857,325.0,5.634920634920634,11.825396825396824,-321.8253968253968
162.93650793650792,-35.79365079365079,149.6031746031746,-2.9365079365079363,152.14285714285714,-18.65079365079365,154.36507936507937,-18.96825396825397,38.01587301587301,-247.53968253968253,236.42857142857142,-2.3015873015873014,154.36507936507937,-16.428571428571427,154.68253968253967,-18.174603174603174,-323.4126984126984,-22.142857142857142,-3.888888888888889,32.93650793650794,325.0,-7.3809523809523805,-11.666666666666666,-321.8253968253968
162.93650793650792,-35.79365079365079,149.6031746031746,-2.9365079365079363,152.14285714285714,-18.65079365079365,154.36507936507937,-18.96825396825397,38.01587301587301,-247.53968253968253,236.42857142857142,-2.3015873015873014,154.36507936507937,-16.428571428571427,154.68253968253967,-18.174603174603174,-323.4126984126984,-22.142857142857142,-3.888888888888889,32.93650793650794,325.0,-7.3809523809523805,-11.666666666666666,-321.8253968253968
162.3015873015873,-35.317460317460316,183.7301587301587,-7.5396825396825395,187.38095238095238,-18.65079365079365,191.03174603174602,-18.96825396825397,37.857142857142854,-325.0,258.8095238095238,-6.746031746031746,193.4126984126984,-16.428571428571427,190.07936507936506,-18.015873015873016,-325.0,-21.984126984126984,-8.809523809523808,32.93650793650794,325.0,-8.968253968253968,-14.523809523809524,-321.8253968253968
162.3015873015873,-35.317460317460316,183.7301587301587,-7.5396825396825395,187.38095238095238,-18.65079365079365,191.03174603174602,-18.96825396825397,37.857142857142854,-325.0,258.8095238095238,-6.746031746031746,193.4126984126984,-16.428571428571427,190.07936507936506,-18.015873015873016,-325.0,-21.984126984126984,-8.809523809523808,32.93650793650794,325.0,-8.968253968253968,-14.523809523809524,-321.8253968253968
157.38095238095238,-34.2063492063492,174.84126984126982,-7.698412698412698,177.06349206349205,-18.174603174603174,179.44444444444443,-18.49206349206349,36.74603174603175,-325.0,291.8253968253968,-7.222222222222221,179.60317460317458,-15.95238095238095,179.28571428571428,-17.698412698412696,-283.25396825396825,-21.666666666666664,-8.809523809523808,31.825396825396822,274.5238095238095,-7.857142857142857,-12.142857142857142,-321.8253968253968
157.38095238095238,-34.2063492063492,174.84126984126982,-7.698412698412698,177.06349206349205,-18.174603174603174,179.44444444444443,-18.49206349206349,36.74603174603175,-325.0,291.8253968253968,-7.222222222222221,179.60317460317458,-15.95238095238095,179.28571428571428,-17.698412698412696,-283.25396825396825,-21.666666666666664,-8.809523809523808,31.825396825396822,274.5238095238095,-7.857142857142857,-12.142857142857142,-321.8253968253968
150.3968253968254,-32.61904761904762,182.3015873015873,-11.825396825396824,185.0,-17.539682539682538,185.15873015873015,-17.698412698412696,35.15873015873016,-325.0,325.0,-10.555555555555555,187.2222222222222,-15.317460317460316,182.93650793650792,-17.063492063492063,-325.0,-20.71428571428571,-12.142857142857142,30.555555555555554,325.0,-1.8253968253968254,-2.142857142857143,-321.8253968253968
150.3968253968254,-32.61904761904762,182.3015873015873,-11.825396825396824,185.0,-17.539682539682538,185.15873015873015,-17.698412698412696,35.15873015873016,-325.0,325.0,-10.555555555555555,187.2222222222222,-15.317460317460316,182.93650793650792,-17.063492063492063,-325.0,-20.71428571428571,-12.142857142857142,30.555555555555554,325.0,-1.8253968253968254,-2.142857142857143,-321.8253968253968
147.85714285714286,-31.98412698412698,171.34920634920633,-11.19047619047619,173.25396825396825,-17.22222222222222,176.11111111111111,-17.698412698412696,34.682539682539684,-325.0,325.0,-12.142857142857142,175.3174603174603,-15.0,175.63492063492063,-16.904761904761905,-264.5238095238095,-20.555555555555554,-12.777777777777777,29.920634920634917,168.4920634920635,1.349206349206349,1.349206349206349,-166.26984126984127
147.85714285714286,-31.98412698412698,171.34920634920633,-11.19047619047619,173.25396825396825,-17.22222222222222,176.11111111111111,-17.698412698412696,34.682539682539684,-325.0,325.0,-12.142857142857142,175.3174603174603,-15.0,175.63492063492063,-16.904761904761905,-264.5238095238095,-20.555555555555554,-12.777777777777777,29.920634920634917,168.4920634920635,1.349206349206349,1.349206349206349,-166.26984126984127
145.15873015873015,-31.349206349206348,165.0,-8.492063492063492,167.53968253968253,-16.904761904761905,167.38095238095238,-17.22222222222222,34.047619047619044,-325.0,325.0,-7.063492063492063,169.76190476190476,-14.84126984126984,165.47619047619045,-16.746031746031743,-325.0,-20.238095238095237,-8.65079365079365,29.6031746031746,325.0,-3.253968253968254,-2.142857142857143,-166.26984126984127
145.15873015873015,-31.349206349206348,165.0,-8.492063492063492,167.53968253968253,-16.904761904761905,167.38095238095238,-17.22222222222222,34.047619047619044,-325.0,325.0,-7.063492063492063,169.76190476190476,-14.84126984126984,165.47619047619045,-16.746031746031743,-325.0,-20.238095238095237,-8.65079365079365,29.6031746031746,325.0,-3.253968253968254,-2.142857142857143,-166.26984126984127
144.52380952380952,-31.19047619047619,148.4920634920635,-4.841269841269841,150.23809523809524,-16.904761904761905,148.65079365079364,-17.38095238095238,34.047619047619044,-325.0,325.0,-3.571428571428571,151.66666666666666,-14.682539682539682,146.42857142857142,-16.904761904761905,-325.0,-20.238095238095237,-5.158730158730158,29.444444444444443,325.0,3.73015873015873,9.603174603174603,-166.26984126984127
144.52380952380952,-31.19047619047619,148.4920634920635,-4.841269841269841,150.23809523809524,-16.904761904761905,148.65079365079364,-17.38095238095238,34.047619047619044,-325.0,325.0,-3.571428571428571,151.66666666666666,-14.682539682539682,146.42857142857142,-16.904761904761905,-325.0,-20.238095238095237,-5.158730158730158,29.444444444444443,325.0,3.73015873015873,9.603174603174603,-166.26984126984127
141.984126984127,-30.555555555555554,151.8253968253968,-7.222222222222221,153.57142857142856,-16.746031746031743,151.19047619047618,-17.063492063492063,33.41269841269841,-3.253968253968254,325.0,-6.111111111111111,154.2063492063492,-14.523809523809524,148.4920634920635,-16.428571428571427,-325.0,-19.92063492063492,-7.5396825396825395,28.96825396825397,325.0,3.888888888888889,9.444444444444445,-166.26984126984127
141.984126984127,-30.555555555555554,151.8253968253968,-7.222222222222221,153.57142857142856,-16.746031746031743,151.19047619047618,-17.063492063492063,33.41269841269841,-3.253968253968254,325.0,-6.111111111111111,154.2063492063492,-14.523809523809524,148.4920634920635,-16.428571428571427,-325.0,-19.92063492063492,-7.5396825396825395,28.96825396825397,325.0,3.888888888888889,9.444444444444445,-166.26984126984127
137.53968253968253,-29.76190476190476,99.44444444444444,-10.555555555555555,101.03174603174602,-16.587301587301585,102.30158730158729,-16.587301587301585,31.825396825396822,325.0,325.0,-10.714285714285714,99.92063492063491,-14.206349206349206,101.66666666666666,-16.11111111111111,-325.0,-19.285714285714285,-11.19047619047619,28.174603174603174,255.3174603174603,-0.07936507936507936,0.23809523809523808,-166.26984126984127
137.53968253968253,-29.76190476190476,99.44444444444444,-10.555555555555555,101.03174603174602,-16.587301587301585,102.30158730158729,-16.587301587301585,31.825396825396822,325.0,325.0,-10.714285714285714,99.92063492063491,-14.206349206349206,101.66666666666666,-16.11111111111111,-325.0,-19.285714285714285,-11.19047619047619,28.174603174603174,255.3174603174603,-0.07936507936507936,0.23809523809523808,-166.26984126984127
135.79365079365078,-29.285714285714285,78.65079365079364,-5.952380952380952,83.57142857142857,-16.428571428571427,80.87301587301587,-16.428571428571427,31.507936507936506,325.0,325.0,-5.476190476190476,82.61904761904762,-14.047619047619047,81.03174603174602,-15.793650793650793,-325.0,-19.126984126984127,-6.746031746031746,27.857142857142854,285.95238095238096,-0.7142857142857142,-0.23809523809523808,-321.8253968253968
135.79365079365078,-29.285714285714285,78.65079365079364,-5.952380952380952,83.57142857142857,-16.428571428571427,80.87301587301587,-16.428571428571427,31.507936507936506,325.0,325.0,-5.476190476190476,82.61904761904762,-14.047619047619047,81.03174603174602,-15.793650793650793,-325.0,-19.126984126984127,-6.746031746031746,27.857142857142854,285.95238095238096,-0.7142857142857142,-0.23809523809523808,-321.8253968253968
133.25396825396825,-28.65079365079365,66.42857142857143,-3.253968253968254,74.68253968253968,-15.95238095238095,68.4920634920635,-16.11111111111111,25.476190476190474,325.0,325.0,-2.7777777777777777,69.6031746031746,-13.888888888888888,68.17460317460318,-15.317460317460316,-325.0,-18.80952380952381,-3.73015873015873,27.38095238095238,321.5079365079365,-1.349206349206349,-0.23809523809523808,-321.8253968253968
133.25396825396825,-28.65079365079365,66.42857142857143,-3.253968253968254,74.68253968253968,-15.95238095238095,68.4920634920635,-16.11111111111111,25.476190476190474,325.0,325.0,-2.7777777777777777,69.6031746031746,-13.888888888888888,68.17460317460318,-15.317460317460316,-325.0,-18.80952380952381,-3.73015873015873,27.38095238095238,321.5079365079365,-1.349206349206349,-0.23809523809523808,-321.8253968253968
129.12698412698413,-27.698412698412696,91.03174603174602,-6.746031746031746,201.03174603174602,-15.476190476190474,96.1111111111111,-15.793650793650793,4.0476190476190474,97.06349206349206,325.0,-5.634920634920634,96.26984126984127,-13.412698412698411,96.58730158730158,-15.0,-325.0,-18.333333333333332,-7.063492063492063,22.619047619047617,325.0,-8.492063492063492,-12.3015873015873,-321.8253968253968
129.12698412698413,-27.698412698412696,91.03174603174602,-6.746031746031746,201.03174603174602,-15.476190476190474,96.1111111111111,-15.793650793650793,4.0476190476190474,97.06349206349206,325.0,-5.634920634920634,96.26984126984127,-13.412698412698411,96.58730158730158,-15.0,-325.0,-18.333333333333332,-7.063492063492063,22.619047619047617,325.0,-8.492063492063492,-12.3015873015873,-321.8253968253968
126.42857142857142,-26.746031746031743,106.26984126984127,-9.920634920634921,262.46031746031747,-15.317460317460316,107.22222222222221,-15.476190476190474,-3.571428571428571,325.0,325.0,-7.698412698412698,109.28571428571428,-13.095238095238095,105.79365079365078,-14.682539682539682,-325.0,-18.015873015873016,-9.126984126984127,23.095238095238095,325.0,-9.285714285714285,-13.412698412698411,-321.8253968253968
126.42857142857142,-26.746031746031743,106.26984126984127,-9.920634920634921,262.46031746031747,-15.317460317460316,107.22222222222221,-15.476190476190474,-3.571428571428571,325.0,325.0,-7.698412698412698,109.28571428571428,-13.095238095238095,105.79365079365078,-14.682539682539682,-325.0,-18.015873015873016,-9.126984126984127,23.095238095238095,325.0,-9.285714285714285,-13.412698412698411,-321.8253968253968
123.57142857142857,-26.428571428571427,5.952380952380952,-5.634920634920634,325.0,-15.0,8.015873015873016,-15.476190476190474,-5.952380952380952,325.0,325.0,-4.841269841269841,6.428571428571428,-13.095238095238095,8.809523809523808,-14.523809523809524,-325.0,-17.698412698412696,-5.476190476190476,0.3968253968253968,325.0,-0.5555555555555556,-0.23809523809523808,-321.8253968253968
123.57142857142857,-26.428571428571427,5.952380952380952,-5.634920634920634,325.0,-15.0,8.015873015873016,-15.476190476190474,-5.952380952380952,325.0,325.0,-4.841269841269841,6.428571428571428,-13.095238095238095,8.809523809523808,-14.523809523809524,-325.0,-17.698412698412696,-5.476190476190476,0.3968253968253968,325.0,-0.5555555555555556,-0.23809523809523808,-321.8253968253968
121.34920634920634,-26.11111111111111,59.76190476190476,-9.761904761904761,325.0,-14.682539682539682,62.77777777777777,-15.0,-8.492063492063492,325.0,325.0,-7.857142857142857,65.79365079365078,-12.777777777777777,61.34920634920635,-14.206349206349206,-325.0,-17.38095238095238,-9.126984126984127,-2.3015873015873014,325.0,0.23809523809523808,-0.5555555555555556,-166.26984126984127
121.34920634920634,-26.11111111111111,59.76190476190476,-9.761904761904761,325.0,-14.682539682539682,62.77777777777777,-15.0,-8.492063492063492,325.0,325.0,-7.857142857142857,65.79365079365078,-12.777777777777777,61.34920634920635,-14.206349206349206,-325.0,-17.38095238095238,-9.126984126984127,-2.3015873015873014,325.0,0.23809523809523808,-0.5555555555555556,-166.26984126984127
