,Fp1[1],Fp2[2],F3[3],F4[4],C3[5],C4[6],P3[7],P4[8],O1[9],O2[10],F7[11],F8[12],T3[13],T4[14],T5[15],T6[16],Fz[17],Pz[18],Cz[19],Pg1[20],Pg2[21],EOGR[22],EOOGL[23],EMG[24]
0,325.0,6.746031746031746,-325.0,-325.0,325.0,-325.0,325.0,325.0,-325.0,-26.26984126984127,325.0,-51.666666666666664,56.11111111111111,-12.3015873015873,325.0,2.619047619047619,325.0,-325.0,325.0,-325.0,-325.0,5.7936507936507935,2.46031746031746,-166.26984126984127
1,325.0,6.746031746031746,-325.0,-325.0,325.0,-325.0,325.0,325.0,-325.0,-26.26984126984127,325.0,-51.666666666666664,56.11111111111111,-12.3015873015873,325.0,2.619047619047619,325.0,-325.0,325.0,-325.0,-325.0,5.7936507936507935,2.46031746031746,-166.26984126984127
2,325.0,58.650793650793645,-321.5079365079365,-325.0,325.0,-325.0,325.0,325.0,-325.0,-10.555555555555555,325.0,-11.19047619047619,-140.23809523809524,-6.746031746031746,325.0,7.5396825396825395,325.0,-325.0,325.0,-325.0,-325.0,-0.07936507936507936,-0.873015873015873,-166.26984126984127
3,325.0,58.650793650793645,-321.5079365079365,-325.0,325.0,-325.0,325.0,325.0,-325.0,-10.555555555555555,325.0,-11.19047619047619,-140.23809523809524,-6.746031746031746,325.0,7.5396825396825395,325.0,-325.0,325.0,-325.0,-325.0,-0.07936507936507936,-0.873015873015873,-166.26984126984127
4,325.0,81.03174603174602,-318.015873015873,-325.0,325.0,-325.0,325.0,325.0,-325.0,-0.7142857142857142,325.0,8.65079365079365,-325.0,-1.0317460317460316,325.0,13.095238095238095,325.0,-325.0,325.0,-325.0,-325.0,-13.253968253968253,-7.698412698412698,-166.26984126984127
5,325.0,81.03174603174602,-318.015873015873,-325.0,325.0,-325.0,325.0,325.0,-325.0,-0.7142857142857142,325.0,8.65079365079365,-325.0,-1.0317460317460316,325.0,13.095238095238095,325.0,-325.0,325.0,-325.0,-325.0,-13.253968253968253,-7.698412698412698,-166.26984126984127
6,325.0,81.03174603174602,-318.015873015873,-325.0,325.0,-325.0,325.0,325.0,-325.0,-0.7142857142857142,325.0,8.65079365079365,-325.0,-1.0317460317460316,325.0,13.095238095238095,325.0,-325.0,325.0,-325.0,-325.0,-13.253968253968253,-7.698412698412698,-166.26984126984127
7,325.0,81.03174603174602,-318.015873015873,-325.0,325.0,-325.0,325.0,325.0,-325.0,-0.7142857142857142,325.0,8.65079365079365,-325.0,-1.0317460317460316,325.0,13.095238095238095,325.0,-325.0,325.0,-325.0,-325.0,-13.253968253968253,-7.698412698412698,-166.26984126984127
8,319.1269841269841,89.6031746031746,-297.38095238095235,-325.0,325.0,-325.0,325.0,325.0,-325.0,2.619047619047619,325.0,23.095238095238095,-324.5238095238095,-1.507936507936508,325.0,12.46031746031746,325.0,-325.0,325.0,-325.0,-325.0,-12.936507936507935,-7.3809523809523805,-166.26984126984127
9,319.1269841269841,89.6031746031746,-297.38095238095235,-325.0,325.0,-325.0,325.0,325.0,-325.0,2.619047619047619,325.0,23.095238095238095,-324.5238095238095,-1.507936507936508,325.0,12.46031746031746,325.0,-325.0,325.0,-325.0,-325.0,-12.936507936507935,-7.3809523809523805,-166.26984126984127
10,313.4126984126984,98.33333333333333,-276.74603174603175,-325.0,325.0,-325.0,325.0,325.0,-325.0,6.111111111111111,325.0,37.698412698412696,-324.04761904761904,-1.8253968253968254,325.0,11.825396825396824,325.0,-325.0,325.0,-325.0,-325.0,-12.46031746031746,-6.904761904761904,-321.8253968253968
11,313.4126984126984,98.33333333333333,-276.74603174603175,-325.0,325.0,-325.0,325.0,325.0,-325.0,6.111111111111111,325.0,37.698412698412696,-324.04761904761904,-1.8253968253968254,325.0,11.825396825396824,325.0,-325.0,325.0,-325.0,-325.0,-12.46031746031746,-6.904761904761904,-321.8253968253968
12,313.4126984126984,98.33333333333333,-276.74603174603175,-325.0,325.0,-325.0,325.0,325.0,-325.0,6.111111111111111,325.0,37.698412698412696,-324.04761904761904,-1.8253968253968254,325.0,11.825396825396824,325.0,-325.0,325.0,-325.0,-325.0,-12.46031746031746,-6.904761904761904,-321.8253968253968
13,313.4126984126984,98.33333333333333,-276.74603174603175,-325.0,325.0,-325.0,325.0,325.0,-325.0,6.111111111111111,325.0,37.698412698412696,-324.04761904761904,-1.8253968253968254,325.0,11.825396825396824,325.0,-325.0,325.0,-325.0,-325.0,-12.46031746031746,-6.904761904761904,-321.8253968253968
14,279.1269841269841,103.73015873015872,-247.2222222222222,-325.0,325.0,-293.0952380952381,277.6984126984127,325.0,-325.0,14.365079365079364,325.0,65.31746031746032,-288.6507936507936,3.888888888888889,325.0,15.158730158730158,325.0,-292.77777777777777,325.0,-325.0,-325.0,7.222222222222221,4.523809523809524,-321.8253968253968
15,279.1269841269841,103.73015873015872,-247.2222222222222,-325.0,325.0,-293.0952380952381,277.6984126984127,325.0,-325.0,14.365079365079364,325.0,65.31746031746032,-288.6507936507936,3.888888888888889,325.0,15.158730158730158,325.0,-292.77777777777777,325.0,-325.0,-325.0,7.222222222222221,4.523809523809524,-321.8253968253968
16,279.1269841269841,103.73015873015872,-247.2222222222222,-325.0,325.0,-293.0952380952381,277.6984126984127,325.0,-325.0,14.365079365079364,325.0,65.31746031746032,-288.6507936507936,3.888888888888889,325.0,15.158730158730158,325.0,-292.77777777777777,325.0,-325.0,-325.0,7.222222222222221,4.523809523809524,-321.8253968253968
17,279.1269841269841,103.73015873015872,-247.2222222222222,-325.0,325.0,-293.0952380952381,277.6984126984127,325.0,-325.0,14.365079365079364,325.0,65.31746031746032,-288.6507936507936,3.888888888888889,325.0,15.158730158730158,325.0,-292.77777777777777,325.0,-325.0,-325.0,7.222222222222221,4.523809523809524,-321.8253968253968
18,279.1269841269841,103.73015873015872,-247.2222222222222,-325.0,325.0,-293.0952380952381,277.6984126984127,325.0,-325.0,14.365079365079364,325.0,65.31746031746032,-288.6507936507936,3.888888888888889,325.0,15.158730158730158,325.0,-292.77777777777777,325.0,-325.0,-325.0,7.222222222222221,4.523809523809524,-321.8253968253968
19,279.1269841269841,103.73015873015872,-247.2222222222222,-325.0,325.0,-293.0952380952381,277.6984126984127,325.0,-325.0,14.365079365079364,325.0,65.31746031746032,-288.6507936507936,3.888888888888889,325.0,15.158730158730158,325.0,-292.77777777777777,325.0,-325.0,-325.0,7.222222222222221,4.523809523809524,-321.8253968253968
20,279.1269841269841,103.73015873015872,-247.2222222222222,-325.0,325.0,-293.0952380952381,277.6984126984127,325.0,-325.0,14.365079365079364,325.0,65.31746031746032,-288.6507936507936,3.888888888888889,325.0,15.158730158730158,325.0,-292.77777777777777,325.0,-325.0,-325.0,7.222222222222221,4.523809523809524,-166.26984126984127
21,279.1269841269841,103.73015873015872,-247.2222222222222,-325.0,325.0,-293.0952380952381,277.6984126984127,325.0,-325.0,14.365079365079364,325.0,65.31746031746032,-288.6507936507936,3.888888888888889,325.0,15.158730158730158,325.0,-292.77777777777777,325.0,-325.0,-325.0,7.222222222222221,4.523809523809524,-166.26984126984127
22,252.14285714285714,94.2063492063492,-224.04761904761904,-313.88888888888886,295.6349206349206,-266.1111111111111,-23.730158730158728,304.68253968253964,-313.57142857142856,18.49206349206349,297.6984126984127,79.76190476190476,-261.3492063492063,9.285714285714285,295.1587301587301,16.746031746031743,315.4761904761905,-266.26984126984127,302.77777777777777,-297.85714285714283,-296.26984126984127,8.333333333333332,5.317460317460317,-166.26984126984127
23,252.14285714285714,94.2063492063492,-224.04761904761904,-313.88888888888886,295.6349206349206,-266.1111111111111,-23.730158730158728,304.68253968253964,-313.57142857142856,18.49206349206349,297.6984126984127,79.76190476190476,-261.3492063492063,9.285714285714285,295.1587301587301,16.746031746031743,315.4761904761905,-266.26984126984127,302.77777777777777,-297.85714285714283,-296.26984126984127,8.333333333333332,5.317460317460317,-166.26984126984127
24,225.3174603174603,84.68253968253968,-200.87301587301587,-302.77777777777777,266.4285714285714,-238.96825396825395,-325.0,284.5238095238095,-301.984126984127,22.619047619047617,270.39682539682536,94.36507936507935,-233.88888888888889,14.84126984126984,265.4761904761905,18.49206349206349,306.1111111111111,-239.60317460317458,280.55555555555554,-270.7142857142857,-267.53968253968253,9.444444444444445,6.26984126984127,-166.26984126984127
25,225.3174603174603,84.68253968253968,-200.87301587301587,-302.77777777777777,266.4285714285714,-238.96825396825395,-325.0,284.5238095238095,-301.984126984127,22.619047619047617,270.39682539682536,94.36507936507935,-233.88888888888889,14.84126984126984,265.4761904761905,18.49206349206349,306.1111111111111,-239.60317460317458,280.55555555555554,-270.7142857142857,-267.53968253968253,9.444444444444445,6.26984126984127,-166.26984126984127
26,217.38095238095238,72.3015873015873,-194.04761904761904,-292.46031746031747,257.6984126984127,-231.03174603174602,-325.0,157.69841269841268,-292.3015873015873,17.063492063492063,261.1904761904762,87.38095238095238,-225.63492063492063,9.444444444444445,256.90476190476187,11.666666666666666,295.6349206349206,-231.66666666666666,124.84126984126983,-261.1904761904762,-258.17460317460313,-0.5555555555555556,-1.0317460317460316,-166.26984126984127
27,217.38095238095238,72.3015873015873,-194.04761904761904,-292.46031746031747,257.6984126984127,-231.03174603174602,-325.0,157.69841269841268,-292.3015873015873,17.063492063492063,261.1904761904762,87.38095238095238,-225.63492063492063,9.444444444444445,256.90476190476187,11.666666666666666,295.6349206349206,-231.66666666666666,124.84126984126983,-261.1904761904762,-258.17460317460313,-0.5555555555555556,-1.0317460317460316,-166.26984126984127
28,215.47619047619045,68.17460317460318,-192.14285714285714,-289.76190476190476,255.47619047619045,-228.96825396825395,-325.0,106.58730158730158,-289.6031746031746,15.158730158730158,258.968253968254,84.68253968253968,-223.88888888888889,7.698412698412698,254.84126984126982,9.603174603174603,292.9365079365079,-229.76190476190476,82.14285714285714,-258.968253968254,-255.63492063492063,7.5396825396825395,3.571428571428571,-166.26984126984127
29,215.47619047619045,68.17460317460318,-192.14285714285714,-289.76190476190476,255.47619047619045,-228.96825396825395,-325.0,106.58730158730158,-289.6031746031746,15.158730158730158,258.968253968254,84.68253968253968,-223.88888888888889,7.698412698412698,254.84126984126982,9.603174603174603,292.9365079365079,-229.76190476190476,82.14285714285714,-258.968253968254,-255.63492063492063,7.5396825396825395,3.571428571428571,-166.26984126984127
30,202.3015873015873,-128.8095238095238,-181.19047619047618,-272.6190476190476,240.87301587301587,-215.63492063492063,-325.0,-191.19047619047618,-273.0952380952381,11.349206349206348,244.2063492063492,79.76190476190476,-210.3968253968254,4.365079365079365,240.07936507936506,4.682539682539682,275.6349206349206,-216.74603174603175,-195.79365079365078,-243.7301587301587,-240.2380952380952,9.920634920634921,6.26984126984127,-321.8253968253968
31,202.3015873015873,-128.8095238095238,-181.19047619047618,-272.6190476190476,240.87301587301587,-215.63492063492063,-325.0,-191.19047619047618,-273.0952380952381,11.349206349206348,244.2063492063492,79.76190476190476,-210.3968253968254,4.365079365079365,240.07936507936506,4.682539682539682,275.6349206349206,-216.74603174603175,-195.79365079365078,-243.7301587301587,-240.2380952380952,9.920634920634921,6.26984126984127,-321.8253968253968
32,195.15873015873015,-325.0,-174.68253968253967,-262.9365079365079,232.77777777777777,-208.015873015873,-325.0,-325.0,-263.88888888888886,6.904761904761904,235.95238095238093,73.57142857142857,-202.77777777777777,0.5555555555555556,231.98412698412696,0.23809523809523808,265.95238095238096,-209.28571428571428,-325.0,-235.15873015873015,-231.34920634920633,9.920634920634921,6.26984126984127,-321.8253968253968
33,195.15873015873015,-325.0,-174.68253968253967,-262.9365079365079,232.77777777777777,-208.015873015873,-325.0,-325.0,-263.88888888888886,6.904761904761904,235.95238095238093,73.57142857142857,-202.77777777777777,0.5555555555555556,231.98412698412696,0.23809523809523808,265.95238095238096,-209.28571428571428,-325.0,-235.15873015873015,-231.34920634920633,9.920634920634921,6.26984126984127,-321.8253968253968
34,195.15873015873015,-325.0,-174.68253968253967,-262.9365079365079,232.77777777777777,-208.015873015873,-325.0,-325.0,-263.88888888888886,6.904761904761904,235.95238095238093,73.57142857142857,-202.77777777777777,0.5555555555555556,231.98412698412696,0.23809523809523808,265.95238095238096,-209.28571428571428,-325.0,-235.15873015873015,-231.34920634920633,9.920634920634921,6.26984126984127,-321.8253968253968
35,195.15873015873015,-325.0,-174.68253968253967,-262.9365079365079,232.77777777777777,-208.015873015873,-325.0,-325.0,-263.88888888888886,6.904761904761904,235.95238095238093,73.57142857142857,-202.77777777777777,0.5555555555555556,231.98412698412696,0.23809523809523808,265.95238095238096,-209.28571428571428,-325.0,-235.15873015873015,-231.34920634920633,9.920634920634921,6.26984126984127,-321.8253968253968
36,186.74603174603175,-325.0,-167.53968253968253,-251.8253968253968,223.09523809523807,-199.60317460317458,-325.0,-325.0,-253.09523809523807,1.507936507936508,226.26984126984127,65.31746031746032,-194.36507936507937,-3.571428571428571,222.3015873015873,-5.7936507936507935,254.84126984126982,-200.87301587301587,-325.0,-225.47619047619045,-221.5079365079365,-0.5555555555555556,-0.23809523809523808,-321.8253968253968
37,186.74603174603175,-325.0,-167.53968253968253,-251.8253968253968,223.09523809523807,-199.60317460317458,-325.0,-325.0,-253.09523809523807,1.507936507936508,226.26984126984127,65.31746031746032,-194.36507936507937,-3.571428571428571,222.3015873015873,-5.7936507936507935,254.84126984126982,-200.87301587301587,-325.0,-225.47619047619045,-221.5079365079365,-0.5555555555555556,-0.23809523809523808,-321.8253968253968
38,160.07936507936506,-325.0,-144.04761904761904,-216.42857142857142,192.77777777777777,-172.46031746031744,-325.0,-325.0,-218.96825396825395,0.3968253968253968,195.63492063492063,51.666666666666664,-167.06349206349205,-2.9365079365079363,191.98412698412696,-8.492063492063492,219.28571428571428,-173.73015873015873,-325.0,-194.2063492063492,-189.9206349206349,-11.666666666666666,-8.174603174603174,-321.8253968253968
39,160.07936507936506,-325.0,-144.04761904761904,-216.42857142857142,192.77777777777777,-172.46031746031744,-325.0,-325.0,-218.96825396825395,0.3968253968253968,195.63492063492063,51.666666666666664,-167.06349206349205,-2.9365079365079363,191.98412698412696,-8.492063492063492,219.28571428571428,-173.73015873015873,-325.0,-194.2063492063492,-189.9206349206349,-11.666666666666666,-8.174603174603174,-321.8253968253968
40,160.07936507936506,-325.0,-144.04761904761904,-216.42857142857142,192.77777777777777,-172.46031746031744,-325.0,-325.0,-218.96825396825395,0.3968253968253968,195.63492063492063,51.666666666666664,-167.06349206349205,-2.9365079365079363,191.98412698412696,-8.492063492063492,219.28571428571428,-173.73015873015873,-325.0,-194.2063492063492,-189.9206349206349,-11.666666666666666,-8.174603174603174,-166.26984126984127
41,160.07936507936506,-325.0,-144.04761904761904,-216.42857142857142,192.77777777777777,-172.46031746031744,-325.0,-325.0,-218.96825396825395,0.3968253968253968,195.63492063492063,51.666666666666664,-167.06349206349205,-2.9365079365079363,191.98412698412696,-8.492063492063492,219.28571428571428,-173.73015873015873,-325.0,-194.2063492063492,-189.9206349206349,-11.666666666666666,-8.174603174603174,-166.26984126984127
42,160.07936507936506,-325.0,-144.04761904761904,-216.42857142857142,192.77777777777777,-172.46031746031744,-325.0,-325.0,-218.96825396825395,0.3968253968253968,195.63492063492063,51.666666666666664,-167.06349206349205,-2.9365079365079363,191.98412698412696,-8.492063492063492,219.28571428571428,-173.73015873015873,-325.0,-194.2063492063492,-189.9206349206349,-11.666666666666666,-8.174603174603174,-166.26984126984127
43,160.07936507936506,-325.0,-144.04761904761904,-216.42857142857142,192.77777777777777,-172.46031746031744,-325.0,-325.0,-218.96825396825395,0.3968253968253968,195.63492063492063,51.666666666666664,-167.06349206349205,-2.9365079365079363,191.98412698412696,-8.492063492063492,219.28571428571428,-173.73015873015873,-325.0,-194.2063492063492,-189.9206349206349,-11.666666666666666,-8.174603174603174,-166.26984126984127
44,117.06349206349206,-325.0,-107.06349206349206,-160.23809523809524,143.09523809523807,200.07936507936506,-325.0,-325.0,-163.57142857142856,5.158730158730158,145.47619047619048,19.285714285714285,-123.57142857142857,12.619047619047619,142.61904761904762,-4.682539682539682,161.5079365079365,-130.23809523809524,-325.0,-144.36507936507937,-139.44444444444443,5.317460317460317,2.46031746031746,-166.26984126984127
45,117.06349206349206,-325.0,-107.06349206349206,-160.23809523809524,143.09523809523807,200.07936507936506,-325.0,-325.0,-163.57142857142856,5.158730158730158,145.47619047619048,19.285714285714285,-123.57142857142857,12.619047619047619,142.61904761904762,-4.682539682539682,161.5079365079365,-130.23809523809524,-325.0,-144.36507936507937,-139.44444444444443,5.317460317460317,2.46031746031746,-166.26984126984127
46,116.58730158730158,-325.0,-106.58730158730158,-159.6031746031746,142.46031746031744,232.77777777777777,-325.0,-325.0,-162.93650793650792,6.26984126984127,145.0,18.96825396825397,-122.93650793650794,13.571428571428571,141.8253968253968,-3.253968253968254,160.7142857142857,-129.6031746031746,-325.0,-143.88888888888889,-138.8095238095238,-1.349206349206349,-1.8253968253968254,-166.26984126984127
47,116.58730158730158,-325.0,-106.58730158730158,-159.6031746031746,142.46031746031744,232.77777777777777,-325.0,-325.0,-162.93650793650792,6.26984126984127,145.0,18.96825396825397,-122.93650793650794,13.571428571428571,141.8253968253968,-3.253968253968254,160.7142857142857,-129.6031746031746,-325.0,-143.88888888888889,-138.8095238095238,-1.349206349206349,-1.8253968253968254,-166.26984126984127
48,116.58730158730158,-325.0,-106.58730158730158,-159.6031746031746,142.46031746031744,232.77777777777777,-325.0,-325.0,-162.93650793650792,6.26984126984127,145.0,18.96825396825397,-122.93650793650794,13.571428571428571,141.8253968253968,-3.253968253968254,160.7142857142857,-129.6031746031746,-325.0,-143.88888888888889,-138.8095238095238,-1.349206349206349,-1.8253968253968254,-166.26984126984127
49,116.58730158730158,-325.0,-106.58730158730158,-159.6031746031746,142.46031746031744,232.77777777777777,-325.0,-325.0,-162.93650793650792,6.26984126984127,145.0,18.96825396825397,-122.93650793650794,13.571428571428571,141.8253968253968,-3.253968253968254,160.7142857142857,-129.6031746031746,-325.0,-143.88888888888889,-138.8095238095238,-1.349206349206349,-1.8253968253968254,-166.26984126984127
50,-316.74603174603175,295.95238095238096,285.1587301587301,-284.36507936507934,-252.77777777777777,192.3015873015873,-163.88888888888889,-311.66666666666663,82.61904761904762,-99.6031746031746,124.68253968253967,100.23809523809523,-122.93650793650794,33.888888888888886,-183.25396825396825,-23.57142857142857,-184.68253968253967,-149.9206349206349,-304.68253968253964,-123.57142857142857,165.95238095238093,-21.666666666666664,-22.142857142857142,-321.8253968253968
51,-316.74603174603175,295.95238095238096,285.1587301587301,-284.36507936507934,-252.77777777777777,192.3015873015873,-163.88888888888889,-311.66666666666663,82.61904761904762,-99.6031746031746,124.68253968253967,100.23809523809523,-122.93650793650794,33.888888888888886,-183.25396825396825,-23.57142857142857,-184.68253968253967,-149.9206349206349,-304.68253968253964,-123.57142857142857,165.95238095238093,-21.666666666666664,-22.142857142857142,-321.8253968253968
52,-316.74603174603175,295.95238095238096,285.1587301587301,-284.36507936507934,-252.77777777777777,192.3015873015873,-163.88888888888889,-311.66666666666663,82.61904761904762,-99.6031746031746,124.68253968253967,100.23809523809523,-122.93650793650794,33.888888888888886,-183.25396825396825,-23.57142857142857,-184.68253968253967,-149.9206349206349,-304.68253968253964,-123.57142857142857,165.95238095238093,-21.666666666666664,-22.142857142857142,-321.8253968253968
53,-316.74603174603175,295.95238095238096,285.1587301587301,-284.36507936507934,-252.77777777777777,192.3015873015873,-163.88888888888889,-311.66666666666663,82.61904761904762,-99.6031746031746,124.68253968253967,100.23809523809523,-122.93650793650794,33.888888888888886,-183.25396825396825,-23.57142857142857,-184.68253968253967,-149.9206349206349,-304.68253968253964,-123.57142857142857,165.95238095238093,-21.666666666666664,-22.142857142857142,-321.8253968253968
54,106.26984126984127,-325.0,-97.85714285714285,-146.11111111111111,131.19047619047618,325.0,-325.0,-325.0,-149.76190476190476,10.873015873015872,132.77777777777777,18.174603174603174,-112.46031746031746,22.619047619047617,130.23809523809524,1.8253968253968254,147.2222222222222,-119.28571428571428,-325.0,-131.5079365079365,-126.9047619047619,2.46031746031746,0.873015873015873,-321.8253968253968
55,106.26984126984127,-325.0,-97.85714285714285,-146.11111111111111,131.19047619047618,325.0,-325.0,-325.0,-149.76190476190476,10.873015873015872,132.77777777777777,18.174603174603174,-112.46031746031746,22.619047619047617,130.23809523809524,1.8253968253968254,147.2222222222222,-119.28571428571428,-325.0,-131.5079365079365,-126.9047619047619,2.46031746031746,0.873015873015873,-321.8253968253968
56,103.09523809523809,-321.8253968253968,-95.0,-141.8253968253968,126.9047619047619,325.0,-325.0,-325.0,-145.3174603174603,14.682539682539682,129.12698412698413,19.126984126984127,-109.12698412698413,27.38095238095238,126.26984126984127,5.634920634920634,142.61904761904762,-115.79365079365078,-325.0,-127.85714285714285,-123.09523809523809,-5.476190476190476,-3.4126984126984126,-321.8253968253968
57,103.09523809523809,-321.8253968253968,-95.0,-141.8253968253968,126.9047619047619,325.0,-325.0,-325.0,-145.3174603174603,14.682539682539682,129.12698412698413,19.126984126984127,-109.12698412698413,27.38095238095238,126.26984126984127,5.634920634920634,142.61904761904762,-115.79365079365078,-325.0,-127.85714285714285,-123.09523809523809,-5.476190476190476,-3.4126984126984126,-321.8253968253968
58,102.61904761904762,-320.39682539682536,-94.52380952380952,-141.34920634920636,126.42857142857142,325.0,-325.0,-325.0,-144.84126984126982,12.777777777777777,128.4920634920635,17.22222222222222,-108.65079365079364,25.158730158730158,125.79365079365078,3.571428571428571,141.984126984127,-115.15873015873015,-325.0,-127.22222222222221,-122.6190476190476,1.984126984126984,1.1904761904761905,-321.8253968253968
59,102.61904761904762,-320.39682539682536,-94.52380952380952,-141.34920634920636,126.42857142857142,325.0,-325.0,-325.0,-144.84126984126982,12.777777777777777,128.4920634920635,17.22222222222222,-108.65079365079364,25.158730158730158,125.79365079365078,3.571428571428571,141.984126984127,-115.15873015873015,-325.0,-127.22222222222221,-122.6190476190476,1.984126984126984,1.1904761904761905,-321.8253968253968
60,99.44444444444444,-311.031746031746,-91.82539682539682,-136.58730158730157,122.6190476190476,325.0,-325.0,-325.0,-140.3968253968254,3.571428571428571,124.68253968253967,-250.87301587301585,-105.47619047619047,16.746031746031743,121.98412698412697,-5.0,137.53968253968253,-111.98412698412697,-325.0,-123.4126984126984,-118.49206349206348,-4.365079365079365,-1.984126984126984,-166.26984126984127
61,99.44444444444444,-311.031746031746,-91.82539682539682,-136.58730158730157,122.6190476190476,325.0,-325.0,-325.0,-140.3968253968254,3.571428571428571,124.68253968253967,-250.87301587301585,-105.47619047619047,16.746031746031743,121.98412698412697,-5.0,137.53968253968253,-111.98412698412697,-325.0,-123.4126984126984,-118.49206349206348,-4.365079365079365,-1.984126984126984,-166.26984126984127
62,97.53968253968253,-305.6349206349206,-90.23809523809523,-134.36507936507937,120.55555555555554,325.0,-325.0,-325.0,-138.015873015873,9.920634920634921,122.6190476190476,-203.88888888888889,-103.73015873015872,23.095238095238095,119.6031746031746,1.1904761904761905,135.0,-110.07936507936508,-325.0,-121.34920634920634,-116.74603174603173,3.4126984126984126,0.873015873015873,-166.26984126984127
63,97.53968253968253,-305.6349206349206,-90.23809523809523,-134.36507936507937,120.55555555555554,325.0,-325.0,-325.0,-138.015873015873,9.920634920634921,122.6190476190476,-203.88888888888889,-103.73015873015872,23.095238095238095,119.6031746031746,1.1904761904761905,135.0,-110.07936507936508,-325.0,-121.34920634920634,-116.74603174603173,3.4126984126984126,0.873015873015873,-166.26984126984127
64,95.79365079365078,-300.39682539682536,-88.65079365079364,-131.984126984127,118.33333333333333,325.0,-324.5238095238095,-325.0,-135.63492063492063,3.571428571428571,120.23809523809523,-325.0,-101.82539682539682,17.38095238095238,117.6984126984127,-5.158730158730158,132.61904761904762,-108.17460317460316,-325.0,-119.44444444444444,-114.36507936507935,-4.0476190476190474,-2.3015873015873014,-166.26984126984127
65,95.79365079365078,-300.39682539682536,-88.65079365079364,-131.984126984127,118.33333333333333,325.0,-324.5238095238095,-325.0,-135.63492063492063,3.571428571428571,120.23809523809523,-325.0,-101.82539682539682,17.38095238095238,117.6984126984127,-5.158730158730158,132.61904761904762,-108.17460317460316,-325.0,-119.44444444444444,-114.36507936507935,-4.0476190476190474,-2.3015873015873014,-166.26984126984127
66,94.36507936507935,-296.74603174603175,-87.38095238095238,-130.23809523809524,117.06349206349206,325.0,-321.3492063492063,-325.0,-133.88888888888889,6.111111111111111,118.8095238095238,-325.0,-100.55555555555554,19.126984126984127,116.26984126984127,-2.7777777777777777,130.87301587301587,-106.9047619047619,-325.0,-117.6984126984127,-112.93650793650794,10.555555555555555,4.841269841269841,-166.26984126984127
67,94.36507936507935,-296.74603174603175,-87.38095238095238,-130.23809523809524,117.06349206349206,325.0,-321.3492063492063,-325.0,-133.88888888888889,6.111111111111111,118.8095238095238,-325.0,-100.55555555555554,19.126984126984127,116.26984126984127,-2.7777777777777777,130.87301587301587,-106.9047619047619,-325.0,-117.6984126984127,-112.93650793650794,10.555555555555555,4.841269841269841,-166.26984126984127
68,94.36507936507935,-296.74603174603175,-87.38095238095238,-130.23809523809524,117.06349206349206,325.0,-321.3492063492063,-325.0,-133.88888888888889,6.111111111111111,118.8095238095238,-325.0,-100.55555555555554,19.126984126984127,116.26984126984127,-2.7777777777777777,130.87301587301587,-106.9047619047619,-325.0,-117.6984126984127,-112.93650793650794,10.555555555555555,4.841269841269841,-166.26984126984127
69,94.36507936507935,-296.74603174603175,-87.38095238095238,-130.23809523809524,117.06349206349206,325.0,-321.3492063492063,-325.0,-133.88888888888889,6.111111111111111,118.8095238095238,-325.0,-100.55555555555554,19.126984126984127,116.26984126984127,-2.7777777777777777,130.87301587301587,-106.9047619047619,-325.0,-117.6984126984127,-112.93650793650794,10.555555555555555,4.841269841269841,-166.26984126984127
70,91.98412698412697,-289.2857142857143,-85.0,-126.74603174603173,114.04761904761904,325.0,-313.57142857142856,-325.0,-130.55555555555554,2.3015873015873014,115.79365079365078,-325.0,-98.01587301587301,16.26984126984127,113.4126984126984,-5.952380952380952,127.53968253968253,-104.2063492063492,-325.0,-114.68253968253967,-109.92063492063491,-0.5555555555555556,-1.0317460317460316,-321.8253968253968
71,91.98412698412697,-289.2857142857143,-85.0,-126.74603174603173,114.04761904761904,325.0,-313.57142857142856,-325.0,-130.55555555555554,2.3015873015873014,115.79365079365078,-325.0,-98.01587301587301,16.26984126984127,113.4126984126984,-5.952380952380952,127.53968253968253,-104.2063492063492,-325.0,-114.68253968253967,-109.92063492063491,-0.5555555555555556,-1.0317460317460316,-321.8253968253968
72,88.65079365079364,-279.1269841269841,-81.98412698412697,-122.30158730158729,109.92063492063491,325.0,-302.6190476190476,-325.0,-125.95238095238095,1.507936507936508,111.98412698412697,-325.0,-94.52380952380952,17.063492063492063,109.44444444444444,-5.952380952380952,123.09523809523809,-100.71428571428571,-325.0,-110.71428571428571,-106.1111111111111,4.841269841269841,2.9365079365079363,-321.8253968253968
73,88.65079365079364,-279.1269841269841,-81.98412698412697,-122.30158730158729,109.92063492063491,325.0,-302.6190476190476,-325.0,-125.95238095238095,1.507936507936508,111.98412698412697,-325.0,-94.52380952380952,17.063492063492063,109.44444444444444,-5.952380952380952,123.09523809523809,-100.71428571428571,-325.0,-110.71428571428571,-106.1111111111111,4.841269841269841,2.9365079365079363,-321.8253968253968
74,88.65079365079364,-279.1269841269841,-81.98412698412697,-122.30158730158729,109.92063492063491,325.0,-302.6190476190476,-325.0,-125.95238095238095,1.507936507936508,111.98412698412697,-325.0,-94.52380952380952,17.063492063492063,109.44444444444444,-5.952380952380952,123.09523809523809,-100.71428571428571,-325.0,-110.71428571428571,-106.1111111111111,4.841269841269841,2.9365079365079363,-321.8253968253968
75,88.65079365079364,-279.1269841269841,-81.98412698412697,-122.30158730158729,109.92063492063491,325.0,-302.6190476190476,-325.0,-125.95238095238095,1.507936507936508,111.98412698412697,-325.0,-94.52380952380952,17.063492063492063,109.44444444444444,-5.952380952380952,123.09523809523809,-100.71428571428571,-325.0,-110.71428571428571,-106.1111111111111,4.841269841269841,2.9365079365079363,-321.8253968253968
76,83.4126984126984,-263.25396825396825,-77.06349206349206,-114.68253968253967,103.4126984126984,325.0,-285.1587301587301,-325.0,-118.65079365079364,1.1904761904761905,105.31746031746032,-325.0,-88.65079365079364,15.95238095238095,102.77777777777777,-6.26984126984127,115.63492063492063,-94.84126984126983,-325.0,-104.04761904761904,-99.28571428571428,-9.920634920634921,-6.26984126984127,-321.8253968253968
77,83.4126984126984,-263.25396825396825,-77.06349206349206,-114.68253968253967,103.4126984126984,325.0,-285.1587301587301,-325.0,-118.65079365079364,1.1904761904761905,105.31746031746032,-325.0,-88.65079365079364,15.95238095238095,102.77777777777777,-6.26984126984127,115.63492063492063,-94.84126984126983,-325.0,-104.04761904761904,-99.28571428571428,-9.920634920634921,-6.26984126984127,-321.8253968253968
78,82.14285714285714,-259.9206349206349,-76.1111111111111,-113.25396825396825,102.14285714285714,325.0,-281.8253968253968,-325.0,-117.22222222222221,-0.23809523809523808,103.88888888888889,-325.0,-87.53968253968253,14.047619047619047,101.5079365079365,-7.857142857142857,114.04761904761904,-93.57142857142857,-325.0,-102.77777777777777,-98.01587301587301,-8.333333333333332,-5.158730158730158,-321.8253968253968
79,82.14285714285714,-259.9206349206349,-76.1111111111111,-113.25396825396825,102.14285714285714,325.0,-281.8253968253968,-325.0,-117.22222222222221,-0.23809523809523808,103.88888888888889,-325.0,-87.53968253968253,14.047619047619047,101.5079365079365,-7.857142857142857,114.04761904761904,-93.57142857142857,-325.0,-102.77777777777777,-98.01587301587301,-8.333333333333332,-5.158730158730158,-321.8253968253968
80,79.92063492063491,-253.4126984126984,-74.36507936507937,-110.39682539682539,99.6031746031746,325.0,-274.68253968253964,-325.0,-114.2063492063492,-0.3968253968253968,101.19047619047619,-325.0,-85.31746031746032,14.047619047619047,98.80952380952381,-7.5396825396825395,111.03174603174602,-91.34920634920634,-325.0,-100.07936507936508,-95.31746031746032,-1.507936507936508,-0.7142857142857142,-166.26984126984127
81,79.92063492063491,-253.4126984126984,-74.36507936507937,-110.39682539682539,99.6031746031746,325.0,-274.68253968253964,-325.0,-114.2063492063492,-0.3968253968253968,101.19047619047619,-325.0,-85.31746031746032,14.047619047619047,98.80952380952381,-7.5396825396825395,111.03174603174602,-91.34920634920634,-325.0,-100.07936507936508,-95.31746031746032,-1.507936507936508,-0.7142857142857142,-166.26984126984127
82,78.80952380952381,-250.2380952380952,-73.25396825396825,-109.12698412698413,98.33333333333333,325.0,-271.19047619047615,-325.0,-112.93650793650794,-1.349206349206349,100.07936507936508,-325.0,-84.04761904761904,12.619047619047619,97.53968253968253,-8.492063492063492,109.44444444444444,-90.07936507936508,-325.0,-98.80952380952381,-94.04761904761904,0.07936507936507936,0.07936507936507936,-166.26984126984127
83,78.80952380952381,-250.2380952380952,-73.25396825396825,-109.12698412698413,98.33333333333333,325.0,-271.19047619047615,-325.0,-112.93650793650794,-1.349206349206349,100.07936507936508,-325.0,-84.04761904761904,12.619047619047619,97.53968253968253,-8.492063492063492,109.44444444444444,-90.07936507936508,-325.0,-98.80952380952381,-94.04761904761904,0.07936507936507936,0.07936507936507936,-166.26984126984127
84,76.9047619047619,-244.84126984126982,-71.66666666666666,-106.58730158730158,95.95238095238095,325.0,-265.4761904761905,-325.0,-110.39682539682539,0.5555555555555556,97.6984126984127,-325.0,-82.3015873015873,14.682539682539682,95.47619047619047,-6.746031746031746,107.06349206349206,-88.33333333333333,-325.0,-96.74603174603175,-92.14285714285714,-1.349206349206349,-0.7142857142857142,-166.26984126984127
85,76.9047619047619,-244.84126984126982,-71.66666666666666,-106.58730158730158,95.95238095238095,325.0,-265.4761904761905,-325.0,-110.39682539682539,0.5555555555555556,97.6984126984127,-325.0,-82.3015873015873,14.682539682539682,95.47619047619047,-6.746031746031746,107.06349206349206,-88.33333333333333,-325.0,-96.74603174603175,-92.14285714285714,-1.349206349206349,-0.7142857142857142,-166.26984126984127
86,76.58730158730158,-243.7301587301587,-71.19047619047619,-106.1111111111111,95.47619047619047,325.0,-264.36507936507934,-325.0,-109.92063492063491,-1.349206349206349,97.38095238095238,-325.0,-81.82539682539682,13.412698412698411,95.15873015873015,-8.174603174603174,106.58730158730158,-87.85714285714285,-325.0,-96.26984126984127,-91.66666666666666,7.222222222222221,5.0,-166.26984126984127
87,76.58730158730158,-243.7301587301587,-71.19047619047619,-106.1111111111111,95.47619047619047,325.0,-264.36507936507934,-325.0,-109.92063492063491,-1.349206349206349,97.38095238095238,-325.0,-81.82539682539682,13.412698412698411,95.15873015873015,-8.174603174603174,106.58730158730158,-87.85714285714285,-325.0,-96.26984126984127,-91.66666666666666,7.222222222222221,5.0,-166.26984126984127
88,73.73015873015872,-235.63492063492063,-68.96825396825396,-102.46031746031746,92.46031746031746,325.0,-255.3174603174603,-325.0,-106.1111111111111,1.1904761904761905,94.2063492063492,-325.0,-79.12698412698413,15.158730158730158,91.98412698412697,-5.634920634920634,102.77777777777777,-85.15873015873015,-325.0,-93.25396825396825,-88.33333333333333,7.698412698412698,5.0,-166.26984126984127
89,73.73015873015872,-235.63492063492063,-68.96825396825396,-102.46031746031746,92.46031746031746,325.0,-255.3174603174603,-325.0,-106.1111111111111,1.1904761904761905,94.2063492063492,-325.0,-79.12698412698413,15.158730158730158,91.98412698412697,-5.634920634920634,102.77777777777777,-85.15873015873015,-325.0,-93.25396825396825,-88.33333333333333,7.698412698412698,5.0,-166.26984126984127
90,72.3015873015873,-230.7142857142857,-67.53968253968253,-100.07936507936508,90.39682539682539,325.0,-250.2380952380952,-325.0,-104.04761904761904,0.5555555555555556,91.98412698412697,-325.0,-77.22222222222221,13.571428571428571,89.76190476190476,-6.26984126984127,100.55555555555554,-83.25396825396825,-325.0,-91.19047619047619,-86.26984126984127,-8.015873015873016,-4.523809523809524,-321.8253968253968
91,72.3015873015873,-230.7142857142857,-67.53968253968253,-100.07936507936508,90.39682539682539,325.0,-250.2380952380952,-325.0,-104.04761904761904,0.5555555555555556,91.98412698412697,-325.0,-77.22222222222221,13.571428571428571,89.76190476190476,-6.26984126984127,100.55555555555554,-83.25396825396825,-325.0,-91.19047619047619,-86.26984126984127,-8.015873015873016,-4.523809523809524,-321.8253968253968
92,69.92063492063491,-223.88888888888889,-65.47619047619047,-97.06349206349206,87.53968253968253,325.0,-242.93650793650792,-324.04761904761904,-101.03174603174602,1.6666666666666665,89.28571428571428,-325.0,-74.84126984126983,14.682539682539682,87.06349206349206,-4.682539682539682,97.38095238095238,-80.71428571428571,-322.46031746031747,-88.4920634920635,-83.73015873015872,-0.3968253968253968,0.7142857142857142,-321.8253968253968
93,69.92063492063491,-223.88888888888889,-65.47619047619047,-97.06349206349206,87.53968253968253,325.0,-242.93650793650792,-324.04761904761904,-101.03174603174602,1.6666666666666665,89.28571428571428,-325.0,-74.84126984126983,14.682539682539682,87.06349206349206,-4.682539682539682,97.38095238095238,-80.71428571428571,-322.46031746031747,-88.4920634920635,-83.73015873015872,-0.3968253968253968,0.7142857142857142,-321.8253968253968
94,68.4920634920635,-219.9206349206349,-64.36507936507937,-95.31746031746032,86.1111111111111,325.0,-238.65079365079364,-320.55555555555554,-99.12698412698413,0.23809523809523808,87.6984126984127,-325.0,-73.57142857142857,12.46031746031746,85.63492063492063,-6.587301587301587,95.79365079365078,-79.28571428571428,-317.38095238095235,-86.74603174603175,-82.14285714285714,7.857142857142857,5.0,-321.8253968253968
95,68.4920634920635,-219.9206349206349,-64.36507936507937,-95.31746031746032,86.1111111111111,325.0,-238.65079365079364,-320.55555555555554,-99.12698412698413,0.23809523809523808,87.6984126984127,-325.0,-73.57142857142857,12.46031746031746,85.63492063492063,-6.587301587301587,95.79365079365078,-79.28571428571428,-317.38095238095235,-86.74603174603175,-82.14285714285714,7.857142857142857,5.0,-321.8253968253968
96,66.11111111111111,-212.61904761904762,-62.3015873015873,-91.82539682539682,83.09523809523809,325.0,-230.55555555555554,-310.39682539682536,-95.95238095238095,1.507936507936508,84.84126984126983,-325.0,-71.19047619047619,13.73015873015873,82.46031746031746,-4.682539682539682,92.30158730158729,-76.9047619047619,-306.74603174603175,-83.57142857142857,-79.44444444444444,-0.07936507936507936,-1.0317460317460316,-321.8253968253968
97,66.11111111111111,-212.61904761904762,-62.3015873015873,-91.82539682539682,83.09523809523809,325.0,-230.55555555555554,-310.39682539682536,-95.95238095238095,1.507936507936508,84.84126984126983,-325.0,-71.19047619047619,13.73015873015873,82.46031746031746,-4.682539682539682,92.30158730158729,-76.9047619047619,-306.74603174603175,-83.57142857142857,-79.44444444444444,-0.07936507936507936,-1.0317460317460316,-321.8253968253968
98,64.68253968253968,-208.17460317460316,-60.873015873015866,-90.23809523809523,81.5079365079365,325.0,-226.1111111111111,-304.2063492063492,-94.04761904761904,-5.317460317460317,82.77777777777777,-325.0,-69.44444444444444,6.587301587301587,80.87301587301587,-11.19047619047619,90.23809523809523,-75.15873015873015,-300.39682539682536,-81.98412698412697,-77.53968253968253,-8.968253968253968,-5.0,-321.8253968253968
99,64.68253968253968,-208.17460317460316,-60.873015873015866,-90.23809523809523,81.5079365079365,325.0,-226.1111111111111,-304.2063492063492,-94.04761904761904,-5.317460317460317,82.77777777777777,-325.0,-69.44444444444444,6.587301587301587,80.87301587301587,-11.19047619047619,90.23809523809523,-75.15873015873015,-300.39682539682536,-81.98412698412697,-77.53968253968253,-8.968253968253968,-5.0,-321.8253968253968
100,63.888888888888886,-205.47619047619045,-59.92063492063492,-88.96825396825396,80.55555555555556,325.0,-223.09523809523807,-300.39682539682536,-92.93650793650794,-1.984126984126984,81.98412698412697,-325.0,-68.33333333333333,9.920634920634921,79.44444444444444,-7.3809523809523805,89.12698412698413,-74.04761904761904,-296.74603174603175,-80.87301587301587,-76.26984126984127,8.65079365079365,5.0,-166.26984126984127
101,63.888888888888886,-205.47619047619045,-59.92063492063492,-88.96825396825396,80.55555555555556,325.0,-223.09523809523807,-300.39682539682536,-92.93650793650794,-1.984126984126984,81.98412698412697,-325.0,-68.33333333333333,9.920634920634921,79.44444444444444,-7.3809523809523805,89.12698412698413,-74.04761904761904,-296.74603174603175,-80.87301587301587,-76.26984126984127,8.65079365079365,5.0,-166.26984126984127
102,62.14285714285714,-200.23809523809524,-58.49206349206349,-86.74603174603175,78.33333333333333,325.0,-217.38095238095238,-293.0952380952381,-90.23809523809523,-0.3968253968253968,79.6031746031746,-325.0,-66.74603174603175,10.396825396825395,77.85714285714285,-6.26984126984127,86.74603174603175,-72.3015873015873,-289.6031746031746,-78.65079365079364,-74.36507936507937,-8.174603174603174,-5.0,-166.26984126984127
103,62.14285714285714,-200.23809523809524,-58.49206349206349,-86.74603174603175,78.33333333333333,325.0,-217.38095238095238,-293.0952380952381,-90.23809523809523,-0.3968253968253968,79.6031746031746,-325.0,-66.74603174603175,10.396825396825395,77.85714285714285,-6.26984126984127,86.74603174603175,-72.3015873015873,-289.6031746031746,-78.65079365079364,-74.36507936507937,-8.174603174603174,-5.0,-166.26984126984127
104,60.079365079365076,-194.52380952380952,-56.904761904761905,-83.88888888888889,75.79365079365078,325.0,-211.19047619047618,-285.3174603174603,-87.6984126984127,2.7777777777777777,77.38095238095238,-325.0,-64.68253968253968,13.253968253968253,75.31746031746032,-2.9365079365079363,84.04761904761904,-70.23809523809524,-281.3492063492063,-76.26984126984127,-72.14285714285714,-8.968253968253968,-5.476190476190476,-166.26984126984127
105,60.079365079365076,-194.52380952380952,-56.904761904761905,-83.88888888888889,75.79365079365078,325.0,-211.19047619047618,-285.3174603174603,-87.6984126984127,2.7777777777777777,77.38095238095238,-325.0,-64.68253968253968,13.253968253968253,75.31746031746032,-2.9365079365079363,84.04761904761904,-70.23809523809524,-281.3492063492063,-76.26984126984127,-72.14285714285714,-8.968253968253968,-5.476190476190476,-166.26984126984127
106,58.49206349206349,-189.60317460317458,-55.476190476190474,-81.66666666666666,74.04761904761904,325.0,-205.79365079365078,-278.4920634920635,-85.47619047619047,-3.73015873015873,75.31746031746032,-325.0,-62.93650793650793,5.952380952380952,73.25396825396825,-9.444444444444445,81.82539682539682,-68.4920634920635,-274.36507936507934,-74.36507936507937,-70.23809523809524,-0.873015873015873,-1.8253968253968254,-166.26984126984127
107,58.49206349206349,-189.60317460317458,-55.476190476190474,-81.66666666666666,74.04761904761904,325.0,-205.79365079365078,-278.4920634920635,-85.47619047619047,-3.73015873015873,75.31746031746032,-325.0,-62.93650793650793,5.952380952380952,73.25396825396825,-9.444444444444445,81.82539682539682,-68.4920634920635,-274.36507936507934,-74.36507936507937,-70.23809523809524,-0.873015873015873,-1.8253968253968254,-166.26984126984127
108,57.53968253968254,-186.26984126984127,-54.36507936507936,-80.23809523809523,72.46031746031746,325.0,-202.46031746031744,-274.04761904761904,-84.04761904761904,-4.523809523809524,74.04761904761904,-325.0,-61.82539682539682,4.0476190476190474,71.98412698412697,-11.031746031746032,80.39682539682539,-67.38095238095238,-269.76190476190476,-73.09523809523809,-68.96825396825396,0.873015873015873,0.7142857142857142,-166.26984126984127
109,57.53968253968254,-186.26984126984127,-54.36507936507936,-80.23809523809523,72.46031746031746,325.0,-202.46031746031744,-274.04761904761904,-84.04761904761904,-4.523809523809524,74.04761904761904,-325.0,-61.82539682539682,4.0476190476190474,71.98412698412697,-11.031746031746032,80.39682539682539,-67.38095238095238,-269.76190476190476,-73.09523809523809,-68.96825396825396,0.873015873015873,0.7142857142857142,-166.26984126984127
110,56.58730158730158,-183.88888888888889,-53.73015873015873,-79.28571428571428,71.66666666666666,325.0,-199.9206349206349,-270.7142857142857,-82.93650793650794,-4.523809523809524,72.93650793650794,-325.0,-60.873015873015866,3.095238095238095,71.19047619047619,-11.507936507936508,79.28571428571428,-66.42857142857143,-266.4285714285714,-72.14285714285714,-68.01587301587301,-1.0317460317460316,-1.349206349206349,-321.8253968253968
111,56.58730158730158,-183.88888888888889,-53.73015873015873,-79.28571428571428,71.66666666666666,325.0,-199.9206349206349,-270.7142857142857,-82.93650793650794,-4.523809523809524,72.93650793650794,-325.0,-60.873015873015866,3.095238095238095,71.19047619047619,-11.507936507936508,79.28571428571428,-66.42857142857143,-266.4285714285714,-72.14285714285714,-68.01587301587301,-1.0317460317460316,-1.349206349206349,-321.8253968253968
112,54.36507936507936,-177.06349206349205,-51.82539682539682,-76.1111111111111,68.80952380952381,325.0,-192.46031746031744,-261.031746031746,-79.76190476190476,4.0476190476190474,70.23809523809524,-325.0,-58.650793650793645,9.761904761904761,68.4920634920635,-3.571428571428571,76.1111111111111,-64.04761904761905,-256.74603174603175,-69.28571428571428,-65.31746031746032,-1.984126984126984,-2.7777777777777777,-321.8253968253968
113,54.36507936507936,-177.06349206349205,-51.82539682539682,-76.1111111111111,68.80952380952381,325.0,-192.46031746031744,-261.031746031746,-79.76190476190476,4.0476190476190474,70.23809523809524,-325.0,-58.650793650793645,9.761904761904761,68.4920634920635,-3.571428571428571,76.1111111111111,-64.04761904761905,-256.74603174603175,-69.28571428571428,-65.31746031746032,-1.984126984126984,-2.7777777777777777,-321.8253968253968
114,53.57142857142857,-174.84126984126982,-51.03174603174603,-75.31746031746032,68.01587301587301,325.0,-190.07936507936506,-257.85714285714283,-78.80952380952381,5.476190476190476,69.44444444444444,-325.0,-58.01587301587301,10.396825396825395,67.38095238095238,-2.619047619047619,74.84126984126983,-63.25396825396825,-253.57142857142856,-68.65079365079364,-64.36507936507937,-0.3968253968253968,-0.873015873015873,-321.8253968253968
115,53.57142857142857,-174.84126984126982,-51.03174603174603,-75.31746031746032,68.01587301587301,325.0,-190.07936507936506,-257.85714285714283,-78.80952380952381,5.476190476190476,69.44444444444444,-325.0,-58.01587301587301,10.396825396825395,67.38095238095238,-2.619047619047619,74.84126984126983,-63.25396825396825,-253.57142857142856,-68.65079365079364,-64.36507936507937,-0.3968253968253968,-0.873015873015873,-321.8253968253968
116,52.460317460317455,-171.03174603174602,-50.079365079365076,-73.57142857142857,66.42857142857143,325.0,-186.11111111111111,-252.77777777777777,-77.06349206349206,8.015873015873016,67.85714285714285,-324.5238095238095,-56.74603174603174,11.666666666666666,65.95238095238095,-1.349206349206349,73.4126984126984,-61.98412698412698,-248.33333333333331,-67.22222222222221,-62.93650793650793,2.142857142857143,0.873015873015873,-321.8253968253968
117,52.460317460317455,-171.03174603174602,-50.079365079365076,-73.57142857142857,66.42857142857143,325.0,-186.11111111111111,-252.77777777777777,-77.06349206349206,8.015873015873016,67.85714285714285,-324.5238095238095,-56.74603174603174,11.666666666666666,65.95238095238095,-1.349206349206349,73.4126984126984,-61.98412698412698,-248.33333333333331,-67.22222222222221,-62.93650793650793,2.142857142857143,0.873015873015873,-321.8253968253968
118,51.19047619047619,-167.38095238095238,-48.80952380952381,-71.82539682539682,65.0,325.0,-182.14285714285714,-248.015873015873,-75.31746031746032,8.809523809523808,66.58730158730158,-321.3492063492063,-55.476190476190474,11.984126984126984,64.68253968253968,-1.0317460317460316,71.66666666666666,-60.55555555555555,-243.09523809523807,-65.79365079365078,-61.666666666666664,10.873015873015872,5.7936507936507935,-321.8253968253968
119,51.19047619047619,-167.38095238095238,-48.80952380952381,-71.82539682539682,65.0,325.0,-182.14285714285714,-248.015873015873,-75.31746031746032,8.809523809523808,66.58730158730158,-321.3492063492063,-55.476190476190474,11.984126984126984,64.68253968253968,-1.0317460317460316,71.66666666666666,-60.55555555555555,-243.09523809523807,-65.79365079365078,-61.666666666666664,10.873015873015872,5.7936507936507935,-321.8253968253968
120,50.238095238095234,-164.52380952380952,-48.49206349206349,-70.55555555555556,63.73015873015873,325.0,-178.8095238095238,-243.7301587301587,-74.2063492063492,4.2063492063492065,65.31746031746032,-315.4761904761905,-54.68253968253968,6.428571428571428,63.41269841269841,-5.7936507936507935,70.39682539682539,-59.92063492063492,-238.96825396825395,-64.36507936507937,-60.55555555555555,-11.666666666666666,-7.222222222222221,-166.26984126984127
121,50.238095238095234,-164.52380952380952,-48.49206349206349,-70.55555555555556,63.73015873015873,325.0,-178.8095238095238,-243.7301587301587,-74.2063492063492,4.2063492063492065,65.31746031746032,-315.4761904761905,-54.68253968253968,6.428571428571428,63.41269841269841,-5.7936507936507935,70.39682539682539,-59.92063492063492,-238.96825396825395,-64.36507936507937,-60.55555555555555,-11.666666666666666,-7.222222222222221,-166.26984126984127
122,48.650793650793645,-159.76190476190476,-46.74603174603175,-68.4920634920635,61.98412698412698,325.0,-173.73015873015873,-236.9047619047619,-72.14285714285714,10.555555555555555,63.25396825396825,-306.4285714285714,-52.77777777777777,11.031746031746032,61.507936507936506,-0.3968253968253968,68.33333333333333,-58.01587301587301,-232.3015873015873,-62.460317460317455,-58.650793650793645,-2.7777777777777777,-2.3015873015873014,-166.26984126984127
123,48.650793650793645,-159.76190476190476,-46.74603174603175,-68.4920634920635,61.98412698412698,325.0,-173.73015873015873,-236.9047619047619,-72.14285714285714,10.555555555555555,63.25396825396825,-306.4285714285714,-52.77777777777777,11.031746031746032,61.507936507936506,-0.3968253968253968,68.33333333333333,-58.01587301587301,-232.3015873015873,-62.460317460317455,-58.650793650793645,-2.7777777777777777,-2.3015873015873014,-166.26984126984127
124,47.857142857142854,-156.9047619047619,-45.95238095238095,-67.38095238095238,60.873015873015866,325.0,-170.87301587301587,-233.09523809523807,-70.87301587301587,9.444444444444445,62.14285714285714,-301.19047619047615,-51.82539682539682,8.968253968253968,60.39682539682539,-1.984126984126984,67.22222222222221,-57.06349206349206,-228.33333333333331,-61.507936507936506,-57.698412698412696,2.9365079365079363,1.349206349206349,-166.26984126984127
125,47.857142857142854,-156.9047619047619,-45.95238095238095,-67.38095238095238,60.873015873015866,325.0,-170.87301587301587,-233.09523809523807,-70.87301587301587,9.444444444444445,62.14285714285714,-301.19047619047615,-51.82539682539682,8.968253968253968,60.39682539682539,-1.984126984126984,67.22222222222221,-57.06349206349206,-228.33333333333331,-61.507936507936506,-57.698412698412696,2.9365079365079363,1.349206349206349,-166.26984126984127
126,47.53968253968254,-156.11111111111111,-45.79365079365079,-67.06349206349206,60.873015873015866,325.0,-170.23809523809524,-232.14285714285714,-70.39682539682539,7.5396825396825395,61.82539682539682,-299.9206349206349,-51.507936507936506,6.746031746031746,60.238095238095234,-4.0476190476190474,67.06349206349206,-56.74603174603174,-227.38095238095238,-61.03174603174603,-57.38095238095238,11.507936507936508,6.111111111111111,-166.26984126984127
127,47.53968253968254,-156.11111111111111,-45.79365079365079,-67.06349206349206,60.873015873015866,325.0,-170.23809523809524,-232.14285714285714,-70.39682539682539,7.5396825396825395,61.82539682539682,-299.9206349206349,-51.507936507936506,6.746031746031746,60.238095238095234,-4.0476190476190474,67.06349206349206,-56.74603174603174,-227.38095238095238,-61.03174603174603,-57.38095238095238,11.507936507936508,6.111111111111111,-166.26984126984127
128,45.95238095238095,-151.03174603174602,-44.36507936507936,-64.68253968253968,58.49206349206349,325.0,-164.36507936507937,-224.84126984126982,-68.01587301587301,11.825396825396824,59.76190476190476,-289.4444444444444,-49.92063492063492,10.238095238095237,58.17460317460317,0.23809523809523808,64.68253968253968,-55.0,-219.9206349206349,-59.12698412698413,-55.476190476190474,-0.5555555555555556,-0.7142857142857142,-166.26984126984127
129,45.95238095238095,-151.03174603174602,-44.36507936507936,-64.68253968253968,58.49206349206349,325.0,-164.36507936507937,-224.84126984126982,-68.01587301587301,11.825396825396824,59.76190476190476,-289.4444444444444,-49.92063492063492,10.238095238095237,58.17460317460317,0.23809523809523808,64.68253968253968,-55.0,-219.9206349206349,-59.12698412698413,-55.476190476190474,-0.5555555555555556,-0.7142857142857142,-166.26984126984127
130,44.36507936507936,-146.42857142857142,-42.93650793650794,-62.460317460317455,56.74603174603174,325.0,-108.01587301587301,-218.4920634920635,-66.26984126984127,16.428571428571427,58.01587301587301,-281.031746031746,-48.33333333333333,14.206349206349206,56.42857142857142,4.841269841269841,62.460317460317455,-53.41269841269841,-213.57142857142856,-57.22222222222222,-53.73015873015873,3.73015873015873,2.7777777777777777,-321.8253968253968
131,44.36507936507936,-146.42857142857142,-42.93650793650794,-62.460317460317455,56.74603174603174,325.0,-108.01587301587301,-218.4920634920635,-66.26984126984127,16.428571428571427,58.01587301587301,-281.031746031746,-48.33333333333333,14.206349206349206,56.42857142857142,4.841269841269841,62.460317460317455,-53.41269841269841,-213.57142857142856,-57.22222222222222,-53.73015873015873,3.73015873015873,2.7777777777777777,-321.8253968253968
132,43.41269841269841,-143.4126984126984,-42.14285714285714,-61.34920634920635,55.476190476190474,325.0,123.4126984126984,-214.2063492063492,129.6031746031746,9.126984126984127,56.74603174603174,-275.0,-47.38095238095238,6.428571428571428,55.15873015873016,-2.619047619047619,61.03174603174603,-52.3015873015873,-209.28571428571428,-56.269841269841265,-52.61904761904761,12.46031746031746,7.063492063492063,-321.8253968253968
133,43.41269841269841,-143.4126984126984,-42.14285714285714,-61.34920634920635,55.476190476190474,325.0,123.4126984126984,-214.2063492063492,129.6031746031746,9.126984126984127,56.74603174603174,-275.0,-47.38095238095238,6.428571428571428,55.15873015873016,-2.619047619047619,61.03174603174603,-52.3015873015873,-209.28571428571428,-56.269841269841265,-52.61904761904761,12.46031746031746,7.063492063492063,-321.8253968253968
134,42.61904761904761,-140.87301587301587,-41.34920634920635,-60.39682539682539,54.68253968253968,325.0,322.3015873015873,-210.7142857142857,325.0,2.619047619047619,55.79365079365079,-270.07936507936506,-46.58730158730158,-0.873015873015873,54.2063492063492,-9.761904761904761,60.079365079365076,-51.507936507936506,-205.79365079365078,-55.476190476190474,-51.82539682539682,12.777777777777777,7.3809523809523805,-321.8253968253968
135,42.61904761904761,-140.87301587301587,-41.34920634920635,-60.39682539682539,54.68253968253968,325.0,322.3015873015873,-210.7142857142857,325.0,2.619047619047619,55.79365079365079,-270.07936507936506,-46.58730158730158,-0.873015873015873,54.2063492063492,-9.761904761904761,60.079365079365076,-51.507936507936506,-205.79365079365078,-55.476190476190474,-51.82539682539682,12.777777777777777,7.3809523809523805,-321.8253968253968
136,40.55555555555555,-134.52380952380952,-39.44444444444444,34.2063492063492,51.98412698412698,325.0,-160.7142857142857,-201.66666666666666,149.76190476190476,9.920634920634921,53.095238095238095,-257.53968253968253,-44.52380952380952,5.317460317460317,51.666666666666664,-1.507936507936508,57.06349206349206,-48.96825396825397,-196.42857142857142,-52.77777777777777,-49.12698412698413,-5.476190476190476,-2.46031746031746,-321.8253968253968
137,40.55555555555555,-134.52380952380952,-39.44444444444444,34.2063492063492,51.98412698412698,325.0,-160.7142857142857,-201.66666666666666,149.76190476190476,9.920634920634921,53.095238095238095,-257.53968253968253,-44.52380952380952,5.317460317460317,51.666666666666664,-1.507936507936508,57.06349206349206,-48.96825396825397,-196.42857142857142,-52.77777777777777,-49.12698412698413,-5.476190476190476,-2.46031746031746,-321.8253968253968
138,39.92063492063492,-132.3015873015873,-38.96825396825397,96.1111111111111,51.03174603174603,325.0,-58.33333333333333,-198.33333333333331,325.0,2.46031746031746,52.3015873015873,-253.09523809523807,-43.57142857142857,-2.46031746031746,50.71428571428571,-8.968253968253968,56.11111111111111,-48.33333333333333,-193.4126984126984,-51.82539682539682,-48.17460317460317,4.2063492063492065,3.095238095238095,-321.8253968253968
139,39.92063492063492,-132.3015873015873,-38.96825396825397,96.1111111111111,51.03174603174603,325.0,-58.33333333333333,-198.33333333333331,325.0,2.46031746031746,52.3015873015873,-253.09523809523807,-43.57142857142857,-2.46031746031746,50.71428571428571,-8.968253968253968,56.11111111111111,-48.33333333333333,-193.4126984126984,-51.82539682539682,-48.17460317460317,4.2063492063492065,3.095238095238095,-321.8253968253968
140,39.285714285714285,-129.9206349206349,-38.33333333333333,325.0,50.079365079365076,325.0,-154.36507936507937,-195.15873015873015,325.0,12.777777777777777,51.19047619047619,-248.8095238095238,-42.93650793650794,7.698412698412698,49.92063492063492,1.6666666666666665,55.0,-47.53968253968254,-190.23809523809524,-51.03174603174603,-47.53968253968254,-5.7936507936507935,-3.73015873015873,-166.26984126984127
141,39.285714285714285,-129.9206349206349,-38.33333333333333,325.0,50.079365079365076,325.0,-154.36507936507937,-195.15873015873015,325.0,12.777777777777777,51.19047619047619,-248.8095238095238,-42.93650793650794,7.698412698412698,49.92063492063492,1.6666666666666665,55.0,-47.53968253968254,-190.23809523809524,-51.03174603174603,-47.53968253968254,-5.7936507936507935,-3.73015873015873,-166.26984126984127
142,38.17460317460317,-127.06349206349206,-37.53968253968254,325.0,49.12698412698413,325.0,-112.14285714285714,-191.19047619047618,325.0,12.619047619047619,50.079365079365076,-243.57142857142856,-41.82539682539682,6.587301587301587,48.80952380952381,0.873015873015873,53.888888888888886,-46.58730158730158,-186.26984126984127,-49.92063492063492,-46.42857142857142,-0.5555555555555556,-0.3968253968253968,-166.26984126984127
143,38.17460317460317,-127.06349206349206,-37.53968253968254,325.0,49.12698412698413,325.0,-112.14285714285714,-191.19047619047618,325.0,12.619047619047619,50.079365079365076,-243.57142857142856,-41.82539682539682,6.587301587301587,48.80952380952381,0.873015873015873,53.888888888888886,-46.58730158730158,-186.26984126984127,-49.92063492063492,-46.42857142857142,-0.5555555555555556,-0.3968253968253968,-166.26984126984127
144,37.38095238095238,-124.36507936507935,-36.74603174603175,325.0,48.17460317460317,325.0,-162.46031746031744,-187.38095238095238,325.0,10.873015873015872,49.12698412698413,-238.17460317460316,-41.19047619047619,5.158730158730158,47.698412698412696,0.07936507936507936,52.77777777777777,-45.63492063492063,-182.46031746031744,-48.80952380952381,-45.317460317460316,-7.698412698412698,-4.365079365079365,-166.26984126984127
145,37.38095238095238,-124.36507936507935,-36.74603174603175,325.0,48.17460317460317,325.0,-162.46031746031744,-187.38095238095238,325.0,10.873015873015872,49.12698412698413,-238.17460317460316,-41.19047619047619,5.158730158730158,47.698412698412696,0.07936507936507936,52.77777777777777,-45.63492063492063,-182.46031746031744,-48.80952380952381,-45.317460317460316,-7.698412698412698,-4.365079365079365,-166.26984126984127
146,37.22222222222222,-123.73015873015872,-36.42857142857142,325.0,48.01587301587301,325.0,-160.87301587301587,-186.42857142857142,325.0,11.666666666666666,48.96825396825397,-237.06349206349205,-40.87301587301587,5.634920634920634,47.53968253968254,0.5555555555555556,52.460317460317455,-45.317460317460316,-181.66666666666666,-48.49206349206349,-45.15873015873016,-2.142857142857143,-0.07936507936507936,-166.26984126984127
147,37.22222222222222,-123.73015873015872,-36.42857142857142,325.0,48.01587301587301,325.0,-160.87301587301587,-186.42857142857142,325.0,11.666666666666666,48.96825396825397,-237.06349206349205,-40.87301587301587,5.634920634920634,47.53968253968254,0.5555555555555556,52.460317460317455,-45.317460317460316,-181.66666666666666,-48.49206349206349,-45.15873015873016,-2.142857142857143,-0.07936507936507936,-166.26984126984127
148,37.22222222222222,-123.73015873015872,-36.42857142857142,325.0,48.01587301587301,325.0,-160.87301587301587,-186.42857142857142,325.0,11.666666666666666,48.96825396825397,-237.06349206349205,-40.87301587301587,5.634920634920634,47.53968253968254,0.5555555555555556,52.460317460317455,-45.317460317460316,-181.66666666666666,-48.49206349206349,-45.15873015873016,-2.142857142857143,-0.07936507936507936,-166.26984126984127
149,37.22222222222222,-123.73015873015872,-36.42857142857142,325.0,48.01587301587301,325.0,-160.87301587301587,-186.42857142857142,325.0,11.666666666666666,48.96825396825397,-237.06349206349205,-40.87301587301587,5.634920634920634,47.53968253968254,0.5555555555555556,52.460317460317455,-45.317460317460316,-181.66666666666666,-48.49206349206349,-45.15873015873016,-2.142857142857143,-0.07936507936507936,-166.26984126984127
150,37.22222222222222,-123.73015873015872,-36.42857142857142,325.0,48.01587301587301,325.0,-160.87301587301587,-186.42857142857142,325.0,11.666666666666666,48.96825396825397,-237.06349206349205,-40.87301587301587,5.634920634920634,47.53968253968254,0.5555555555555556,52.460317460317455,-45.317460317460316,-181.66666666666666,-48.49206349206349,-45.15873015873016,-2.142857142857143,-0.07936507936507936,-321.8253968253968
151,37.22222222222222,-123.73015873015872,-36.42857142857142,325.0,48.01587301587301,325.0,-160.87301587301587,-186.42857142857142,325.0,11.666666666666666,48.96825396825397,-237.06349206349205,-40.87301587301587,5.634920634920634,47.53968253968254,0.5555555555555556,52.460317460317455,-45.317460317460316,-181.66666666666666,-48.49206349206349,-45.15873015873016,-2.142857142857143,-0.07936507936507936,-321.8253968253968
152,35.63492063492063,-118.8095238095238,-35.15873015873016,325.0,45.79365079365079,320.7142857142857,-160.07936507936506,-179.44444444444443,325.0,9.603174603174603,46.904761904761905,-227.06349206349205,-39.285714285714285,3.73015873015873,45.476190476190474,-0.5555555555555556,50.238095238095234,139.76190476190476,-174.36507936507937,-46.58730158730158,-43.25396825396825,-0.5555555555555556,-0.7142857142857142,-321.8253968253968
153,35.63492063492063,-118.8095238095238,-35.15873015873016,325.0,45.79365079365079,320.7142857142857,-160.07936507936506,-179.44444444444443,325.0,9.603174603174603,46.904761904761905,-227.06349206349205,-39.285714285714285,3.73015873015873,45.476190476190474,-0.5555555555555556,50.238095238095234,139.76190476190476,-174.36507936507937,-46.58730158730158,-43.25396825396825,-0.5555555555555556,-0.7142857142857142,-321.8253968253968
154,33.57142857142857,-112.14285714285714,-33.25396825396825,325.0,43.25396825396825,312.46031746031747,-156.26984126984127,-170.07936507936506,325.0,11.19047619047619,44.36507936507936,-214.68253968253967,-37.06349206349206,4.841269841269841,42.93650793650794,3.253968253968254,47.38095238095238,325.0,-165.0,-44.047619047619044,-40.87301587301587,-6.111111111111111,-3.888888888888889,-321.8253968253968
155,33.57142857142857,-112.14285714285714,-33.25396825396825,325.0,43.25396825396825,312.46031746031747,-156.26984126984127,-170.07936507936506,325.0,11.19047619047619,44.36507936507936,-214.68253968253967,-37.06349206349206,4.841269841269841,42.93650793650794,3.253968253968254,47.38095238095238,325.0,-165.0,-44.047619047619044,-40.87301587301587,-6.111111111111111,-3.888888888888889,-321.8253968253968
156,33.095238095238095,-110.87301587301587,-32.61904761904762,325.0,42.77777777777778,308.968253968254,-150.3968253968254,-168.015873015873,325.0,13.888888888888888,43.888888888888886,-211.66666666666666,-36.58730158730159,7.857142857142857,42.460317460317455,6.428571428571428,46.74603174603175,325.0,-162.93650793650792,-43.57142857142857,-40.238095238095234,12.777777777777777,7.222222222222221,-321.8253968253968
157,33.095238095238095,-110.87301587301587,-32.61904761904762,325.0,42.77777777777778,308.968253968254,-150.3968253968254,-168.015873015873,325.0,13.888888888888888,43.888888888888886,-211.66666666666666,-36.58730158730159,7.857142857142857,42.460317460317455,6.428571428571428,46.74603174603175,325.0,-162.93650793650792,-43.57142857142857,-40.238095238095234,12.777777777777777,7.222222222222221,-321.8253968253968
158,32.61904761904762,-108.96825396825396,-32.3015873015873,325.0,41.666666666666664,303.73015873015873,-147.69841269841268,-165.3174603174603,325.0,10.555555555555555,42.93650793650794,-208.33333333333331,-35.79365079365079,4.523809523809524,41.507936507936506,4.2063492063492065,46.11111111111111,325.0,-160.07936507936506,-42.77777777777778,-39.44444444444444,-14.047619047619047,-7.222222222222221,-321.8253968253968
159,32.61904761904762,-108.96825396825396,-32.3015873015873,325.0,41.666666666666664,303.73015873015873,-147.69841269841268,-165.3174603174603,325.0,10.555555555555555,42.93650793650794,-208.33333333333331,-35.79365079365079,4.523809523809524,41.507936507936506,4.2063492063492065,46.11111111111111,325.0,-160.07936507936506,-42.77777777777778,-39.44444444444444,-14.047619047619047,-7.222222222222221,-321.8253968253968
160,31.507936507936506,-105.63492063492063,-31.507936507936506,325.0,40.55555555555555,295.0,-143.09523809523807,-160.7142857142857,325.0,10.079365079365079,41.666666666666664,-201.8253968253968,-34.682539682539684,3.253968253968254,40.39682539682539,4.841269841269841,-103.4126984126984,325.0,-155.63492063492063,-41.34920634920635,-38.33333333333333,-6.587301587301587,-5.634920634920634,-166.26984126984127
161,31.507936507936506,-105.63492063492063,-31.507936507936506,325.0,40.55555555555555,295.0,-143.09523809523807,-160.7142857142857,325.0,10.079365079365079,41.666666666666664,-201.8253968253968,-34.682539682539684,3.253968253968254,40.39682539682539,4.841269841269841,-103.4126984126984,325.0,-155.63492063492063,-41.34920634920635,-38.33333333333333,-6.587301587301587,-5.634920634920634,-166.26984126984127
162,30.87301587301587,-103.73015873015872,-30.87301587301587,325.0,39.92063492063492,290.07936507936506,-127.85714285714285,-158.015873015873,325.0,10.555555555555555,41.03174603174603,-198.4920634920635,-34.2063492063492,4.365079365079365,39.76190476190476,6.26984126984127,39.12698412698413,325.0,-152.93650793650792,-40.87301587301587,-37.857142857142854,6.746031746031746,4.0476190476190474,-166.26984126984127
163,30.87301587301587,-103.73015873015872,-30.87301587301587,325.0,39.92063492063492,290.07936507936506,-127.85714285714285,-158.015873015873,325.0,10.555555555555555,41.03174603174603,-198.4920634920635,-34.2063492063492,4.365079365079365,39.76190476190476,6.26984126984127,39.12698412698413,325.0,-152.93650793650792,-40.87301587301587,-37.857142857142854,6.746031746031746,4.0476190476190474,-166.26984126984127
164,30.555555555555554,-102.61904761904762,-30.555555555555554,325.0,39.285714285714285,286.74603174603175,-139.44444444444443,-156.11111111111111,325.0,10.873015873015872,40.55555555555555,-195.79365079365078,-33.73015873015873,4.841269841269841,39.44444444444444,7.3809523809523805,20.238095238095237,325.0,-151.03174603174602,-40.238095238095234,-37.06349206349206,-2.142857142857143,-2.619047619047619,-166.26984126984127
165,30.555555555555554,-102.61904761904762,-30.555555555555554,325.0,39.285714285714285,286.74603174603175,-139.44444444444443,-156.11111111111111,325.0,10.873015873015872,40.55555555555555,-195.79365079365078,-33.73015873015873,4.841269841269841,39.44444444444444,7.3809523809523805,20.238095238095237,325.0,-151.03174603174602,-40.238095238095234,-37.06349206349206,-2.142857142857143,-2.619047619047619,-166.26984126984127
166,30.07936507936508,-100.87301587301587,-30.07936507936508,325.0,38.49206349206349,281.984126984127,-136.9047619047619,-153.73015873015873,325.0,9.761904761904761,39.76190476190476,-192.46031746031744,-33.25396825396825,4.365079365079365,38.65079365079365,7.222222222222221,-152.46031746031744,325.0,-148.4920634920635,-39.76190476190476,-36.42857142857142,-2.46031746031746,-2.7777777777777777,-166.26984126984127
167,30.07936507936508,-100.87301587301587,-30.07936507936508,325.0,38.49206349206349,281.984126984127,-136.9047619047619,-153.73015873015873,325.0,9.761904761904761,39.76190476190476,-192.46031746031744,-33.25396825396825,4.365079365079365,38.65079365079365,7.222222222222221,-152.46031746031744,325.0,-148.4920634920635,-39.76190476190476,-36.42857142857142,-2.46031746031746,-2.7777777777777777,-166.26984126984127
168,28.65079365079365,-96.26984126984127,-28.96825396825397,325.0,37.06349206349206,270.39682539682536,-109.28571428571428,-147.38095238095238,325.0,5.634920634920634,38.01587301587301,-184.04761904761904,-31.825396825396822,-0.23809523809523808,36.904761904761905,4.2063492063492065,-325.0,325.0,-142.3015873015873,-37.857142857142854,-34.84126984126984,-0.5555555555555556,-0.23809523809523808,-166.26984126984127
169,28.65079365079365,-96.26984126984127,-28.96825396825397,325.0,37.06349206349206,270.39682539682536,-109.28571428571428,-147.38095238095238,325.0,5.634920634920634,38.01587301587301,-184.04761904761904,-31.825396825396822,-0.23809523809523808,36.904761904761905,4.2063492063492065,-325.0,325.0,-142.3015873015873,-37.857142857142854,-34.84126984126984,-0.5555555555555556,-0.23809523809523808,-166.26984126984127
170,28.015873015873016,-94.36507936507935,-28.174603174603174,325.0,36.11111111111111,265.0,-129.76190476190476,-144.36507936507937,325.0,12.142857142857142,37.06349206349206,-180.23809523809524,-30.87301587301587,5.634920634920634,36.269841269841265,11.19047619047619,-325.0,325.0,-139.28571428571428,-37.06349206349206,-34.047619047619044,-5.317460317460317,-1.8253968253968254,-321.8253968253968
171,28.015873015873016,-94.36507936507935,-28.174603174603174,325.0,36.11111111111111,265.0,-129.76190476190476,-144.36507936507937,325.0,12.142857142857142,37.06349206349206,-180.23809523809524,-30.87301587301587,5.634920634920634,36.269841269841265,11.19047619047619,-325.0,325.0,-139.28571428571428,-37.06349206349206,-34.047619047619044,-5.317460317460317,-1.8253968253968254,-321.8253968253968
172,27.539682539682538,-92.61904761904762,-27.698412698412696,325.0,35.476190476190474,260.55555555555554,-126.9047619047619,-141.984126984127,325.0,6.428571428571428,36.58730158730159,-177.06349206349205,-30.396825396825395,-0.23809523809523808,35.476190476190474,5.952380952380952,-325.0,325.0,-136.9047619047619,-36.58730158730159,-33.57142857142857,3.095238095238095,1.0317460317460316,-321.8253968253968
173,27.539682539682538,-92.61904761904762,-27.698412698412696,325.0,35.476190476190474,260.55555555555554,-126.9047619047619,-141.984126984127,325.0,6.428571428571428,36.58730158730159,-177.06349206349205,-30.396825396825395,-0.23809523809523808,35.476190476190474,5.952380952380952,-325.0,325.0,-136.9047619047619,-36.58730158730159,-33.57142857142857,3.095238095238095,1.0317460317460316,-321.8253968253968
174,26.9047619047619,-91.03174603174602,-27.22222222222222,325.0,34.84126984126984,256.26984126984127,-124.84126984126983,-139.6031746031746,325.0,6.111111111111111,35.95238095238095,-173.88888888888889,-29.920634920634917,-0.23809523809523808,34.84126984126984,6.26984126984127,-325.0,325.0,-134.68253968253967,-35.95238095238095,-32.77777777777778,-4.523809523809524,-0.7142857142857142,-321.8253968253968
175,26.9047619047619,-91.03174603174602,-27.22222222222222,325.0,34.84126984126984,256.26984126984127,-124.84126984126983,-139.6031746031746,325.0,6.111111111111111,35.95238095238095,-173.88888888888889,-29.920634920634917,-0.23809523809523808,34.84126984126984,6.26984126984127,-325.0,325.0,-134.68253968253967,-35.95238095238095,-32.77777777777778,-4.523809523809524,-0.7142857142857142,-321.8253968253968
176,26.26984126984127,-88.80952380952381,-26.587301587301585,325.0,34.047619047619044,250.07936507936506,-121.5079365079365,-136.26984126984127,325.0,9.603174603174603,35.0,-169.44444444444443,-29.285714285714285,4.523809523809524,33.888888888888886,10.555555555555555,-325.0,325.0,-131.34920634920636,-34.52380952380952,-31.98412698412698,-7.3809523809523805,-4.523809523809524,-321.8253968253968
177,26.26984126984127,-88.80952380952381,-26.587301587301585,325.0,34.047619047619044,250.07936507936506,-121.5079365079365,-136.26984126984127,325.0,9.603174603174603,35.0,-169.44444444444443,-29.285714285714285,4.523809523809524,33.888888888888886,10.555555555555555,-325.0,325.0,-131.34920634920636,-34.52380952380952,-31.98412698412698,-7.3809523809523805,-4.523809523809524,-321.8253968253968
178,25.79365079365079,-87.06349206349206,-26.11111111111111,325.0,33.41269841269841,245.79365079365078,-119.6031746031746,-134.04761904761904,325.0,8.65079365079365,34.36507936507936,-166.58730158730157,-28.65079365079365,4.2063492063492065,33.25396825396825,10.079365079365079,-325.0,325.0,-129.12698412698413,52.61904761904761,-31.666666666666664,5.7936507936507935,2.46031746031746,-321.8253968253968
179,25.79365079365079,-87.06349206349206,-26.11111111111111,325.0,33.41269841269841,245.79365079365078,-119.6031746031746,-134.04761904761904,325.0,8.65079365079365,34.36507936507936,-166.58730158730157,-28.65079365079365,4.2063492063492065,33.25396825396825,10.079365079365079,-325.0,325.0,-129.12698412698413,52.61904761904761,-31.666666666666664,5.7936507936507935,2.46031746031746,-321.8253968253968
180,25.476190476190474,-86.26984126984127,-25.79365079365079,325.0,33.095238095238095,242.93650793650792,-118.01587301587301,-132.3015873015873,325.0,5.7936507936507935,34.2063492063492,-164.36507936507937,-28.015873015873016,0.3968253968253968,32.93650793650794,7.698412698412698,-325.0,325.0,-127.53968253968253,233.57142857142856,-30.87301587301587,-4.523809523809524,-4.0476190476190474,-166.26984126984127
181,25.476190476190474,-86.26984126984127,-25.79365079365079,325.0,33.095238095238095,242.93650793650792,-118.01587301587301,-132.3015873015873,325.0,5.7936507936507935,34.2063492063492,-164.36507936507937,-28.015873015873016,0.3968253968253968,32.93650793650794,7.698412698412698,-325.0,325.0,-127.53968253968253,233.57142857142856,-30.87301587301587,-4.523809523809524,-4.0476190476190474,-166.26984126984127
182,25.476190476190474,-86.26984126984127,-25.79365079365079,325.0,33.095238095238095,242.93650793650792,-118.01587301587301,-132.3015873015873,325.0,5.7936507936507935,34.2063492063492,-164.36507936507937,-28.015873015873016,0.3968253968253968,32.93650793650794,7.698412698412698,-325.0,325.0,-127.53968253968253,233.57142857142856,-30.87301587301587,-4.523809523809524,-4.0476190476190474,-166.26984126984127
183,25.476190476190474,-86.26984126984127,-25.79365079365079,325.0,33.095238095238095,242.93650793650792,-118.01587301587301,-132.3015873015873,325.0,5.7936507936507935,34.2063492063492,-164.36507936507937,-28.015873015873016,0.3968253968253968,32.93650793650794,7.698412698412698,-325.0,325.0,-127.53968253968253,233.57142857142856,-30.87301587301587,-4.523809523809524,-4.0476190476190474,-166.26984126984127
184,25.476190476190474,-86.26984126984127,-25.79365079365079,325.0,33.095238095238095,242.93650793650792,-118.01587301587301,-132.3015873015873,325.0,5.7936507936507935,34.2063492063492,-164.36507936507937,-28.015873015873016,0.3968253968253968,32.93650793650794,7.698412698412698,-325.0,325.0,-127.53968253968253,233.57142857142856,-30.87301587301587,-4.523809523809524,-4.0476190476190474,-166.26984126984127
185,25.476190476190474,-86.26984126984127,-25.79365079365079,325.0,33.095238095238095,242.93650793650792,-118.01587301587301,-132.3015873015873,325.0,5.7936507936507935,34.2063492063492,-164.36507936507937,-28.015873015873016,0.3968253968253968,32.93650793650794,7.698412698412698,-325.0,325.0,-127.53968253968253,233.57142857142856,-30.87301587301587,-4.523809523809524,-4.0476190476190474,-166.26984126984127
186,23.253968253968253,-79.28571428571428,-23.88888888888889,325.0,30.396825396825395,224.2063492063492,-108.80952380952381,-122.6190476190476,325.0,-6.904761904761904,31.19047619047619,-151.34920634920633,-25.952380952380953,-9.761904761904761,30.238095238095237,-3.4126984126984126,-325.0,325.0,-117.85714285714285,325.0,-28.65079365079365,-1.984126984126984,-0.3968253968253968,-166.26984126984127
187,23.253968253968253,-79.28571428571428,-23.88888888888889,325.0,30.396825396825395,224.2063492063492,-108.80952380952381,-122.6190476190476,325.0,-6.904761904761904,31.19047619047619,-151.34920634920633,-25.952380952380953,-9.761904761904761,30.238095238095237,-3.4126984126984126,-325.0,325.0,-117.85714285714285,325.0,-28.65079365079365,-1.984126984126984,-0.3968253968253968,-166.26984126984127
188,22.936507936507937,-78.01587301587301,-23.57142857142857,325.0,29.76190476190476,220.55555555555554,-106.74603174603175,-120.55555555555554,325.0,-4.841269841269841,30.71428571428571,-148.4920634920635,-25.634920634920633,-8.65079365079365,29.76190476190476,-0.873015873015873,-325.0,325.0,-115.79365079365078,325.0,-28.174603174603174,1.349206349206349,-1.1904761904761905,-166.26984126984127
189,22.936507936507937,-78.01587301587301,-23.57142857142857,325.0,29.76190476190476,220.55555555555554,-106.74603174603175,-120.55555555555554,325.0,-4.841269841269841,30.71428571428571,-148.4920634920635,-25.634920634920633,-8.65079365079365,29.76190476190476,-0.873015873015873,-325.0,325.0,-115.79365079365078,325.0,-28.174603174603174,1.349206349206349,-1.1904761904761905,-166.26984126984127
190,22.46031746031746,-76.58730158730158,-23.095238095238095,325.0,29.285714285714285,216.9047619047619,-105.15873015873015,-118.65079365079364,325.0,-7.3809523809523805,30.238095238095237,-145.95238095238093,-25.0,-11.031746031746032,29.126984126984127,-3.253968253968254,-325.0,325.0,-113.88888888888889,325.0,-27.539682539682538,-2.46031746031746,-0.3968253968253968,-321.8253968253968
191,22.46031746031746,-76.58730158730158,-23.095238095238095,325.0,29.285714285714285,216.9047619047619,-105.15873015873015,-118.65079365079364,325.0,-7.3809523809523805,30.238095238095237,-145.95238095238093,-25.0,-11.031746031746032,29.126984126984127,-3.253968253968254,-325.0,325.0,-113.88888888888889,325.0,-27.539682539682538,-2.46031746031746,-0.3968253968253968,-321.8253968253968
192,21.984126984126984,-74.52380952380952,-22.777777777777775,325.0,28.49206349206349,211.66666666666666,-97.22222222222221,-115.79365079365078,325.0,-1.349206349206349,29.285714285714285,-142.3015873015873,-24.523809523809522,-4.365079365079365,28.49206349206349,3.253968253968254,-325.0,325.0,-111.03174603174602,325.0,-26.9047619047619,-6.746031746031746,-4.0476190476190474,-321.8253968253968
193,21.984126984126984,-74.52380952380952,-22.777777777777775,325.0,28.49206349206349,211.66666666666666,-97.22222222222221,-115.79365079365078,325.0,-1.349206349206349,29.285714285714285,-142.3015873015873,-24.523809523809522,-4.365079365079365,28.49206349206349,3.253968253968254,-325.0,325.0,-111.03174603174602,325.0,-26.9047619047619,-6.746031746031746,-4.0476190476190474,-321.8253968253968
194,21.666666666666664,-73.4126984126984,-22.142857142857142,325.0,28.015873015873016,207.85714285714283,108.49206349206348,-114.04761904761904,325.0,-1.8253968253968254,28.96825396825397,-139.9206349206349,-24.047619047619047,-3.888888888888889,28.015873015873016,3.095238095238095,-325.0,325.0,-109.12698412698413,325.0,-26.587301587301585,5.7936507936507935,2.7777777777777777,-321.8253968253968
195,21.666666666666664,-73.4126984126984,-22.142857142857142,325.0,28.015873015873016,207.85714285714283,108.49206349206348,-114.04761904761904,325.0,-1.8253968253968254,28.96825396825397,-139.9206349206349,-24.047619047619047,-3.888888888888889,28.015873015873016,3.095238095238095,-325.0,325.0,-109.12698412698413,325.0,-26.587301587301585,5.7936507936507935,2.7777777777777777,-321.8253968253968
196,21.19047619047619,-71.98412698412697,-21.825396825396822,325.0,27.22222222222222,203.7301587301587,325.0,-111.66666666666666,325.0,-9.126984126984127,28.49206349206349,-136.58730158730157,23.57142857142857,-10.396825396825395,27.38095238095238,-3.571428571428571,-325.0,325.0,-106.9047619047619,325.0,-25.79365079365079,-0.07936507936507936,0.23809523809523808,-321.8253968253968
197,21.19047619047619,-71.98412698412697,-21.825396825396822,325.0,27.22222222222222,203.7301587301587,325.0,-111.66666666666666,325.0,-9.126984126984127,28.49206349206349,-136.58730158730157,23.57142857142857,-10.396825396825395,27.38095238095238,-3.571428571428571,-325.0,325.0,-106.9047619047619,325.0,-25.79365079365079,-0.07936507936507936,0.23809523809523808,-321.8253968253968
198,20.71428571428571,-70.55555555555556,-21.507936507936506,325.0,26.746031746031743,200.3968253968254,325.0,-109.92063492063491,325.0,-6.111111111111111,27.857142857142854,-134.2063492063492,22.3015873015873,-6.904761904761904,26.746031746031743,0.07936507936507936,-325.0,325.0,-105.0,325.0,-25.476190476190474,-0.7142857142857142,0.07936507936507936,-321.8253968253968
199,20.71428571428571,-70.55555555555556,-21.507936507936506,325.0,26.746031746031743,200.3968253968254,325.0,-109.92063492063491,325.0,-6.111111111111111,27.857142857142854,-134.2063492063492,22.3015873015873,-6.904761904761904,26.746031746031743,0.07936507936507936,-325.0,325.0,-105.0,325.0,-25.476190476190474,-0.7142857142857142,0.07936507936507936,-321.8253968253968
200,20.396825396825395,-69.44444444444444,-21.19047619047619,325.0,26.428571428571427,197.06349206349205,325.0,-108.33333333333333,325.0,-2.46031746031746,27.38095238095238,-131.984126984127,109.92063492063491,-3.73015873015873,26.428571428571427,3.73015873015873,-325.0,325.0,-103.25396825396825,325.0,-25.0,-0.873015873015873,-0.23809523809523808,-166.26984126984127
201,20.396825396825395,-69.44444444444444,-21.19047619047619,325.0,26.428571428571427,197.06349206349205,325.0,-108.33333333333333,325.0,-2.46031746031746,27.38095238095238,-131.984126984127,109.92063492063491,-3.73015873015873,26.428571428571427,3.73015873015873,-325.0,325.0,-103.25396825396825,325.0,-25.0,-0.873015873015873,-0.23809523809523808,-166.26984126984127
202,19.92063492063492,-67.53968253968253,-21.03174603174603,325.0,25.79365079365079,192.3015873015873,325.0,-105.63492063492063,325.0,-1.6666666666666665,26.587301587301585,-128.4920634920635,44.84126984126984,-4.2063492063492065,25.79365079365079,4.682539682539682,-325.0,325.0,-100.71428571428571,325.0,-24.365079365079364,-7.063492063492063,-4.365079365079365,-166.26984126984127
203,19.92063492063492,-67.53968253968253,-21.03174603174603,325.0,25.79365079365079,192.3015873015873,325.0,-105.63492063492063,325.0,-1.6666666666666665,26.587301587301585,-128.4920634920635,44.84126984126984,-4.2063492063492065,25.79365079365079,4.682539682539682,-325.0,325.0,-100.71428571428571,325.0,-24.365079365079364,-7.063492063492063,-4.365079365079365,-166.26984126984127
204,19.92063492063492,-67.53968253968253,-21.03174603174603,325.0,25.79365079365079,192.3015873015873,325.0,-105.63492063492063,325.0,-1.6666666666666665,26.587301587301585,-128.4920634920635,44.84126984126984,-4.2063492063492065,25.79365079365079,4.682539682539682,-325.0,325.0,-100.71428571428571,325.0,-24.365079365079364,-7.063492063492063,-4.365079365079365,-166.26984126984127
205,19.92063492063492,-67.53968253968253,-21.03174603174603,325.0,25.79365079365079,192.3015873015873,325.0,-105.63492063492063,325.0,-1.6666666666666665,26.587301587301585,-128.4920634920635,44.84126984126984,-4.2063492063492065,25.79365079365079,4.682539682539682,-325.0,325.0,-100.71428571428571,325.0,-24.365079365079364,-7.063492063492063,-4.365079365079365,-166.26984126984127
206,19.92063492063492,-67.53968253968253,-21.03174603174603,325.0,25.79365079365079,192.3015873015873,325.0,-105.63492063492063,325.0,-1.6666666666666665,26.587301587301585,-128.4920634920635,44.84126984126984,-4.2063492063492065,25.79365079365079,4.682539682539682,-325.0,325.0,-100.71428571428571,325.0,-24.365079365079364,-7.063492063492063,-4.365079365079365,-166.26984126984127
207,19.92063492063492,-67.53968253968253,-21.03174603174603,325.0,25.79365079365079,192.3015873015873,325.0,-105.63492063492063,325.0,-1.6666666666666665,26.587301587301585,-128.4920634920635,44.84126984126984,-4.2063492063492065,25.79365079365079,4.682539682539682,-325.0,325.0,-100.71428571428571,325.0,-24.365079365079364,-7.063492063492063,-4.365079365079365,-166.26984126984127
208,19.92063492063492,-67.53968253968253,-21.03174603174603,325.0,25.79365079365079,192.3015873015873,325.0,-105.63492063492063,325.0,-1.6666666666666665,26.587301587301585,-128.4920634920635,44.84126984126984,-4.2063492063492065,25.79365079365079,4.682539682539682,-325.0,325.0,-100.71428571428571,325.0,-24.365079365079364,-7.063492063492063,-4.365079365079365,-166.26984126984127
209,19.92063492063492,-67.53968253968253,-21.03174603174603,325.0,25.79365079365079,192.3015873015873,325.0,-105.63492063492063,325.0,-1.6666666666666665,26.587301587301585,-128.4920634920635,44.84126984126984,-4.2063492063492065,25.79365079365079,4.682539682539682,-325.0,325.0,-100.71428571428571,325.0,-24.365079365079364,-7.063492063492063,-4.365079365079365,-166.26984126984127
210,40.238095238095234,-47.22222222222222,-0.7142857142857142,325.0,5.476190476190476,192.3015873015873,325.0,-85.31746031746032,325.0,-21.984126984126984,-298.4920634920635,-148.8095238095238,-280.23809523809524,-24.523809523809522,25.79365079365079,25.0,20.396825396825395,325.0,-100.71428571428571,325.0,321.031746031746,-7.063492063492063,-4.365079365079365,-321.8253968253968
211,40.238095238095234,-47.22222222222222,-0.7142857142857142,325.0,5.476190476190476,192.3015873015873,325.0,-85.31746031746032,325.0,-21.984126984126984,-298.4920634920635,-148.8095238095238,-280.23809523809524,-24.523809523809522,25.79365079365079,25.0,20.396825396825395,325.0,-100.71428571428571,325.0,321.031746031746,-7.063492063492063,-4.365079365079365,-321.8253968253968
212,40.238095238095234,-47.22222222222222,-0.7142857142857142,325.0,5.476190476190476,192.3015873015873,325.0,-85.31746031746032,325.0,-21.984126984126984,-298.4920634920635,-148.8095238095238,-280.23809523809524,-24.523809523809522,25.79365079365079,25.0,20.396825396825395,325.0,-100.71428571428571,325.0,321.031746031746,-7.063492063492063,-4.365079365079365,-321.8253968253968
213,40.238095238095234,-47.22222222222222,-0.7142857142857142,325.0,5.476190476190476,192.3015873015873,325.0,-85.31746031746032,325.0,-21.984126984126984,-298.4920634920635,-148.8095238095238,-280.23809523809524,-24.523809523809522,25.79365079365079,25.0,20.396825396825395,325.0,-100.71428571428571,325.0,321.031746031746,-7.063492063492063,-4.365079365079365,-321.8253968253968
214,40.238095238095234,-47.22222222222222,-0.7142857142857142,325.0,5.476190476190476,192.3015873015873,325.0,-85.31746031746032,325.0,-21.984126984126984,-298.4920634920635,-148.8095238095238,-280.23809523809524,-24.523809523809522,25.79365079365079,25.0,20.396825396825395,325.0,-100.71428571428571,325.0,321.031746031746,-7.063492063492063,-4.365079365079365,-321.8253968253968
215,40.238095238095234,-47.22222222222222,-0.7142857142857142,325.0,5.476190476190476,192.3015873015873,325.0,-85.31746031746032,325.0,-21.984126984126984,-298.4920634920635,-148.8095238095238,-280.23809523809524,-24.523809523809522,25.79365079365079,25.0,20.396825396825395,325.0,-100.71428571428571,325.0,321.031746031746,-7.063492063492063,-4.365079365079365,-321.8253968253968
216,40.238095238095234,-47.22222222222222,-0.7142857142857142,325.0,5.476190476190476,192.3015873015873,325.0,-85.31746031746032,325.0,-21.984126984126984,-298.4920634920635,-148.8095238095238,-280.23809523809524,-24.523809523809522,25.79365079365079,25.0,20.396825396825395,325.0,-100.71428571428571,325.0,321.031746031746,-7.063492063492063,-4.365079365079365,-321.8253968253968
217,40.238095238095234,-47.22222222222222,-0.7142857142857142,325.0,5.476190476190476,192.3015873015873,325.0,-85.31746031746032,325.0,-21.984126984126984,-298.4920634920635,-148.8095238095238,-280.23809523809524,-24.523809523809522,25.79365079365079,25.0,20.396825396825395,325.0,-100.71428571428571,325.0,321.031746031746,-7.063492063492063,-4.365079365079365,-321.8253968253968
218,40.238095238095234,-47.22222222222222,-0.7142857142857142,325.0,5.476190476190476,192.3015873015873,325.0,-85.31746031746032,325.0,-21.984126984126984,-298.4920634920635,-148.8095238095238,-280.23809523809524,-24.523809523809522,25.79365079365079,25.0,20.396825396825395,325.0,-100.71428571428571,325.0,321.031746031746,-7.063492063492063,-4.365079365079365,-321.8253968253968
219,40.238095238095234,-47.22222222222222,-0.7142857142857142,325.0,5.476190476190476,192.3015873015873,325.0,-85.31746031746032,325.0,-21.984126984126984,-298.4920634920635,-148.8095238095238,-280.23809523809524,-24.523809523809522,25.79365079365079,25.0,20.396825396825395,325.0,-100.71428571428571,325.0,321.031746031746,-7.063492063492063,-4.365079365079365,-321.8253968253968
220,40.238095238095234,-47.22222222222222,-0.7142857142857142,325.0,5.476190476190476,192.3015873015873,325.0,-85.31746031746032,325.0,-21.984126984126984,-298.4920634920635,-148.8095238095238,-280.23809523809524,-24.523809523809522,25.79365079365079,25.0,20.396825396825395,325.0,-100.71428571428571,325.0,321.031746031746,-7.063492063492063,-4.365079365079365,-166.26984126984127
221,40.238095238095234,-47.22222222222222,-0.7142857142857142,325.0,5.476190476190476,192.3015873015873,325.0,-85.31746031746032,325.0,-21.984126984126984,-298.4920634920635,-148.8095238095238,-280.23809523809524,-24.523809523809522,25.79365079365079,25.0,20.396825396825395,325.0,-100.71428571428571,325.0,321.031746031746,-7.063492063492063,-4.365079365079365,-166.26984126984127
222,40.238095238095234,-47.22222222222222,-0.7142857142857142,325.0,5.476190476190476,192.3015873015873,325.0,-85.31746031746032,325.0,-21.984126984126984,-298.4920634920635,-148.8095238095238,-280.23809523809524,-24.523809523809522,25.79365079365079,25.0,20.396825396825395,325.0,-100.71428571428571,325.0,321.031746031746,-7.063492063492063,-4.365079365079365,-166.26984126984127
223,40.238095238095234,-47.22222222222222,-0.7142857142857142,325.0,5.476190476190476,192.3015873015873,325.0,-85.31746031746032,325.0,-21.984126984126984,-298.4920634920635,-148.8095238095238,-280.23809523809524,-24.523809523809522,25.79365079365079,25.0,20.396825396825395,325.0,-100.71428571428571,325.0,321.031746031746,-7.063492063492063,-4.365079365079365,-166.26984126984127
224,40.238095238095234,-47.22222222222222,-0.7142857142857142,325.0,5.476190476190476,192.3015873015873,325.0,-85.31746031746032,325.0,-21.984126984126984,-298.4920634920635,-148.8095238095238,-280.23809523809524,-24.523809523809522,25.79365079365079,25.0,20.396825396825395,325.0,-100.71428571428571,325.0,321.031746031746,-7.063492063492063,-4.365079365079365,-166.26984126984127
225,40.238095238095234,-47.22222222222222,-0.7142857142857142,325.0,5.476190476190476,192.3015873015873,325.0,-85.31746031746032,325.0,-21.984126984126984,-298.4920634920635,-148.8095238095238,-280.23809523809524,-24.523809523809522,25.79365079365079,25.0,20.396825396825395,325.0,-100.71428571428571,325.0,321.031746031746,-7.063492063492063,-4.365079365079365,-166.26984126984127
226,141.34920634920636,118.33333333333333,80.55555555555556,182.77777777777777,5.476190476190476,182.14285714285714,162.46031746031744,-95.47619047619047,152.3015873015873,-11.825396825396824,-135.95238095238093,-148.8095238095238,-107.53968253968253,-14.365079365079364,-146.9047619047619,25.0,20.396825396825395,325.0,51.666666666666664,325.0,321.031746031746,-17.22222222222222,158.17460317460316,-166.26984126984127
227,141.34920634920636,118.33333333333333,80.55555555555556,182.77777777777777,5.476190476190476,182.14285714285714,162.46031746031744,-95.47619047619047,152.3015873015873,-11.825396825396824,-135.95238095238093,-148.8095238095238,-107.53968253968253,-14.365079365079364,-146.9047619047619,25.0,20.396825396825395,325.0,51.666666666666664,325.0,321.031746031746,-17.22222222222222,158.17460317460316,-166.26984126984127
228,242.6190476190476,284.04761904761904,161.8253968253968,40.55555555555555,5.476190476190476,171.984126984127,-0.07936507936507936,-105.63492063492063,-20.396825396825395,-1.6666666666666665,26.587301587301585,-148.8095238095238,65.15873015873015,-4.2063492063492065,-319.6031746031746,25.0,20.396825396825395,325.0,204.04761904761904,325.0,321.031746031746,-27.38095238095238,320.7142857142857,-166.26984126984127
229,242.6190476190476,284.04761904761904,161.8253968253968,40.55555555555555,5.476190476190476,171.984126984127,-0.07936507936507936,-105.63492063492063,-20.396825396825395,-1.6666666666666665,26.587301587301585,-148.8095238095238,65.15873015873015,-4.2063492063492065,-319.6031746031746,25.0,20.396825396825395,325.0,204.04761904761904,325.0,321.031746031746,-27.38095238095238,320.7142857142857,-166.26984126984127
230,6.111111111111111,-48.96825396825397,-15.634920634920634,325.0,-53.41269841269841,140.3968253968254,92.14285714285714,-77.85714285714285,325.0,0.07936507936507936,16.26984126984127,-92.61904761904762,325.0,1.6666666666666665,18.96825396825397,5.7936507936507935,-325.0,325.0,-37.698412698412696,325.0,319.2857142857143,-4.365079365079365,-0.23809523809523808,-321.8253968253968
231,6.111111111111111,-48.96825396825397,-15.634920634920634,325.0,-53.41269841269841,140.3968253968254,92.14285714285714,-77.85714285714285,325.0,0.07936507936507936,16.26984126984127,-92.61904761904762,325.0,1.6666666666666665,18.96825396825397,5.7936507936507935,-325.0,325.0,-37.698412698412696,325.0,319.2857142857143,-4.365079365079365,-0.23809523809523808,-321.8253968253968
232,-293.4126984126984,-46.904761904761905,39.6031746031746,325.0,-71.19047619047619,135.0,-108.80952380952381,-62.3015873015873,325.0,-5.0,-7.063492063492063,-88.4920634920635,325.0,-2.619047619047619,18.015873015873016,1.1904761904761905,-325.0,325.0,-20.07936507936508,325.0,325.0,9.920634920634921,4.2063492063492065,-321.8253968253968
233,-293.4126984126984,-46.904761904761905,39.6031746031746,325.0,-71.19047619047619,135.0,-108.80952380952381,-62.3015873015873,325.0,-5.0,-7.063492063492063,-88.4920634920635,325.0,-2.619047619047619,18.015873015873016,1.1904761904761905,-325.0,325.0,-20.07936507936508,325.0,325.0,9.920634920634921,4.2063492063492065,-321.8253968253968
234,-309.2857142857143,-42.61904761904761,153.88888888888889,296.58730158730157,-101.03174603174602,122.93650793650794,-118.01587301587301,-24.84126984126984,309.4444444444444,-1.8253968253968254,-48.17460317460317,-80.39682539682539,325.0,0.873015873015873,-45.15873015873016,4.2063492063492065,-325.0,325.0,7.3809523809523805,325.0,325.0,4.365079365079365,2.7777777777777777,-321.8253968253968
235,-309.2857142857143,-42.61904761904761,153.88888888888889,296.58730158730157,-101.03174603174602,122.93650793650794,-118.01587301587301,-24.84126984126984,309.4444444444444,-1.8253968253968254,-48.17460317460317,-80.39682539682539,325.0,0.873015873015873,-45.15873015873016,4.2063492063492065,-325.0,325.0,7.3809523809523805,325.0,325.0,4.365079365079365,2.7777777777777777,-321.8253968253968
236,-179.60317460317458,123.73015873015872,138.4920634920635,-14.682539682539682,-56.58730158730158,182.3015873015873,-18.333333333333332,-45.0,301.19047619047615,143.57142857142856,-198.8095238095238,5.158730158730158,4.2063492063492065,146.74603174603175,-108.17460317460316,7.222222222222221,-314.8412698412698,325.0,24.84126984126984,325.0,162.46031746031744,-11.349206349206348,-161.19047619047618,-321.8253968253968
237,-179.60317460317458,123.73015873015872,138.4920634920635,-14.682539682539682,-56.58730158730158,182.3015873015873,-18.333333333333332,-45.0,301.19047619047615,143.57142857142856,-198.8095238095238,5.158730158730158,4.2063492063492065,146.74603174603175,-108.17460317460316,7.222222222222221,-314.8412698412698,325.0,24.84126984126984,325.0,162.46031746031744,-11.349206349206348,-161.19047619047618,-321.8253968253968
238,-34.047619047619044,285.7936507936508,8.809523809523808,-297.53968253968253,17.698412698412696,253.7301587301587,90.39682539682539,-102.77777777777777,308.4920634920635,285.7936507936508,-308.17460317460313,82.61904761904762,-316.4285714285714,288.968253968254,-108.17460317460316,7.222222222222221,-304.68253968253964,325.0,14.682539682539682,325.0,-0.07936507936507936,-21.507936507936506,-323.73015873015873,-321.8253968253968
239,-34.047619047619044,285.7936507936508,8.809523809523808,-297.53968253968253,17.698412698412696,253.7301587301587,90.39682539682539,-102.77777777777777,308.4920634920635,285.7936507936508,-308.17460317460313,82.61904761904762,-316.4285714285714,288.968253968254,-108.17460317460316,7.222222222222221,-304.68253968253964,325.0,14.682539682539682,325.0,-0.07936507936507936,-21.507936507936506,-323.73015873015873,-321.8253968253968
240,-34.047619047619044,285.7936507936508,8.809523809523808,-297.53968253968253,17.698412698412696,253.7301587301587,90.39682539682539,-102.77777777777777,308.4920634920635,285.7936507936508,-308.17460317460313,82.61904761904762,-316.4285714285714,288.968253968254,-108.17460317460316,7.222222222222221,-304.68253968253964,325.0,14.682539682539682,325.0,-0.07936507936507936,-21.507936507936506,-323.73015873015873,-166.26984126984127
241,-34.047619047619044,285.7936507936508,8.809523809523808,-297.53968253968253,17.698412698412696,253.7301587301587,90.39682539682539,-102.77777777777777,308.4920634920635,285.7936507936508,-308.17460317460313,82.61904761904762,-316.4285714285714,288.968253968254,-108.17460317460316,7.222222222222221,-304.68253968253964,325.0,14.682539682539682,325.0,-0.07936507936507936,-21.507936507936506,-323.73015873015873,-166.26984126984127
242,-281.3492063492063,325.0,325.0,92.77777777777777,-325.0,39.285714285714285,325.0,166.74603174603175,104.52380952380952,7.222222222222221,-325.0,-24.68253968253968,242.3015873015873,-1.0317460317460316,-325.0,5.476190476190476,-116.9047619047619,119.28571428571428,163.88888888888889,145.3174603174603,269.44444444444446,-3.095238095238095,-1.349206349206349,-166.26984126984127
243,-281.3492063492063,325.0,325.0,92.77777777777777,-325.0,39.285714285714285,325.0,166.74603174603175,104.52380952380952,7.222222222222221,-325.0,-24.68253968253968,242.3015873015873,-1.0317460317460316,-325.0,5.476190476190476,-116.9047619047619,119.28571428571428,163.88888888888889,145.3174603174603,269.44444444444446,-3.095238095238095,-1.349206349206349,-166.26984126984127
244,-277.6984126984127,325.0,321.984126984127,91.66666666666666,-325.0,38.80952380952381,232.46031746031744,165.95238095238093,103.09523809523809,7.857142857142857,-325.0,-24.523809523809522,239.12698412698413,-0.7142857142857142,-325.0,6.746031746031746,-115.31746031746032,117.6984126984127,161.66666666666666,143.4126984126984,265.95238095238096,-6.904761904761904,-3.73015873015873,-166.26984126984127
245,-277.6984126984127,325.0,321.984126984127,91.66666666666666,-325.0,38.80952380952381,232.46031746031744,165.95238095238093,103.09523809523809,7.857142857142857,-325.0,-24.523809523809522,239.12698412698413,-0.7142857142857142,-325.0,6.746031746031746,-115.31746031746032,117.6984126984127,161.66666666666666,143.4126984126984,265.95238095238096,-6.904761904761904,-3.73015873015873,-166.26984126984127
246,-269.44444444444446,325.0,313.73015873015873,88.65079365079364,-325.0,37.698412698412696,235.47619047619045,164.04761904761904,99.92063492063491,8.492063492063492,-325.0,-23.730158730158728,232.14285714285714,-0.3968253968253968,-325.0,7.3809523809523805,-112.14285714285714,114.52380952380952,152.61904761904762,139.28571428571428,258.015873015873,0.07936507936507936,-1.0317460317460316,-166.26984126984127
247,-269.44444444444446,325.0,313.73015873015873,88.65079365079364,-325.0,37.698412698412696,235.47619047619045,164.04761904761904,99.92063492063491,8.492063492063492,-325.0,-23.730158730158728,232.14285714285714,-0.3968253968253968,-325.0,7.3809523809523805,-112.14285714285714,114.52380952380952,152.61904761904762,139.28571428571428,258.015873015873,0.07936507936507936,-1.0317460317460316,-166.26984126984127
248,-263.57142857142856,325.0,307.06349206349205,86.74603174603175,-325.0,36.74603174603175,241.5079365079365,153.4126984126984,98.01587301587301,-0.5555555555555556,-325.0,-23.253968253968253,227.38095238095238,-9.126984126984127,-325.0,-1.984126984126984,-109.6031746031746,111.98412698412697,138.015873015873,136.26984126984127,252.3015873015873,-6.26984126984127,-3.095238095238095,-166.26984126984127
249,-263.57142857142856,325.0,307.06349206349205,86.74603174603175,-325.0,36.74603174603175,241.5079365079365,153.4126984126984,98.01587301587301,-0.5555555555555556,-325.0,-23.253968253968253,227.38095238095238,-9.126984126984127,-325.0,-1.984126984126984,-109.6031746031746,111.98412698412697,138.015873015873,136.26984126984127,252.3015873015873,-6.26984126984127,-3.095238095238095,-166.26984126984127
250,-260.55555555555554,325.0,303.0952380952381,85.63492063492063,-325.0,36.42857142857142,309.76190476190476,158.33333333333331,96.74603174603175,-1.1904761904761905,-325.0,-22.619047619047617,224.36507936507934,-9.444444444444445,-325.0,-2.9365079365079363,-108.01587301587301,110.71428571428571,144.04761904761904,134.68253968253967,249.12698412698413,9.920634920634921,4.682539682539682,-321.8253968253968
251,-260.55555555555554,325.0,303.0952380952381,85.63492063492063,-325.0,36.42857142857142,309.76190476190476,158.33333333333331,96.74603174603175,-1.1904761904761905,-325.0,-22.619047619047617,224.36507936507934,-9.444444444444445,-325.0,-2.9365079365079363,-108.01587301587301,110.71428571428571,144.04761904761904,134.68253968253967,249.12698412698413,9.920634920634921,4.682539682539682,-321.8253968253968
252,-253.7301587301587,325.0,295.6349206349206,83.4126984126984,-325.0,35.79365079365079,313.4126984126984,159.44444444444443,94.2063492063492,0.07936507936507936,-325.0,-22.46031746031746,218.8095238095238,-8.333333333333332,-325.0,-1.507936507936508,-105.47619047619047,108.01587301587301,143.57142857142856,131.03174603174602,243.09523809523807,-1.6666666666666665,-1.507936507936508,-321.8253968253968
253,-253.7301587301587,325.0,295.6349206349206,83.4126984126984,-325.0,35.79365079365079,313.4126984126984,159.44444444444443,94.2063492063492,0.07936507936507936,-325.0,-22.46031746031746,218.8095238095238,-8.333333333333332,-325.0,-1.507936507936508,-105.47619047619047,108.01587301587301,143.57142857142856,131.03174603174602,243.09523809523807,-1.6666666666666665,-1.507936507936508,-321.8253968253968
254,-250.55555555555554,325.0,291.8253968253968,82.3015873015873,-325.0,35.317460317460316,233.7301587301587,158.96825396825395,92.93650793650794,3.095238095238095,-325.0,-22.3015873015873,216.1111111111111,-5.952380952380952,-325.0,1.8253968253968254,-104.2063492063492,106.74603174603175,145.15873015873015,129.44444444444443,239.9206349206349,-6.26984126984127,-3.571428571428571,-321.8253968253968
255,-250.55555555555554,325.0,291.8253968253968,82.3015873015873,-325.0,35.317460317460316,233.7301587301587,158.96825396825395,92.93650793650794,3.095238095238095,-325.0,-22.3015873015873,216.1111111111111,-5.952380952380952,-325.0,1.8253968253968254,-104.2063492063492,106.74603174603175,145.15873015873015,129.44444444444443,239.9206349206349,-6.26984126984127,-3.571428571428571,-321.8253968253968
256,-245.15873015873015,325.0,285.4761904761905,80.55555555555556,-325.0,34.2063492063492,325.0,161.03174603174602,91.03174603174602,7.5396825396825395,-325.0,-21.507936507936506,211.34920634920633,-1.6666666666666665,-325.0,5.317460317460317,-101.82539682539682,104.36507936507935,146.9047619047619,126.9047619047619,234.2063492063492,-0.873015873015873,1.349206349206349,-321.8253968253968
257,-245.15873015873015,325.0,285.4761904761905,80.55555555555556,-325.0,34.2063492063492,325.0,161.03174603174602,91.03174603174602,7.5396825396825395,-325.0,-21.507936507936506,211.34920634920633,-1.6666666666666665,-325.0,5.317460317460317,-101.82539682539682,104.36507936507935,146.9047619047619,126.9047619047619,234.2063492063492,-0.873015873015873,1.349206349206349,-321.8253968253968
258,-237.85714285714283,325.0,277.06349206349205,78.33333333333333,-325.0,33.41269841269841,193.09523809523807,149.76190476190476,88.33333333333333,6.428571428571428,-325.0,-9.761904761904761,205.3174603174603,-3.253968253968254,-321.8253968253968,4.523809523809524,-98.96825396825396,101.5079365079365,138.015873015873,123.09523809523809,227.38095238095238,-4.682539682539682,-1.984126984126984,-321.8253968253968
259,-237.85714285714283,325.0,277.06349206349205,78.33333333333333,-325.0,33.41269841269841,193.09523809523807,149.76190476190476,88.33333333333333,6.428571428571428,-325.0,-9.761904761904761,205.3174603174603,-3.253968253968254,-321.8253968253968,4.523809523809524,-98.96825396825396,101.5079365079365,138.015873015873,123.09523809523809,227.38095238095238,-4.682539682539682,-1.984126984126984,-321.8253968253968
260,-231.98412698412696,325.0,270.07936507936506,76.1111111111111,-325.0,32.61904761904762,-19.285714285714285,154.84126984126982,85.95238095238095,3.095238095238095,-325.0,5.476190476190476,200.07936507936506,-6.904761904761904,-314.04761904761904,1.507936507936508,-96.42857142857142,98.96825396825396,144.36507936507937,120.07936507936508,221.5079365079365,-5.7936507936507935,-4.523809523809524,-166.26984126984127
261,-231.98412698412696,325.0,270.07936507936506,76.1111111111111,-325.0,32.61904761904762,-19.285714285714285,154.84126984126982,85.95238095238095,3.095238095238095,-325.0,5.476190476190476,200.07936507936506,-6.904761904761904,-314.04761904761904,1.507936507936508,-96.42857142857142,98.96825396825396,144.36507936507937,120.07936507936508,221.5079365079365,-5.7936507936507935,-4.523809523809524,-166.26984126984127
262,-227.06349206349205,325.0,264.5238095238095,74.36507936507937,-325.0,32.14285714285714,87.06349206349206,160.87301587301587,84.36507936507937,5.317460317460317,-325.0,18.49206349206349,195.79365079365078,-5.0,-307.69841269841265,3.253968253968254,-94.52380952380952,97.06349206349206,147.69841269841268,117.38095238095238,217.06349206349205,-0.3968253968253968,-0.5555555555555556,-166.26984126984127
263,-227.06349206349205,325.0,264.5238095238095,74.36507936507937,-325.0,32.14285714285714,87.06349206349206,160.87301587301587,84.36507936507937,5.317460317460317,-325.0,18.49206349206349,195.79365079365078,-5.0,-307.69841269841265,3.253968253968254,-94.52380952380952,97.06349206349206,147.69841269841268,117.38095238095238,217.06349206349205,-0.3968253968253968,-0.5555555555555556,-166.26984126984127
264,-223.09523809523807,325.0,259.9206349206349,73.09523809523809,-325.0,31.507936507936506,85.95238095238095,162.93650793650792,82.93650793650794,6.746031746031746,-322.46031746031747,27.857142857142854,192.46031746031744,-3.888888888888889,-302.9365079365079,4.365079365079365,-92.93650793650794,95.31746031746032,148.33333333333331,115.31746031746032,213.25396825396825,-0.23809523809523808,-0.7142857142857142,-166.26984126984127
265,-223.09523809523807,325.0,259.9206349206349,73.09523809523809,-325.0,31.507936507936506,85.95238095238095,162.93650793650792,82.93650793650794,6.746031746031746,-322.46031746031747,27.857142857142854,192.46031746031744,-3.888888888888889,-302.9365079365079,4.365079365079365,-92.93650793650794,95.31746031746032,148.33333333333331,115.31746031746032,213.25396825396825,-0.23809523809523808,-0.7142857142857142,-166.26984126984127
266,-219.28571428571428,325.0,255.47619047619045,71.98412698412697,-325.0,30.87301587301587,79.76190476190476,164.68253968253967,81.5079365079365,5.7936507936507935,-317.38095238095235,45.15873015873016,189.12698412698413,-4.523809523809524,-298.015873015873,3.571428571428571,-91.34920634920634,93.73015873015872,151.03174603174602,113.25396825396825,209.28571428571428,-0.5555555555555556,-0.873015873015873,-166.26984126984127
267,-219.28571428571428,325.0,255.47619047619045,71.98412698412697,-325.0,30.87301587301587,79.76190476190476,164.68253968253967,81.5079365079365,5.7936507936507935,-317.38095238095235,45.15873015873016,189.12698412698413,-4.523809523809524,-298.015873015873,3.571428571428571,-91.34920634920634,93.73015873015872,151.03174603174602,113.25396825396825,209.28571428571428,-0.5555555555555556,-0.873015873015873,-166.26984126984127
268,-212.77777777777777,325.0,248.015873015873,69.76190476190476,-325.0,30.07936507936508,197.53968253968253,171.984126984127,78.96825396825396,12.936507936507935,-308.6507936507936,90.71428571428571,183.7301587301587,2.3015873015873014,-289.6031746031746,9.761904761904761,-88.4920634920635,91.19047619047619,157.2222222222222,110.07936507936508,203.09523809523807,5.634920634920634,2.3015873015873014,-166.26984126984127
269,-212.77777777777777,325.0,248.015873015873,69.76190476190476,-325.0,30.07936507936508,197.53968253968253,171.984126984127,78.96825396825396,12.936507936507935,-308.6507936507936,90.71428571428571,183.7301587301587,2.3015873015873014,-289.6031746031746,9.761904761904761,-88.4920634920635,91.19047619047619,157.2222222222222,110.07936507936508,203.09523809523807,5.634920634920634,2.3015873015873014,-166.26984126984127
270,-209.12698412698413,325.0,243.57142857142856,68.80952380952381,-325.0,29.6031746031746,17.857142857142858,167.06349206349205,77.85714285714285,15.476190476190474,-303.88888888888886,101.34920634920634,180.55555555555554,4.365079365079365,-285.0,13.253968253968253,-87.06349206349206,89.6031746031746,154.68253968253967,108.17460317460316,199.60317460317458,-6.111111111111111,-4.0476190476190474,-321.8253968253968
271,-209.12698412698413,325.0,243.57142857142856,68.80952380952381,-325.0,29.6031746031746,17.857142857142858,167.06349206349205,77.85714285714285,15.476190476190474,-303.88888888888886,101.34920634920634,180.55555555555554,4.365079365079365,-285.0,13.253968253968253,-87.06349206349206,89.6031746031746,154.68253968253967,108.17460317460316,199.60317460317458,-6.111111111111111,-4.0476190476190474,-321.8253968253968
272,-205.63492063492063,315.6349206349206,239.44444444444443,67.38095238095238,-325.0,28.96825396825397,191.98412698412696,166.58730158730157,76.42857142857143,11.984126984126984,-298.8095238095238,127.22222222222221,177.38095238095238,1.507936507936508,-280.39682539682536,8.968253968253968,-85.47619047619047,88.17460317460316,153.73015873015873,106.58730158730158,195.95238095238093,5.952380952380952,2.619047619047619,-321.8253968253968
273,-205.63492063492063,315.6349206349206,239.44444444444443,67.38095238095238,-325.0,28.96825396825397,191.98412698412696,166.58730158730157,76.42857142857143,11.984126984126984,-298.8095238095238,127.22222222222221,177.38095238095238,1.507936507936508,-280.39682539682536,8.968253968253968,-85.47619047619047,88.17460317460316,153.73015873015873,106.58730158730158,195.95238095238093,5.952380952380952,2.619047619047619,-321.8253968253968
274,-200.3968253968254,307.22222222222223,233.57142857142856,65.63492063492063,-325.0,28.333333333333332,158.4920634920635,161.5079365079365,74.52380952380952,18.96825396825397,-291.66666666666663,124.04761904761904,173.09523809523807,7.698412698412698,-273.73015873015873,15.793650793650793,-83.25396825396825,85.95238095238095,148.4920634920635,103.73015873015872,191.03174603174602,-4.365079365079365,-1.8253968253968254,-321.8253968253968
275,-200.3968253968254,307.22222222222223,233.57142857142856,65.63492063492063,-325.0,28.333333333333332,158.4920634920635,161.5079365079365,74.52380952380952,18.96825396825397,-291.66666666666663,124.04761904761904,173.09523809523807,7.698412698412698,-273.73015873015873,15.793650793650793,-83.25396825396825,85.95238095238095,148.4920634920635,103.73015873015872,191.03174603174602,-4.365079365079365,-1.8253968253968254,-321.8253968253968
276,-197.53968253968253,325.0,230.55555555555554,65.15873015873015,-325.0,28.015873015873016,179.12698412698413,167.85714285714286,73.73015873015872,8.968253968253968,-288.17460317460313,229.44444444444443,170.87301587301587,-1.349206349206349,-270.23809523809524,6.111111111111111,-82.14285714285714,85.0,155.15873015873015,102.61904761904762,188.4920634920635,10.079365079365079,3.73015873015873,-321.8253968253968
277,-197.53968253968253,325.0,230.55555555555554,65.15873015873015,-325.0,28.015873015873016,179.12698412698413,167.85714285714286,73.73015873015872,8.968253968253968,-288.17460317460313,229.44444444444443,170.87301587301587,-1.349206349206349,-270.23809523809524,6.111111111111111,-82.14285714285714,85.0,155.15873015873015,102.61904761904762,188.4920634920635,10.079365079365079,3.73015873015873,-321.8253968253968
278,-193.7301587301587,300.07936507936506,225.47619047619045,63.41269841269841,-325.0,27.539682539682538,254.52380952380952,164.52380952380952,72.14285714285714,11.349206349206348,-282.46031746031747,152.93650793650792,167.06349206349205,0.07936507936507936,-264.8412698412698,8.174603174603174,-80.55555555555556,82.93650793650794,148.96825396825395,100.39682539682539,184.52380952380952,-3.571428571428571,-1.0317460317460316,-321.8253968253968
279,-193.7301587301587,300.07936507936506,225.47619047619045,63.41269841269841,-325.0,27.539682539682538,254.52380952380952,164.52380952380952,72.14285714285714,11.349206349206348,-282.46031746031747,152.93650793650792,167.06349206349205,0.07936507936507936,-264.8412698412698,8.174603174603174,-80.55555555555556,82.93650793650794,148.96825396825395,100.39682539682539,184.52380952380952,-3.571428571428571,-1.0317460317460316,-321.8253968253968
280,-190.23809523809524,300.07936507936506,221.66666666666666,62.3015873015873,-325.0,26.9047619047619,279.76190476190476,164.68253968253967,70.87301587301587,15.317460317460316,-278.17460317460313,171.984126984127,164.36507936507937,3.73015873015873,-260.55555555555554,12.142857142857142,-79.12698412698413,81.82539682539682,149.76190476190476,98.80952380952381,181.19047619047618,-3.888888888888889,-0.7142857142857142,-166.26984126984127
281,-190.23809523809524,300.07936507936506,221.66666666666666,62.3015873015873,-325.0,26.9047619047619,279.76190476190476,164.68253968253967,70.87301587301587,15.317460317460316,-278.17460317460313,171.984126984127,164.36507936507937,3.73015873015873,-260.55555555555554,12.142857142857142,-79.12698412698413,81.82539682539682,149.76190476190476,98.80952380952381,181.19047619047618,-3.888888888888889,-0.7142857142857142,-166.26984126984127
282,-186.26984126984127,258.3333333333333,216.9047619047619,61.03174603174603,-325.0,26.11111111111111,325.0,166.58730158730157,69.44444444444444,11.984126984126984,-272.3015873015873,115.15873015873015,160.87301587301587,1.0317460317460316,-255.47619047619045,8.492063492063492,-77.53968253968253,80.07936507936508,152.93650793650792,96.26984126984127,177.2222222222222,3.095238095238095,3.095238095238095,-166.26984126984127
283,-186.26984126984127,258.3333333333333,216.9047619047619,61.03174603174603,-325.0,26.11111111111111,325.0,166.58730158730157,69.44444444444444,11.984126984126984,-272.3015873015873,115.15873015873015,160.87301587301587,1.0317460317460316,-255.47619047619045,8.492063492063492,-77.53968253968253,80.07936507936508,152.93650793650792,96.26984126984127,177.2222222222222,3.095238095238095,3.095238095238095,-166.26984126984127
284,-181.5079365079365,287.6984126984127,211.34920634920633,59.6031746031746,-325.0,25.0,242.77777777777777,160.07936507936506,67.6984126984127,10.873015873015872,-265.95238095238096,175.63492063492063,156.74603174603175,0.23809523809523808,-249.12698412698413,8.333333333333332,-75.47619047619047,78.01587301587301,151.03174603174602,94.2063492063492,172.61904761904762,0.07936507936507936,-0.23809523809523808,-166.26984126984127
285,-181.5079365079365,287.6984126984127,211.34920634920633,59.6031746031746,-325.0,25.0,242.77777777777777,160.07936507936506,67.6984126984127,10.873015873015872,-265.95238095238096,175.63492063492063,156.74603174603175,0.23809523809523808,-249.12698412698413,8.333333333333332,-75.47619047619047,78.01587301587301,151.03174603174602,94.2063492063492,172.61904761904762,0.07936507936507936,-0.23809523809523808,-166.26984126984127
286,-179.9206349206349,250.55555555555554,209.60317460317458,59.12698412698413,-325.0,24.047619047619047,325.0,161.19047619047618,67.22222222222221,13.571428571428571,-263.73015873015873,120.23809523809523,155.15873015873015,3.095238095238095,-247.06349206349205,10.238095238095237,-74.84126984126983,77.38095238095238,149.28571428571428,93.4126984126984,171.19047619047618,3.4126984126984126,2.46031746031746,-166.26984126984127
287,-179.9206349206349,250.55555555555554,209.60317460317458,59.12698412698413,-325.0,24.047619047619047,325.0,161.19047619047618,67.22222222222221,13.571428571428571,-263.73015873015873,120.23809523809523,155.15873015873015,3.095238095238095,-247.06349206349205,10.238095238095237,-74.84126984126983,77.38095238095238,149.28571428571428,93.4126984126984,171.19047619047618,3.4126984126984126,2.46031746031746,-166.26984126984127
288,-175.47619047619045,325.0,204.36507936507937,57.38095238095238,-325.0,21.19047619047619,260.07936507936506,155.15873015873015,65.47619047619047,14.206349206349206,-257.22222222222223,314.04761904761904,151.5079365079365,2.46031746031746,-241.03174603174602,11.349206349206348,-73.09523809523809,75.63492063492063,136.58730158730157,91.03174603174602,166.74603174603175,-10.079365079365079,-4.523809523809524,-166.26984126984127
289,-175.47619047619045,325.0,204.36507936507937,57.38095238095238,-325.0,21.19047619047619,260.07936507936506,155.15873015873015,65.47619047619047,14.206349206349206,-257.22222222222223,314.04761904761904,151.5079365079365,2.46031746031746,-241.03174603174602,11.349206349206348,-73.09523809523809,75.63492063492063,136.58730158730157,91.03174603174602,166.74603174603175,-10.079365079365079,-4.523809523809524,-166.26984126984127
290,-175.47619047619045,325.0,204.36507936507937,57.38095238095238,-325.0,21.19047619047619,260.07936507936506,155.15873015873015,65.47619047619047,14.206349206349206,-257.22222222222223,314.04761904761904,151.5079365079365,2.46031746031746,-241.03174603174602,11.349206349206348,-73.09523809523809,75.63492063492063,136.58730158730157,91.03174603174602,166.74603174603175,-10.079365079365079,-4.523809523809524,-321.8253968253968
291,-175.47619047619045,325.0,204.36507936507937,57.38095238095238,-325.0,21.19047619047619,260.07936507936506,155.15873015873015,65.47619047619047,14.206349206349206,-257.22222222222223,314.04761904761904,151.5079365079365,2.46031746031746,-241.03174603174602,11.349206349206348,-73.09523809523809,75.63492063492063,136.58730158730157,91.03174603174602,166.74603174603175,-10.079365079365079,-4.523809523809524,-321.8253968253968
292,-175.47619047619045,325.0,204.36507936507937,57.38095238095238,-325.0,21.19047619047619,260.07936507936506,155.15873015873015,65.47619047619047,14.206349206349206,-257.22222222222223,314.04761904761904,151.5079365079365,2.46031746031746,-241.03174603174602,11.349206349206348,-73.09523809523809,75.63492063492063,136.58730158730157,91.03174603174602,166.74603174603175,-10.079365079365079,-4.523809523809524,-321.8253968253968
293,-175.47619047619045,325.0,204.36507936507937,57.38095238095238,-325.0,21.19047619047619,260.07936507936506,155.15873015873015,65.47619047619047,14.206349206349206,-257.22222222222223,314.04761904761904,151.5079365079365,2.46031746031746,-241.03174603174602,11.349206349206348,-73.09523809523809,75.63492063492063,136.58730158730157,91.03174603174602,166.74603174603175,-10.079365079365079,-4.523809523809524,-321.8253968253968
