,Fp1[1],Fp2[2],F3[3],F4[4],C3[5],C4[6],P3[7],P4[8],O1[9],O2[10],F7[11],F8[12],T3[13],T4[14],T5[15],T6[16],Fz[17],Pz[18],Cz[19],Pg1[20],Pg2[21],EOGR[22],EOOGL[23],EMG[24]
0,325.0,325.0,325.0,325.0,325.0,325.0,325.0,325.0,325.0,325.0,325.0,-325.0,325.0,325.0,325.0,-325.0,325.0,325.0,325.0,-325.0,-325.0,-0.5555555555555556,-0.23809523809523808,-166.26984126984127
1,325.0,325.0,325.0,325.0,325.0,325.0,325.0,325.0,325.0,325.0,325.0,-325.0,325.0,325.0,325.0,-325.0,325.0,325.0,325.0,-325.0,-325.0,-0.5555555555555556,-0.23809523809523808,-166.26984126984127
2,-148.65079365079364,325.0,325.0,325.0,325.0,325.0,325.0,325.0,325.0,325.0,325.0,-325.0,325.0,89.76190476190476,325.0,-308.015873015873,325.0,325.0,-83.09523809523809,-325.0,-325.0,0.23809523809523808,0.07936507936507936,-166.26984126984127
3,-148.65079365079364,325.0,325.0,325.0,325.0,325.0,325.0,325.0,325.0,325.0,325.0,-325.0,325.0,89.76190476190476,325.0,-308.015873015873,325.0,325.0,-83.09523809523809,-325.0,-325.0,0.23809523809523808,0.07936507936507936,-166.26984126984127
4,-325.0,325.0,325.0,325.0,325.0,325.0,325.0,325.0,325.0,325.0,325.0,-325.0,325.0,-24.365079365079364,325.0,-325.0,325.0,325.0,-325.0,-325.0,-325.0,-0.7142857142857142,-0.23809523809523808,-166.26984126984127
5,-325.0,325.0,325.0,325.0,325.0,325.0,325.0,325.0,325.0,325.0,325.0,-325.0,325.0,-24.365079365079364,325.0,-325.0,325.0,325.0,-325.0,-325.0,-325.0,-0.7142857142857142,-0.23809523809523808,-166.26984126984127
6,-325.0,325.0,325.0,325.0,325.0,325.0,325.0,325.0,325.0,325.0,325.0,-325.0,325.0,-124.36507936507935,325.0,-325.0,325.0,325.0,-325.0,-325.0,-325.0,-1.0317460317460316,-0.23809523809523808,-166.26984126984127
7,-325.0,325.0,325.0,325.0,325.0,325.0,325.0,325.0,325.0,325.0,325.0,-325.0,325.0,-124.36507936507935,325.0,-325.0,325.0,325.0,-325.0,-325.0,-325.0,-1.0317460317460316,-0.23809523809523808,-166.26984126984127
8,-325.0,325.0,325.0,325.0,325.0,325.0,325.0,325.0,325.0,325.0,325.0,-325.0,325.0,-287.53968253968253,325.0,-325.0,325.0,325.0,-325.0,-325.0,-325.0,-0.3968253968253968,-0.07936507936507936,-166.26984126984127
9,-325.0,325.0,325.0,325.0,325.0,325.0,325.0,325.0,325.0,325.0,325.0,-325.0,325.0,-287.53968253968253,325.0,-325.0,325.0,325.0,-325.0,-325.0,-325.0,-0.3968253968253968,-0.07936507936507936,-166.26984126984127
10,-325.0,325.0,325.0,325.0,325.0,235.15873015873015,325.0,325.0,325.0,325.0,325.0,-268.8095238095238,325.0,-325.0,325.0,-0.07936507936507936,325.0,325.0,-325.0,-325.0,-325.0,-0.5555555555555556,0.5555555555555556,-321.8253968253968
11,-325.0,325.0,325.0,325.0,325.0,235.15873015873015,325.0,325.0,325.0,325.0,325.0,-268.8095238095238,325.0,-325.0,325.0,-0.07936507936507936,325.0,325.0,-325.0,-325.0,-325.0,-0.5555555555555556,0.5555555555555556,-321.8253968253968
12,-325.0,325.0,325.0,325.0,258.6507936507936,74.04761904761904,325.0,325.0,325.0,325.0,325.0,-226.42857142857142,325.0,-325.0,325.0,-325.0,325.0,325.0,-325.0,-325.0,-325.0,-0.5555555555555556,0.3968253968253968,-321.8253968253968
13,-325.0,325.0,325.0,325.0,258.6507936507936,74.04761904761904,325.0,325.0,325.0,325.0,325.0,-226.42857142857142,325.0,-325.0,325.0,-325.0,325.0,325.0,-325.0,-325.0,-325.0,-0.5555555555555556,0.3968253968253968,-321.8253968253968
14,-325.0,325.0,325.0,325.0,80.23809523809523,-95.31746031746032,325.0,325.0,325.0,325.0,325.0,-179.44444444444443,325.0,-325.0,325.0,-325.0,325.0,303.88888888888886,-325.0,-325.0,-325.0,-0.5555555555555556,-0.23809523809523808,-321.8253968253968
15,-325.0,325.0,325.0,325.0,80.23809523809523,-95.31746031746032,325.0,325.0,325.0,325.0,325.0,-179.44444444444443,325.0,-325.0,325.0,-325.0,325.0,303.88888888888886,-325.0,-325.0,-325.0,-0.5555555555555556,-0.23809523809523808,-321.8253968253968
16,-325.0,325.0,325.0,325.0,-70.71428571428571,-217.06349206349205,325.0,325.0,325.0,325.0,325.0,-146.9047619047619,325.0,-325.0,325.0,-322.6190476190476,325.0,186.11111111111111,-325.0,-325.0,-325.0,-0.23809523809523808,-0.3968253968253968,-321.8253968253968
17,-325.0,325.0,325.0,325.0,-70.71428571428571,-217.06349206349205,325.0,325.0,325.0,325.0,325.0,-146.9047619047619,325.0,-325.0,325.0,-322.6190476190476,325.0,186.11111111111111,-325.0,-325.0,-325.0,-0.23809523809523808,-0.3968253968253968,-321.8253968253968
18,-325.0,325.0,325.0,325.0,-208.17460317460316,-314.2063492063492,325.0,325.0,325.0,325.0,325.0,-121.03174603174602,325.0,-325.0,325.0,-316.58730158730157,325.0,62.93650793650793,-325.0,-325.0,-325.0,0.07936507936507936,-0.873015873015873,-321.8253968253968
19,-325.0,325.0,325.0,325.0,-208.17460317460316,-314.2063492063492,325.0,325.0,325.0,325.0,325.0,-121.03174603174602,325.0,-325.0,325.0,-316.58730158730157,325.0,62.93650793650793,-325.0,-325.0,-325.0,0.07936507936507936,-0.873015873015873,-321.8253968253968
20,-325.0,290.55555555555554,310.87301587301585,311.984126984127,-311.8253968253968,-325.0,311.8253968253968,315.6349206349206,311.984126984127,314.2063492063492,316.26984126984127,-43.095238095238095,310.07936507936506,-325.0,195.15873015873015,-296.74603174603175,311.3492063492063,-174.2063492063492,-325.0,-312.77777777777777,-308.6507936507936,-0.07936507936507936,-0.5555555555555556,-166.26984126984127
21,-325.0,290.55555555555554,310.87301587301585,311.984126984127,-311.8253968253968,-325.0,311.8253968253968,315.6349206349206,311.984126984127,314.2063492063492,316.26984126984127,-43.095238095238095,310.07936507936506,-325.0,195.15873015873015,-296.74603174603175,311.3492063492063,-174.2063492063492,-325.0,-312.77777777777777,-308.6507936507936,-0.07936507936507936,-0.5555555555555556,-166.26984126984127
22,-13.888888888888888,-1.984126984126984,35.63492063492063,-2.619047619047619,-238.96825396825395,-182.93650793650792,1.349206349206349,2.9365079365079363,6.26984126984127,37.857142857142854,39.6031746031746,35.476190476190474,2.142857142857143,-79.28571428571428,-86.26984126984127,-301.66666666666663,7.857142857142857,-236.58730158730157,-0.07936507936507936,-179.44444444444443,-172.93650793650792,-1.0317460317460316,-0.7142857142857142,-166.26984126984127
23,-13.888888888888888,-1.984126984126984,35.63492063492063,-2.619047619047619,-238.96825396825395,-182.93650793650792,1.349206349206349,2.9365079365079363,6.26984126984127,37.857142857142854,39.6031746031746,35.476190476190474,2.142857142857143,-79.28571428571428,-86.26984126984127,-301.66666666666663,7.857142857142857,-236.58730158730157,-0.07936507936507936,-179.44444444444443,-172.93650793650792,-1.0317460317460316,-0.7142857142857142,-166.26984126984127
24,325.0,-169.60317460317458,-198.33333333333331,-267.85714285714283,-136.42857142857142,71.5079365079365,-261.031746031746,-266.26984126984127,-253.4126984126984,-199.76190476190476,-201.19047619047618,62.460317460317455,-256.1111111111111,187.38095238095238,-173.25396825396825,-325.0,-248.17460317460316,-27.698412698412696,325.0,-54.2063492063492,-49.6031746031746,-0.07936507936507936,-0.7142857142857142,-166.26984126984127
25,325.0,-169.60317460317458,-198.33333333333331,-267.85714285714283,-136.42857142857142,71.5079365079365,-261.031746031746,-266.26984126984127,-253.4126984126984,-199.76190476190476,-201.19047619047618,62.460317460317455,-256.1111111111111,187.38095238095238,-173.25396825396825,-325.0,-248.17460317460316,-27.698412698412696,325.0,-54.2063492063492,-49.6031746031746,-0.07936507936507936,-0.7142857142857142,-166.26984126984127
26,325.0,-169.60317460317458,-198.33333333333331,-267.85714285714283,-136.42857142857142,71.5079365079365,-261.031746031746,-266.26984126984127,-253.4126984126984,-199.76190476190476,-201.19047619047618,62.460317460317455,-256.1111111111111,187.38095238095238,-173.25396825396825,-325.0,-248.17460317460316,-27.698412698412696,325.0,-54.2063492063492,-49.6031746031746,-0.07936507936507936,-0.7142857142857142,-166.26984126984127
27,325.0,-169.60317460317458,-198.33333333333331,-267.85714285714283,-136.42857142857142,71.5079365079365,-261.031746031746,-266.26984126984127,-253.4126984126984,-199.76190476190476,-201.19047619047618,62.460317460317455,-256.1111111111111,187.38095238095238,-173.25396825396825,-325.0,-248.17460317460316,-27.698412698412696,325.0,-54.2063492063492,-49.6031746031746,-0.07936507936507936,-0.7142857142857142,-166.26984126984127
28,325.0,-140.55555555555554,-164.2063492063492,-221.5079365079365,-51.34920634920635,149.12698412698413,-215.95238095238093,-222.14285714285714,-210.2380952380952,-165.3174603174603,-167.38095238095238,46.42857142857142,-211.98412698412696,178.65079365079364,-143.88888888888889,-325.0,-205.15873015873015,71.98412698412697,325.0,-44.84126984126984,-40.55555555555555,-0.23809523809523808,-0.7142857142857142,-166.26984126984127
29,325.0,-140.55555555555554,-164.2063492063492,-221.5079365079365,-51.34920634920635,149.12698412698413,-215.95238095238093,-222.14285714285714,-210.2380952380952,-165.3174603174603,-167.38095238095238,46.42857142857142,-211.98412698412696,178.65079365079364,-143.88888888888889,-325.0,-205.15873015873015,71.98412698412697,325.0,-44.84126984126984,-40.55555555555555,-0.23809523809523808,-0.7142857142857142,-166.26984126984127
30,325.0,-138.96825396825395,-162.14285714285714,-218.8095238095238,-24.68253968253968,142.14285714285714,-213.4126984126984,-219.44444444444443,-207.69841269841268,-163.09523809523807,-165.3174603174603,33.41269841269841,-209.28571428571428,159.12698412698413,-142.14285714285714,-325.0,-202.77777777777777,66.11111111111111,324.36507936507934,-44.36507936507936,-39.92063492063492,-0.07936507936507936,-0.23809523809523808,-321.8253968253968
31,325.0,-138.96825396825395,-162.14285714285714,-218.8095238095238,-24.68253968253968,142.14285714285714,-213.4126984126984,-219.44444444444443,-207.69841269841268,-163.09523809523807,-165.3174603174603,33.41269841269841,-209.28571428571428,159.12698412698413,-142.14285714285714,-325.0,-202.77777777777777,66.11111111111111,324.36507936507934,-44.36507936507936,-39.92063492063492,-0.07936507936507936,-0.23809523809523808,-321.8253968253968
32,325.0,-135.3174603174603,-158.015873015873,-213.09523809523807,17.22222222222222,148.4920634920635,-208.015873015873,-214.2063492063492,-202.46031746031744,-158.96825396825395,-161.66666666666666,32.61904761904762,-204.04761904761904,160.7142857142857,-138.65079365079364,-325.0,-197.53968253968253,77.06349206349206,321.8253968253968,-43.095238095238095,-39.12698412698413,-0.3968253968253968,-0.23809523809523808,-321.8253968253968
33,325.0,-135.3174603174603,-158.015873015873,-213.09523809523807,17.22222222222222,148.4920634920635,-208.015873015873,-214.2063492063492,-202.46031746031744,-158.96825396825395,-161.66666666666666,32.61904761904762,-204.04761904761904,160.7142857142857,-138.65079365079364,-325.0,-197.53968253968253,77.06349206349206,321.8253968253968,-43.095238095238095,-39.12698412698413,-0.3968253968253968,-0.23809523809523808,-321.8253968253968
34,325.0,-132.61904761904762,-154.68253968253967,-208.65079365079364,27.22222222222222,164.68253968253967,-203.7301587301587,-209.9206349206349,-198.33333333333331,-155.63492063492063,-158.17460317460316,39.12698412698413,-199.76190476190476,162.14285714285714,-135.79365079365078,-325.0,-193.4126984126984,95.95238095238095,322.77777777777777,-42.460317460317455,-38.17460317460317,-0.5555555555555556,-0.23809523809523808,-321.8253968253968
35,325.0,-132.61904761904762,-154.68253968253967,-208.65079365079364,27.22222222222222,164.68253968253967,-203.7301587301587,-209.9206349206349,-198.33333333333331,-155.63492063492063,-158.17460317460316,39.12698412698413,-199.76190476190476,162.14285714285714,-135.79365079365078,-325.0,-193.4126984126984,95.95238095238095,322.77777777777777,-42.460317460317455,-38.17460317460317,-0.5555555555555556,-0.23809523809523808,-321.8253968253968
36,325.0,-130.87301587301587,-152.77777777777777,-206.1111111111111,38.96825396825397,170.87301587301587,-201.19047619047618,-207.2222222222222,-195.79365079365078,-153.57142857142856,-156.26984126984127,40.238095238095234,-197.2222222222222,165.79365079365078,-134.2063492063492,-325.0,-190.87301587301587,103.57142857142857,322.1428571428571,-41.82539682539682,-37.698412698412696,-0.3968253968253968,-0.23809523809523808,-321.8253968253968
37,325.0,-130.87301587301587,-152.77777777777777,-206.1111111111111,38.96825396825397,170.87301587301587,-201.19047619047618,-207.2222222222222,-195.79365079365078,-153.57142857142856,-156.26984126984127,40.238095238095234,-197.2222222222222,165.79365079365078,-134.2063492063492,-325.0,-190.87301587301587,103.57142857142857,322.1428571428571,-41.82539682539682,-37.698412698412696,-0.3968253968253968,-0.23809523809523808,-321.8253968253968
38,9.444444444444445,-163.73015873015873,-75.79365079365078,-0.3968253968253968,-124.2063492063492,-60.873015873015866,45.95238095238095,-184.04761904761904,-19.76190476190476,-141.03174603174602,19.126984126984127,51.666666666666664,-31.19047619047619,180.7142857142857,-132.14285714285714,-325.0,-15.0,118.65079365079364,314.8412698412698,-41.03174603174603,135.79365079365078,0.23809523809523808,150.87301587301587,-321.8253968253968
39,9.444444444444445,-163.73015873015873,-75.79365079365078,-0.3968253968253968,-124.2063492063492,-60.873015873015866,45.95238095238095,-184.04761904761904,-19.76190476190476,-141.03174603174602,19.126984126984127,51.666666666666664,-31.19047619047619,180.7142857142857,-132.14285714285714,-325.0,-15.0,118.65079365079364,314.8412698412698,-41.03174603174603,135.79365079365078,0.23809523809523808,150.87301587301587,-321.8253968253968
40,325.0,-122.93650793650794,-143.25396825396825,-193.4126984126984,73.88888888888889,201.03174603174602,-188.96825396825395,-195.3174603174603,-184.04761904761904,-144.04761904761904,-146.74603174603175,39.44444444444444,-185.15873015873015,164.2063492063492,-126.1111111111111,-325.0,-179.28571428571428,140.3968253968254,317.22222222222223,-39.44444444444444,-35.317460317460316,0.3968253968253968,-1.8253968253968254,-166.26984126984127
41,325.0,-122.93650793650794,-143.25396825396825,-193.4126984126984,73.88888888888889,201.03174603174602,-188.96825396825395,-195.3174603174603,-184.04761904761904,-144.04761904761904,-146.74603174603175,39.44444444444444,-185.15873015873015,164.2063492063492,-126.1111111111111,-325.0,-179.28571428571428,140.3968253968254,317.22222222222223,-39.44444444444444,-35.317460317460316,0.3968253968253968,-1.8253968253968254,-166.26984126984127
42,325.0,-121.34920634920634,-141.34920634920636,-191.03174603174602,81.19047619047619,208.4920634920635,-186.58730158730157,-192.77777777777777,-181.8253968253968,-142.14285714285714,-145.0,39.92063492063492,-182.61904761904762,161.8253968253968,-124.52380952380952,-325.0,-177.06349206349205,147.69841269841268,316.74603174603175,-38.65079365079365,-34.682539682539684,-0.07936507936507936,-0.23809523809523808,-166.26984126984127
43,325.0,-121.34920634920634,-141.34920634920636,-191.03174603174602,81.19047619047619,208.4920634920635,-186.58730158730157,-192.77777777777777,-181.8253968253968,-142.14285714285714,-145.0,39.92063492063492,-182.61904761904762,161.8253968253968,-124.52380952380952,-325.0,-177.06349206349205,147.69841269841268,316.74603174603175,-38.65079365079365,-34.682539682539684,-0.07936507936507936,-0.23809523809523808,-166.26984126984127
44,325.0,-121.34920634920634,-141.34920634920636,-191.03174603174602,81.19047619047619,208.4920634920635,-186.58730158730157,-192.77777777777777,-181.8253968253968,-142.14285714285714,-145.0,39.92063492063492,-182.61904761904762,161.8253968253968,-124.52380952380952,-325.0,-177.06349206349205,147.69841269841268,316.74603174603175,-38.65079365079365,-34.682539682539684,-0.07936507936507936,-0.23809523809523808,-166.26984126984127
45,325.0,-121.34920634920634,-141.34920634920636,-191.03174603174602,81.19047619047619,208.4920634920635,-186.58730158730157,-192.77777777777777,-181.8253968253968,-142.14285714285714,-145.0,39.92063492063492,-182.61904761904762,161.8253968253968,-124.52380952380952,-325.0,-177.06349206349205,147.69841269841268,316.74603174603175,-38.65079365079365,-34.682539682539684,-0.07936507936507936,-0.23809523809523808,-166.26984126984127
46,97.22222222222221,171.19047619047618,162.46031746031744,-31.03174603174603,129.12698412698413,79.28571428571428,-31.03174603174603,-34.2063492063492,-30.555555555555554,120.87301587301586,164.84126984126982,-1.349206349206349,-29.6031746031746,-3.571428571428571,110.07936507936508,325.0,-28.809523809523807,85.0,-34.2063492063492,198.33333333333331,210.07936507936506,-0.5555555555555556,-1.0317460317460316,-166.26984126984127
47,97.22222222222221,171.19047619047618,162.46031746031744,-31.03174603174603,129.12698412698413,79.28571428571428,-31.03174603174603,-34.2063492063492,-30.555555555555554,120.87301587301586,164.84126984126982,-1.349206349206349,-29.6031746031746,-3.571428571428571,110.07936507936508,325.0,-28.809523809523807,85.0,-34.2063492063492,198.33333333333331,210.07936507936506,-0.5555555555555556,-1.0317460317460316,-166.26984126984127
48,84.2063492063492,153.25396825396825,157.2222222222222,-30.87301587301587,128.8095238095238,72.77777777777777,-30.71428571428571,-33.57142857142857,-30.396825396825395,120.23809523809523,159.9206349206349,-8.174603174603174,-29.126984126984127,-4.0476190476190474,111.5079365079365,325.0,-28.333333333333332,85.0,-38.17460317460317,195.79365079365078,207.38095238095238,-0.5555555555555556,0.3968253968253968,-166.26984126984127
49,84.2063492063492,153.25396825396825,157.2222222222222,-30.87301587301587,128.8095238095238,72.77777777777777,-30.71428571428571,-33.57142857142857,-30.396825396825395,120.23809523809523,159.9206349206349,-8.174603174603174,-29.126984126984127,-4.0476190476190474,111.5079365079365,325.0,-28.333333333333332,85.0,-38.17460317460317,195.79365079365078,207.38095238095238,-0.5555555555555556,0.3968253968253968,-166.26984126984127
50,77.38095238095238,157.38095238095238,154.84126984126982,-30.238095238095237,126.58730158730158,75.15873015873015,-30.396825396825395,-33.41269841269841,-29.920634920634917,124.52380952380952,158.96825396825395,-5.7936507936507935,-28.96825396825397,9.285714285714285,110.55555555555554,325.0,-28.015873015873016,88.96825396825396,-34.047619047619044,193.25396825396825,204.68253968253967,-0.5555555555555556,0.23809523809523808,-321.8253968253968
51,77.38095238095238,157.38095238095238,154.84126984126982,-30.238095238095237,126.58730158730158,75.15873015873015,-30.396825396825395,-33.41269841269841,-29.920634920634917,124.52380952380952,158.96825396825395,-5.7936507936507935,-28.96825396825397,9.285714285714285,110.55555555555554,325.0,-28.015873015873016,88.96825396825396,-34.047619047619044,193.25396825396825,204.68253968253967,-0.5555555555555556,0.23809523809523808,-321.8253968253968
52,64.52380952380952,168.4920634920635,151.5079365079365,-29.285714285714285,123.73015873015872,85.0,-29.444444444444443,-32.77777777777778,-29.285714285714285,138.17460317460316,161.984126984127,2.7777777777777777,-28.174603174603174,25.79365079365079,107.85714285714285,325.0,-27.38095238095238,97.38095238095238,-23.095238095238095,188.4920634920635,199.12698412698413,-1.0317460317460316,-0.5555555555555556,-321.8253968253968
53,64.52380952380952,168.4920634920635,151.5079365079365,-29.285714285714285,123.73015873015872,85.0,-29.444444444444443,-32.77777777777778,-29.285714285714285,138.17460317460316,161.984126984127,2.7777777777777777,-28.174603174603174,25.79365079365079,107.85714285714285,325.0,-27.38095238095238,97.38095238095238,-23.095238095238095,188.4920634920635,199.12698412698413,-1.0317460317460316,-0.5555555555555556,-321.8253968253968
54,67.53968253968253,161.5079365079365,152.77777777777777,-29.126984126984127,123.25396825396825,85.31746031746032,-29.6031746031746,-32.3015873015873,-28.96825396825397,138.015873015873,167.06349206349205,4.523809523809524,-27.698412698412696,18.333333333333332,105.79365079365078,325.0,-26.9047619047619,91.03174603174602,-23.730158730158728,186.11111111111111,196.58730158730157,-0.873015873015873,-0.5555555555555556,-321.8253968253968
55,67.53968253968253,161.5079365079365,152.77777777777777,-29.126984126984127,123.25396825396825,85.31746031746032,-29.6031746031746,-32.3015873015873,-28.96825396825397,138.015873015873,167.06349206349205,4.523809523809524,-27.698412698412696,18.333333333333332,105.79365079365078,325.0,-26.9047619047619,91.03174603174602,-23.730158730158728,186.11111111111111,196.58730158730157,-0.873015873015873,-0.5555555555555556,-321.8253968253968
56,61.19047619047619,152.93650793650792,154.2063492063492,-28.49206349206349,119.44444444444444,73.57142857142857,-28.809523809523807,-31.666666666666664,-28.333333333333332,126.74603174603173,167.53968253968253,-0.7142857142857142,-27.22222222222222,9.285714285714285,103.88888888888889,325.0,-26.428571428571427,76.9047619047619,-21.349206349206348,182.14285714285714,192.3015873015873,-0.07936507936507936,-0.5555555555555556,-321.8253968253968
57,61.19047619047619,152.93650793650792,154.2063492063492,-28.49206349206349,119.44444444444444,73.57142857142857,-28.809523809523807,-31.666666666666664,-28.333333333333332,126.74603174603173,167.53968253968253,-0.7142857142857142,-27.22222222222222,9.285714285714285,103.88888888888889,325.0,-26.428571428571427,76.9047619047619,-21.349206349206348,182.14285714285714,192.3015873015873,-0.07936507936507936,-0.5555555555555556,-321.8253968253968
58,57.698412698412696,160.3968253968254,155.63492063492063,-27.857142857142854,119.12698412698413,71.19047619047619,-28.174603174603174,-31.19047619047619,-27.857142857142854,125.95238095238095,167.2222222222222,-1.507936507936508,-26.746031746031743,-4.841269841269841,102.77777777777777,325.0,-26.11111111111111,79.44444444444444,-23.730158730158728,179.28571428571428,188.96825396825395,-0.873015873015873,-0.873015873015873,-321.8253968253968
59,57.698412698412696,160.3968253968254,155.63492063492063,-27.857142857142854,119.12698412698413,71.19047619047619,-28.174603174603174,-31.19047619047619,-27.857142857142854,125.95238095238095,167.2222222222222,-1.507936507936508,-26.746031746031743,-4.841269841269841,102.77777777777777,325.0,-26.11111111111111,79.44444444444444,-23.730158730158728,179.28571428571428,188.96825396825395,-0.873015873015873,-0.873015873015873,-321.8253968253968
60,58.01587301587301,154.84126984126982,157.2222222222222,-27.698412698412696,122.77777777777777,74.04761904761904,-27.857142857142854,-30.71428571428571,-27.22222222222222,135.47619047619048,170.23809523809524,-0.5555555555555556,-26.587301587301585,-9.444444444444445,107.22222222222221,325.0,-25.79365079365079,89.12698412698413,-21.507936507936506,176.11111111111111,185.79365079365078,-0.07936507936507936,-0.23809523809523808,-166.26984126984127
61,58.01587301587301,154.84126984126982,157.2222222222222,-27.698412698412696,122.77777777777777,74.04761904761904,-27.857142857142854,-30.71428571428571,-27.22222222222222,135.47619047619048,170.23809523809524,-0.5555555555555556,-26.587301587301585,-9.444444444444445,107.22222222222221,325.0,-25.79365079365079,89.12698412698413,-21.507936507936506,176.11111111111111,185.79365079365078,-0.07936507936507936,-0.23809523809523808,-166.26984126984127
62,51.34920634920635,144.84126984126982,154.52380952380952,-27.22222222222222,119.6031746031746,64.84126984126983,-27.539682539682538,-30.238095238095237,-27.063492063492063,134.36507936507937,169.28571428571428,-8.174603174603174,-25.952380952380953,7.857142857142857,105.79365079365078,325.0,-25.317460317460316,86.58730158730158,-26.11111111111111,173.88888888888889,183.25396825396825,0.07936507936507936,0.3968253968253968,-166.26984126984127
63,51.34920634920635,144.84126984126982,154.52380952380952,-27.22222222222222,119.6031746031746,64.84126984126983,-27.539682539682538,-30.238095238095237,-27.063492063492063,134.36507936507937,169.28571428571428,-8.174603174603174,-25.952380952380953,7.857142857142857,105.79365079365078,325.0,-25.317460317460316,86.58730158730158,-26.11111111111111,173.88888888888889,183.25396825396825,0.07936507936507936,0.3968253968253968,-166.26984126984127
64,54.047619047619044,155.3174603174603,162.14285714285714,-26.587301587301585,120.87301587301586,62.460317460317455,-26.746031746031743,-29.444444444444443,-26.428571428571427,138.65079365079364,175.95238095238093,-8.333333333333332,-25.317460317460316,7.698412698412698,112.93650793650794,325.0,-24.68253968253968,87.06349206349206,-31.666666666666664,168.65079365079364,177.69841269841268,-1.0317460317460316,-0.07936507936507936,-166.26984126984127
65,54.047619047619044,155.3174603174603,162.14285714285714,-26.587301587301585,120.87301587301586,62.460317460317455,-26.746031746031743,-29.444444444444443,-26.428571428571427,138.65079365079364,175.95238095238093,-8.333333333333332,-25.317460317460316,7.698412698412698,112.93650793650794,325.0,-24.68253968253968,87.06349206349206,-31.666666666666664,168.65079365079364,177.69841269841268,-1.0317460317460316,-0.07936507936507936,-166.26984126984127
66,-0.7142857142857142,151.03174603174602,145.79365079365078,-22.619047619047617,90.23809523809523,60.873015873015866,-22.777777777777775,-18.80952380952381,-22.46031746031746,155.79365079365078,161.5079365079365,-6.428571428571428,-21.349206349206348,10.396825396825395,98.17460317460316,-0.07936507936507936,-18.49206349206349,95.15873015873015,-23.41269841269841,142.46031746031744,149.12698412698413,-0.5555555555555556,0.07936507936507936,-166.26984126984127
67,-0.7142857142857142,151.03174603174602,145.79365079365078,-22.619047619047617,90.23809523809523,60.873015873015866,-22.777777777777775,-18.80952380952381,-22.46031746031746,155.79365079365078,161.5079365079365,-6.428571428571428,-21.349206349206348,10.396825396825395,98.17460317460316,-0.07936507936507936,-18.49206349206349,95.15873015873015,-23.41269841269841,142.46031746031744,149.12698412698413,-0.5555555555555556,0.07936507936507936,-166.26984126984127
68,-55.95238095238095,146.42857142857142,126.9047619047619,-18.96825396825397,57.22222222222222,57.53968253968254,-19.126984126984127,-8.65079365079365,-18.65079365079365,169.28571428571428,144.2063492063492,-5.7936507936507935,-17.857142857142858,23.41269841269841,78.33333333333333,-325.0,-12.777777777777777,99.76190476190476,-14.682539682539682,118.33333333333333,123.09523809523809,-0.3968253968253968,0.3968253968253968,-166.26984126984127
69,-55.95238095238095,146.42857142857142,126.9047619047619,-18.96825396825397,57.22222222222222,57.53968253968254,-19.126984126984127,-8.65079365079365,-18.65079365079365,169.28571428571428,144.2063492063492,-5.7936507936507935,-17.857142857142858,23.41269841269841,78.33333333333333,-325.0,-12.777777777777777,99.76190476190476,-14.682539682539682,118.33333333333333,123.09523809523809,-0.3968253968253968,0.3968253968253968,-166.26984126984127
70,-55.95238095238095,146.42857142857142,126.9047619047619,-18.96825396825397,57.22222222222222,57.53968253968254,-19.126984126984127,-8.65079365079365,-18.65079365079365,169.28571428571428,144.2063492063492,-5.7936507936507935,-17.857142857142858,23.41269841269841,78.33333333333333,-325.0,-12.777777777777777,99.76190476190476,-14.682539682539682,118.33333333333333,123.09523809523809,-0.3968253968253968,0.3968253968253968,-321.8253968253968
71,-55.95238095238095,146.42857142857142,126.9047619047619,-18.96825396825397,57.22222222222222,57.53968253968254,-19.126984126984127,-8.65079365079365,-18.65079365079365,169.28571428571428,144.2063492063492,-5.7936507936507935,-17.857142857142858,23.41269841269841,78.33333333333333,-325.0,-12.777777777777777,99.76190476190476,-14.682539682539682,118.33333333333333,123.09523809523809,-0.3968253968253968,0.3968253968253968,-321.8253968253968
72,-55.95238095238095,146.42857142857142,126.9047619047619,-18.96825396825397,57.22222222222222,57.53968253968254,-19.126984126984127,-8.65079365079365,-18.65079365079365,169.28571428571428,144.2063492063492,-5.7936507936507935,-17.857142857142858,23.41269841269841,78.33333333333333,-325.0,-12.777777777777777,99.76190476190476,-14.682539682539682,118.33333333333333,123.09523809523809,-0.3968253968253968,0.3968253968253968,-321.8253968253968
73,-55.95238095238095,146.42857142857142,126.9047619047619,-18.96825396825397,57.22222222222222,57.53968253968254,-19.126984126984127,-8.65079365079365,-18.65079365079365,169.28571428571428,144.2063492063492,-5.7936507936507935,-17.857142857142858,23.41269841269841,78.33333333333333,-325.0,-12.777777777777777,99.76190476190476,-14.682539682539682,118.33333333333333,123.09523809523809,-0.3968253968253968,0.3968253968253968,-321.8253968253968
74,-55.95238095238095,146.42857142857142,126.9047619047619,-18.96825396825397,57.22222222222222,57.53968253968254,-19.126984126984127,-8.65079365079365,-18.65079365079365,169.28571428571428,144.2063492063492,-5.7936507936507935,-17.857142857142858,23.41269841269841,78.33333333333333,-325.0,-12.777777777777777,99.76190476190476,-14.682539682539682,118.33333333333333,123.09523809523809,-0.3968253968253968,0.3968253968253968,-321.8253968253968
75,-55.95238095238095,146.42857142857142,126.9047619047619,-18.96825396825397,57.22222222222222,57.53968253968254,-19.126984126984127,-8.65079365079365,-18.65079365079365,169.28571428571428,144.2063492063492,-5.7936507936507935,-17.857142857142858,23.41269841269841,78.33333333333333,-325.0,-12.777777777777777,99.76190476190476,-14.682539682539682,118.33333333333333,123.09523809523809,-0.3968253968253968,0.3968253968253968,-321.8253968253968
76,-55.95238095238095,146.42857142857142,126.9047619047619,-18.96825396825397,57.22222222222222,57.53968253968254,-19.126984126984127,-8.65079365079365,-18.65079365079365,169.28571428571428,144.2063492063492,-5.7936507936507935,-17.857142857142858,23.41269841269841,78.33333333333333,-325.0,-12.777777777777777,99.76190476190476,-14.682539682539682,118.33333333333333,123.09523809523809,-0.3968253968253968,0.3968253968253968,-321.8253968253968
77,-55.95238095238095,146.42857142857142,126.9047619047619,-18.96825396825397,57.22222222222222,57.53968253968254,-19.126984126984127,-8.65079365079365,-18.65079365079365,169.28571428571428,144.2063492063492,-5.7936507936507935,-17.857142857142858,23.41269841269841,78.33333333333333,-325.0,-12.777777777777777,99.76190476190476,-14.682539682539682,118.33333333333333,123.09523809523809,-0.3968253968253968,0.3968253968253968,-321.8253968253968
78,-55.95238095238095,146.42857142857142,126.9047619047619,-18.96825396825397,57.22222222222222,57.53968253968254,-19.126984126984127,-8.65079365079365,-18.65079365079365,169.28571428571428,144.2063492063492,-5.7936507936507935,-17.857142857142858,23.41269841269841,78.33333333333333,-325.0,-12.777777777777777,99.76190476190476,-14.682539682539682,118.33333333333333,123.09523809523809,-0.3968253968253968,0.3968253968253968,-321.8253968253968
79,-55.95238095238095,146.42857142857142,126.9047619047619,-18.96825396825397,57.22222222222222,57.53968253968254,-19.126984126984127,-8.65079365079365,-18.65079365079365,169.28571428571428,144.2063492063492,-5.7936507936507935,-17.857142857142858,23.41269841269841,78.33333333333333,-325.0,-12.777777777777777,99.76190476190476,-14.682539682539682,118.33333333333333,123.09523809523809,-0.3968253968253968,0.3968253968253968,-321.8253968253968
80,-55.95238095238095,146.42857142857142,126.9047619047619,-18.96825396825397,57.22222222222222,57.53968253968254,-19.126984126984127,-8.65079365079365,-18.65079365079365,169.28571428571428,144.2063492063492,-5.7936507936507935,-17.857142857142858,23.41269841269841,78.33333333333333,-325.0,-12.777777777777777,99.76190476190476,-14.682539682539682,118.33333333333333,123.09523809523809,-0.3968253968253968,0.3968253968253968,-166.26984126984127
81,-55.95238095238095,146.42857142857142,126.9047619047619,-18.96825396825397,57.22222222222222,57.53968253968254,-19.126984126984127,-8.65079365079365,-18.65079365079365,169.28571428571428,144.2063492063492,-5.7936507936507935,-17.857142857142858,23.41269841269841,78.33333333333333,-325.0,-12.777777777777777,99.76190476190476,-14.682539682539682,118.33333333333333,123.09523809523809,-0.3968253968253968,0.3968253968253968,-166.26984126984127
82,-55.95238095238095,146.42857142857142,126.9047619047619,-18.96825396825397,57.22222222222222,57.53968253968254,-19.126984126984127,-8.65079365079365,-18.65079365079365,169.28571428571428,144.2063492063492,-5.7936507936507935,-17.857142857142858,23.41269841269841,78.33333333333333,-325.0,-12.777777777777777,99.76190476190476,-14.682539682539682,118.33333333333333,123.09523809523809,-0.3968253968253968,0.3968253968253968,-166.26984126984127
83,-55.95238095238095,146.42857142857142,126.9047619047619,-18.96825396825397,57.22222222222222,57.53968253968254,-19.126984126984127,-8.65079365079365,-18.65079365079365,169.28571428571428,144.2063492063492,-5.7936507936507935,-17.857142857142858,23.41269841269841,78.33333333333333,-325.0,-12.777777777777777,99.76190476190476,-14.682539682539682,118.33333333333333,123.09523809523809,-0.3968253968253968,0.3968253968253968,-166.26984126984127
84,-55.95238095238095,146.42857142857142,126.9047619047619,-18.96825396825397,57.22222222222222,57.53968253968254,-19.126984126984127,-8.65079365079365,-18.65079365079365,169.28571428571428,144.2063492063492,-5.7936507936507935,-17.857142857142858,23.41269841269841,78.33333333333333,-325.0,-12.777777777777777,99.76190476190476,-14.682539682539682,118.33333333333333,123.09523809523809,-0.3968253968253968,0.3968253968253968,-166.26984126984127
85,-55.95238095238095,146.42857142857142,126.9047619047619,-18.96825396825397,57.22222222222222,57.53968253968254,-19.126984126984127,-8.65079365079365,-18.65079365079365,169.28571428571428,144.2063492063492,-5.7936507936507935,-17.857142857142858,23.41269841269841,78.33333333333333,-325.0,-12.777777777777777,99.76190476190476,-14.682539682539682,118.33333333333333,123.09523809523809,-0.3968253968253968,0.3968253968253968,-166.26984126984127
86,-49.285714285714285,110.39682539682539,166.26984126984127,91.66666666666666,51.666666666666664,13.571428571428571,90.23809523809523,113.73015873015872,110.23809523809523,108.17460317460316,166.58730158730157,9.603174603174603,104.2063492063492,0.5555555555555556,96.42857142857142,325.0,141.984126984127,43.57142857142857,-41.507936507936506,59.76190476190476,60.873015873015866,0.5555555555555556,0.23809523809523808,-166.26984126984127
87,-49.285714285714285,110.39682539682539,166.26984126984127,91.66666666666666,51.666666666666664,13.571428571428571,90.23809523809523,113.73015873015872,110.23809523809523,108.17460317460316,166.58730158730157,9.603174603174603,104.2063492063492,0.5555555555555556,96.42857142857142,325.0,141.984126984127,43.57142857142857,-41.507936507936506,59.76190476190476,60.873015873015866,0.5555555555555556,0.23809523809523808,-166.26984126984127
88,-54.841269841269835,111.03174603174602,163.57142857142856,91.98412698412697,50.079365079365076,11.984126984126984,94.52380952380952,115.31746031746032,116.42857142857142,110.39682539682539,162.61904761904762,8.492063492063492,105.31746031746032,0.7142857142857142,97.22222222222221,325.0,139.12698412698413,46.904761904761905,-36.74603174603175,59.12698412698413,59.92063492063492,0.5555555555555556,-0.07936507936507936,-166.26984126984127
89,-54.841269841269835,111.03174603174602,163.57142857142856,91.98412698412697,50.079365079365076,11.984126984126984,94.52380952380952,115.31746031746032,116.42857142857142,110.39682539682539,162.61904761904762,8.492063492063492,105.31746031746032,0.7142857142857142,97.22222222222221,325.0,139.12698412698413,46.904761904761905,-36.74603174603175,59.12698412698413,59.92063492063492,0.5555555555555556,-0.07936507936507936,-166.26984126984127
90,-56.269841269841265,109.44444444444444,159.12698412698413,95.95238095238095,51.03174603174603,13.095238095238095,98.80952380952381,117.85714285714285,123.88888888888889,110.71428571428571,161.5079365079365,12.3015873015873,112.93650793650794,6.746031746031746,94.84126984126983,325.0,142.14285714285714,49.6031746031746,-30.07936507936508,57.857142857142854,58.8095238095238,-0.23809523809523808,-0.07936507936507936,-321.8253968253968
91,-56.269841269841265,109.44444444444444,159.12698412698413,95.95238095238095,51.03174603174603,13.095238095238095,98.80952380952381,117.85714285714285,123.88888888888889,110.71428571428571,161.5079365079365,12.3015873015873,112.93650793650794,6.746031746031746,94.84126984126983,325.0,142.14285714285714,49.6031746031746,-30.07936507936508,57.857142857142854,58.8095238095238,-0.23809523809523808,-0.07936507936507936,-321.8253968253968
92,-56.42857142857142,105.15873015873015,160.7142857142857,95.63492063492063,49.76190476190476,8.492063492063492,95.0,115.15873015873015,122.46031746031746,103.73015873015872,163.4126984126984,10.396825396825395,103.25396825396825,6.428571428571428,88.01587301587301,325.0,145.95238095238093,41.666666666666664,-34.52380952380952,56.74603174603174,57.53968253968254,0.7142857142857142,-0.23809523809523808,-321.8253968253968
93,-56.42857142857142,105.15873015873015,160.7142857142857,95.63492063492063,49.76190476190476,8.492063492063492,95.0,115.15873015873015,122.46031746031746,103.73015873015872,163.4126984126984,10.396825396825395,103.25396825396825,6.428571428571428,88.01587301587301,325.0,145.95238095238093,41.666666666666664,-34.52380952380952,56.74603174603174,57.53968253968254,0.7142857142857142,-0.23809523809523808,-321.8253968253968
94,-59.6031746031746,108.80952380952381,149.6031746031746,102.14285714285714,46.74603174603175,8.809523809523808,106.9047619047619,119.6031746031746,142.77777777777777,105.79365079365078,158.96825396825395,16.746031746031743,118.8095238095238,-4.365079365079365,94.04761904761904,325.0,142.77777777777777,40.079365079365076,-37.22222222222222,54.36507936507936,55.317460317460316,-0.23809523809523808,-1.1904761904761905,-321.8253968253968
95,-59.6031746031746,108.80952380952381,149.6031746031746,102.14285714285714,46.74603174603175,8.809523809523808,106.9047619047619,119.6031746031746,142.77777777777777,105.79365079365078,158.96825396825395,16.746031746031743,118.8095238095238,-4.365079365079365,94.04761904761904,325.0,142.77777777777777,40.079365079365076,-37.22222222222222,54.36507936507936,55.317460317460316,-0.23809523809523808,-1.1904761904761905,-321.8253968253968
96,-58.33333333333333,102.46031746031746,151.5079365079365,100.71428571428571,46.11111111111111,4.682539682539682,108.01587301587301,117.53968253968253,139.6031746031746,100.07936507936508,160.55555555555554,13.412698412698411,115.15873015873015,-5.0,95.63492063492063,325.0,145.63492063492063,35.317460317460316,-39.92063492063492,53.57142857142857,54.68253968253968,1.0317460317460316,0.5555555555555556,-321.8253968253968
97,-58.33333333333333,102.46031746031746,151.5079365079365,100.71428571428571,46.11111111111111,4.682539682539682,108.01587301587301,117.53968253968253,139.6031746031746,100.07936507936508,160.55555555555554,13.412698412698411,115.15873015873015,-5.0,95.63492063492063,325.0,145.63492063492063,35.317460317460316,-39.92063492063492,53.57142857142857,54.68253968253968,1.0317460317460316,0.5555555555555556,-321.8253968253968
98,-68.80952380952381,90.07936507936508,146.11111111111111,98.33333333333333,46.42857142857142,5.0,111.82539682539682,119.28571428571428,141.5079365079365,100.23809523809523,159.76190476190476,8.492063492063492,114.52380952380952,-11.031746031746032,96.1111111111111,325.0,144.36507936507937,35.15873015873016,-37.06349206349206,53.095238095238095,53.888888888888886,0.7142857142857142,0.07936507936507936,-321.8253968253968
99,-68.80952380952381,90.07936507936508,146.11111111111111,98.33333333333333,46.42857142857142,5.0,111.82539682539682,119.28571428571428,141.5079365079365,100.23809523809523,159.76190476190476,8.492063492063492,114.52380952380952,-11.031746031746032,96.1111111111111,325.0,144.36507936507937,35.15873015873016,-37.06349206349206,53.095238095238095,53.888888888888886,0.7142857142857142,0.07936507936507936,-321.8253968253968
100,-61.82539682539682,99.44444444444444,145.47619047619048,101.34920634920634,47.857142857142854,4.682539682539682,117.22222222222221,122.6190476190476,149.76190476190476,100.71428571428571,175.3174603174603,9.603174603174603,121.19047619047619,-6.111111111111111,93.57142857142857,325.0,145.0,36.42857142857142,-33.25396825396825,51.666666666666664,52.3015873015873,-1.0317460317460316,-0.5555555555555556,-166.26984126984127
101,-61.82539682539682,99.44444444444444,145.47619047619048,101.34920634920634,47.857142857142854,4.682539682539682,117.22222222222221,122.6190476190476,149.76190476190476,100.71428571428571,175.3174603174603,9.603174603174603,121.19047619047619,-6.111111111111111,93.57142857142857,325.0,145.0,36.42857142857142,-33.25396825396825,51.666666666666664,52.3015873015873,-1.0317460317460316,-0.5555555555555556,-166.26984126984127
102,-22.777777777777775,144.04761904761904,161.03174603174602,113.57142857142857,45.15873015873016,6.587301587301587,116.1111111111111,125.79365079365078,150.87301587301587,102.46031746031746,198.96825396825395,21.03174603174603,129.28571428571428,11.507936507936508,89.6031746031746,325.0,148.8095238095238,42.14285714285714,-32.3015873015873,50.87301587301587,51.34920634920635,-0.3968253968253968,-0.7142857142857142,-166.26984126984127
103,-22.777777777777775,144.04761904761904,161.03174603174602,113.57142857142857,45.15873015873016,6.587301587301587,116.1111111111111,125.79365079365078,150.87301587301587,102.46031746031746,198.96825396825395,21.03174603174603,129.28571428571428,11.507936507936508,89.6031746031746,325.0,148.8095238095238,42.14285714285714,-32.3015873015873,50.87301587301587,51.34920634920635,-0.3968253968253968,-0.7142857142857142,-166.26984126984127
104,-18.015873015873016,153.57142857142856,168.33333333333331,122.30158730158729,41.98412698412698,16.26984126984127,116.1111111111111,131.03174603174602,149.6031746031746,105.0,204.04761904761904,19.126984126984127,124.84126984126983,-1.1904761904761905,90.55555555555556,325.0,149.12698412698413,50.87301587301587,-31.349206349206348,50.079365079365076,50.55555555555555,-0.07936507936507936,0.07936507936507936,-166.26984126984127
105,-18.015873015873016,153.57142857142856,168.33333333333331,122.30158730158729,41.98412698412698,16.26984126984127,116.1111111111111,131.03174603174602,149.6031746031746,105.0,204.04761904761904,19.126984126984127,124.84126984126983,-1.1904761904761905,90.55555555555556,325.0,149.12698412698413,50.87301587301587,-31.349206349206348,50.079365079365076,50.55555555555555,-0.07936507936507936,0.07936507936507936,-166.26984126984127
106,-23.253968253968253,155.47619047619048,169.28571428571428,126.58730158730158,41.98412698412698,20.396825396825395,117.22222222222221,134.04761904761904,149.12698412698413,106.26984126984127,210.07936507936506,22.142857142857142,131.19047619047618,9.603174603174603,93.88888888888889,325.0,151.19047619047618,53.25396825396825,-30.87301587301587,49.12698412698413,49.6031746031746,-0.7142857142857142,-0.07936507936507936,-166.26984126984127
107,-23.253968253968253,155.47619047619048,169.28571428571428,126.58730158730158,41.98412698412698,20.396825396825395,117.22222222222221,134.04761904761904,149.12698412698413,106.26984126984127,210.07936507936506,22.142857142857142,131.19047619047618,9.603174603174603,93.88888888888889,325.0,151.19047619047618,53.25396825396825,-30.87301587301587,49.12698412698413,49.6031746031746,-0.7142857142857142,-0.07936507936507936,-166.26984126984127
108,-32.14285714285714,140.87301587301587,165.95238095238093,125.95238095238095,41.507936507936506,20.396825396825395,118.01587301587301,135.63492063492063,148.65079365079364,105.47619047619047,210.07936507936506,19.444444444444443,126.42857142857142,5.634920634920634,91.34920634920634,325.0,152.77777777777777,56.11111111111111,-31.19047619047619,48.49206349206349,48.96825396825397,-1.0317460317460316,-1.0317460317460316,-166.26984126984127
109,-32.14285714285714,140.87301587301587,165.95238095238093,125.95238095238095,41.507936507936506,20.396825396825395,118.01587301587301,135.63492063492063,148.65079365079364,105.47619047619047,210.07936507936506,19.444444444444443,126.42857142857142,5.634920634920634,91.34920634920634,325.0,152.77777777777777,56.11111111111111,-31.19047619047619,48.49206349206349,48.96825396825397,-1.0317460317460316,-1.0317460317460316,-166.26984126984127
110,-41.19047619047619,128.17460317460316,157.85714285714286,121.34920634920634,36.74603174603175,13.412698412698411,117.6984126984127,132.3015873015873,146.11111111111111,100.07936507936508,210.7142857142857,14.365079365079364,113.09523809523809,-7.698412698412698,85.47619047619047,325.0,149.6031746031746,50.39682539682539,-40.238095238095234,47.53968253968254,47.857142857142854,0.5555555555555556,-0.3968253968253968,-321.8253968253968
111,-41.19047619047619,128.17460317460316,157.85714285714286,121.34920634920634,36.74603174603175,13.412698412698411,117.6984126984127,132.3015873015873,146.11111111111111,100.07936507936508,210.7142857142857,14.365079365079364,113.09523809523809,-7.698412698412698,85.47619047619047,325.0,149.6031746031746,50.39682539682539,-40.238095238095234,47.53968253968254,47.857142857142854,0.5555555555555556,-0.3968253968253968,-321.8253968253968
112,-41.666666666666664,126.9047619047619,151.03174603174602,122.93650793650794,34.682539682539684,14.523809523809524,119.76190476190476,133.0952380952381,144.36507936507937,99.44444444444444,215.79365079365078,18.96825396825397,131.8253968253968,-7.698412698412698,85.79365079365078,325.0,144.84126984126982,45.317460317460316,-41.98412698412698,46.74603174603175,47.06349206349206,-0.873015873015873,-0.3968253968253968,-321.8253968253968
113,-41.666666666666664,126.9047619047619,151.03174603174602,122.93650793650794,34.682539682539684,14.523809523809524,119.76190476190476,133.0952380952381,144.36507936507937,99.44444444444444,215.79365079365078,18.96825396825397,131.8253968253968,-7.698412698412698,85.79365079365078,325.0,144.84126984126982,45.317460317460316,-41.98412698412698,46.74603174603175,47.06349206349206,-0.873015873015873,-0.3968253968253968,-321.8253968253968
114,-43.57142857142857,127.53968253968253,145.3174603174603,125.15873015873015,33.73015873015873,15.0,120.55555555555554,137.06349206349205,146.58730158730157,102.46031746031746,215.47619047619045,19.92063492063492,137.85714285714286,3.4126984126984126,86.74603174603175,325.0,144.52380952380952,48.80952380952381,-37.53968253968254,46.11111111111111,46.42857142857142,-2.142857142857143,-0.07936507936507936,-321.8253968253968
115,-43.57142857142857,127.53968253968253,145.3174603174603,125.15873015873015,33.73015873015873,15.0,120.55555555555554,137.06349206349205,146.58730158730157,102.46031746031746,215.47619047619045,19.92063492063492,137.85714285714286,3.4126984126984126,86.74603174603175,325.0,144.52380952380952,48.80952380952381,-37.53968253968254,46.11111111111111,46.42857142857142,-2.142857142857143,-0.07936507936507936,-321.8253968253968
116,-48.33333333333333,127.22222222222221,146.42857142857142,129.6031746031746,35.476190476190474,20.555555555555554,125.47619047619047,144.68253968253967,148.015873015873,110.87301587301587,214.36507936507937,14.682539682539682,129.76190476190476,6.746031746031746,88.01587301587301,-0.07936507936507936,147.53968253968253,51.03174603174603,-32.77777777777778,45.0,45.15873015873016,-1.6666666666666665,-0.7142857142857142,-321.8253968253968
117,-48.33333333333333,127.22222222222221,146.42857142857142,129.6031746031746,35.476190476190474,20.555555555555554,125.47619047619047,144.68253968253967,148.015873015873,110.87301587301587,214.36507936507937,14.682539682539682,129.76190476190476,6.746031746031746,88.01587301587301,-0.07936507936507936,147.53968253968253,51.03174603174603,-32.77777777777778,45.0,45.15873015873016,-1.6666666666666665,-0.7142857142857142,-321.8253968253968
118,-58.49206349206349,119.6031746031746,144.36507936507937,134.84126984126982,36.11111111111111,28.809523809523807,132.46031746031744,155.63492063492063,151.19047619047618,121.34920634920634,212.3015873015873,10.079365079365079,136.11111111111111,13.412698412698411,90.55555555555556,-325.0,149.12698412698413,52.77777777777777,-24.523809523809522,43.25396825396825,43.41269841269841,-0.3968253968253968,-1.1904761904761905,-321.8253968253968
119,-58.49206349206349,119.6031746031746,144.36507936507937,134.84126984126982,36.11111111111111,28.809523809523807,132.46031746031744,155.63492063492063,151.19047619047618,121.34920634920634,212.3015873015873,10.079365079365079,136.11111111111111,13.412698412698411,90.55555555555556,-325.0,149.12698412698413,52.77777777777777,-24.523809523809522,43.25396825396825,43.41269841269841,-0.3968253968253968,-1.1904761904761905,-321.8253968253968
120,-67.53968253968253,116.74603174603173,136.74603174603175,139.44444444444443,35.317460317460316,31.825396825396822,134.04761904761904,164.68253968253967,153.73015873015873,130.55555555555554,206.58730158730157,12.936507936507935,138.33333333333331,19.444444444444443,86.42857142857143,-325.0,147.85714285714286,61.507936507936506,-12.3015873015873,42.460317460317455,42.61904761904761,-0.7142857142857142,-0.7142857142857142,-166.26984126984127
121,-67.53968253968253,116.74603174603173,136.74603174603175,139.44444444444443,35.317460317460316,31.825396825396822,134.04761904761904,164.68253968253967,153.73015873015873,130.55555555555554,206.58730158730157,12.936507936507935,138.33333333333331,19.444444444444443,86.42857142857143,-325.0,147.85714285714286,61.507936507936506,-12.3015873015873,42.460317460317455,42.61904761904761,-0.7142857142857142,-0.7142857142857142,-166.26984126984127
122,-64.84126984126983,125.47619047619047,141.5079365079365,143.09523809523807,38.49206349206349,35.0,139.12698412698413,168.17460317460316,156.42857142857142,132.3015873015873,204.36507936507937,15.317460317460316,133.57142857142856,9.603174603174603,84.84126984126983,-325.0,150.87301587301587,65.79365079365078,-5.158730158730158,41.82539682539682,42.14285714285714,-0.873015873015873,0.23809523809523808,-166.26984126984127
123,-64.84126984126983,125.47619047619047,141.5079365079365,143.09523809523807,38.49206349206349,35.0,139.12698412698413,168.17460317460316,156.42857142857142,132.3015873015873,204.36507936507937,15.317460317460316,133.57142857142856,9.603174603174603,84.84126984126983,-325.0,150.87301587301587,65.79365079365078,-5.158730158730158,41.82539682539682,42.14285714285714,-0.873015873015873,0.23809523809523808,-166.26984126984127
124,-66.58730158730158,123.25396825396825,145.0,145.3174603174603,39.6031746031746,35.95238095238095,143.4126984126984,166.74603174603175,156.74603174603175,128.015873015873,203.7301587301587,15.95238095238095,131.19047619047618,12.936507936507935,81.19047619047619,-325.0,153.25396825396825,61.03174603174603,-6.111111111111111,41.19047619047619,41.19047619047619,-0.23809523809523808,-0.7142857142857142,-166.26984126984127
125,-66.58730158730158,123.25396825396825,145.0,145.3174603174603,39.6031746031746,35.95238095238095,143.4126984126984,166.74603174603175,156.74603174603175,128.015873015873,203.7301587301587,15.95238095238095,131.19047619047618,12.936507936507935,81.19047619047619,-325.0,153.25396825396825,61.03174603174603,-6.111111111111111,41.19047619047619,41.19047619047619,-0.23809523809523808,-0.7142857142857142,-166.26984126984127
126,-68.33333333333333,120.39682539682539,139.9206349206349,146.11111111111111,35.0,32.61904761904762,139.44444444444443,161.984126984127,151.8253968253968,121.03174603174602,203.88888888888889,17.38095238095238,133.4126984126984,20.873015873015873,79.44444444444444,-325.0,151.19047619047618,52.460317460317455,-12.142857142857142,40.714285714285715,40.87301587301587,-0.3968253968253968,-1.1904761904761905,-166.26984126984127
127,-68.33333333333333,120.39682539682539,139.9206349206349,146.11111111111111,35.0,32.61904761904762,139.44444444444443,161.984126984127,151.8253968253968,121.03174603174602,203.88888888888889,17.38095238095238,133.4126984126984,20.873015873015873,79.44444444444444,-325.0,151.19047619047618,52.460317460317455,-12.142857142857142,40.714285714285715,40.87301587301587,-0.3968253968253968,-1.1904761904761905,-166.26984126984127
128,-74.36507936507937,111.98412698412697,126.9047619047619,145.63492063492063,24.84126984126984,29.285714285714285,130.55555555555554,154.52380952380952,138.65079365079364,109.92063492063491,197.69841269841268,15.793650793650793,136.58730158730157,14.682539682539682,75.47619047619047,-325.0,143.4126984126984,39.44444444444444,-19.444444444444443,39.76190476190476,39.76190476190476,-0.5555555555555556,-1.0317460317460316,-166.26984126984127
129,-74.36507936507937,111.98412698412697,126.9047619047619,145.63492063492063,24.84126984126984,29.285714285714285,130.55555555555554,154.52380952380952,138.65079365079364,109.92063492063491,197.69841269841268,15.793650793650793,136.58730158730157,14.682539682539682,75.47619047619047,-325.0,143.4126984126984,39.44444444444444,-19.444444444444443,39.76190476190476,39.76190476190476,-0.5555555555555556,-1.0317460317460316,-166.26984126984127
130,-73.4126984126984,110.71428571428571,126.26984126984127,144.04761904761904,23.88888888888889,25.0,129.9206349206349,150.55555555555554,137.69841269841268,103.73015873015872,197.85714285714283,15.317460317460316,137.69841269841268,22.3015873015873,74.52380952380952,-325.0,146.42857142857142,31.349206349206348,-27.857142857142854,39.44444444444444,39.44444444444444,-0.07936507936507936,-0.7142857142857142,-321.8253968253968
131,-73.4126984126984,110.71428571428571,126.26984126984127,144.04761904761904,23.88888888888889,25.0,129.9206349206349,150.55555555555554,137.69841269841268,103.73015873015872,197.85714285714283,15.317460317460316,137.69841269841268,22.3015873015873,74.52380952380952,-325.0,146.42857142857142,31.349206349206348,-27.857142857142854,39.44444444444444,39.44444444444444,-0.07936507936507936,-0.7142857142857142,-321.8253968253968
132,-76.74603174603175,107.06349206349206,126.9047619047619,140.3968253968254,21.349206349206348,21.03174603174603,126.42857142857142,149.12698412698413,131.5079365079365,99.6031746031746,201.5079365079365,12.936507936507935,134.68253968253967,12.142857142857142,70.71428571428571,-325.0,143.73015873015873,28.96825396825397,-34.52380952380952,38.65079365079365,38.49206349206349,0.23809523809523808,0.3968253968253968,-321.8253968253968
133,-76.74603174603175,107.06349206349206,126.9047619047619,140.3968253968254,21.349206349206348,21.03174603174603,126.42857142857142,149.12698412698413,131.5079365079365,99.6031746031746,201.5079365079365,12.936507936507935,134.68253968253967,12.142857142857142,70.71428571428571,-325.0,143.73015873015873,28.96825396825397,-34.52380952380952,38.65079365079365,38.49206349206349,0.23809523809523808,0.3968253968253968,-321.8253968253968
134,-76.9047619047619,102.93650793650794,127.85714285714285,138.96825396825395,15.95238095238095,18.65079365079365,124.68253968253967,147.06349206349205,127.06349206349206,94.04761904761904,194.52380952380952,8.65079365079365,128.17460317460316,-3.095238095238095,66.26984126984127,-325.0,140.3968253968254,25.317460317460316,-39.6031746031746,37.857142857142854,37.857142857142854,-0.07936507936507936,-0.07936507936507936,-321.8253968253968
135,-76.9047619047619,102.93650793650794,127.85714285714285,138.96825396825395,15.95238095238095,18.65079365079365,124.68253968253967,147.06349206349205,127.06349206349206,94.04761904761904,194.52380952380952,8.65079365079365,128.17460317460316,-3.095238095238095,66.26984126984127,-325.0,140.3968253968254,25.317460317460316,-39.6031746031746,37.857142857142854,37.857142857142854,-0.07936507936507936,-0.07936507936507936,-321.8253968253968
136,-72.77777777777777,100.55555555555554,135.47619047619048,141.19047619047618,17.539682539682538,17.38095238095238,128.8095238095238,147.85714285714286,131.03174603174602,91.98412698412697,191.03174603174602,10.396825396825395,136.9047619047619,10.555555555555555,68.01587301587301,-325.0,148.33333333333331,25.476190476190474,-33.25396825396825,37.06349206349206,37.22222222222222,-0.5555555555555556,-1.0317460317460316,-321.8253968253968
137,-72.77777777777777,100.55555555555554,135.47619047619048,141.19047619047618,17.539682539682538,17.38095238095238,128.8095238095238,147.85714285714286,131.03174603174602,91.98412698412697,191.03174603174602,10.396825396825395,136.9047619047619,10.555555555555555,68.01587301587301,-325.0,148.33333333333331,25.476190476190474,-33.25396825396825,37.06349206349206,37.22222222222222,-0.5555555555555556,-1.0317460317460316,-321.8253968253968
138,-76.58730158730158,92.46031746031746,131.19047619047618,139.28571428571428,14.206349206349206,12.619047619047619,129.9206349206349,145.3174603174603,130.55555555555554,91.66666666666666,186.26984126984127,5.158730158730158,140.3968253968254,14.682539682539682,68.33333333333333,-325.0,146.42857142857142,27.38095238095238,-33.095238095238095,36.74603174603175,36.74603174603175,-0.3968253968253968,-0.5555555555555556,-321.8253968253968
139,-76.58730158730158,92.46031746031746,131.19047619047618,139.28571428571428,14.206349206349206,12.619047619047619,129.9206349206349,145.3174603174603,130.55555555555554,91.66666666666666,186.26984126984127,5.158730158730158,140.3968253968254,14.682539682539682,68.33333333333333,-325.0,146.42857142857142,27.38095238095238,-33.095238095238095,36.74603174603175,36.74603174603175,-0.3968253968253968,-0.5555555555555556,-321.8253968253968
140,-77.06349206349206,92.46031746031746,124.84126984126983,133.88888888888889,14.365079365079364,11.507936507936508,135.79365079365078,145.95238095238093,129.76190476190476,91.19047619047619,180.7142857142857,-4.841269841269841,132.61904761904762,-2.7777777777777777,70.23809523809524,-325.0,144.52380952380952,31.349206349206348,-35.0,36.11111111111111,36.11111111111111,-0.07936507936507936,-1.349206349206349,-166.26984126984127
141,-77.06349206349206,92.46031746031746,124.84126984126983,133.88888888888889,14.365079365079364,11.507936507936508,135.79365079365078,145.95238095238093,129.76190476190476,91.19047619047619,180.7142857142857,-4.841269841269841,132.61904761904762,-2.7777777777777777,70.23809523809524,-325.0,144.52380952380952,31.349206349206348,-35.0,36.11111111111111,36.11111111111111,-0.07936507936507936,-1.349206349206349,-166.26984126984127
142,-77.85714285714285,87.06349206349206,122.6190476190476,134.84126984126982,19.444444444444443,11.031746031746032,139.28571428571428,143.57142857142856,133.4126984126984,87.85714285714285,175.79365079365078,2.46031746031746,135.15873015873015,-12.936507936507935,71.34920634920634,-325.0,149.76190476190476,29.6031746031746,-38.80952380952381,35.317460317460316,35.15873015873016,-1.1904761904761905,-1.1904761904761905,-166.26984126984127
143,-77.85714285714285,87.06349206349206,122.6190476190476,134.84126984126982,19.444444444444443,11.031746031746032,139.28571428571428,143.57142857142856,133.4126984126984,87.85714285714285,175.79365079365078,2.46031746031746,135.15873015873015,-12.936507936507935,71.34920634920634,-325.0,149.76190476190476,29.6031746031746,-38.80952380952381,35.317460317460316,35.15873015873016,-1.1904761904761905,-1.1904761904761905,-166.26984126984127
144,-62.93650793650793,96.1111111111111,121.82539682539682,138.015873015873,18.96825396825397,4.682539682539682,139.44444444444443,135.0,138.96825396825395,80.23809523809523,175.79365079365078,12.936507936507935,135.15873015873015,-9.603174603174603,68.33333333333333,-325.0,153.4126984126984,22.142857142857142,-44.68253968253968,34.682539682539684,34.52380952380952,-0.5555555555555556,-0.873015873015873,-166.26984126984127
145,-62.93650793650793,96.1111111111111,121.82539682539682,138.015873015873,18.96825396825397,4.682539682539682,139.44444444444443,135.0,138.96825396825395,80.23809523809523,175.79365079365078,12.936507936507935,135.15873015873015,-9.603174603174603,68.33333333333333,-325.0,153.4126984126984,22.142857142857142,-44.68253968253968,34.682539682539684,34.52380952380952,-0.5555555555555556,-0.873015873015873,-166.26984126984127
146,-65.0,89.6031746031746,118.49206349206348,132.93650793650792,20.555555555555554,-0.07936507936507936,142.77777777777777,131.19047619047618,143.4126984126984,74.52380952380952,170.3968253968254,6.26984126984127,135.3174603174603,-7.698412698412698,69.92063492063491,-325.0,155.0,17.38095238095238,-48.650793650793645,34.2063492063492,34.36507936507936,-0.7142857142857142,-0.873015873015873,-166.26984126984127
147,-65.0,89.6031746031746,118.49206349206348,132.93650793650792,20.555555555555554,-0.07936507936507936,142.77777777777777,131.19047619047618,143.4126984126984,74.52380952380952,170.3968253968254,6.26984126984127,135.3174603174603,-7.698412698412698,69.92063492063491,-325.0,155.0,17.38095238095238,-48.650793650793645,34.2063492063492,34.36507936507936,-0.7142857142857142,-0.873015873015873,-166.26984126984127
148,-78.4920634920635,65.47619047619047,107.53968253968253,116.26984126984127,21.19047619047619,-13.73015873015873,146.42857142857142,118.01587301587301,141.5079365079365,59.6031746031746,160.07936507936506,-11.984126984126984,144.52380952380952,-27.38095238095238,74.52380952380952,-325.0,151.984126984127,1.507936507936508,-61.507936507936506,33.888888888888886,33.57142857142857,-0.23809523809523808,-1.8253968253968254,-166.26984126984127
149,-78.4920634920635,65.47619047619047,107.53968253968253,116.26984126984127,21.19047619047619,-13.73015873015873,146.42857142857142,118.01587301587301,141.5079365079365,59.6031746031746,160.07936507936506,-11.984126984126984,144.52380952380952,-27.38095238095238,74.52380952380952,-325.0,151.984126984127,1.507936507936508,-61.507936507936506,33.888888888888886,33.57142857142857,-0.23809523809523808,-1.8253968253968254,-166.26984126984127
150,-88.80952380952381,32.77777777777778,95.47619047619047,85.47619047619047,13.73015873015873,-44.52380952380952,137.53968253968253,89.12698412698413,126.58730158730158,32.14285714285714,148.4920634920635,-39.76190476190476,141.8253968253968,-55.15873015873016,68.65079365079364,-325.0,140.3968253968254,-29.920634920634917,-85.79365079365078,33.25396825396825,32.93650793650794,0.3968253968253968,0.07936507936507936,-321.8253968253968
151,-88.80952380952381,32.77777777777778,95.47619047619047,85.47619047619047,13.73015873015873,-44.52380952380952,137.53968253968253,89.12698412698413,126.58730158730158,32.14285714285714,148.4920634920635,-39.76190476190476,141.8253968253968,-55.15873015873016,68.65079365079364,-325.0,140.3968253968254,-29.920634920634917,-85.79365079365078,33.25396825396825,32.93650793650794,0.3968253968253968,0.07936507936507936,-321.8253968253968
152,-84.68253968253968,7.5396825396825395,96.1111111111111,56.904761904761905,11.507936507936508,-71.82539682539682,135.63492063492063,60.873015873015866,129.44444444444443,1.984126984126984,148.65079365079364,-69.12698412698413,134.36507936507937,-79.28571428571428,62.460317460317455,-325.0,140.55555555555554,-63.57142857142857,-118.01587301587301,32.460317460317455,32.3015873015873,-0.5555555555555556,-0.5555555555555556,-321.8253968253968
153,-84.68253968253968,7.5396825396825395,96.1111111111111,56.904761904761905,11.507936507936508,-71.82539682539682,135.63492063492063,60.873015873015866,129.44444444444443,1.984126984126984,148.65079365079364,-69.12698412698413,134.36507936507937,-79.28571428571428,62.460317460317455,-325.0,140.55555555555554,-63.57142857142857,-118.01587301587301,32.460317460317455,32.3015873015873,-0.5555555555555556,-0.5555555555555556,-321.8253968253968
154,-80.39682539682539,-15.634920634920634,95.47619047619047,33.73015873015873,14.206349206349206,-97.22222222222221,140.3968253968254,33.73015873015873,136.9047619047619,-25.634920634920633,149.12698412698413,-92.14285714285714,141.19047619047618,-110.71428571428571,64.2063492063492,-325.0,144.52380952380952,-95.47619047619047,-143.25396825396825,31.825396825396822,31.666666666666664,-0.07936507936507936,-1.6666666666666665,-321.8253968253968
155,-80.39682539682539,-15.634920634920634,95.47619047619047,33.73015873015873,14.206349206349206,-97.22222222222221,140.3968253968254,33.73015873015873,136.9047619047619,-25.634920634920633,149.12698412698413,-92.14285714285714,141.19047619047618,-110.71428571428571,64.2063492063492,-325.0,144.52380952380952,-95.47619047619047,-143.25396825396825,31.825396825396822,31.666666666666664,-0.07936507936507936,-1.6666666666666665,-321.8253968253968
156,-85.79365079365078,-36.42857142857142,88.01587301587301,15.793650793650793,7.063492063492063,-118.8095238095238,132.46031746031744,14.206349206349206,129.76190476190476,-44.36507936507936,143.73015873015873,-110.23809523809523,135.15873015873015,-122.14285714285714,55.79365079365079,-325.0,138.4920634920635,-117.22222222222221,-158.4920634920635,31.666666666666664,31.349206349206348,-0.07936507936507936,-0.873015873015873,-321.8253968253968
157,-85.79365079365078,-36.42857142857142,88.01587301587301,15.793650793650793,7.063492063492063,-118.8095238095238,132.46031746031744,14.206349206349206,129.76190476190476,-44.36507936507936,143.73015873015873,-110.23809523809523,135.15873015873015,-122.14285714285714,55.79365079365079,-325.0,138.4920634920635,-117.22222222222221,-158.4920634920635,31.666666666666664,31.349206349206348,-0.07936507936507936,-0.873015873015873,-321.8253968253968
158,-85.79365079365078,-36.42857142857142,88.01587301587301,15.793650793650793,7.063492063492063,-118.8095238095238,132.46031746031744,14.206349206349206,129.76190476190476,-44.36507936507936,143.73015873015873,-110.23809523809523,135.15873015873015,-122.14285714285714,55.79365079365079,-325.0,138.4920634920635,-117.22222222222221,-158.4920634920635,31.666666666666664,31.349206349206348,-0.07936507936507936,-0.873015873015873,-321.8253968253968
159,-85.79365079365078,-36.42857142857142,88.01587301587301,15.793650793650793,7.063492063492063,-118.8095238095238,132.46031746031744,14.206349206349206,129.76190476190476,-44.36507936507936,143.73015873015873,-110.23809523809523,135.15873015873015,-122.14285714285714,55.79365079365079,-325.0,138.4920634920635,-117.22222222222221,-158.4920634920635,31.666666666666664,31.349206349206348,-0.07936507936507936,-0.873015873015873,-321.8253968253968
160,-114.68253968253967,-112.93650793650794,59.6031746031746,-50.238095238095234,-12.777777777777777,-177.85714285714286,118.49206349206348,-40.238095238095234,116.58730158730158,-89.92063492063491,111.82539682539682,-179.76190476190476,119.6031746031746,-190.55555555555554,46.269841269841265,-325.0,109.76190476190476,-173.09523809523807,-225.0,30.07936507936508,29.76190476190476,-1.0317460317460316,-1.6666666666666665,-166.26984126984127
161,-114.68253968253967,-112.93650793650794,59.6031746031746,-50.238095238095234,-12.777777777777777,-177.85714285714286,118.49206349206348,-40.238095238095234,116.58730158730158,-89.92063492063491,111.82539682539682,-179.76190476190476,119.6031746031746,-190.55555555555554,46.269841269841265,-325.0,109.76190476190476,-173.09523809523807,-225.0,30.07936507936508,29.76190476190476,-1.0317460317460316,-1.6666666666666665,-166.26984126984127
162,-78.96825396825396,-156.58730158730157,91.5079365079365,-93.4126984126984,18.96825396825397,-221.5079365079365,154.68253968253967,-82.77777777777777,150.87301587301587,-132.77777777777777,140.23809523809524,-214.2063492063492,148.17460317460316,-218.015873015873,74.2063492063492,-325.0,142.46031746031744,-215.3174603174603,-277.38095238095235,29.444444444444443,28.96825396825397,-0.7142857142857142,-0.7142857142857142,-166.26984126984127
163,-78.96825396825396,-156.58730158730157,91.5079365079365,-93.4126984126984,18.96825396825397,-221.5079365079365,154.68253968253967,-82.77777777777777,150.87301587301587,-132.77777777777777,140.23809523809524,-214.2063492063492,148.17460317460316,-218.015873015873,74.2063492063492,-325.0,142.46031746031744,-215.3174603174603,-277.38095238095235,29.444444444444443,28.96825396825397,-0.7142857142857142,-0.7142857142857142,-166.26984126984127
164,-84.68253968253968,-156.11111111111111,83.57142857142857,-97.38095238095238,13.412698412698411,-223.09523809523807,150.55555555555554,-85.95238095238095,147.38095238095238,-138.4920634920635,131.984126984127,-217.06349206349205,145.15873015873015,-239.76190476190476,67.06349206349206,-325.0,135.63492063492063,-218.4920634920635,-278.17460317460313,29.126984126984127,28.96825396825397,-0.3968253968253968,-0.5555555555555556,-166.26984126984127
165,-84.68253968253968,-156.11111111111111,83.57142857142857,-97.38095238095238,13.412698412698411,-223.09523809523807,150.55555555555554,-85.95238095238095,147.38095238095238,-138.4920634920635,131.984126984127,-217.06349206349205,145.15873015873015,-239.76190476190476,67.06349206349206,-325.0,135.63492063492063,-218.4920634920635,-278.17460317460313,29.126984126984127,28.96825396825397,-0.3968253968253968,-0.5555555555555556,-166.26984126984127
166,-85.63492063492063,-169.76190476190476,81.66666666666666,-106.58730158730158,15.793650793650793,-229.60317460317458,154.36507936507937,-89.44444444444444,142.61904761904762,-146.58730158730157,123.25396825396825,-222.61904761904762,146.42857142857142,-233.88888888888889,65.31746031746032,-325.0,136.58730158730157,-228.49206349206347,-281.984126984127,28.333333333333332,28.333333333333332,-0.07936507936507936,-0.3968253968253968,-166.26984126984127
167,-85.63492063492063,-169.76190476190476,81.66666666666666,-106.58730158730158,15.793650793650793,-229.60317460317458,154.36507936507937,-89.44444444444444,142.61904761904762,-146.58730158730157,123.25396825396825,-222.61904761904762,146.42857142857142,-233.88888888888889,65.31746031746032,-325.0,136.58730158730157,-228.49206349206347,-281.984126984127,28.333333333333332,28.333333333333332,-0.07936507936507936,-0.3968253968253968,-166.26984126984127
168,-84.36507936507937,-175.15873015873015,84.36507936507937,-116.42857142857142,13.73015873015873,-240.2380952380952,149.9206349206349,-97.38095238095238,138.33333333333331,-159.9206349206349,123.57142857142857,-233.7301587301587,144.36507936507937,-235.95238095238093,61.19047619047619,-325.0,135.79365079365078,-241.66666666666666,-289.4444444444444,27.857142857142854,27.698412698412696,-1.0317460317460316,-0.873015873015873,-166.26984126984127
169,-84.36507936507937,-175.15873015873015,84.36507936507937,-116.42857142857142,13.73015873015873,-240.2380952380952,149.9206349206349,-97.38095238095238,138.33333333333331,-159.9206349206349,123.57142857142857,-233.7301587301587,144.36507936507937,-235.95238095238093,61.19047619047619,-325.0,135.79365079365078,-241.66666666666666,-289.4444444444444,27.857142857142854,27.698412698412696,-1.0317460317460316,-0.873015873015873,-166.26984126984127
170,-87.38095238095238,-181.34920634920633,81.19047619047619,-113.88888888888889,6.746031746031746,-237.2222222222222,139.76190476190476,-99.6031746031746,127.22222222222221,-163.88888888888889,114.84126984126983,-231.34920634920633,132.14285714285714,-249.9206349206349,51.03174603174603,-325.0,130.07936507936506,-245.79365079365078,-285.3174603174603,27.38095238095238,27.22222222222222,-0.07936507936507936,-0.873015873015873,-321.8253968253968
171,-87.38095238095238,-181.34920634920633,81.19047619047619,-113.88888888888889,6.746031746031746,-237.2222222222222,139.76190476190476,-99.6031746031746,127.22222222222221,-163.88888888888889,114.84126984126983,-231.34920634920633,132.14285714285714,-249.9206349206349,51.03174603174603,-325.0,130.07936507936506,-245.79365079365078,-285.3174603174603,27.38095238095238,27.22222222222222,-0.07936507936507936,-0.873015873015873,-321.8253968253968
172,-85.79365079365078,-177.38095238095238,84.04761904761904,-108.65079365079364,7.698412698412698,-236.42857142857142,140.07936507936506,-101.66666666666666,125.0,-164.84126984126982,112.93650793650794,-228.33333333333331,129.76190476190476,-264.04761904761904,50.39682539682539,-325.0,132.46031746031744,-247.38095238095238,-280.23809523809524,26.9047619047619,26.9047619047619,-0.7142857142857142,-1.0317460317460316,-321.8253968253968
173,-85.79365079365078,-177.38095238095238,84.04761904761904,-108.65079365079364,7.698412698412698,-236.42857142857142,140.07936507936506,-101.66666666666666,125.0,-164.84126984126982,112.93650793650794,-228.33333333333331,129.76190476190476,-264.04761904761904,50.39682539682539,-325.0,132.46031746031744,-247.38095238095238,-280.23809523809524,26.9047619047619,26.9047619047619,-0.7142857142857142,-1.0317460317460316,-321.8253968253968
174,-80.87301587301587,-168.33333333333331,89.12698412698413,-105.31746031746032,11.19047619047619,-238.8095238095238,144.52380952380952,-106.26984126984127,127.53968253968253,-166.58730158730157,114.2063492063492,-226.9047619047619,141.5079365079365,-261.3492063492063,54.047619047619044,-325.0,137.06349206349205,-246.42857142857142,-271.5079365079365,26.587301587301585,26.428571428571427,-0.5555555555555556,-1.0317460317460316,-321.8253968253968
175,-80.87301587301587,-168.33333333333331,89.12698412698413,-105.31746031746032,11.19047619047619,-238.8095238095238,144.52380952380952,-106.26984126984127,127.53968253968253,-166.58730158730157,114.2063492063492,-226.9047619047619,141.5079365079365,-261.3492063492063,54.047619047619044,-325.0,137.06349206349205,-246.42857142857142,-271.5079365079365,26.587301587301585,26.428571428571427,-0.5555555555555556,-1.0317460317460316,-321.8253968253968
176,-80.87301587301587,-168.33333333333331,89.12698412698413,-105.31746031746032,11.19047619047619,-238.8095238095238,144.52380952380952,-106.26984126984127,127.53968253968253,-166.58730158730157,114.2063492063492,-226.9047619047619,141.5079365079365,-261.3492063492063,54.047619047619044,-325.0,137.06349206349205,-246.42857142857142,-271.5079365079365,26.587301587301585,26.428571428571427,-0.5555555555555556,-1.0317460317460316,-321.8253968253968
177,-80.87301587301587,-168.33333333333331,89.12698412698413,-105.31746031746032,11.19047619047619,-238.8095238095238,144.52380952380952,-106.26984126984127,127.53968253968253,-166.58730158730157,114.2063492063492,-226.9047619047619,141.5079365079365,-261.3492063492063,54.047619047619044,-325.0,137.06349206349205,-246.42857142857142,-271.5079365079365,26.587301587301585,26.428571428571427,-0.5555555555555556,-1.0317460317460316,-321.8253968253968
178,-80.87301587301587,-168.33333333333331,89.12698412698413,-105.31746031746032,11.19047619047619,-238.8095238095238,144.52380952380952,-106.26984126984127,127.53968253968253,-166.58730158730157,114.2063492063492,-226.9047619047619,141.5079365079365,-261.3492063492063,54.047619047619044,-325.0,137.06349206349205,-246.42857142857142,-271.5079365079365,26.587301587301585,26.428571428571427,-0.5555555555555556,-1.0317460317460316,-321.8253968253968
179,-80.87301587301587,-168.33333333333331,89.12698412698413,-105.31746031746032,11.19047619047619,-238.8095238095238,144.52380952380952,-106.26984126984127,127.53968253968253,-166.58730158730157,114.2063492063492,-226.9047619047619,141.5079365079365,-261.3492063492063,54.047619047619044,-325.0,137.06349206349205,-246.42857142857142,-271.5079365079365,26.587301587301585,26.428571428571427,-0.5555555555555556,-1.0317460317460316,-321.8253968253968
180,-80.87301587301587,-168.33333333333331,89.12698412698413,-105.31746031746032,11.19047619047619,-238.8095238095238,144.52380952380952,-106.26984126984127,127.53968253968253,-166.58730158730157,114.2063492063492,-226.9047619047619,141.5079365079365,-261.3492063492063,54.047619047619044,-325.0,137.06349206349205,-246.42857142857142,-271.5079365079365,26.587301587301585,26.428571428571427,-0.5555555555555556,-1.0317460317460316,-166.26984126984127
181,-80.87301587301587,-168.33333333333331,89.12698412698413,-105.31746031746032,11.19047619047619,-238.8095238095238,144.52380952380952,-106.26984126984127,127.53968253968253,-166.58730158730157,114.2063492063492,-226.9047619047619,141.5079365079365,-261.3492063492063,54.047619047619044,-325.0,137.06349206349205,-246.42857142857142,-271.5079365079365,26.587301587301585,26.428571428571427,-0.5555555555555556,-1.0317460317460316,-166.26984126984127
182,-80.87301587301587,-168.33333333333331,89.12698412698413,-105.31746031746032,11.19047619047619,-238.8095238095238,144.52380952380952,-106.26984126984127,127.53968253968253,-166.58730158730157,114.2063492063492,-226.9047619047619,141.5079365079365,-261.3492063492063,54.047619047619044,-325.0,137.06349206349205,-246.42857142857142,-271.5079365079365,26.587301587301585,26.428571428571427,-0.5555555555555556,-1.0317460317460316,-166.26984126984127
183,-80.87301587301587,-168.33333333333331,89.12698412698413,-105.31746031746032,11.19047619047619,-238.8095238095238,144.52380952380952,-106.26984126984127,127.53968253968253,-166.58730158730157,114.2063492063492,-226.9047619047619,141.5079365079365,-261.3492063492063,54.047619047619044,-325.0,137.06349206349205,-246.42857142857142,-271.5079365079365,26.587301587301585,26.428571428571427,-0.5555555555555556,-1.0317460317460316,-166.26984126984127
184,-80.87301587301587,-168.33333333333331,89.12698412698413,-105.31746031746032,11.19047619047619,-238.8095238095238,144.52380952380952,-106.26984126984127,127.53968253968253,-166.58730158730157,114.2063492063492,-226.9047619047619,141.5079365079365,-261.3492063492063,54.047619047619044,-325.0,137.06349206349205,-246.42857142857142,-271.5079365079365,26.587301587301585,26.428571428571427,-0.5555555555555556,-1.0317460317460316,-166.26984126984127
185,-80.87301587301587,-168.33333333333331,89.12698412698413,-105.31746031746032,11.19047619047619,-238.8095238095238,144.52380952380952,-106.26984126984127,127.53968253968253,-166.58730158730157,114.2063492063492,-226.9047619047619,141.5079365079365,-261.3492063492063,54.047619047619044,-325.0,137.06349206349205,-246.42857142857142,-271.5079365079365,26.587301587301585,26.428571428571427,-0.5555555555555556,-1.0317460317460316,-166.26984126984127
186,-80.87301587301587,-168.33333333333331,89.12698412698413,-105.31746031746032,11.19047619047619,-238.8095238095238,144.52380952380952,-106.26984126984127,127.53968253968253,-166.58730158730157,114.2063492063492,-226.9047619047619,141.5079365079365,-261.3492063492063,54.047619047619044,-325.0,137.06349206349205,-246.42857142857142,-271.5079365079365,26.587301587301585,26.428571428571427,-0.5555555555555556,-1.0317460317460316,-166.26984126984127
187,-80.87301587301587,-168.33333333333331,89.12698412698413,-105.31746031746032,11.19047619047619,-238.8095238095238,144.52380952380952,-106.26984126984127,127.53968253968253,-166.58730158730157,114.2063492063492,-226.9047619047619,141.5079365079365,-261.3492063492063,54.047619047619044,-325.0,137.06349206349205,-246.42857142857142,-271.5079365079365,26.587301587301585,26.428571428571427,-0.5555555555555556,-1.0317460317460316,-166.26984126984127
188,-97.22222222222221,-111.98412698412697,86.58730158730158,-38.80952380952381,-19.92063492063492,-160.87301587301587,133.0952380952381,-37.53968253968254,122.6190476190476,-100.39682539682539,52.3015873015873,-137.22222222222223,119.12698412698413,-154.68253968253967,42.3015873015873,-171.8253968253968,123.25396825396825,-180.07936507936506,-199.60317460317458,21.984126984126984,21.666666666666664,-0.23809523809523808,-0.3968253968253968,-166.26984126984127
189,-97.22222222222221,-111.98412698412697,86.58730158730158,-38.80952380952381,-19.92063492063492,-160.87301587301587,133.0952380952381,-37.53968253968254,122.6190476190476,-100.39682539682539,52.3015873015873,-137.22222222222223,119.12698412698413,-154.68253968253967,42.3015873015873,-171.8253968253968,123.25396825396825,-180.07936507936506,-199.60317460317458,21.984126984126984,21.666666666666664,-0.23809523809523808,-0.3968253968253968,-166.26984126984127
190,-101.34920634920634,-112.46031746031746,84.36507936507937,-36.74603174603175,-16.904761904761905,-156.58730158730157,133.88888888888889,-33.41269841269841,124.84126984126983,-94.36507936507935,46.74603174603175,-133.25396825396825,119.44444444444444,-152.61904761904762,48.01587301587301,158.33333333333331,121.03174603174602,-175.3174603174603,-195.47619047619045,21.825396825396822,21.507936507936506,-0.5555555555555556,-1.1904761904761905,-321.8253968253968
191,-101.34920634920634,-112.46031746031746,84.36507936507937,-36.74603174603175,-16.904761904761905,-156.58730158730157,133.88888888888889,-33.41269841269841,124.84126984126983,-94.36507936507935,46.74603174603175,-133.25396825396825,119.44444444444444,-152.61904761904762,48.01587301587301,158.33333333333331,121.03174603174602,-175.3174603174603,-195.47619047619045,21.825396825396822,21.507936507936506,-0.5555555555555556,-1.1904761904761905,-321.8253968253968
192,-108.49206349206348,-114.04761904761904,75.95238095238095,-32.460317460317455,-18.96825396825397,-151.984126984127,129.6031746031746,-28.49206349206349,123.57142857142857,-88.65079365079364,41.03174603174603,-126.26984126984127,128.33333333333331,-153.25396825396825,47.698412698412696,325.0,113.73015873015872,-168.8095238095238,-186.26984126984127,21.507936507936506,21.03174603174603,0.3968253968253968,-0.3968253968253968,-321.8253968253968
193,-108.49206349206348,-114.04761904761904,75.95238095238095,-32.460317460317455,-18.96825396825397,-151.984126984127,129.6031746031746,-28.49206349206349,123.57142857142857,-88.65079365079364,41.03174603174603,-126.26984126984127,128.33333333333331,-153.25396825396825,47.698412698412696,325.0,113.73015873015872,-168.8095238095238,-186.26984126984127,21.507936507936506,21.03174603174603,0.3968253968253968,-0.3968253968253968,-321.8253968253968
194,-107.22222222222221,-107.6984126984127,70.71428571428571,-23.41269841269841,-19.92063492063492,-139.44444444444443,128.17460317460316,-19.126984126984127,128.4920634920635,-80.55555555555556,37.38095238095238,-112.6190476190476,112.46031746031746,-146.42857142857142,45.476190476190474,325.0,113.09523809523809,-160.87301587301587,-177.85714285714286,21.03174603174603,20.555555555555554,-0.3968253968253968,0.23809523809523808,-321.8253968253968
195,-107.22222222222221,-107.6984126984127,70.71428571428571,-23.41269841269841,-19.92063492063492,-139.44444444444443,128.17460317460316,-19.126984126984127,128.4920634920635,-80.55555555555556,37.38095238095238,-112.6190476190476,112.46031746031746,-146.42857142857142,45.476190476190474,325.0,113.09523809523809,-160.87301587301587,-177.85714285714286,21.03174603174603,20.555555555555554,-0.3968253968253968,0.23809523809523808,-321.8253968253968
196,-108.96825396825396,-95.0,61.19047619047619,-12.46031746031746,-17.38095238095238,-126.26984126984127,131.8253968253968,-3.571428571428571,136.11111111111111,-64.2063492063492,34.36507936507936,-101.5079365079365,117.6984126984127,-121.66666666666666,51.03174603174603,325.0,110.71428571428571,-143.09523809523807,-160.7142857142857,20.873015873015873,20.396825396825395,-1.6666666666666665,-1.507936507936508,-321.8253968253968
197,-108.96825396825396,-95.0,61.19047619047619,-12.46031746031746,-17.38095238095238,-126.26984126984127,131.8253968253968,-3.571428571428571,136.11111111111111,-64.2063492063492,34.36507936507936,-101.5079365079365,117.6984126984127,-121.66666666666666,51.03174603174603,325.0,110.71428571428571,-143.09523809523807,-160.7142857142857,20.873015873015873,20.396825396825395,-1.6666666666666665,-1.507936507936508,-321.8253968253968
198,-108.17460317460316,-89.92063492063491,57.698412698412696,-10.079365079365079,-17.22222222222222,-123.88888888888889,127.85714285714285,-1.1904761904761905,133.0952380952381,-64.36507936507937,34.682539682539684,-95.79365079365078,128.4920634920635,-122.30158730158729,49.92063492063492,325.0,106.58730158730158,-140.87301587301587,-157.06349206349205,20.396825396825395,20.07936507936508,-0.3968253968253968,-0.7142857142857142,-321.8253968253968
199,-108.17460317460316,-89.92063492063491,57.698412698412696,-10.079365079365079,-17.22222222222222,-123.88888888888889,127.85714285714285,-1.1904761904761905,133.0952380952381,-64.36507936507937,34.682539682539684,-95.79365079365078,128.4920634920635,-122.30158730158729,49.92063492063492,325.0,106.58730158730158,-140.87301587301587,-157.06349206349205,20.396825396825395,20.07936507936508,-0.3968253968253968,-0.7142857142857142,-321.8253968253968
200,-99.28571428571428,-80.07936507936508,62.460317460317455,-3.73015873015873,-15.158730158730158,-119.12698412698413,125.0,-3.73015873015873,133.25396825396825,-68.33333333333333,40.39682539682539,-89.92063492063491,121.82539682539682,-127.6984126984127,48.01587301587301,325.0,112.46031746031746,-147.53968253968253,-156.42857142857142,19.92063492063492,19.76190476190476,0.5555555555555556,-0.7142857142857142,-166.26984126984127
201,-99.28571428571428,-80.07936507936508,62.460317460317455,-3.73015873015873,-15.158730158730158,-119.12698412698413,125.0,-3.73015873015873,133.25396825396825,-68.33333333333333,40.39682539682539,-89.92063492063491,121.82539682539682,-127.6984126984127,48.01587301587301,325.0,112.46031746031746,-147.53968253968253,-156.42857142857142,19.92063492063492,19.76190476190476,0.5555555555555556,-0.7142857142857142,-166.26984126984127
202,-95.31746031746032,-69.92063492063491,60.39682539682539,6.26984126984127,-14.206349206349206,-111.98412698412697,124.36507936507935,3.253968253968254,126.42857142857142,-56.904761904761905,42.460317460317455,-81.34920634920634,121.5079365079365,-111.03174603174602,42.93650793650794,325.0,109.12698412698413,-136.58730158730157,-145.47619047619048,19.444444444444443,18.96825396825397,-0.23809523809523808,-0.7142857142857142,-166.26984126984127
203,-95.31746031746032,-69.92063492063491,60.39682539682539,6.26984126984127,-14.206349206349206,-111.98412698412697,124.36507936507935,3.253968253968254,126.42857142857142,-56.904761904761905,42.460317460317455,-81.34920634920634,121.5079365079365,-111.03174603174602,42.93650793650794,325.0,109.12698412698413,-136.58730158730157,-145.47619047619048,19.444444444444443,18.96825396825397,-0.23809523809523808,-0.7142857142857142,-166.26984126984127
204,-90.55555555555556,-60.238095238095234,64.2063492063492,13.888888888888888,-15.158730158730158,-102.93650793650794,121.5079365079365,11.825396825396824,120.55555555555554,-51.666666666666664,44.36507936507936,-71.66666666666666,125.95238095238095,-105.15873015873015,37.857142857142854,325.0,110.71428571428571,-131.03174603174602,-136.11111111111111,19.126984126984127,18.80952380952381,-1.0317460317460316,-0.873015873015873,-166.26984126984127
205,-90.55555555555556,-60.238095238095234,64.2063492063492,13.888888888888888,-15.158730158730158,-102.93650793650794,121.5079365079365,11.825396825396824,120.55555555555554,-51.666666666666664,44.36507936507936,-71.66666666666666,125.95238095238095,-105.15873015873015,37.857142857142854,325.0,110.71428571428571,-131.03174603174602,-136.11111111111111,19.126984126984127,18.80952380952381,-1.0317460317460316,-0.873015873015873,-166.26984126984127
206,-85.63492063492063,-42.3015873015873,65.95238095238095,29.76190476190476,-13.412698412698411,-87.85714285714285,121.34920634920634,29.126984126984127,117.85714285714285,-36.74603174603175,44.68253968253968,-49.6031746031746,125.15873015873015,-82.61904761904762,31.349206349206348,325.0,114.2063492063492,-117.22222222222221,-115.79365079365078,18.80952380952381,18.333333333333332,-0.23809523809523808,-0.873015873015873,-166.26984126984127
207,-85.63492063492063,-42.3015873015873,65.95238095238095,29.76190476190476,-13.412698412698411,-87.85714285714285,121.34920634920634,29.126984126984127,117.85714285714285,-36.74603174603175,44.68253968253968,-49.6031746031746,125.15873015873015,-82.61904761904762,31.349206349206348,325.0,114.2063492063492,-117.22222222222221,-115.79365079365078,18.80952380952381,18.333333333333332,-0.23809523809523808,-0.873015873015873,-166.26984126984127
208,-85.95238095238095,-30.71428571428571,64.68253968253968,38.96825396825397,-4.523809523809524,-79.28571428571428,130.7142857142857,40.39682539682539,126.58730158730158,-21.349206349206348,42.14285714285714,-36.11111111111111,126.42857142857142,-80.55555555555556,36.58730158730159,325.0,115.0,-104.04761904761904,-105.31746031746032,18.65079365079365,18.174603174603174,-0.23809523809523808,-0.23809523809523808,-166.26984126984127
209,-85.95238095238095,-30.71428571428571,64.68253968253968,38.96825396825397,-4.523809523809524,-79.28571428571428,130.7142857142857,40.39682539682539,126.58730158730158,-21.349206349206348,42.14285714285714,-36.11111111111111,126.42857142857142,-80.55555555555556,36.58730158730159,325.0,115.0,-104.04761904761904,-105.31746031746032,18.65079365079365,18.174603174603174,-0.23809523809523808,-0.23809523809523808,-166.26984126984127
210,-85.95238095238095,-30.71428571428571,64.68253968253968,38.96825396825397,-4.523809523809524,-79.28571428571428,130.7142857142857,40.39682539682539,126.58730158730158,-21.349206349206348,42.14285714285714,-36.11111111111111,126.42857142857142,-80.55555555555556,36.58730158730159,325.0,115.0,-104.04761904761904,-105.31746031746032,18.65079365079365,18.174603174603174,-0.23809523809523808,-0.23809523809523808,-321.8253968253968
211,-85.95238095238095,-30.71428571428571,64.68253968253968,38.96825396825397,-4.523809523809524,-79.28571428571428,130.7142857142857,40.39682539682539,126.58730158730158,-21.349206349206348,42.14285714285714,-36.11111111111111,126.42857142857142,-80.55555555555556,36.58730158730159,325.0,115.0,-104.04761904761904,-105.31746031746032,18.65079365079365,18.174603174603174,-0.23809523809523808,-0.23809523809523808,-321.8253968253968
212,-85.95238095238095,-30.71428571428571,64.68253968253968,38.96825396825397,-4.523809523809524,-79.28571428571428,130.7142857142857,40.39682539682539,126.58730158730158,-21.349206349206348,42.14285714285714,-36.11111111111111,126.42857142857142,-80.55555555555556,36.58730158730159,325.0,115.0,-104.04761904761904,-105.31746031746032,18.65079365079365,18.174603174603174,-0.23809523809523808,-0.23809523809523808,-321.8253968253968
213,-85.95238095238095,-30.71428571428571,64.68253968253968,38.96825396825397,-4.523809523809524,-79.28571428571428,130.7142857142857,40.39682539682539,126.58730158730158,-21.349206349206348,42.14285714285714,-36.11111111111111,126.42857142857142,-80.55555555555556,36.58730158730159,325.0,115.0,-104.04761904761904,-105.31746031746032,18.65079365079365,18.174603174603174,-0.23809523809523808,-0.23809523809523808,-321.8253968253968
214,-85.95238095238095,-30.71428571428571,64.68253968253968,38.96825396825397,-4.523809523809524,-79.28571428571428,130.7142857142857,40.39682539682539,126.58730158730158,-21.349206349206348,42.14285714285714,-36.11111111111111,126.42857142857142,-80.55555555555556,36.58730158730159,325.0,115.0,-104.04761904761904,-105.31746031746032,18.65079365079365,18.174603174603174,-0.23809523809523808,-0.23809523809523808,-321.8253968253968
215,-85.95238095238095,-30.71428571428571,64.68253968253968,38.96825396825397,-4.523809523809524,-79.28571428571428,130.7142857142857,40.39682539682539,126.58730158730158,-21.349206349206348,42.14285714285714,-36.11111111111111,126.42857142857142,-80.55555555555556,36.58730158730159,325.0,115.0,-104.04761904761904,-105.31746031746032,18.65079365079365,18.174603174603174,-0.23809523809523808,-0.23809523809523808,-321.8253968253968
216,-85.95238095238095,-30.71428571428571,64.68253968253968,38.96825396825397,-4.523809523809524,-79.28571428571428,130.7142857142857,40.39682539682539,126.58730158730158,-21.349206349206348,42.14285714285714,-36.11111111111111,126.42857142857142,-80.55555555555556,36.58730158730159,325.0,115.0,-104.04761904761904,-105.31746031746032,18.65079365079365,18.174603174603174,-0.23809523809523808,-0.23809523809523808,-321.8253968253968
217,-85.95238095238095,-30.71428571428571,64.68253968253968,38.96825396825397,-4.523809523809524,-79.28571428571428,130.7142857142857,40.39682539682539,126.58730158730158,-21.349206349206348,42.14285714285714,-36.11111111111111,126.42857142857142,-80.55555555555556,36.58730158730159,325.0,115.0,-104.04761904761904,-105.31746031746032,18.65079365079365,18.174603174603174,-0.23809523809523808,-0.23809523809523808,-321.8253968253968
218,-85.95238095238095,-30.71428571428571,64.68253968253968,38.96825396825397,-4.523809523809524,-79.28571428571428,130.7142857142857,40.39682539682539,126.58730158730158,-21.349206349206348,42.14285714285714,-36.11111111111111,126.42857142857142,-80.55555555555556,36.58730158730159,325.0,115.0,-104.04761904761904,-105.31746031746032,18.65079365079365,18.174603174603174,-0.23809523809523808,-0.23809523809523808,-321.8253968253968
219,-85.95238095238095,-30.71428571428571,64.68253968253968,38.96825396825397,-4.523809523809524,-79.28571428571428,130.7142857142857,40.39682539682539,126.58730158730158,-21.349206349206348,42.14285714285714,-36.11111111111111,126.42857142857142,-80.55555555555556,36.58730158730159,325.0,115.0,-104.04761904761904,-105.31746031746032,18.65079365079365,18.174603174603174,-0.23809523809523808,-0.23809523809523808,-321.8253968253968
220,-84.2063492063492,15.793650793650793,61.666666666666664,87.6984126984127,-2.3015873015873014,-30.555555555555554,130.87301587301587,87.38095238095238,129.76190476190476,25.0,39.285714285714285,7.3809523809523805,125.47619047619047,-35.15873015873016,32.93650793650794,325.0,115.15873015873015,-58.650793650793645,-58.650793650793645,17.698412698412696,17.22222222222222,-0.3968253968253968,-0.5555555555555556,-166.26984126984127
221,-84.2063492063492,15.793650793650793,61.666666666666664,87.6984126984127,-2.3015873015873014,-30.555555555555554,130.87301587301587,87.38095238095238,129.76190476190476,25.0,39.285714285714285,7.3809523809523805,125.47619047619047,-35.15873015873016,32.93650793650794,325.0,115.15873015873015,-58.650793650793645,-58.650793650793645,17.698412698412696,17.22222222222222,-0.3968253968253968,-0.5555555555555556,-166.26984126984127
222,-72.93650793650794,63.73015873015873,62.77777777777777,135.0,5.634920634920634,18.49206349206349,133.25396825396825,132.93650793650792,134.52380952380952,67.22222222222221,36.269841269841265,53.41269841269841,116.42857142857142,31.98412698412698,32.93650793650794,325.0,124.36507936507935,-12.936507936507935,-12.142857142857142,16.11111111111111,15.634920634920634,-0.7142857142857142,-0.07936507936507936,-166.26984126984127
223,-72.93650793650794,63.73015873015873,62.77777777777777,135.0,5.634920634920634,18.49206349206349,133.25396825396825,132.93650793650792,134.52380952380952,67.22222222222221,36.269841269841265,53.41269841269841,116.42857142857142,31.98412698412698,32.93650793650794,325.0,124.36507936507935,-12.936507936507935,-12.142857142857142,16.11111111111111,15.634920634920634,-0.7142857142857142,-0.07936507936507936,-166.26984126984127
224,-87.85714285714285,52.14285714285714,54.841269841269835,134.84126984126982,11.666666666666666,25.0,144.04761904761904,142.46031746031744,140.23809523809524,78.33333333333333,23.730158730158728,45.317460317460316,133.25396825396825,20.71428571428571,40.39682539682539,325.0,123.57142857142857,0.5555555555555556,-5.317460317460317,15.793650793650793,15.634920634920634,-0.23809523809523808,-0.5555555555555556,-166.26984126984127
225,-87.85714285714285,52.14285714285714,54.841269841269835,134.84126984126982,11.666666666666666,25.0,144.04761904761904,142.46031746031744,140.23809523809524,78.33333333333333,23.730158730158728,45.317460317460316,133.25396825396825,20.71428571428571,40.39682539682539,325.0,123.57142857142857,0.5555555555555556,-5.317460317460317,15.793650793650793,15.634920634920634,-0.23809523809523808,-0.5555555555555556,-166.26984126984127
226,-86.9047619047619,54.841269841269835,50.71428571428571,140.55555555555554,7.5396825396825395,34.36507936507936,138.8095238095238,153.88888888888889,131.8253968253968,90.71428571428571,32.3015873015873,50.238095238095234,139.76190476190476,31.507936507936506,37.06349206349206,325.0,113.09523809523809,14.047619047619047,5.158730158730158,15.476190476190474,15.317460317460316,-0.873015873015873,-0.3968253968253968,-166.26984126984127
227,-86.9047619047619,54.841269841269835,50.71428571428571,140.55555555555554,7.5396825396825395,34.36507936507936,138.8095238095238,153.88888888888889,131.8253968253968,90.71428571428571,32.3015873015873,50.238095238095234,139.76190476190476,31.507936507936506,37.06349206349206,325.0,113.09523809523809,14.047619047619047,5.158730158730158,15.476190476190474,15.317460317460316,-0.873015873015873,-0.3968253968253968,-166.26984126984127
228,-63.888888888888886,101.66666666666666,57.22222222222222,156.11111111111111,-0.3968253968253968,42.61904761904761,124.2063492063492,160.23809523809524,121.5079365079365,98.01587301587301,55.79365079365079,65.95238095238095,128.17460317460316,52.460317460317455,23.41269841269841,325.0,108.80952380952381,20.71428571428571,17.539682539682538,15.317460317460316,15.0,-0.3968253968253968,-0.5555555555555556,-166.26984126984127
229,-63.888888888888886,101.66666666666666,57.22222222222222,156.11111111111111,-0.3968253968253968,42.61904761904761,124.2063492063492,160.23809523809524,121.5079365079365,98.01587301587301,55.79365079365079,65.95238095238095,128.17460317460316,52.460317460317455,23.41269841269841,325.0,108.80952380952381,20.71428571428571,17.539682539682538,15.317460317460316,15.0,-0.3968253968253968,-0.5555555555555556,-166.26984126984127
230,-66.9047619047619,104.04761904761904,57.53968253968254,168.65079365079364,6.111111111111111,57.698412698412696,128.65079365079364,174.52380952380952,131.66666666666666,113.09523809523809,60.55555555555555,71.19047619047619,132.3015873015873,60.238095238095234,26.11111111111111,325.0,109.92063492063491,40.079365079365076,40.079365079365076,15.0,14.682539682539682,-1.349206349206349,-0.3968253968253968,-321.8253968253968
231,-66.9047619047619,104.04761904761904,57.53968253968254,168.65079365079364,6.111111111111111,57.698412698412696,128.65079365079364,174.52380952380952,131.66666666666666,113.09523809523809,60.55555555555555,71.19047619047619,132.3015873015873,60.238095238095234,26.11111111111111,325.0,109.92063492063491,40.079365079365076,40.079365079365076,15.0,14.682539682539682,-1.349206349206349,-0.3968253968253968,-321.8253968253968
232,-68.65079365079364,107.06349206349206,57.22222222222222,178.015873015873,8.333333333333332,70.07936507936508,128.8095238095238,185.79365079365078,136.42857142857142,123.25396825396825,64.36507936507937,78.96825396825396,132.61904761904762,55.63492063492063,29.285714285714285,325.0,108.33333333333333,52.460317460317455,53.41269841269841,14.84126984126984,14.523809523809524,-0.873015873015873,-1.0317460317460316,-321.8253968253968
233,-68.65079365079364,107.06349206349206,57.22222222222222,178.015873015873,8.333333333333332,70.07936507936508,128.8095238095238,185.79365079365078,136.42857142857142,123.25396825396825,64.36507936507937,78.96825396825396,132.61904761904762,55.63492063492063,29.285714285714285,325.0,108.33333333333333,52.460317460317455,53.41269841269841,14.84126984126984,14.523809523809524,-0.873015873015873,-1.0317460317460316,-321.8253968253968
234,-68.65079365079364,107.06349206349206,57.22222222222222,178.015873015873,8.333333333333332,70.07936507936508,128.8095238095238,185.79365079365078,136.42857142857142,123.25396825396825,64.36507936507937,78.96825396825396,132.61904761904762,55.63492063492063,29.285714285714285,325.0,108.33333333333333,52.460317460317455,53.41269841269841,14.84126984126984,14.523809523809524,-0.873015873015873,-1.0317460317460316,-321.8253968253968
235,-68.65079365079364,107.06349206349206,57.22222222222222,178.015873015873,8.333333333333332,70.07936507936508,128.8095238095238,185.79365079365078,136.42857142857142,123.25396825396825,64.36507936507937,78.96825396825396,132.61904761904762,55.63492063492063,29.285714285714285,325.0,108.33333333333333,52.460317460317455,53.41269841269841,14.84126984126984,14.523809523809524,-0.873015873015873,-1.0317460317460316,-321.8253968253968
236,-68.65079365079364,107.06349206349206,57.22222222222222,178.015873015873,8.333333333333332,70.07936507936508,128.8095238095238,185.79365079365078,136.42857142857142,123.25396825396825,64.36507936507937,78.96825396825396,132.61904761904762,55.63492063492063,29.285714285714285,325.0,108.33333333333333,52.460317460317455,53.41269841269841,14.84126984126984,14.523809523809524,-0.873015873015873,-1.0317460317460316,-321.8253968253968
237,-68.65079365079364,107.06349206349206,57.22222222222222,178.015873015873,8.333333333333332,70.07936507936508,128.8095238095238,185.79365079365078,136.42857142857142,123.25396825396825,64.36507936507937,78.96825396825396,132.61904761904762,55.63492063492063,29.285714285714285,325.0,108.33333333333333,52.460317460317455,53.41269841269841,14.84126984126984,14.523809523809524,-0.873015873015873,-1.0317460317460316,-321.8253968253968
238,-68.65079365079364,107.06349206349206,57.22222222222222,178.015873015873,8.333333333333332,70.07936507936508,128.8095238095238,185.79365079365078,136.42857142857142,123.25396825396825,64.36507936507937,78.96825396825396,132.61904761904762,55.63492063492063,29.285714285714285,325.0,108.33333333333333,52.460317460317455,53.41269841269841,14.84126984126984,14.523809523809524,-0.873015873015873,-1.0317460317460316,-321.8253968253968
239,-68.65079365079364,107.06349206349206,57.22222222222222,178.015873015873,8.333333333333332,70.07936507936508,128.8095238095238,185.79365079365078,136.42857142857142,123.25396825396825,64.36507936507937,78.96825396825396,132.61904761904762,55.63492063492063,29.285714285714285,325.0,108.33333333333333,52.460317460317455,53.41269841269841,14.84126984126984,14.523809523809524,-0.873015873015873,-1.0317460317460316,-321.8253968253968
240,-75.47619047619047,136.58730158730157,49.12698412698413,209.44444444444443,3.888888888888889,102.61904761904762,123.73015873015872,218.65079365079364,131.19047619047618,157.06349206349205,51.34920634920635,112.93650793650794,124.52380952380952,101.5079365079365,27.063492063492063,325.0,106.42857142857142,85.95238095238095,83.25396825396825,14.206349206349206,14.047619047619047,-0.7142857142857142,-0.3968253968253968,-166.26984126984127
241,-75.47619047619047,136.58730158730157,49.12698412698413,209.44444444444443,3.888888888888889,102.61904761904762,123.73015873015872,218.65079365079364,131.19047619047618,157.06349206349205,51.34920634920635,112.93650793650794,124.52380952380952,101.5079365079365,27.063492063492063,325.0,106.42857142857142,85.95238095238095,83.25396825396825,14.206349206349206,14.047619047619047,-0.7142857142857142,-0.3968253968253968,-166.26984126984127
242,-82.46031746031746,169.76190476190476,37.857142857142854,246.26984126984127,4.2063492063492065,140.23809523809524,123.25396825396825,258.3333333333333,135.0,199.12698412698413,36.74603174603175,151.5079365079365,122.6190476190476,142.93650793650792,31.666666666666664,325.0,106.74603174603175,131.5079365079365,122.46031746031746,13.412698412698411,13.253968253968253,-0.5555555555555556,0.23809523809523808,-166.26984126984127
243,-82.46031746031746,169.76190476190476,37.857142857142854,246.26984126984127,4.2063492063492065,140.23809523809524,123.25396825396825,258.3333333333333,135.0,199.12698412698413,36.74603174603175,151.5079365079365,122.6190476190476,142.93650793650792,31.666666666666664,325.0,106.74603174603175,131.5079365079365,122.46031746031746,13.412698412698411,13.253968253968253,-0.5555555555555556,0.23809523809523808,-166.26984126984127
244,-91.34920634920634,185.79365079365078,24.047619047619047,261.031746031746,-2.7777777777777777,156.58730158730157,131.03174603174602,284.8412698412698,141.03174603174602,226.42857142857142,29.126984126984127,163.09523809523807,120.39682539682539,158.4920634920635,35.95238095238095,325.0,95.79365079365078,167.38095238095238,138.17460317460316,12.3015873015873,12.3015873015873,-0.07936507936507936,-0.7142857142857142,-166.26984126984127
245,-91.34920634920634,185.79365079365078,24.047619047619047,261.031746031746,-2.7777777777777777,156.58730158730157,131.03174603174602,284.8412698412698,141.03174603174602,226.42857142857142,29.126984126984127,163.09523809523807,120.39682539682539,158.4920634920635,35.95238095238095,325.0,95.79365079365078,167.38095238095238,138.17460317460316,12.3015873015873,12.3015873015873,-0.07936507936507936,-0.7142857142857142,-166.26984126984127
246,-87.22222222222221,186.42857142857142,25.476190476190474,264.2063492063492,0.07936507936507936,161.984126984127,133.57142857142856,290.07936507936506,135.79365079365078,227.69841269841268,30.555555555555554,165.3174603174603,122.93650793650794,164.36507936507937,36.269841269841265,325.0,99.44444444444444,172.46031746031744,142.3015873015873,11.825396825396824,12.3015873015873,-0.5555555555555556,-1.0317460317460316,-166.26984126984127
247,-87.22222222222221,186.42857142857142,25.476190476190474,264.2063492063492,0.07936507936507936,161.984126984127,133.57142857142856,290.07936507936506,135.79365079365078,227.69841269841268,30.555555555555554,165.3174603174603,122.93650793650794,164.36507936507937,36.269841269841265,325.0,99.44444444444444,172.46031746031744,142.3015873015873,11.825396825396824,12.3015873015873,-0.5555555555555556,-1.0317460317460316,-166.26984126984127
248,-79.76190476190476,188.65079365079364,29.76190476190476,268.968253968254,3.253968253968254,161.984126984127,133.4126984126984,288.8095238095238,130.3968253968254,227.2222222222222,30.07936507936508,168.4920634920635,115.31746031746032,164.84126984126982,34.36507936507936,325.0,102.14285714285714,170.7142857142857,143.25396825396825,10.714285714285714,12.142857142857142,0.07936507936507936,-0.07936507936507936,-166.26984126984127
249,-79.76190476190476,188.65079365079364,29.76190476190476,268.968253968254,3.253968253968254,161.984126984127,133.4126984126984,288.8095238095238,130.3968253968254,227.2222222222222,30.07936507936508,168.4920634920635,115.31746031746032,164.84126984126982,34.36507936507936,325.0,102.14285714285714,170.7142857142857,143.25396825396825,10.714285714285714,12.142857142857142,0.07936507936507936,-0.07936507936507936,-166.26984126984127
250,-77.22222222222221,191.98412698412696,31.825396825396822,270.55555555555554,4.365079365079365,161.5079365079365,133.88888888888889,287.6984126984127,130.87301587301587,227.06349206349205,31.825396825396822,169.28571428571428,116.1111111111111,165.47619047619045,35.317460317460316,325.0,102.46031746031746,169.44444444444443,143.09523809523807,10.555555555555555,11.984126984126984,0.3968253968253968,0.7142857142857142,-321.8253968253968
251,-77.22222222222221,191.98412698412696,31.825396825396822,270.55555555555554,4.365079365079365,161.5079365079365,133.88888888888889,287.6984126984127,130.87301587301587,227.06349206349205,31.825396825396822,169.28571428571428,116.1111111111111,165.47619047619045,35.317460317460316,325.0,102.46031746031746,169.44444444444443,143.09523809523807,10.555555555555555,11.984126984126984,0.3968253968253968,0.7142857142857142,-321.8253968253968
252,-77.22222222222221,191.98412698412696,31.825396825396822,270.55555555555554,4.365079365079365,161.5079365079365,133.88888888888889,287.6984126984127,130.87301587301587,227.06349206349205,31.825396825396822,169.28571428571428,116.1111111111111,165.47619047619045,35.317460317460316,325.0,102.46031746031746,169.44444444444443,143.09523809523807,10.555555555555555,11.984126984126984,0.3968253968253968,0.7142857142857142,-321.8253968253968
253,-77.22222222222221,191.98412698412696,31.825396825396822,270.55555555555554,4.365079365079365,161.5079365079365,133.88888888888889,287.6984126984127,130.87301587301587,227.06349206349205,31.825396825396822,169.28571428571428,116.1111111111111,165.47619047619045,35.317460317460316,325.0,102.46031746031746,169.44444444444443,143.09523809523807,10.555555555555555,11.984126984126984,0.3968253968253968,0.7142857142857142,-321.8253968253968
254,-77.22222222222221,191.98412698412696,31.825396825396822,270.55555555555554,4.365079365079365,161.5079365079365,133.88888888888889,287.6984126984127,130.87301587301587,227.06349206349205,31.825396825396822,169.28571428571428,116.1111111111111,165.47619047619045,35.317460317460316,325.0,102.46031746031746,169.44444444444443,143.09523809523807,10.555555555555555,11.984126984126984,0.3968253968253968,0.7142857142857142,-321.8253968253968
255,-77.22222222222221,191.98412698412696,31.825396825396822,270.55555555555554,4.365079365079365,161.5079365079365,133.88888888888889,287.6984126984127,130.87301587301587,227.06349206349205,31.825396825396822,169.28571428571428,116.1111111111111,165.47619047619045,35.317460317460316,325.0,102.46031746031746,169.44444444444443,143.09523809523807,10.555555555555555,11.984126984126984,0.3968253968253968,0.7142857142857142,-321.8253968253968
256,-83.88888888888889,183.09523809523807,20.873015873015873,262.9365079365079,-0.7142857142857142,139.44444444444443,119.92063492063491,273.57142857142856,114.2063492063492,213.09523809523807,28.96825396825397,162.61904761904762,118.01587301587301,168.96825396825395,22.777777777777775,325.0,87.06349206349206,158.8095238095238,134.68253968253967,9.444444444444445,10.873015873015872,-1.0317460317460316,-0.3968253968253968,-321.8253968253968
257,-83.88888888888889,183.09523809523807,20.873015873015873,262.9365079365079,-0.7142857142857142,139.44444444444443,119.92063492063491,273.57142857142856,114.2063492063492,213.09523809523807,28.96825396825397,162.61904761904762,118.01587301587301,168.96825396825395,22.777777777777775,325.0,87.06349206349206,158.8095238095238,134.68253968253967,9.444444444444445,10.873015873015872,-1.0317460317460316,-0.3968253968253968,-321.8253968253968
258,-77.85714285714285,185.79365079365078,22.3015873015873,270.7142857142857,-1.8253968253968254,134.2063492063492,115.31746031746032,272.3015873015873,108.80952380952381,206.58730158730157,36.42857142857142,167.06349206349205,110.87301587301587,161.984126984127,21.825396825396822,325.0,90.39682539682539,152.77777777777777,136.58730158730157,7.222222222222221,9.920634920634921,-0.7142857142857142,-0.07936507936507936,-321.8253968253968
259,-77.85714285714285,185.79365079365078,22.3015873015873,270.7142857142857,-1.8253968253968254,134.2063492063492,115.31746031746032,272.3015873015873,108.80952380952381,206.58730158730157,36.42857142857142,167.06349206349205,110.87301587301587,161.984126984127,21.825396825396822,325.0,90.39682539682539,152.77777777777777,136.58730158730157,7.222222222222221,9.920634920634921,-0.7142857142857142,-0.07936507936507936,-321.8253968253968
260,-79.12698412698413,189.9206349206349,15.158730158730158,273.57142857142856,-8.333333333333332,132.46031746031744,107.53968253968253,269.1269841269841,98.33333333333333,203.88888888888889,30.71428571428571,168.96825396825395,111.03174603174602,160.23809523809524,17.22222222222222,325.0,87.06349206349206,146.9047619047619,135.79365079365078,6.26984126984127,9.444444444444445,-0.3968253968253968,-0.23809523809523808,-166.26984126984127
261,-79.12698412698413,189.9206349206349,15.158730158730158,273.57142857142856,-8.333333333333332,132.46031746031744,107.53968253968253,269.1269841269841,98.33333333333333,203.88888888888889,30.71428571428571,168.96825396825395,111.03174603174602,160.23809523809524,17.22222222222222,325.0,87.06349206349206,146.9047619047619,135.79365079365078,6.26984126984127,9.444444444444445,-0.3968253968253968,-0.23809523809523808,-166.26984126984127
262,-85.0,192.61904761904762,8.809523809523808,271.984126984127,-15.0,129.6031746031746,100.71428571428571,266.4285714285714,83.25396825396825,203.57142857142856,17.698412698412696,169.12698412698413,106.42857142857142,158.96825396825395,11.031746031746032,325.0,78.17460317460316,144.52380952380952,135.95238095238093,8.492063492063492,10.714285714285714,0.23809523809523808,-0.23809523809523808,-166.26984126984127
263,-85.0,192.61904761904762,8.809523809523808,271.984126984127,-15.0,129.6031746031746,100.71428571428571,266.4285714285714,83.25396825396825,203.57142857142856,17.698412698412696,169.12698412698413,106.42857142857142,158.96825396825395,11.031746031746032,325.0,78.17460317460316,144.52380952380952,135.95238095238093,8.492063492063492,10.714285714285714,0.23809523809523808,-0.23809523809523808,-166.26984126984127
264,-79.92063492063491,187.06349206349205,16.26984126984127,265.4761904761905,-10.714285714285714,131.984126984127,104.36507936507935,263.88888888888886,86.9047619047619,202.14285714285714,18.96825396825397,163.09523809523807,105.15873015873015,159.6031746031746,13.888888888888888,325.0,81.98412698412697,143.4126984126984,135.63492063492063,7.5396825396825395,10.714285714285714,-0.3968253968253968,-1.0317460317460316,-166.26984126984127
265,-79.92063492063491,187.06349206349205,16.26984126984127,265.4761904761905,-10.714285714285714,131.984126984127,104.36507936507935,263.88888888888886,86.9047619047619,202.14285714285714,18.96825396825397,163.09523809523807,105.15873015873015,159.6031746031746,13.888888888888888,325.0,81.98412698412697,143.4126984126984,135.63492063492063,7.5396825396825395,10.714285714285714,-0.3968253968253968,-1.0317460317460316,-166.26984126984127
266,-73.73015873015872,193.09523809523807,20.07936507936508,268.3333333333333,-7.857142857142857,142.61904761904762,106.1111111111111,266.4285714285714,90.87301587301587,203.4126984126984,19.6031746031746,165.15873015873015,99.92063492063491,165.63492063492063,13.412698412698411,325.0,86.1111111111111,142.93650793650792,135.0,4.523809523809524,8.65079365079365,-0.07936507936507936,-0.07936507936507936,-166.26984126984127
267,-73.73015873015872,193.09523809523807,20.07936507936508,268.3333333333333,-7.857142857142857,142.61904761904762,106.1111111111111,266.4285714285714,90.87301587301587,203.4126984126984,19.6031746031746,165.15873015873015,99.92063492063491,165.63492063492063,13.412698412698411,325.0,86.1111111111111,142.93650793650792,135.0,4.523809523809524,8.65079365079365,-0.07936507936507936,-0.07936507936507936,-166.26984126984127
268,-73.73015873015872,193.09523809523807,20.07936507936508,268.3333333333333,-7.857142857142857,142.61904761904762,106.1111111111111,266.4285714285714,90.87301587301587,203.4126984126984,19.6031746031746,165.15873015873015,99.92063492063491,165.63492063492063,13.412698412698411,325.0,86.1111111111111,142.93650793650792,135.0,4.523809523809524,8.65079365079365,-0.07936507936507936,-0.07936507936507936,-166.26984126984127
269,-73.73015873015872,193.09523809523807,20.07936507936508,268.3333333333333,-7.857142857142857,142.61904761904762,106.1111111111111,266.4285714285714,90.87301587301587,203.4126984126984,19.6031746031746,165.15873015873015,99.92063492063491,165.63492063492063,13.412698412698411,325.0,86.1111111111111,142.93650793650792,135.0,4.523809523809524,8.65079365079365,-0.07936507936507936,-0.07936507936507936,-166.26984126984127
270,-73.73015873015872,193.09523809523807,20.07936507936508,268.3333333333333,-7.857142857142857,142.61904761904762,106.1111111111111,266.4285714285714,90.87301587301587,203.4126984126984,19.6031746031746,165.15873015873015,99.92063492063491,165.63492063492063,13.412698412698411,325.0,86.1111111111111,142.93650793650792,135.0,4.523809523809524,8.65079365079365,-0.07936507936507936,-0.07936507936507936,-321.8253968253968
271,-73.73015873015872,193.09523809523807,20.07936507936508,268.3333333333333,-7.857142857142857,142.61904761904762,106.1111111111111,266.4285714285714,90.87301587301587,203.4126984126984,19.6031746031746,165.15873015873015,99.92063492063491,165.63492063492063,13.412698412698411,325.0,86.1111111111111,142.93650793650792,135.0,4.523809523809524,8.65079365079365,-0.07936507936507936,-0.07936507936507936,-321.8253968253968
272,-72.61904761904762,178.4920634920635,38.17460317460317,255.79365079365078,1.984126984126984,136.58730158730157,110.71428571428571,257.6984126984127,77.06349206349206,197.06349206349205,23.253968253968253,151.984126984127,113.57142857142857,151.984126984127,20.396825396825395,325.0,89.92063492063491,143.57142857142856,133.57142857142856,1.8253968253968254,8.968253968253968,0.5555555555555556,0.07936507936507936,-321.8253968253968
273,-72.61904761904762,178.4920634920635,38.17460317460317,255.79365079365078,1.984126984126984,136.58730158730157,110.71428571428571,257.6984126984127,77.06349206349206,197.06349206349205,23.253968253968253,151.984126984127,113.57142857142857,151.984126984127,20.396825396825395,325.0,89.92063492063491,143.57142857142856,133.57142857142856,1.8253968253968254,8.968253968253968,0.5555555555555556,0.07936507936507936,-321.8253968253968
274,-50.39682539682539,191.19047619047618,59.6031746031746,254.36507936507934,3.095238095238095,131.03174603174602,106.9047619047619,245.47619047619045,76.1111111111111,182.61904761904762,40.238095238095234,148.65079365079364,115.79365079365078,134.68253968253967,20.238095238095237,325.0,95.47619047619047,130.3968253968254,122.46031746031746,1.349206349206349,7.698412698412698,0.3968253968253968,0.07936507936507936,-321.8253968253968
275,-50.39682539682539,191.19047619047618,59.6031746031746,254.36507936507934,3.095238095238095,131.03174603174602,106.9047619047619,245.47619047619045,76.1111111111111,182.61904761904762,40.238095238095234,148.65079365079364,115.79365079365078,134.68253968253967,20.238095238095237,325.0,95.47619047619047,130.3968253968254,122.46031746031746,1.349206349206349,7.698412698412698,0.3968253968253968,0.07936507936507936,-321.8253968253968
276,-46.904761904761905,180.87301587301587,67.06349206349206,248.96825396825395,6.26984126984127,128.33333333333331,109.92063492063491,244.2063492063492,84.36507936507937,178.65079365079364,41.98412698412698,141.8253968253968,118.96825396825396,139.6031746031746,22.619047619047617,325.0,105.0,128.4920634920635,118.8095238095238,1.1904761904761905,7.063492063492063,-0.23809523809523808,-0.3968253968253968,-321.8253968253968
277,-46.904761904761905,180.87301587301587,67.06349206349206,248.96825396825395,6.26984126984127,128.33333333333331,109.92063492063491,244.2063492063492,84.36507936507937,178.65079365079364,41.98412698412698,141.8253968253968,118.96825396825396,139.6031746031746,22.619047619047617,325.0,105.0,128.4920634920635,118.8095238095238,1.1904761904761905,7.063492063492063,-0.23809523809523808,-0.3968253968253968,-321.8253968253968
278,-52.61904761904761,175.3174603174603,60.55555555555555,246.42857142857142,6.746031746031746,125.31746031746032,110.71428571428571,242.46031746031744,84.68253968253968,175.95238095238093,38.96825396825397,139.28571428571428,112.93650793650794,140.7142857142857,20.71428571428571,325.0,106.1111111111111,129.12698412698413,121.34920634920634,3.095238095238095,7.063492063492063,0.07936507936507936,-0.3968253968253968,-321.8253968253968
279,-52.61904761904761,175.3174603174603,60.55555555555555,246.42857142857142,6.746031746031746,125.31746031746032,110.71428571428571,242.46031746031744,84.68253968253968,175.95238095238093,38.96825396825397,139.28571428571428,112.93650793650794,140.7142857142857,20.71428571428571,325.0,106.1111111111111,129.12698412698413,121.34920634920634,3.095238095238095,7.063492063492063,0.07936507936507936,-0.3968253968253968,-321.8253968253968
280,-64.2063492063492,167.38095238095238,51.666666666666664,242.6190476190476,8.65079365079365,121.66666666666666,110.71428571428571,238.49206349206347,78.4920634920635,172.93650793650792,37.06349206349206,134.04761904761904,107.85714285714285,114.04761904761904,19.6031746031746,325.0,101.03174603174602,128.33333333333331,119.12698412698413,1.0317460317460316,6.587301587301587,-0.3968253968253968,-0.23809523809523808,-166.26984126984127
