,Fp1[1],Fp2[2],F3[3],F4[4],C3[5],C4[6],P3[7],P4[8],O1[9],O2[10],F7[11],F8[12],T3[13],T4[14],T5[15],T6[16],Fz[17],Pz[18],Cz[19],Pg1[20],Pg2[21],EOGR[22],EOOGL[23],EMG[24]
0,-325.0,325.0,325.0,325.0,-325.0,-71.82539682539682,325.0,-325.0,325.0,-325.0,31.666666666666664,325.0,325.0,-325.0,325.0,-325.0,94.2063492063492,-78.80952380952381,325.0,-325.0,-325.0,-0.23809523809523808,-0.23809523809523808,-166.26984126984127
1,-325.0,325.0,325.0,325.0,-325.0,-71.82539682539682,325.0,-325.0,325.0,-325.0,31.666666666666664,325.0,325.0,-325.0,325.0,-325.0,94.2063492063492,-78.80952380952381,325.0,-325.0,-325.0,-0.23809523809523808,-0.23809523809523808,-166.26984126984127
2,-325.0,325.0,325.0,325.0,-325.0,-35.476190476190474,325.0,-325.0,325.0,-325.0,60.238095238095234,325.0,325.0,-325.0,325.0,-325.0,110.07936507936508,-38.65079365079365,325.0,-325.0,-325.0,-0.7142857142857142,-0.23809523809523808,-166.26984126984127
3,-325.0,325.0,325.0,325.0,-325.0,-35.476190476190474,325.0,-325.0,325.0,-325.0,60.238095238095234,325.0,325.0,-325.0,325.0,-325.0,110.07936507936508,-38.65079365079365,325.0,-325.0,-325.0,-0.7142857142857142,-0.23809523809523808,-166.26984126984127
4,-325.0,325.0,325.0,325.0,-325.0,7.5396825396825395,325.0,-325.0,325.0,-325.0,89.76190476190476,325.0,325.0,-325.0,325.0,-325.0,-325.0,8.968253968253968,314.68253968253964,-325.0,-325.0,-0.5555555555555556,-1.0317460317460316,-166.26984126984127
5,-325.0,325.0,325.0,325.0,-325.0,7.5396825396825395,325.0,-325.0,325.0,-325.0,89.76190476190476,325.0,325.0,-325.0,325.0,-325.0,-325.0,8.968253968253968,314.68253968253964,-325.0,-325.0,-0.5555555555555556,-1.0317460317460316,-166.26984126984127
6,-325.0,325.0,325.0,325.0,-325.0,8.015873015873016,325.0,-325.0,325.0,-325.0,85.0,325.0,325.0,-325.0,325.0,-325.0,-325.0,10.079365079365079,-10.396825396825395,-325.0,-325.0,-0.23809523809523808,-0.873015873015873,-166.26984126984127
7,-325.0,325.0,325.0,325.0,-325.0,8.015873015873016,325.0,-325.0,325.0,-325.0,85.0,325.0,325.0,-325.0,325.0,-325.0,-325.0,10.079365079365079,-10.396825396825395,-325.0,-325.0,-0.23809523809523808,-0.873015873015873,-166.26984126984127
8,-325.0,325.0,325.0,325.0,-325.0,10.873015873015872,325.0,-325.0,325.0,-325.0,78.01587301587301,325.0,325.0,-325.0,325.0,-325.0,-325.0,13.888888888888888,-277.38095238095235,-325.0,-325.0,-0.5555555555555556,-0.5555555555555556,-166.26984126984127
9,-325.0,325.0,325.0,325.0,-325.0,10.873015873015872,325.0,-325.0,325.0,-325.0,78.01587301587301,325.0,325.0,-325.0,325.0,-325.0,-325.0,13.888888888888888,-277.38095238095235,-325.0,-325.0,-0.5555555555555556,-0.5555555555555556,-166.26984126984127
10,-325.0,325.0,318.17460317460313,325.0,-325.0,14.365079365079364,318.6507936507936,-325.0,325.0,-325.0,73.57142857142857,325.0,317.38095238095235,-323.57142857142856,323.4126984126984,-325.0,-325.0,17.698412698412696,78.80952380952381,-325.0,-325.0,-1.0317460317460316,-0.23809523809523808,-321.8253968253968
11,-325.0,325.0,318.17460317460313,325.0,-325.0,14.365079365079364,318.6507936507936,-325.0,325.0,-325.0,73.57142857142857,325.0,317.38095238095235,-323.57142857142856,323.4126984126984,-325.0,-325.0,17.698412698412696,78.80952380952381,-325.0,-325.0,-1.0317460317460316,-0.23809523809523808,-321.8253968253968
12,-325.0,325.0,308.17460317460313,325.0,-325.0,17.38095238095238,308.8095238095238,-325.0,325.0,-325.0,70.87301587301587,325.0,308.015873015873,-317.85714285714283,317.85714285714283,-325.0,-325.0,21.666666666666664,325.0,-325.0,-325.0,-0.7142857142857142,-1.1904761904761905,-321.8253968253968
13,-325.0,325.0,308.17460317460313,325.0,-325.0,17.38095238095238,308.8095238095238,-325.0,325.0,-325.0,70.87301587301587,325.0,308.015873015873,-317.85714285714283,317.85714285714283,-325.0,-325.0,21.666666666666664,325.0,-325.0,-325.0,-0.7142857142857142,-1.1904761904761905,-321.8253968253968
14,-325.0,325.0,302.9365079365079,325.0,-325.0,18.333333333333332,303.4126984126984,-325.0,325.0,-325.0,69.28571428571428,325.0,302.6190476190476,-312.1428571428571,312.6190476190476,-325.0,-325.0,22.777777777777775,325.0,-325.0,-325.0,-0.23809523809523808,-0.5555555555555556,-321.8253968253968
15,-325.0,325.0,302.9365079365079,325.0,-325.0,18.333333333333332,303.4126984126984,-325.0,325.0,-325.0,69.28571428571428,325.0,302.6190476190476,-312.1428571428571,312.6190476190476,-325.0,-325.0,22.777777777777775,325.0,-325.0,-325.0,-0.23809523809523808,-0.5555555555555556,-321.8253968253968
16,-325.0,325.0,297.53968253968253,325.0,-325.0,19.76190476190476,298.17460317460313,-325.0,321.8253968253968,-325.0,67.85714285714285,325.0,297.22222222222223,-306.58730158730157,307.38095238095235,-324.04761904761904,-325.0,24.523809523809522,325.0,-325.0,-325.0,-0.873015873015873,0.07936507936507936,-321.8253968253968
17,-325.0,325.0,297.53968253968253,325.0,-325.0,19.76190476190476,298.17460317460313,-325.0,321.8253968253968,-325.0,67.85714285714285,325.0,297.22222222222223,-306.58730158730157,307.38095238095235,-324.04761904761904,-325.0,24.523809523809522,325.0,-325.0,-325.0,-0.873015873015873,0.07936507936507936,-321.8253968253968
18,-325.0,325.0,290.87301587301585,325.0,-320.23809523809524,21.349206349206348,291.66666666666663,-323.57142857142856,315.0,-325.0,65.63492063492063,325.0,290.7142857142857,-299.76190476190476,300.39682539682536,-317.38095238095235,-325.0,26.26984126984127,325.0,-325.0,-323.88888888888886,-1.1904761904761905,-0.07936507936507936,-321.8253968253968
19,-325.0,325.0,290.87301587301585,325.0,-320.23809523809524,21.349206349206348,291.66666666666663,-323.57142857142856,315.0,-325.0,65.63492063492063,325.0,290.7142857142857,-299.76190476190476,300.39682539682536,-317.38095238095235,-325.0,26.26984126984127,325.0,-325.0,-323.88888888888886,-1.1904761904761905,-0.07936507936507936,-321.8253968253968
20,-325.0,321.031746031746,284.5238095238095,321.66666666666663,-313.4126984126984,25.952380952380953,285.4761904761905,-318.3333333333333,308.3333333333333,-325.0,66.26984126984127,322.77777777777777,284.5238095238095,-293.25396825396825,294.2063492063492,-310.7142857142857,-325.0,30.87301587301587,325.0,-323.0952380952381,-318.4920634920635,-0.5555555555555556,-1.0317460317460316,-166.26984126984127
21,-325.0,321.031746031746,284.5238095238095,321.66666666666663,-313.4126984126984,25.952380952380953,285.4761904761905,-318.3333333333333,308.3333333333333,-325.0,66.26984126984127,322.77777777777777,284.5238095238095,-293.25396825396825,294.2063492063492,-310.7142857142857,-325.0,30.87301587301587,325.0,-323.0952380952381,-318.4920634920635,-0.5555555555555556,-1.0317460317460316,-166.26984126984127
22,-325.0,309.1269841269841,273.0952380952381,309.1269841269841,-301.66666666666663,20.07936507936508,274.5238095238095,-306.58730158730157,296.58730158730157,-325.0,53.57142857142857,310.07936507936506,273.4126984126984,-281.5079365079365,283.0952380952381,-298.8095238095238,-325.0,24.68253968253968,325.0,-310.7142857142857,-305.95238095238096,-0.5555555555555556,-0.07936507936507936,-166.26984126984127
23,-325.0,309.1269841269841,273.0952380952381,309.1269841269841,-301.66666666666663,20.07936507936508,274.5238095238095,-306.58730158730157,296.58730158730157,-325.0,53.57142857142857,310.07936507936506,273.4126984126984,-281.5079365079365,283.0952380952381,-298.8095238095238,-325.0,24.68253968253968,325.0,-310.7142857142857,-305.95238095238096,-0.5555555555555556,-0.07936507936507936,-166.26984126984127
24,-325.0,300.07936507936506,265.0,299.9206349206349,-293.4126984126984,25.158730158730158,266.26984126984127,-298.015873015873,287.85714285714283,-318.17460317460313,54.36507936507936,300.87301587301585,265.3174603174603,-272.9365079365079,274.8412698412698,-290.23809523809524,-325.0,30.07936507936508,325.0,-301.8253968253968,-296.74603174603175,-0.873015873015873,-0.07936507936507936,-166.26984126984127
25,-325.0,300.07936507936506,265.0,299.9206349206349,-293.4126984126984,25.158730158730158,266.26984126984127,-298.015873015873,287.85714285714283,-318.17460317460313,54.36507936507936,300.87301587301585,265.3174603174603,-272.9365079365079,274.8412698412698,-290.23809523809524,-325.0,30.07936507936508,325.0,-301.8253968253968,-296.74603174603175,-0.873015873015873,-0.07936507936507936,-166.26984126984127
26,-197.85714285714283,-8.492063492063492,153.25396825396825,51.507936507936506,-173.4126984126984,15.158730158730158,-33.57142857142857,17.857142857142858,-22.936507936507937,6.746031746031746,-87.53968253968253,-16.587301587301585,154.04761904761904,-158.015873015873,160.55555555555554,21.666666666666664,-204.04761904761904,13.73015873015873,50.87301587301587,-177.2222222222222,-172.3015873015873,-0.5555555555555556,0.07936507936507936,-166.26984126984127
27,-197.85714285714283,-8.492063492063492,153.25396825396825,51.507936507936506,-173.4126984126984,15.158730158730158,-33.57142857142857,17.857142857142858,-22.936507936507937,6.746031746031746,-87.53968253968253,-16.587301587301585,154.04761904761904,-158.015873015873,160.55555555555554,21.666666666666664,-204.04761904761904,13.73015873015873,50.87301587301587,-177.2222222222222,-172.3015873015873,-0.5555555555555556,0.07936507936507936,-166.26984126984127
28,-55.63492063492063,-299.4444444444444,3.4126984126984126,-197.85714285714283,-59.92063492063492,-0.873015873015873,-325.0,325.0,-325.0,325.0,-223.57142857142856,-325.0,49.285714285714285,-50.079365079365076,-92.30158730158729,325.0,-80.55555555555556,-8.968253968253968,-216.74603174603175,-59.76190476190476,-55.15873015873016,0.5555555555555556,0.07936507936507936,-166.26984126984127
29,-55.63492063492063,-299.4444444444444,3.4126984126984126,-197.85714285714283,-59.92063492063492,-0.873015873015873,-325.0,325.0,-325.0,325.0,-223.57142857142856,-325.0,49.285714285714285,-50.079365079365076,-92.30158730158729,325.0,-80.55555555555556,-8.968253968253968,-216.74603174603175,-59.76190476190476,-55.15873015873016,0.5555555555555556,0.07936507936507936,-166.26984126984127
30,-74.84126984126983,-288.4920634920635,-105.31746031746032,-206.58730158730157,-57.53968253968254,-2.7777777777777777,-325.0,325.0,-325.0,325.0,-215.15873015873015,-325.0,47.53968253968254,-48.01587301587301,-295.0,325.0,-77.22222222222221,-10.555555555555555,-208.65079365079364,-57.06349206349206,-52.77777777777777,0.5555555555555556,-0.23809523809523808,-321.8253968253968
31,-74.84126984126983,-288.4920634920635,-105.31746031746032,-206.58730158730157,-57.53968253968254,-2.7777777777777777,-325.0,325.0,-325.0,325.0,-215.15873015873015,-325.0,47.53968253968254,-48.01587301587301,-295.0,325.0,-77.22222222222221,-10.555555555555555,-208.65079365079364,-57.06349206349206,-52.77777777777777,0.5555555555555556,-0.23809523809523808,-321.8253968253968
32,-69.76190476190476,-283.73015873015873,-233.88888888888889,-202.93650793650792,-56.269841269841265,-8.174603174603174,-325.0,325.0,-325.0,325.0,-211.5079365079365,-325.0,46.58730158730158,-47.22222222222222,-325.0,325.0,-75.95238095238095,-15.158730158730158,-205.15873015873015,-55.95238095238095,-51.82539682539682,-0.7142857142857142,-0.5555555555555556,-321.8253968253968
33,-69.76190476190476,-283.73015873015873,-233.88888888888889,-202.93650793650792,-56.269841269841265,-8.174603174603174,-325.0,325.0,-325.0,325.0,-211.5079365079365,-325.0,46.58730158730158,-47.22222222222222,-325.0,325.0,-75.95238095238095,-15.158730158730158,-205.15873015873015,-55.95238095238095,-51.82539682539682,-0.7142857142857142,-0.5555555555555556,-321.8253968253968
34,-66.9047619047619,-274.5238095238095,-325.0,-195.95238095238093,-54.36507936507936,-7.857142857142857,-325.0,325.0,-325.0,325.0,-204.68253968253967,-321.19047619047615,45.0,-45.476190476190474,-325.0,325.0,-73.25396825396825,-14.84126984126984,-198.17460317460316,-54.047619047619044,-49.92063492063492,0.23809523809523808,-0.5555555555555556,-321.8253968253968
35,-66.9047619047619,-274.5238095238095,-325.0,-195.95238095238093,-54.36507936507936,-7.857142857142857,-325.0,325.0,-325.0,325.0,-204.68253968253967,-321.19047619047615,45.0,-45.476190476190474,-325.0,325.0,-73.25396825396825,-14.84126984126984,-198.17460317460316,-54.047619047619044,-49.92063492063492,0.23809523809523808,-0.5555555555555556,-321.8253968253968
36,-66.26984126984127,-272.1428571428571,-325.0,-194.2063492063492,-53.73015873015873,-10.079365079365079,-325.0,325.0,-325.0,325.0,-202.93650793650792,-318.4920634920635,44.52380952380952,-45.0,-325.0,325.0,-72.46031746031746,-16.904761904761905,-196.42857142857142,-53.41269841269841,-49.44444444444444,0.23809523809523808,-0.5555555555555556,-321.8253968253968
37,-66.26984126984127,-272.1428571428571,-325.0,-194.2063492063492,-53.73015873015873,-10.079365079365079,-325.0,325.0,-325.0,325.0,-202.93650793650792,-318.4920634920635,44.52380952380952,-45.0,-325.0,325.0,-72.46031746031746,-16.904761904761905,-196.42857142857142,-53.41269841269841,-49.44444444444444,0.23809523809523808,-0.5555555555555556,-321.8253968253968
38,-66.26984126984127,-272.1428571428571,-325.0,-194.2063492063492,-53.73015873015873,-10.079365079365079,-325.0,325.0,-325.0,325.0,-202.93650793650792,-318.4920634920635,44.52380952380952,-45.0,-325.0,325.0,-72.46031746031746,-16.904761904761905,-196.42857142857142,-53.41269841269841,-49.44444444444444,0.23809523809523808,-0.5555555555555556,-321.8253968253968
39,-66.26984126984127,-272.1428571428571,-325.0,-194.2063492063492,-53.73015873015873,-10.079365079365079,-325.0,325.0,-325.0,325.0,-202.93650793650792,-318.4920634920635,44.52380952380952,-45.0,-325.0,325.0,-72.46031746031746,-16.904761904761905,-196.42857142857142,-53.41269841269841,-49.44444444444444,0.23809523809523808,-0.5555555555555556,-321.8253968253968
40,-66.26984126984127,-272.1428571428571,-325.0,-194.2063492063492,-53.73015873015873,-10.079365079365079,-325.0,325.0,-325.0,325.0,-202.93650793650792,-318.4920634920635,44.52380952380952,-45.0,-325.0,325.0,-72.46031746031746,-16.904761904761905,-196.42857142857142,-53.41269841269841,-49.44444444444444,0.23809523809523808,-0.5555555555555556,-166.26984126984127
41,-66.26984126984127,-272.1428571428571,-325.0,-194.2063492063492,-53.73015873015873,-10.079365079365079,-325.0,325.0,-325.0,325.0,-202.93650793650792,-318.4920634920635,44.52380952380952,-45.0,-325.0,325.0,-72.46031746031746,-16.904761904761905,-196.42857142857142,-53.41269841269841,-49.44444444444444,0.23809523809523808,-0.5555555555555556,-166.26984126984127
42,-66.26984126984127,-272.1428571428571,-325.0,-194.2063492063492,-53.73015873015873,-10.079365079365079,-325.0,325.0,-325.0,325.0,-202.93650793650792,-318.4920634920635,44.52380952380952,-45.0,-325.0,325.0,-72.46031746031746,-16.904761904761905,-196.42857142857142,-53.41269841269841,-49.44444444444444,0.23809523809523808,-0.5555555555555556,-166.26984126984127
43,-66.26984126984127,-272.1428571428571,-325.0,-194.2063492063492,-53.73015873015873,-10.079365079365079,-325.0,325.0,-325.0,325.0,-202.93650793650792,-318.4920634920635,44.52380952380952,-45.0,-325.0,325.0,-72.46031746031746,-16.904761904761905,-196.42857142857142,-53.41269841269841,-49.44444444444444,0.23809523809523808,-0.5555555555555556,-166.26984126984127
44,-66.26984126984127,-272.1428571428571,-325.0,-194.2063492063492,-53.73015873015873,-10.079365079365079,-325.0,325.0,-325.0,325.0,-202.93650793650792,-318.4920634920635,44.52380952380952,-45.0,-325.0,325.0,-72.46031746031746,-16.904761904761905,-196.42857142857142,-53.41269841269841,-49.44444444444444,0.23809523809523808,-0.5555555555555556,-166.26984126984127
45,-66.26984126984127,-272.1428571428571,-325.0,-194.2063492063492,-53.73015873015873,-10.079365079365079,-325.0,325.0,-325.0,325.0,-202.93650793650792,-318.4920634920635,44.52380952380952,-45.0,-325.0,325.0,-72.46031746031746,-16.904761904761905,-196.42857142857142,-53.41269841269841,-49.44444444444444,0.23809523809523808,-0.5555555555555556,-166.26984126984127
46,-66.26984126984127,-272.1428571428571,-325.0,-194.2063492063492,-53.73015873015873,-10.079365079365079,-325.0,325.0,-325.0,325.0,-202.93650793650792,-318.4920634920635,44.52380952380952,-45.0,-325.0,325.0,-72.46031746031746,-16.904761904761905,-196.42857142857142,-53.41269841269841,-49.44444444444444,0.23809523809523808,-0.5555555555555556,-166.26984126984127
47,-66.26984126984127,-272.1428571428571,-325.0,-194.2063492063492,-53.73015873015873,-10.079365079365079,-325.0,325.0,-325.0,325.0,-202.93650793650792,-318.4920634920635,44.52380952380952,-45.0,-325.0,325.0,-72.46031746031746,-16.904761904761905,-196.42857142857142,-53.41269841269841,-49.44444444444444,0.23809523809523808,-0.5555555555555556,-166.26984126984127
48,-66.26984126984127,-272.1428571428571,-325.0,-194.2063492063492,-53.73015873015873,-10.079365079365079,-325.0,325.0,-325.0,325.0,-202.93650793650792,-318.4920634920635,44.52380952380952,-45.0,-325.0,325.0,-72.46031746031746,-16.904761904761905,-196.42857142857142,-53.41269841269841,-49.44444444444444,0.23809523809523808,-0.5555555555555556,-166.26984126984127
49,-66.26984126984127,-272.1428571428571,-325.0,-194.2063492063492,-53.73015873015873,-10.079365079365079,-325.0,325.0,-325.0,325.0,-202.93650793650792,-318.4920634920635,44.52380952380952,-45.0,-325.0,325.0,-72.46031746031746,-16.904761904761905,-196.42857142857142,-53.41269841269841,-49.44444444444444,0.23809523809523808,-0.5555555555555556,-166.26984126984127
50,-66.26984126984127,-272.1428571428571,-325.0,-194.2063492063492,-53.73015873015873,-10.079365079365079,-325.0,325.0,-325.0,325.0,-202.93650793650792,-318.4920634920635,44.52380952380952,-45.0,-325.0,325.0,-72.46031746031746,-16.904761904761905,-196.42857142857142,-53.41269841269841,-49.44444444444444,0.23809523809523808,-0.5555555555555556,-321.8253968253968
51,-66.26984126984127,-272.1428571428571,-325.0,-194.2063492063492,-53.73015873015873,-10.079365079365079,-325.0,325.0,-325.0,325.0,-202.93650793650792,-318.4920634920635,44.52380952380952,-45.0,-325.0,325.0,-72.46031746031746,-16.904761904761905,-196.42857142857142,-53.41269841269841,-49.44444444444444,0.23809523809523808,-0.5555555555555556,-321.8253968253968
52,88.4920634920635,-159.6031746031746,-235.3174603174603,-113.09523809523809,135.63492063492063,-4.0476190476190474,-220.2380952380952,196.26984126984127,-198.8095238095238,239.60317460317458,61.03174603174603,-185.95238095238093,-58.650793650793645,65.79365079365078,-237.53968253968253,210.07936507936506,126.26984126984127,-6.26984126984127,-125.95238095238095,124.36507936507935,112.77777777777777,-0.5555555555555556,-0.23809523809523808,-321.8253968253968
53,88.4920634920635,-159.6031746031746,-235.3174603174603,-113.09523809523809,135.63492063492063,-4.0476190476190474,-220.2380952380952,196.26984126984127,-198.8095238095238,239.60317460317458,61.03174603174603,-185.95238095238093,-58.650793650793645,65.79365079365078,-237.53968253968253,210.07936507936506,126.26984126984127,-6.26984126984127,-125.95238095238095,124.36507936507935,112.77777777777777,-0.5555555555555556,-0.23809523809523808,-321.8253968253968
54,-325.0,-45.0,-138.4920634920635,-30.396825396825395,319.1269841269841,1.507936507936508,-110.07936507936508,64.52380952380952,-69.28571428571428,146.9047619047619,325.0,-51.03174603174603,-154.36507936507937,168.17460317460316,-143.09523809523807,90.87301587301587,325.0,4.365079365079365,-52.77777777777777,288.6507936507936,262.3015873015873,-0.07936507936507936,-0.3968253968253968,-321.8253968253968
55,-325.0,-45.0,-138.4920634920635,-30.396825396825395,319.1269841269841,1.507936507936508,-110.07936507936508,64.52380952380952,-69.28571428571428,146.9047619047619,325.0,-51.03174603174603,-154.36507936507937,168.17460317460316,-143.09523809523807,90.87301587301587,325.0,4.365079365079365,-52.77777777777777,288.6507936507936,262.3015873015873,-0.07936507936507936,-0.3968253968253968,-321.8253968253968
56,-325.0,-44.84126984126984,-138.015873015873,-30.238095238095237,318.015873015873,-0.5555555555555556,-109.44444444444444,64.36507936507937,-68.96825396825396,146.42857142857142,325.0,-50.71428571428571,-153.73015873015873,167.2222222222222,-142.46031746031744,90.55555555555556,325.0,2.619047619047619,-52.77777777777777,287.53968253968253,261.1904761904762,-0.07936507936507936,-1.0317460317460316,-321.8253968253968
57,-325.0,-44.84126984126984,-138.015873015873,-30.238095238095237,318.015873015873,-0.5555555555555556,-109.44444444444444,64.36507936507937,-68.96825396825396,146.42857142857142,325.0,-50.71428571428571,-153.73015873015873,167.2222222222222,-142.46031746031744,90.55555555555556,325.0,2.619047619047619,-52.77777777777777,287.53968253968253,261.1904761904762,-0.07936507936507936,-1.0317460317460316,-321.8253968253968
58,-158.17460317460316,-43.57142857142857,-133.88888888888889,-29.444444444444443,309.1269841269841,0.7142857142857142,-106.58730158730158,62.460317460317455,-67.06349206349206,141.984126984127,325.0,-49.44444444444444,-149.12698412698413,162.3015873015873,-138.4920634920635,87.85714285714285,325.0,3.571428571428571,-51.03174603174603,279.1269841269841,253.4126984126984,-1.349206349206349,-1.0317460317460316,-321.8253968253968
59,-158.17460317460316,-43.57142857142857,-133.88888888888889,-29.444444444444443,309.1269841269841,0.7142857142857142,-106.58730158730158,62.460317460317455,-67.06349206349206,141.984126984127,325.0,-49.44444444444444,-149.12698412698413,162.3015873015873,-138.4920634920635,87.85714285714285,325.0,3.571428571428571,-51.03174603174603,279.1269841269841,253.4126984126984,-1.349206349206349,-1.0317460317460316,-321.8253968253968
60,-87.22222222222221,-42.93650793650794,-131.8253968253968,-28.96825396825397,304.04761904761904,6.746031746031746,-104.68253968253968,61.34920634920635,-66.11111111111111,139.6031746031746,325.0,-48.49206349206349,-146.74603174603175,159.44444444444443,-136.42857142857142,86.1111111111111,325.0,9.285714285714285,-50.238095238095234,274.68253968253964,248.96825396825395,-0.7142857142857142,-0.3968253968253968,-166.26984126984127
61,-87.22222222222221,-42.93650793650794,-131.8253968253968,-28.96825396825397,304.04761904761904,6.746031746031746,-104.68253968253968,61.34920634920635,-66.11111111111111,139.6031746031746,325.0,-48.49206349206349,-146.74603174603175,159.44444444444443,-136.42857142857142,86.1111111111111,325.0,9.285714285714285,-50.238095238095234,274.68253968253964,248.96825396825395,-0.7142857142857142,-0.3968253968253968,-166.26984126984127
62,-250.07936507936506,-42.61904761904761,-130.07936507936506,-28.65079365079365,300.23809523809524,4.2063492063492065,-103.4126984126984,60.55555555555555,-65.31746031746032,137.85714285714286,325.0,-48.01587301587301,-144.84126984126982,157.53968253968253,-134.84126984126982,85.15873015873015,325.0,6.587301587301587,-49.6031746031746,271.19047619047615,245.95238095238093,-0.07936507936507936,0.23809523809523808,-166.26984126984127
63,-250.07936507936506,-42.61904761904761,-130.07936507936506,-28.65079365079365,300.23809523809524,4.2063492063492065,-103.4126984126984,60.55555555555555,-65.31746031746032,137.85714285714286,325.0,-48.01587301587301,-144.84126984126982,157.53968253968253,-134.84126984126982,85.15873015873015,325.0,6.587301587301587,-49.6031746031746,271.19047619047615,245.95238095238093,-0.07936507936507936,0.23809523809523808,-166.26984126984127
64,-325.0,-31.03174603174603,-94.36507936507935,-20.873015873015873,220.55555555555554,15.0,-75.0,44.2063492063492,-47.53968253968254,99.28571428571428,325.0,-34.52380952380952,-104.84126984126983,112.77777777777777,-98.49206349206348,61.507936507936506,325.0,18.015873015873016,-35.63492063492063,197.53968253968253,176.42857142857142,0.873015873015873,-0.3968253968253968,-166.26984126984127
65,-325.0,-31.03174603174603,-94.36507936507935,-20.873015873015873,220.55555555555554,15.0,-75.0,44.2063492063492,-47.53968253968254,99.28571428571428,325.0,-34.52380952380952,-104.84126984126983,112.77777777777777,-98.49206349206348,61.507936507936506,325.0,18.015873015873016,-35.63492063492063,197.53968253968253,176.42857142857142,0.873015873015873,-0.3968253968253968,-166.26984126984127
66,-325.0,-31.03174603174603,-94.36507936507935,-20.873015873015873,220.55555555555554,15.0,-75.0,44.2063492063492,-47.53968253968254,99.28571428571428,325.0,-34.52380952380952,-104.84126984126983,112.77777777777777,-98.49206349206348,61.507936507936506,325.0,18.015873015873016,-35.63492063492063,197.53968253968253,176.42857142857142,0.873015873015873,-0.3968253968253968,-166.26984126984127
67,-325.0,-31.03174603174603,-94.36507936507935,-20.873015873015873,220.55555555555554,15.0,-75.0,44.2063492063492,-47.53968253968254,99.28571428571428,325.0,-34.52380952380952,-104.84126984126983,112.77777777777777,-98.49206349206348,61.507936507936506,325.0,18.015873015873016,-35.63492063492063,197.53968253968253,176.42857142857142,0.873015873015873,-0.3968253968253968,-166.26984126984127
68,-325.0,-31.03174603174603,-94.36507936507935,-20.873015873015873,220.55555555555554,15.0,-75.0,44.2063492063492,-47.53968253968254,99.28571428571428,325.0,-34.52380952380952,-104.84126984126983,112.77777777777777,-98.49206349206348,61.507936507936506,325.0,18.015873015873016,-35.63492063492063,197.53968253968253,176.42857142857142,0.873015873015873,-0.3968253968253968,-166.26984126984127
69,-325.0,-31.03174603174603,-94.36507936507935,-20.873015873015873,220.55555555555554,15.0,-75.0,44.2063492063492,-47.53968253968254,99.28571428571428,325.0,-34.52380952380952,-104.84126984126983,112.77777777777777,-98.49206349206348,61.507936507936506,325.0,18.015873015873016,-35.63492063492063,197.53968253968253,176.42857142857142,0.873015873015873,-0.3968253968253968,-166.26984126984127
70,316.26984126984127,-15.476190476190474,-54.52380952380952,-12.619047619047619,128.8095238095238,1.0317460317460316,-43.888888888888886,26.26984126984127,-28.015873015873016,56.42857142857142,251.34920634920633,-20.555555555555554,-60.39682539682539,63.57142857142857,-58.17460317460317,35.79365079365079,235.0,3.888888888888889,-20.555555555555554,113.57142857142857,99.76190476190476,-0.873015873015873,0.07936507936507936,-321.8253968253968
71,316.26984126984127,-15.476190476190474,-54.52380952380952,-12.619047619047619,128.8095238095238,1.0317460317460316,-43.888888888888886,26.26984126984127,-28.015873015873016,56.42857142857142,251.34920634920633,-20.555555555555554,-60.39682539682539,63.57142857142857,-58.17460317460317,35.79365079365079,235.0,3.888888888888889,-20.555555555555554,113.57142857142857,99.76190476190476,-0.873015873015873,0.07936507936507936,-321.8253968253968
72,292.46031746031747,12.142857142857142,-50.71428571428571,-11.825396825396824,119.76190476190476,1.1904761904761905,-41.03174603174603,24.365079365079364,-26.11111111111111,52.3015873015873,233.57142857142856,-19.126984126984127,-56.11111111111111,58.8095238095238,-54.2063492063492,33.41269841269841,218.33333333333331,4.682539682539682,-19.126984126984127,105.63492063492063,92.30158730158729,-0.7142857142857142,-0.7142857142857142,-321.8253968253968
73,292.46031746031747,12.142857142857142,-50.71428571428571,-11.825396825396824,119.76190476190476,1.1904761904761905,-41.03174603174603,24.365079365079364,-26.11111111111111,52.3015873015873,233.57142857142856,-19.126984126984127,-56.11111111111111,58.8095238095238,-54.2063492063492,33.41269841269841,218.33333333333331,4.682539682539682,-19.126984126984127,105.63492063492063,92.30158730158729,-0.7142857142857142,-0.7142857142857142,-321.8253968253968
74,262.77777777777777,38.80952380952381,-46.11111111111111,-11.031746031746032,108.65079365079364,2.9365079365079363,-37.06349206349206,22.142857142857142,-23.88888888888889,47.38095238095238,211.5079365079365,-17.38095238095238,-50.87301587301587,52.77777777777777,-49.285714285714285,30.07936507936508,197.38095238095238,7.3809523809523805,-17.539682539682538,95.63492063492063,83.4126984126984,-0.3968253968253968,-1.1904761904761905,-321.8253968253968
75,262.77777777777777,38.80952380952381,-46.11111111111111,-11.031746031746032,108.65079365079364,2.9365079365079363,-37.06349206349206,22.142857142857142,-23.88888888888889,47.38095238095238,211.5079365079365,-17.38095238095238,-50.87301587301587,52.77777777777777,-49.285714285714285,30.07936507936508,197.38095238095238,7.3809523809523805,-17.539682539682538,95.63492063492063,83.4126984126984,-0.3968253968253968,-1.1904761904761905,-321.8253968253968
76,209.76190476190476,92.77777777777777,-37.38095238095238,-9.126984126984127,87.6984126984127,1.1904761904761905,-30.238095238095237,18.174603174603174,-19.6031746031746,38.33333333333333,171.03174603174602,-14.365079365079364,-41.19047619047619,42.14285714285714,-40.238095238095234,24.523809523809522,158.4920634920635,4.682539682539682,-14.365079365079364,77.22222222222221,66.74603174603175,-0.23809523809523808,-0.7142857142857142,-321.8253968253968
77,209.76190476190476,92.77777777777777,-37.38095238095238,-9.126984126984127,87.6984126984127,1.1904761904761905,-30.238095238095237,18.174603174603174,-19.6031746031746,38.33333333333333,171.03174603174602,-14.365079365079364,-41.19047619047619,42.14285714285714,-40.238095238095234,24.523809523809522,158.4920634920635,4.682539682539682,-14.365079365079364,77.22222222222221,66.74603174603175,-0.23809523809523808,-0.7142857142857142,-321.8253968253968
78,158.33333333333331,150.55555555555554,-28.809523809523807,-7.063492063492063,67.22222222222221,-3.095238095238095,-23.730158730158728,14.047619047619047,-15.317460317460316,29.126984126984127,131.5079365079365,-11.19047619047619,-31.666666666666664,31.98412698412698,-31.349206349206348,18.96825396825397,120.71428571428571,-0.23809523809523808,-11.031746031746032,58.96825396825397,50.39682539682539,-0.3968253968253968,-0.07936507936507936,-321.8253968253968
79,158.33333333333331,150.55555555555554,-28.809523809523807,-7.063492063492063,67.22222222222221,-3.095238095238095,-23.730158730158728,14.047619047619047,-15.317460317460316,29.126984126984127,131.5079365079365,-11.19047619047619,-31.666666666666664,31.98412698412698,-31.349206349206348,18.96825396825397,120.71428571428571,-0.23809523809523808,-11.031746031746032,58.96825396825397,50.39682539682539,-0.3968253968253968,-0.07936507936507936,-321.8253968253968
80,155.3174603174603,147.69841269841268,-28.49206349206349,-7.063492063492063,66.26984126984127,-4.841269841269841,-23.253968253968253,13.888888888888888,-15.158730158730158,28.809523809523807,129.28571428571428,-11.19047619047619,-31.03174603174603,31.507936507936506,-30.87301587301587,18.80952380952381,118.65079365079364,-2.46031746031746,-10.873015873015872,57.857142857142854,49.44444444444444,-0.873015873015873,0.07936507936507936,-166.26984126984127
81,155.3174603174603,147.69841269841268,-28.49206349206349,-7.063492063492063,66.26984126984127,-4.841269841269841,-23.253968253968253,13.888888888888888,-15.158730158730158,28.809523809523807,129.28571428571428,-11.19047619047619,-31.03174603174603,31.507936507936506,-30.87301587301587,18.80952380952381,118.65079365079364,-2.46031746031746,-10.873015873015872,57.857142857142854,49.44444444444444,-0.873015873015873,0.07936507936507936,-166.26984126984127
82,152.61904761904762,124.68253968253967,-28.015873015873016,-7.063492063492063,65.31746031746032,-8.333333333333332,-22.936507936507937,13.73015873015873,-14.84126984126984,28.333333333333332,127.22222222222221,-11.031746031746032,-30.396825396825395,30.87301587301587,-30.396825396825395,18.49206349206349,116.58730158730158,-6.111111111111111,-10.714285714285714,56.904761904761905,48.650793650793645,0.07936507936507936,-0.07936507936507936,-166.26984126984127
83,152.61904761904762,124.68253968253967,-28.015873015873016,-7.063492063492063,65.31746031746032,-8.333333333333332,-22.936507936507937,13.73015873015873,-14.84126984126984,28.333333333333332,127.22222222222221,-11.031746031746032,-30.396825396825395,30.87301587301587,-30.396825396825395,18.49206349206349,116.58730158730158,-6.111111111111111,-10.714285714285714,56.904761904761905,48.650793650793645,0.07936507936507936,-0.07936507936507936,-166.26984126984127
84,149.9206349206349,122.14285714285714,-27.539682539682538,-6.904761904761904,64.04761904761905,-10.396825396825395,-22.46031746031746,13.412698412698411,-14.523809523809524,27.698412698412696,125.0,-10.714285714285714,-30.07936507936508,30.396825396825395,-29.76190476190476,18.174603174603174,114.52380952380952,-7.857142857142857,-10.555555555555555,55.95238095238095,47.698412698412696,-0.23809523809523808,-0.873015873015873,-166.26984126984127
85,149.9206349206349,122.14285714285714,-27.539682539682538,-6.904761904761904,64.04761904761905,-10.396825396825395,-22.46031746031746,13.412698412698411,-14.523809523809524,27.698412698412696,125.0,-10.714285714285714,-30.07936507936508,30.396825396825395,-29.76190476190476,18.174603174603174,114.52380952380952,-7.857142857142857,-10.555555555555555,55.95238095238095,47.698412698412696,-0.23809523809523808,-0.873015873015873,-166.26984126984127
86,147.38095238095238,115.95238095238095,-27.063492063492063,-6.746031746031746,63.095238095238095,-0.5555555555555556,-22.3015873015873,13.095238095238095,-14.365079365079364,27.539682539682538,122.93650793650794,-10.714285714285714,-29.444444444444443,29.920634920634917,-29.6031746031746,18.015873015873016,112.6190476190476,1.507936507936508,-10.238095238095237,55.15873015873016,46.904761904761905,-0.7142857142857142,-0.5555555555555556,-166.26984126984127
87,147.38095238095238,115.95238095238095,-27.063492063492063,-6.746031746031746,63.095238095238095,-0.5555555555555556,-22.3015873015873,13.095238095238095,-14.365079365079364,27.539682539682538,122.93650793650794,-10.714285714285714,-29.444444444444443,29.920634920634917,-29.6031746031746,18.015873015873016,112.6190476190476,1.507936507936508,-10.238095238095237,55.15873015873016,46.904761904761905,-0.7142857142857142,-0.5555555555555556,-166.26984126984127
88,145.63492063492063,98.01587301587301,-26.746031746031743,-6.587301587301587,62.14285714285714,0.5555555555555556,-21.984126984126984,12.936507936507935,-14.047619047619047,27.063492063492063,121.34920634920634,-10.555555555555555,-29.126984126984127,29.6031746031746,-29.126984126984127,17.698412698412696,111.19047619047619,2.3015873015873014,-10.079365079365079,54.36507936507936,46.42857142857142,-0.873015873015873,-0.23809523809523808,-166.26984126984127
89,145.63492063492063,98.01587301587301,-26.746031746031743,-6.587301587301587,62.14285714285714,0.5555555555555556,-21.984126984126984,12.936507936507935,-14.047619047619047,27.063492063492063,121.34920634920634,-10.555555555555555,-29.126984126984127,29.6031746031746,-29.126984126984127,17.698412698412696,111.19047619047619,2.3015873015873014,-10.079365079365079,54.36507936507936,46.42857142857142,-0.873015873015873,-0.23809523809523808,-166.26984126984127
90,142.14285714285714,65.63492063492063,-26.11111111111111,-6.746031746031746,60.873015873015866,-1.8253968253968254,-21.666666666666664,12.46031746031746,-14.047619047619047,26.587301587301585,118.96825396825396,-10.396825396825395,-28.49206349206349,28.809523809523807,-28.65079365079365,17.22222222222222,108.80952380952381,0.07936507936507936,-10.079365079365079,53.25396825396825,45.317460317460316,-0.7142857142857142,-0.873015873015873,-321.8253968253968
91,142.14285714285714,65.63492063492063,-26.11111111111111,-6.746031746031746,60.873015873015866,-1.8253968253968254,-21.666666666666664,12.46031746031746,-14.047619047619047,26.587301587301585,118.96825396825396,-10.396825396825395,-28.49206349206349,28.809523809523807,-28.65079365079365,17.22222222222222,108.80952380952381,0.07936507936507936,-10.079365079365079,53.25396825396825,45.317460317460316,-0.7142857142857142,-0.873015873015873,-321.8253968253968
92,140.23809523809524,59.92063492063492,-25.952380952380953,-6.587301587301587,60.238095238095234,-0.07936507936507936,-21.349206349206348,9.285714285714285,-13.888888888888888,26.26984126984127,117.53968253968253,-10.396825396825395,-28.015873015873016,28.49206349206349,-28.333333333333332,17.38095238095238,107.22222222222221,1.984126984126984,-9.920634920634921,52.61904761904761,44.84126984126984,0.873015873015873,-0.23809523809523808,-321.8253968253968
93,140.23809523809524,59.92063492063492,-25.952380952380953,-6.587301587301587,60.238095238095234,-0.07936507936507936,-21.349206349206348,9.285714285714285,-13.888888888888888,26.26984126984127,117.53968253968253,-10.396825396825395,-28.015873015873016,28.49206349206349,-28.333333333333332,17.38095238095238,107.22222222222221,1.984126984126984,-9.920634920634921,52.61904761904761,44.84126984126984,0.873015873015873,-0.23809523809523808,-321.8253968253968
94,-205.95238095238093,88.80952380952381,-25.317460317460316,-6.428571428571428,58.96825396825397,-4.841269841269841,-20.873015873015873,12.142857142857142,-13.571428571428571,25.634920634920633,115.0,-9.920634920634921,-27.539682539682538,28.015873015873016,-27.698412698412696,16.904761904761905,105.0,-3.253968253968254,-9.603174603174603,51.507936507936506,43.73015873015873,-0.5555555555555556,-0.23809523809523808,-321.8253968253968
95,-205.95238095238093,88.80952380952381,-25.317460317460316,-6.428571428571428,58.96825396825397,-4.841269841269841,-20.873015873015873,12.142857142857142,-13.571428571428571,25.634920634920633,115.0,-9.920634920634921,-27.539682539682538,28.015873015873016,-27.698412698412696,16.904761904761905,105.0,-3.253968253968254,-9.603174603174603,51.507936507936506,43.73015873015873,-0.5555555555555556,-0.23809523809523808,-321.8253968253968
96,-325.0,86.26984126984127,-25.0,-6.428571428571428,58.01587301587301,-6.587301587301587,-20.396825396825395,10.238095238095237,-13.412698412698411,25.158730158730158,113.09523809523809,-9.761904761904761,-27.063492063492063,27.38095238095238,-27.22222222222222,16.587301587301585,103.25396825396825,-4.841269841269841,-9.444444444444445,50.71428571428571,43.095238095238095,0.23809523809523808,-0.3968253968253968,-321.8253968253968
97,-325.0,86.26984126984127,-25.0,-6.428571428571428,58.01587301587301,-6.587301587301587,-20.396825396825395,10.238095238095237,-13.412698412698411,25.158730158730158,113.09523809523809,-9.761904761904761,-27.063492063492063,27.38095238095238,-27.22222222222222,16.587301587301585,103.25396825396825,-4.841269841269841,-9.444444444444445,50.71428571428571,43.095238095238095,0.23809523809523808,-0.3968253968253968,-321.8253968253968
98,-325.0,87.22222222222221,-24.365079365079364,-6.111111111111111,56.904761904761905,-7.5396825396825395,-20.238095238095237,1.6666666666666665,-13.095238095238095,24.68253968253968,111.19047619047619,-9.603174603174603,-26.587301587301585,26.9047619047619,-26.746031746031743,16.26984126984127,101.34920634920634,-6.111111111111111,-9.285714285714285,49.6031746031746,42.3015873015873,0.3968253968253968,-1.1904761904761905,-321.8253968253968
99,-325.0,87.22222222222221,-24.365079365079364,-6.111111111111111,56.904761904761905,-7.5396825396825395,-20.238095238095237,1.6666666666666665,-13.095238095238095,24.68253968253968,111.19047619047619,-9.603174603174603,-26.587301587301585,26.9047619047619,-26.746031746031743,16.26984126984127,101.34920634920634,-6.111111111111111,-9.285714285714285,49.6031746031746,42.3015873015873,0.3968253968253968,-1.1904761904761905,-321.8253968253968
100,-325.0,93.88888888888889,-24.047619047619047,-5.952380952380952,55.95238095238095,-8.333333333333332,-19.76190476190476,0.07936507936507936,-12.936507936507935,24.365079365079364,109.44444444444444,-9.285714285714285,-26.11111111111111,26.428571428571427,-26.26984126984127,15.793650793650793,99.6031746031746,-6.587301587301587,-9.126984126984127,48.80952380952381,41.507936507936506,-0.23809523809523808,-1.1904761904761905,-166.26984126984127
101,-325.0,93.88888888888889,-24.047619047619047,-5.952380952380952,55.95238095238095,-8.333333333333332,-19.76190476190476,0.07936507936507936,-12.936507936507935,24.365079365079364,109.44444444444444,-9.285714285714285,-26.11111111111111,26.428571428571427,-26.26984126984127,15.793650793650793,99.6031746031746,-6.587301587301587,-9.126984126984127,48.80952380952381,41.507936507936506,-0.23809523809523808,-1.1904761904761905,-166.26984126984127
102,-325.0,95.0,-23.41269841269841,-5.952380952380952,54.36507936507936,-0.5555555555555556,-19.285714285714285,-16.26984126984127,-12.777777777777777,23.730158730158728,106.26984126984127,-9.285714285714285,-25.317460317460316,25.79365079365079,-25.79365079365079,15.634920634920634,96.74603174603175,0.873015873015873,-8.968253968253968,47.38095238095238,40.39682539682539,-0.5555555555555556,-1.0317460317460316,-166.26984126984127
103,-325.0,95.0,-23.41269841269841,-5.952380952380952,54.36507936507936,-0.5555555555555556,-19.285714285714285,-16.26984126984127,-12.777777777777777,23.730158730158728,106.26984126984127,-9.285714285714285,-25.317460317460316,25.79365079365079,-25.79365079365079,15.634920634920634,96.74603174603175,0.873015873015873,-8.968253968253968,47.38095238095238,40.39682539682539,-0.5555555555555556,-1.0317460317460316,-166.26984126984127
104,-325.0,79.6031746031746,-22.936507936507937,-5.7936507936507935,53.25396825396825,6.904761904761904,-18.80952380952381,-26.746031746031743,-12.142857142857142,23.095238095238095,104.04761904761904,-8.333333333333332,-24.84126984126984,25.0,-25.158730158730158,15.158730158730158,94.52380952380952,8.174603174603174,-8.809523809523808,46.42857142857142,39.44444444444444,0.23809523809523808,-0.3968253968253968,-166.26984126984127
105,-325.0,79.6031746031746,-22.936507936507937,-5.7936507936507935,53.25396825396825,6.904761904761904,-18.80952380952381,-26.746031746031743,-12.142857142857142,23.095238095238095,104.04761904761904,-8.333333333333332,-24.84126984126984,25.0,-25.158730158730158,15.158730158730158,94.52380952380952,8.174603174603174,-8.809523809523808,46.42857142857142,39.44444444444444,0.23809523809523808,-0.3968253968253968,-166.26984126984127
106,-325.0,76.74603174603175,-22.777777777777775,-5.634920634920634,52.93650793650794,6.904761904761904,-18.65079365079365,-24.523809523809522,-11.984126984126984,22.936507936507937,103.73015873015872,-7.698412698412698,-24.68253968253968,25.0,-25.0,15.158730158730158,94.2063492063492,8.174603174603174,-8.492063492063492,46.11111111111111,39.44444444444444,0.3968253968253968,-0.5555555555555556,-166.26984126984127
107,-325.0,76.74603174603175,-22.777777777777775,-5.634920634920634,52.93650793650794,6.904761904761904,-18.65079365079365,-24.523809523809522,-11.984126984126984,22.936507936507937,103.73015873015872,-7.698412698412698,-24.68253968253968,25.0,-25.0,15.158730158730158,94.2063492063492,8.174603174603174,-8.492063492063492,46.11111111111111,39.44444444444444,0.3968253968253968,-0.5555555555555556,-166.26984126984127
108,-325.0,67.06349206349206,-22.3015873015873,-5.476190476190476,51.666666666666664,6.587301587301587,-18.333333333333332,-69.12698412698413,-11.984126984126984,22.46031746031746,101.03174603174602,-8.174603174603174,-24.206349206349206,24.365079365079364,-24.365079365079364,14.84126984126984,91.82539682539682,7.698412698412698,-8.492063492063492,45.15873015873016,38.33333333333333,-0.23809523809523808,-0.7142857142857142,-166.26984126984127
109,-325.0,67.06349206349206,-22.3015873015873,-5.476190476190476,51.666666666666664,6.587301587301587,-18.333333333333332,-69.12698412698413,-11.984126984126984,22.46031746031746,101.03174603174602,-8.174603174603174,-24.206349206349206,24.365079365079364,-24.365079365079364,14.84126984126984,91.82539682539682,7.698412698412698,-8.492063492063492,45.15873015873016,38.33333333333333,-0.23809523809523808,-0.7142857142857142,-166.26984126984127
110,-325.0,57.53968253968254,-21.825396825396822,-5.317460317460317,50.39682539682539,6.428571428571428,-17.857142857142858,-113.73015873015872,-11.825396825396824,21.984126984126984,98.33333333333333,-8.65079365079365,-23.57142857142857,23.730158730158728,-23.730158730158728,14.523809523809524,89.6031746031746,7.3809523809523805,-8.333333333333332,44.2063492063492,37.22222222222222,-0.7142857142857142,-0.873015873015873,-321.8253968253968
111,-325.0,57.53968253968254,-21.825396825396822,-5.317460317460317,50.39682539682539,6.428571428571428,-17.857142857142858,-113.73015873015872,-11.825396825396824,21.984126984126984,98.33333333333333,-8.65079365079365,-23.57142857142857,23.730158730158728,-23.730158730158728,14.523809523809524,89.6031746031746,7.3809523809523805,-8.333333333333332,44.2063492063492,37.22222222222222,-0.7142857142857142,-0.873015873015873,-321.8253968253968
112,-325.0,57.53968253968254,-21.825396825396822,-5.317460317460317,50.39682539682539,6.428571428571428,-17.857142857142858,-113.73015873015872,-11.825396825396824,21.984126984126984,98.33333333333333,-8.65079365079365,-23.57142857142857,23.730158730158728,-23.730158730158728,14.523809523809524,89.6031746031746,7.3809523809523805,-8.333333333333332,44.2063492063492,37.22222222222222,-0.7142857142857142,-0.873015873015873,-321.8253968253968
113,-325.0,57.53968253968254,-21.825396825396822,-5.317460317460317,50.39682539682539,6.428571428571428,-17.857142857142858,-113.73015873015872,-11.825396825396824,21.984126984126984,98.33333333333333,-8.65079365079365,-23.57142857142857,23.730158730158728,-23.730158730158728,14.523809523809524,89.6031746031746,7.3809523809523805,-8.333333333333332,44.2063492063492,37.22222222222222,-0.7142857142857142,-0.873015873015873,-321.8253968253968
114,-190.07936507936506,47.06349206349206,-21.03174603174603,-5.317460317460317,48.49206349206349,0.873015873015873,-17.38095238095238,-135.63492063492063,-11.507936507936508,21.19047619047619,94.52380952380952,0.5555555555555556,-22.619047619047617,22.777777777777775,-23.095238095238095,14.047619047619047,85.79365079365078,1.1904761904761905,143.73015873015873,42.3015873015873,35.63492063492063,-0.7142857142857142,-0.873015873015873,-321.8253968253968
115,-190.07936507936506,47.06349206349206,-21.03174603174603,-5.317460317460317,48.49206349206349,0.873015873015873,-17.38095238095238,-135.63492063492063,-11.507936507936508,21.19047619047619,94.52380952380952,0.5555555555555556,-22.619047619047617,22.777777777777775,-23.095238095238095,14.047619047619047,85.79365079365078,1.1904761904761905,143.73015873015873,42.3015873015873,35.63492063492063,-0.7142857142857142,-0.873015873015873,-321.8253968253968
116,325.0,186.42857142857142,-11.507936507936508,-3.4126984126984126,24.523809523809522,-8.492063492063492,-9.920634920634921,-144.84126984126982,9.603174603174603,-44.52380952380952,48.17460317460317,123.57142857142857,-12.142857142857142,11.666666666666666,-12.936507936507935,7.698412698412698,42.77777777777778,-10.555555555555555,325.0,21.507936507936506,18.174603174603174,-0.7142857142857142,-0.873015873015873,-321.8253968253968
117,325.0,186.42857142857142,-11.507936507936508,-3.4126984126984126,24.523809523809522,-8.492063492063492,-9.920634920634921,-144.84126984126982,9.603174603174603,-44.52380952380952,48.17460317460317,123.57142857142857,-12.142857142857142,11.666666666666666,-12.936507936507935,7.698412698412698,42.77777777777778,-10.555555555555555,325.0,21.507936507936506,18.174603174603174,-0.7142857142857142,-0.873015873015873,-321.8253968253968
118,325.0,186.42857142857142,-11.507936507936508,-3.4126984126984126,24.523809523809522,-8.492063492063492,-9.920634920634921,-144.84126984126982,9.603174603174603,-44.52380952380952,48.17460317460317,123.57142857142857,-12.142857142857142,11.666666666666666,-12.936507936507935,7.698412698412698,42.77777777777778,-10.555555555555555,325.0,21.507936507936506,18.174603174603174,-0.7142857142857142,-0.873015873015873,-321.8253968253968
119,325.0,186.42857142857142,-11.507936507936508,-3.4126984126984126,24.523809523809522,-8.492063492063492,-9.920634920634921,-144.84126984126982,9.603174603174603,-44.52380952380952,48.17460317460317,123.57142857142857,-12.142857142857142,11.666666666666666,-12.936507936507935,7.698412698412698,42.77777777777778,-10.555555555555555,325.0,21.507936507936506,18.174603174603174,-0.7142857142857142,-0.873015873015873,-321.8253968253968
120,325.0,186.42857142857142,-11.507936507936508,-3.4126984126984126,24.523809523809522,-8.492063492063492,-9.920634920634921,-144.84126984126982,9.603174603174603,-44.52380952380952,48.17460317460317,123.57142857142857,-12.142857142857142,11.666666666666666,-12.936507936507935,7.698412698412698,42.77777777777778,-10.555555555555555,325.0,21.507936507936506,18.174603174603174,-0.7142857142857142,-0.873015873015873,-166.26984126984127
121,325.0,186.42857142857142,-11.507936507936508,-3.4126984126984126,24.523809523809522,-8.492063492063492,-9.920634920634921,-144.84126984126982,9.603174603174603,-44.52380952380952,48.17460317460317,123.57142857142857,-12.142857142857142,11.666666666666666,-12.936507936507935,7.698412698412698,42.77777777777778,-10.555555555555555,325.0,21.507936507936506,18.174603174603174,-0.7142857142857142,-0.873015873015873,-166.26984126984127
122,325.0,186.42857142857142,-11.507936507936508,-3.4126984126984126,24.523809523809522,-8.492063492063492,-9.920634920634921,-144.84126984126982,9.603174603174603,-44.52380952380952,48.17460317460317,123.57142857142857,-12.142857142857142,11.666666666666666,-12.936507936507935,7.698412698412698,42.77777777777778,-10.555555555555555,325.0,21.507936507936506,18.174603174603174,-0.7142857142857142,-0.873015873015873,-166.26984126984127
123,325.0,186.42857142857142,-11.507936507936508,-3.4126984126984126,24.523809523809522,-8.492063492063492,-9.920634920634921,-144.84126984126982,9.603174603174603,-44.52380952380952,48.17460317460317,123.57142857142857,-12.142857142857142,11.666666666666666,-12.936507936507935,7.698412698412698,42.77777777777778,-10.555555555555555,325.0,21.507936507936506,18.174603174603174,-0.7142857142857142,-0.873015873015873,-166.26984126984127
124,-66.42857142857143,197.53968253968253,-11.031746031746032,-3.4126984126984126,23.095238095238095,3.73015873015873,-9.444444444444445,-111.98412698412697,22.3015873015873,-37.53968253968254,44.84126984126984,148.96825396825395,-11.349206349206348,10.873015873015872,-12.3015873015873,7.3809523809523805,39.76190476190476,2.3015873015873014,325.0,20.238095238095237,16.746031746031743,-0.07936507936507936,-0.23809523809523808,-166.26984126984127
125,-66.42857142857143,197.53968253968253,-11.031746031746032,-3.4126984126984126,23.095238095238095,3.73015873015873,-9.444444444444445,-111.98412698412697,22.3015873015873,-37.53968253968254,44.84126984126984,148.96825396825395,-11.349206349206348,10.873015873015872,-12.3015873015873,7.3809523809523805,39.76190476190476,2.3015873015873014,325.0,20.238095238095237,16.746031746031743,-0.07936507936507936,-0.23809523809523808,-166.26984126984127
126,108.65079365079364,195.79365079365078,-10.873015873015872,-3.4126984126984126,22.777777777777775,3.4126984126984126,-9.444444444444445,-111.19047619047619,23.253968253968253,-39.44444444444444,44.047619047619044,145.95238095238093,-11.507936507936508,10.396825396825395,-12.142857142857142,7.063492063492063,38.96825396825397,1.984126984126984,325.0,19.92063492063492,16.587301587301585,0.7142857142857142,-0.23809523809523808,-166.26984126984127
127,108.65079365079364,195.79365079365078,-10.873015873015872,-3.4126984126984126,22.777777777777775,3.4126984126984126,-9.444444444444445,-111.19047619047619,23.253968253968253,-39.44444444444444,44.047619047619044,145.95238095238093,-11.507936507936508,10.396825396825395,-12.142857142857142,7.063492063492063,38.96825396825397,1.984126984126984,325.0,19.92063492063492,16.587301587301585,0.7142857142857142,-0.23809523809523808,-166.26984126984127
128,325.0,205.47619047619045,-10.873015873015872,-3.4126984126984126,22.3015873015873,3.571428571428571,-9.285714285714285,-92.61904761904762,10.555555555555555,-26.26984126984127,42.93650793650794,154.36507936507937,-11.19047619047619,10.238095238095237,-11.984126984126984,7.222222222222221,38.01587301587301,1.984126984126984,325.0,19.285714285714285,16.26984126984127,0.5555555555555556,-0.07936507936507936,-166.26984126984127
129,325.0,205.47619047619045,-10.873015873015872,-3.4126984126984126,22.3015873015873,3.571428571428571,-9.285714285714285,-92.61904761904762,10.555555555555555,-26.26984126984127,42.93650793650794,154.36507936507937,-11.19047619047619,10.238095238095237,-11.984126984126984,7.222222222222221,38.01587301587301,1.984126984126984,325.0,19.285714285714285,16.26984126984127,0.5555555555555556,-0.07936507936507936,-166.26984126984127
130,325.0,209.28571428571428,-10.555555555555555,-3.4126984126984126,22.142857142857142,1.1904761904761905,-9.444444444444445,-90.87301587301587,13.253968253968253,-24.206349206349206,42.77777777777778,158.33333333333331,-10.873015873015872,10.238095238095237,-11.984126984126984,7.3809523809523805,37.857142857142854,-0.23809523809523808,325.0,19.444444444444443,16.26984126984127,0.3968253968253968,0.23809523809523808,-321.8253968253968
131,325.0,209.28571428571428,-10.555555555555555,-3.4126984126984126,22.142857142857142,1.1904761904761905,-9.444444444444445,-90.87301587301587,13.253968253968253,-24.206349206349206,42.77777777777778,158.33333333333331,-10.873015873015872,10.238095238095237,-11.984126984126984,7.3809523809523805,37.857142857142854,-0.23809523809523808,325.0,19.444444444444443,16.26984126984127,0.3968253968253968,0.23809523809523808,-321.8253968253968
132,325.0,206.1111111111111,-10.396825396825395,-3.4126984126984126,21.666666666666664,1.0317460317460316,-9.285714285714285,-100.71428571428571,35.476190476190474,-32.61904761904762,41.98412698412698,153.73015873015873,-10.873015873015872,10.079365079365079,-11.825396825396824,7.063492063492063,37.22222222222222,-0.5555555555555556,325.0,18.96825396825397,15.95238095238095,0.23809523809523808,-0.3968253968253968,-321.8253968253968
133,325.0,206.1111111111111,-10.396825396825395,-3.4126984126984126,21.666666666666664,1.0317460317460316,-9.285714285714285,-100.71428571428571,35.476190476190474,-32.61904761904762,41.98412698412698,153.73015873015873,-10.873015873015872,10.079365079365079,-11.825396825396824,7.063492063492063,37.22222222222222,-0.5555555555555556,325.0,18.96825396825397,15.95238095238095,0.23809523809523808,-0.3968253968253968,-321.8253968253968
134,325.0,185.0,-10.238095238095237,-3.253968253968254,21.03174603174603,-1.8253968253968254,-8.809523809523808,-120.39682539682539,28.96825396825397,-49.44444444444444,40.87301587301587,133.57142857142856,-10.714285714285714,9.603174603174603,-11.507936507936508,6.904761904761904,36.11111111111111,-3.4126984126984126,325.0,18.65079365079365,15.317460317460316,0.23809523809523808,-0.7142857142857142,-321.8253968253968
135,325.0,185.0,-10.238095238095237,-3.253968253968254,21.03174603174603,-1.8253968253968254,-8.809523809523808,-120.39682539682539,28.96825396825397,-49.44444444444444,40.87301587301587,133.57142857142856,-10.714285714285714,9.603174603174603,-11.507936507936508,6.904761904761904,36.11111111111111,-3.4126984126984126,325.0,18.65079365079365,15.317460317460316,0.23809523809523808,-0.7142857142857142,-321.8253968253968
136,325.0,210.7142857142857,-10.238095238095237,-3.253968253968254,20.71428571428571,-9.126984126984127,-8.492063492063492,-97.6984126984127,30.87301587301587,-22.46031746031746,40.079365079365076,162.61904761904762,-10.396825396825395,9.603174603174603,-11.349206349206348,5.476190476190476,35.476190476190474,-10.555555555555555,325.0,18.174603174603174,15.158730158730158,-0.873015873015873,-0.5555555555555556,-321.8253968253968
137,325.0,210.7142857142857,-10.238095238095237,-3.253968253968254,20.71428571428571,-9.126984126984127,-8.492063492063492,-97.6984126984127,30.87301587301587,-22.46031746031746,40.079365079365076,162.61904761904762,-10.396825396825395,9.603174603174603,-11.349206349206348,5.476190476190476,35.476190476190474,-10.555555555555555,325.0,18.174603174603174,15.158730158730158,-0.873015873015873,-0.5555555555555556,-321.8253968253968
138,325.0,204.2063492063492,-9.920634920634921,-3.253968253968254,20.396825396825395,1.507936507936508,-8.65079365079365,-109.92063492063491,27.698412698412696,18.174603174603174,39.44444444444444,160.23809523809524,-10.238095238095237,9.444444444444445,-11.19047619047619,5.952380952380952,35.0,0.23809523809523808,325.0,18.015873015873016,14.84126984126984,-1.0317460317460316,-1.349206349206349,-321.8253968253968
139,325.0,204.2063492063492,-9.920634920634921,-3.253968253968254,20.396825396825395,1.507936507936508,-8.65079365079365,-109.92063492063491,27.698412698412696,18.174603174603174,39.44444444444444,160.23809523809524,-10.238095238095237,9.444444444444445,-11.19047619047619,5.952380952380952,35.0,0.23809523809523808,325.0,18.015873015873016,14.84126984126984,-1.0317460317460316,-1.349206349206349,-321.8253968253968
140,325.0,202.3015873015873,-9.920634920634921,-3.253968253968254,20.238095238095237,7.222222222222221,-8.65079365079365,-112.30158730158729,46.11111111111111,23.095238095238095,38.80952380952381,158.17460317460316,-10.238095238095237,9.285714285714285,-11.031746031746032,6.587301587301587,34.36507936507936,5.7936507936507935,325.0,17.698412698412696,14.523809523809524,-0.23809523809523808,-0.5555555555555556,-166.26984126984127
141,325.0,202.3015873015873,-9.920634920634921,-3.253968253968254,20.238095238095237,7.222222222222221,-8.65079365079365,-112.30158730158729,46.11111111111111,23.095238095238095,38.80952380952381,158.17460317460316,-10.238095238095237,9.285714285714285,-11.031746031746032,6.587301587301587,34.36507936507936,5.7936507936507935,325.0,17.698412698412696,14.523809523809524,-0.23809523809523808,-0.5555555555555556,-166.26984126984127
142,213.4126984126984,200.23809523809524,-9.761904761904761,-3.095238095238095,19.6031746031746,2.142857142857143,-8.333333333333332,-103.88888888888889,46.11111111111111,22.142857142857142,38.17460317460317,155.47619047619048,-9.920634920634921,9.126984126984127,-11.031746031746032,6.428571428571428,33.73015873015873,0.5555555555555556,325.0,17.38095238095238,14.365079365079364,0.7142857142857142,-0.23809523809523808,-166.26984126984127
143,213.4126984126984,200.23809523809524,-9.761904761904761,-3.095238095238095,19.6031746031746,2.142857142857143,-8.333333333333332,-103.88888888888889,46.11111111111111,22.142857142857142,38.17460317460317,155.47619047619048,-9.920634920634921,9.126984126984127,-11.031746031746032,6.428571428571428,33.73015873015873,0.5555555555555556,325.0,17.38095238095238,14.365079365079364,0.7142857142857142,-0.23809523809523808,-166.26984126984127
144,325.0,199.28571428571428,-9.761904761904761,-3.253968253968254,19.444444444444443,-0.7142857142857142,-8.333333333333332,-110.07936507936508,41.19047619047619,21.666666666666664,37.53968253968254,163.09523809523807,-9.603174603174603,8.968253968253968,-10.873015873015872,6.428571428571428,33.25396825396825,-2.142857142857143,325.0,17.063492063492063,14.047619047619047,0.23809523809523808,0.07936507936507936,-166.26984126984127
145,325.0,199.28571428571428,-9.761904761904761,-3.253968253968254,19.444444444444443,-0.7142857142857142,-8.333333333333332,-110.07936507936508,41.19047619047619,21.666666666666664,37.53968253968254,163.09523809523807,-9.603174603174603,8.968253968253968,-10.873015873015872,6.428571428571428,33.25396825396825,-2.142857142857143,325.0,17.063492063492063,14.047619047619047,0.23809523809523808,0.07936507936507936,-166.26984126984127
146,325.0,199.44444444444443,-9.444444444444445,-3.095238095238095,19.126984126984127,5.952380952380952,-8.333333333333332,-100.39682539682539,52.93650793650794,21.19047619047619,36.904761904761905,172.3015873015873,-9.603174603174603,8.809523809523808,-10.714285714285714,6.26984126984127,32.61904761904762,4.841269841269841,325.0,16.904761904761905,13.888888888888888,0.07936507936507936,-0.07936507936507936,-166.26984126984127
147,325.0,199.44444444444443,-9.444444444444445,-3.095238095238095,19.126984126984127,5.952380952380952,-8.333333333333332,-100.39682539682539,52.93650793650794,21.19047619047619,36.904761904761905,172.3015873015873,-9.603174603174603,8.809523809523808,-10.714285714285714,6.26984126984127,32.61904761904762,4.841269841269841,325.0,16.904761904761905,13.888888888888888,0.07936507936507936,-0.07936507936507936,-166.26984126984127
148,325.0,186.9047619047619,-9.285714285714285,-3.253968253968254,18.96825396825397,7.5396825396825395,-8.333333333333332,-97.53968253968253,46.42857142857142,20.873015873015873,36.58730158730159,161.03174603174602,-9.603174603174603,8.809523809523808,-10.555555555555555,6.26984126984127,32.14285714285714,6.587301587301587,325.0,16.587301587301585,13.888888888888888,-0.3968253968253968,-0.07936507936507936,-166.26984126984127
149,325.0,186.9047619047619,-9.285714285714285,-3.253968253968254,18.96825396825397,7.5396825396825395,-8.333333333333332,-97.53968253968253,46.42857142857142,20.873015873015873,36.58730158730159,161.03174603174602,-9.603174603174603,8.809523809523808,-10.555555555555555,6.26984126984127,32.14285714285714,6.587301587301587,325.0,16.587301587301585,13.888888888888888,-0.3968253968253968,-0.07936507936507936,-166.26984126984127
150,325.0,183.4126984126984,-9.285714285714285,-3.095238095238095,18.49206349206349,0.7142857142857142,-8.015873015873016,-74.84126984126983,54.36507936507936,20.238095238095237,35.79365079365079,167.53968253968253,-9.285714285714285,8.65079365079365,-10.555555555555555,6.111111111111111,31.507936507936506,-0.7142857142857142,325.0,16.26984126984127,13.412698412698411,0.3968253968253968,0.3968253968253968,-321.8253968253968
151,325.0,183.4126984126984,-9.285714285714285,-3.095238095238095,18.49206349206349,0.7142857142857142,-8.015873015873016,-74.84126984126983,54.36507936507936,20.238095238095237,35.79365079365079,167.53968253968253,-9.285714285714285,8.65079365079365,-10.555555555555555,6.111111111111111,31.507936507936506,-0.7142857142857142,325.0,16.26984126984127,13.412698412698411,0.3968253968253968,0.3968253968253968,-321.8253968253968
152,296.90476190476187,180.55555555555554,-9.126984126984127,-3.095238095238095,18.174603174603174,2.46031746031746,-8.015873015873016,-52.77777777777777,43.095238095238095,20.07936507936508,35.0,173.25396825396825,-9.285714285714285,8.65079365079365,-10.238095238095237,6.111111111111111,30.87301587301587,1.349206349206349,325.0,15.95238095238095,13.253968253968253,0.23809523809523808,-0.23809523809523808,-321.8253968253968
153,296.90476190476187,180.55555555555554,-9.126984126984127,-3.095238095238095,18.174603174603174,2.46031746031746,-8.015873015873016,-52.77777777777777,43.095238095238095,20.07936507936508,35.0,173.25396825396825,-9.285714285714285,8.65079365079365,-10.238095238095237,6.111111111111111,30.87301587301587,1.349206349206349,325.0,15.95238095238095,13.253968253968253,0.23809523809523808,-0.23809523809523808,-321.8253968253968
154,325.0,152.14285714285714,-8.968253968253968,-2.9365079365079363,18.015873015873016,3.095238095238095,-7.857142857142857,-69.6031746031746,29.6031746031746,19.444444444444443,34.52380952380952,148.65079365079364,-9.126984126984127,8.174603174603174,-10.238095238095237,5.952380952380952,30.396825396825395,1.6666666666666665,325.0,15.793650793650793,13.095238095238095,-0.23809523809523808,-0.23809523809523808,-321.8253968253968
155,325.0,152.14285714285714,-8.968253968253968,-2.9365079365079363,18.015873015873016,3.095238095238095,-7.857142857142857,-69.6031746031746,29.6031746031746,19.444444444444443,34.52380952380952,148.65079365079364,-9.126984126984127,8.174603174603174,-10.238095238095237,5.952380952380952,30.396825396825395,1.6666666666666665,325.0,15.793650793650793,13.095238095238095,-0.23809523809523808,-0.23809523809523808,-321.8253968253968
156,325.0,148.65079365079364,-8.968253968253968,-3.095238095238095,17.698412698412696,4.523809523809524,-7.698412698412698,-66.42857142857143,28.49206349206349,19.285714285714285,34.2063492063492,146.42857142857142,-8.968253968253968,8.174603174603174,-9.920634920634921,5.7936507936507935,30.07936507936508,3.571428571428571,325.0,15.634920634920634,12.777777777777777,-0.23809523809523808,-0.5555555555555556,-321.8253968253968
157,325.0,148.65079365079364,-8.968253968253968,-3.095238095238095,17.698412698412696,4.523809523809524,-7.698412698412698,-66.42857142857143,28.49206349206349,19.285714285714285,34.2063492063492,146.42857142857142,-8.968253968253968,8.174603174603174,-9.920634920634921,5.7936507936507935,30.07936507936508,3.571428571428571,325.0,15.634920634920634,12.777777777777777,-0.23809523809523808,-0.5555555555555556,-321.8253968253968
158,30.07936507936508,177.85714285714286,-8.809523809523808,-2.7777777777777777,17.38095238095238,5.952380952380952,-7.698412698412698,-42.14285714285714,39.285714285714285,18.80952380952381,33.41269841269841,172.61904761904762,-8.809523809523808,8.015873015873016,-9.761904761904761,5.634920634920634,29.6031746031746,4.682539682539682,325.0,15.158730158730158,12.619047619047619,1.0317460317460316,-0.5555555555555556,-321.8253968253968
159,30.07936507936508,177.85714285714286,-8.809523809523808,-2.7777777777777777,17.38095238095238,5.952380952380952,-7.698412698412698,-42.14285714285714,39.285714285714285,18.80952380952381,33.41269841269841,172.61904761904762,-8.809523809523808,8.015873015873016,-9.761904761904761,5.634920634920634,29.6031746031746,4.682539682539682,325.0,15.158730158730158,12.619047619047619,1.0317460317460316,-0.5555555555555556,-321.8253968253968
160,-325.0,169.28571428571428,-8.492063492063492,-2.7777777777777777,17.063492063492063,2.7777777777777777,-7.5396825396825395,-48.17460317460317,37.06349206349206,18.65079365079365,32.93650793650794,169.28571428571428,-8.492063492063492,8.015873015873016,-9.603174603174603,5.952380952380952,28.96825396825397,1.507936507936508,325.0,15.158730158730158,12.619047619047619,0.873015873015873,0.07936507936507936,-166.26984126984127
161,-325.0,169.28571428571428,-8.492063492063492,-2.7777777777777777,17.063492063492063,2.7777777777777777,-7.5396825396825395,-48.17460317460317,37.06349206349206,18.65079365079365,32.93650793650794,169.28571428571428,-8.492063492063492,8.015873015873016,-9.603174603174603,5.952380952380952,28.96825396825397,1.507936507936508,325.0,15.158730158730158,12.619047619047619,0.873015873015873,0.07936507936507936,-166.26984126984127
162,-325.0,152.46031746031744,-8.492063492063492,-2.7777777777777777,16.904761904761905,-1.349206349206349,-7.3809523809523805,-55.0,36.58730158730159,18.333333333333332,32.460317460317455,156.74603174603175,-8.492063492063492,7.857142857142857,-9.603174603174603,5.7936507936507935,28.49206349206349,-2.46031746031746,325.0,15.0,12.3015873015873,0.5555555555555556,-0.5555555555555556,-166.26984126984127
163,-325.0,152.46031746031744,-8.492063492063492,-2.7777777777777777,16.904761904761905,-1.349206349206349,-7.3809523809523805,-55.0,36.58730158730159,18.333333333333332,32.460317460317455,156.74603174603175,-8.492063492063492,7.857142857142857,-9.603174603174603,5.7936507936507935,28.49206349206349,-2.46031746031746,325.0,15.0,12.3015873015873,0.5555555555555556,-0.5555555555555556,-166.26984126984127
164,-0.07936507936507936,130.87301587301587,-8.492063492063492,-2.9365079365079363,16.587301587301585,-3.571428571428571,-7.222222222222221,-59.44444444444444,38.01587301587301,12.619047619047619,31.825396825396822,141.984126984127,-8.492063492063492,7.698412698412698,-9.444444444444445,5.476190476190476,28.015873015873016,-4.523809523809524,325.0,14.682539682539682,11.984126984126984,-0.5555555555555556,-1.0317460317460316,-166.26984126984127
165,-0.07936507936507936,130.87301587301587,-8.492063492063492,-2.9365079365079363,16.587301587301585,-3.571428571428571,-7.222222222222221,-59.44444444444444,38.01587301587301,12.619047619047619,31.825396825396822,141.984126984127,-8.492063492063492,7.698412698412698,-9.444444444444445,5.476190476190476,28.015873015873016,-4.523809523809524,325.0,14.682539682539682,11.984126984126984,-0.5555555555555556,-1.0317460317460316,-166.26984126984127
166,325.0,130.55555555555554,-8.174603174603174,-3.095238095238095,16.26984126984127,2.619047619047619,-7.222222222222221,-45.317460317460316,41.666666666666664,-4.2063492063492065,31.349206349206348,142.14285714285714,-8.333333333333332,7.5396825396825395,-9.285714285714285,5.476190476190476,27.698412698412696,1.6666666666666665,325.0,14.206349206349206,11.825396825396824,-0.3968253968253968,-0.23809523809523808,-166.26984126984127
167,325.0,130.55555555555554,-8.174603174603174,-3.095238095238095,16.26984126984127,2.619047619047619,-7.222222222222221,-45.317460317460316,41.666666666666664,-4.2063492063492065,31.349206349206348,142.14285714285714,-8.333333333333332,7.5396825396825395,-9.285714285714285,5.476190476190476,27.698412698412696,1.6666666666666665,325.0,14.206349206349206,11.825396825396824,-0.3968253968253968,-0.23809523809523808,-166.26984126984127
168,325.0,148.65079365079364,-8.333333333333332,-2.7777777777777777,15.95238095238095,8.174603174603174,-7.222222222222221,-9.920634920634921,37.06349206349206,0.23809523809523808,30.87301587301587,155.63492063492063,-8.174603174603174,7.3809523809523805,-9.285714285714285,5.634920634920634,27.063492063492063,7.222222222222221,325.0,14.206349206349206,11.825396825396824,0.07936507936507936,-0.23809523809523808,-166.26984126984127
169,325.0,148.65079365079364,-8.333333333333332,-2.7777777777777777,15.95238095238095,8.174603174603174,-7.222222222222221,-9.920634920634921,37.06349206349206,0.23809523809523808,30.87301587301587,155.63492063492063,-8.174603174603174,7.3809523809523805,-9.285714285714285,5.634920634920634,27.063492063492063,7.222222222222221,325.0,14.206349206349206,11.825396825396824,0.07936507936507936,-0.23809523809523808,-166.26984126984127
170,325.0,126.9047619047619,-8.333333333333332,-2.7777777777777777,15.793650793650793,5.634920634920634,-7.063492063492063,-23.57142857142857,22.777777777777775,-26.428571428571427,30.07936507936508,136.74603174603175,-8.015873015873016,7.222222222222221,-9.285714285714285,5.317460317460317,26.587301587301585,4.841269841269841,325.0,13.095238095238095,11.349206349206348,0.5555555555555556,-0.7142857142857142,-321.8253968253968
171,325.0,126.9047619047619,-8.333333333333332,-2.7777777777777777,15.793650793650793,5.634920634920634,-7.063492063492063,-23.57142857142857,22.777777777777775,-26.428571428571427,30.07936507936508,136.74603174603175,-8.015873015873016,7.222222222222221,-9.285714285714285,5.317460317460317,26.587301587301585,4.841269841269841,325.0,13.095238095238095,11.349206349206348,0.5555555555555556,-0.7142857142857142,-321.8253968253968
172,325.0,131.19047619047618,-8.015873015873016,-2.7777777777777777,15.158730158730158,4.523809523809524,-7.063492063492063,-19.444444444444443,25.476190476190474,-28.333333333333332,29.444444444444443,137.22222222222223,-8.015873015873016,7.063492063492063,-8.968253968253968,5.158730158730158,25.952380952380953,3.73015873015873,325.0,11.825396825396824,11.19047619047619,0.23809523809523808,-0.5555555555555556,-321.8253968253968
173,325.0,131.19047619047618,-8.015873015873016,-2.7777777777777777,15.158730158730158,4.523809523809524,-7.063492063492063,-19.444444444444443,25.476190476190474,-28.333333333333332,29.444444444444443,137.22222222222223,-8.015873015873016,7.063492063492063,-8.968253968253968,5.158730158730158,25.952380952380953,3.73015873015873,325.0,11.825396825396824,11.19047619047619,0.23809523809523808,-0.5555555555555556,-321.8253968253968
174,263.88888888888886,127.53968253968253,-7.857142857142857,-2.7777777777777777,15.158730158730158,5.7936507936507935,-6.904761904761904,-19.76190476190476,26.428571428571427,-29.76190476190476,28.96825396825397,136.58730158730157,-7.857142857142857,6.904761904761904,-8.809523809523808,5.158730158730158,25.634920634920633,5.0,325.0,12.619047619047619,11.031746031746032,0.23809523809523808,-0.23809523809523808,-321.8253968253968
175,263.88888888888886,127.53968253968253,-7.857142857142857,-2.7777777777777777,15.158730158730158,5.7936507936507935,-6.904761904761904,-19.76190476190476,26.428571428571427,-29.76190476190476,28.96825396825397,136.58730158730157,-7.857142857142857,6.904761904761904,-8.809523809523808,5.158730158730158,25.634920634920633,5.0,325.0,12.619047619047619,11.031746031746032,0.23809523809523808,-0.23809523809523808,-321.8253968253968
176,216.58730158730157,127.06349206349206,-7.857142857142857,-2.619047619047619,14.84126984126984,2.619047619047619,-6.904761904761904,-20.396825396825395,33.25396825396825,-29.6031746031746,28.49206349206349,134.36507936507937,-7.857142857142857,6.904761904761904,-8.65079365079365,5.158730158730158,25.0,1.8253968253968254,325.0,9.285714285714285,10.714285714285714,-0.23809523809523808,-0.23809523809523808,-321.8253968253968
177,216.58730158730157,127.06349206349206,-7.857142857142857,-2.619047619047619,14.84126984126984,2.619047619047619,-6.904761904761904,-20.396825396825395,33.25396825396825,-29.6031746031746,28.49206349206349,134.36507936507937,-7.857142857142857,6.904761904761904,-8.65079365079365,5.158730158730158,25.0,1.8253968253968254,325.0,9.285714285714285,10.714285714285714,-0.23809523809523808,-0.23809523809523808,-321.8253968253968
178,156.9047619047619,127.38095238095238,-7.698412698412698,-2.619047619047619,14.523809523809524,-2.3015873015873014,-6.746031746031746,-25.158730158730158,49.285714285714285,-27.063492063492063,28.174603174603174,137.69841269841268,-7.5396825396825395,6.904761904761904,-8.65079365079365,5.0,24.523809523809522,-3.095238095238095,325.0,8.809523809523808,10.714285714285714,-0.3968253968253968,-0.3968253968253968,-321.8253968253968
179,156.9047619047619,127.38095238095238,-7.698412698412698,-2.619047619047619,14.523809523809524,-2.3015873015873014,-6.746031746031746,-25.158730158730158,49.285714285714285,-27.063492063492063,28.174603174603174,137.69841269841268,-7.5396825396825395,6.904761904761904,-8.65079365079365,5.0,24.523809523809522,-3.095238095238095,325.0,8.809523809523808,10.714285714285714,-0.3968253968253968,-0.3968253968253968,-321.8253968253968
180,52.460317460317455,127.22222222222221,-7.5396825396825395,-2.7777777777777777,14.523809523809524,-2.142857142857143,-6.904761904761904,-25.634920634920633,55.0,-27.539682539682538,28.174603174603174,138.33333333333331,-7.5396825396825395,6.904761904761904,-8.492063492063492,5.0,24.206349206349206,-2.7777777777777777,325.0,7.857142857142857,10.873015873015872,0.07936507936507936,0.07936507936507936,-166.26984126984127
181,52.460317460317455,127.22222222222221,-7.5396825396825395,-2.7777777777777777,14.523809523809524,-2.142857142857143,-6.904761904761904,-25.634920634920633,55.0,-27.539682539682538,28.174603174603174,138.33333333333331,-7.5396825396825395,6.904761904761904,-8.492063492063492,5.0,24.206349206349206,-2.7777777777777777,325.0,7.857142857142857,10.873015873015872,0.07936507936507936,0.07936507936507936,-166.26984126984127
182,19.76190476190476,114.2063492063492,-7.5396825396825395,-2.619047619047619,14.206349206349206,0.873015873015873,-6.746031746031746,-28.49206349206349,61.19047619047619,-29.444444444444443,27.539682539682538,124.36507936507935,-7.3809523809523805,6.746031746031746,-8.492063492063492,5.0,23.88888888888889,0.07936507936507936,325.0,8.174603174603174,10.555555555555555,0.23809523809523808,0.07936507936507936,-166.26984126984127
183,19.76190476190476,114.2063492063492,-7.5396825396825395,-2.619047619047619,14.206349206349206,0.873015873015873,-6.746031746031746,-28.49206349206349,61.19047619047619,-29.444444444444443,27.539682539682538,124.36507936507935,-7.3809523809523805,6.746031746031746,-8.492063492063492,5.0,23.88888888888889,0.07936507936507936,325.0,8.174603174603174,10.555555555555555,0.23809523809523808,0.07936507936507936,-166.26984126984127
184,-250.87301587301585,111.34920634920634,-7.3809523809523805,4.682539682539682,14.047619047619047,1.6666666666666665,-6.428571428571428,-23.41269841269841,67.85714285714285,-26.11111111111111,26.746031746031743,118.01587301587301,-7.063492063492063,6.428571428571428,-8.333333333333332,5.0,23.57142857142857,0.873015873015873,325.0,7.3809523809523805,10.238095238095237,0.07936507936507936,0.07936507936507936,-166.26984126984127
185,-250.87301587301585,111.34920634920634,-7.3809523809523805,4.682539682539682,14.047619047619047,1.6666666666666665,-6.428571428571428,-23.41269841269841,67.85714285714285,-26.11111111111111,26.746031746031743,118.01587301587301,-7.063492063492063,6.428571428571428,-8.333333333333332,5.0,23.57142857142857,0.873015873015873,325.0,7.3809523809523805,10.238095238095237,0.07936507936507936,0.07936507936507936,-166.26984126984127
186,-250.87301587301585,111.34920634920634,-7.3809523809523805,4.682539682539682,14.047619047619047,1.6666666666666665,-6.428571428571428,-23.41269841269841,67.85714285714285,-26.11111111111111,26.746031746031743,118.01587301587301,-7.063492063492063,6.428571428571428,-8.333333333333332,5.0,23.57142857142857,0.873015873015873,325.0,7.3809523809523805,10.238095238095237,0.07936507936507936,0.07936507936507936,-166.26984126984127
187,-250.87301587301585,111.34920634920634,-7.3809523809523805,4.682539682539682,14.047619047619047,1.6666666666666665,-6.428571428571428,-23.41269841269841,67.85714285714285,-26.11111111111111,26.746031746031743,118.01587301587301,-7.063492063492063,6.428571428571428,-8.333333333333332,5.0,23.57142857142857,0.873015873015873,325.0,7.3809523809523805,10.238095238095237,0.07936507936507936,0.07936507936507936,-166.26984126984127
188,-261.3492063492063,109.28571428571428,-6.904761904761904,-2.9365079365079363,13.571428571428571,-3.253968253968254,-6.428571428571428,-51.98412698412698,72.61904761904762,-31.349206349206348,25.952380952380953,111.03174603174602,-7.063492063492063,6.428571428571428,-8.015873015873016,4.841269841269841,22.619047619047617,-3.4126984126984126,325.0,5.634920634920634,9.761904761904761,-0.23809523809523808,-0.873015873015873,-166.26984126984127
189,-261.3492063492063,109.28571428571428,-6.904761904761904,-2.9365079365079363,13.571428571428571,-3.253968253968254,-6.428571428571428,-51.98412698412698,72.61904761904762,-31.349206349206348,25.952380952380953,111.03174603174602,-7.063492063492063,6.428571428571428,-8.015873015873016,4.841269841269841,22.619047619047617,-3.4126984126984126,325.0,5.634920634920634,9.761904761904761,-0.23809523809523808,-0.873015873015873,-166.26984126984127
190,325.0,87.53968253968253,-7.063492063492063,-2.619047619047619,13.253968253968253,-0.7142857142857142,-6.26984126984127,-60.079365079365076,93.25396825396825,-37.22222222222222,25.317460317460316,97.22222222222221,-6.904761904761904,6.26984126984127,-7.857142857142857,4.682539682539682,22.142857142857142,-1.349206349206349,320.07936507936506,7.5396825396825395,9.761904761904761,-0.5555555555555556,-0.5555555555555556,-321.8253968253968
191,325.0,87.53968253968253,-7.063492063492063,-2.619047619047619,13.253968253968253,-0.7142857142857142,-6.26984126984127,-60.079365079365076,93.25396825396825,-37.22222222222222,25.317460317460316,97.22222222222221,-6.904761904761904,6.26984126984127,-7.857142857142857,4.682539682539682,22.142857142857142,-1.349206349206349,320.07936507936506,7.5396825396825395,9.761904761904761,-0.5555555555555556,-0.5555555555555556,-321.8253968253968
192,325.0,87.85714285714285,-6.904761904761904,10.873015873015872,12.936507936507935,1.8253968253968254,-6.26984126984127,-48.01587301587301,120.39682539682539,-32.460317460317455,24.84126984126984,95.95238095238095,-6.904761904761904,6.26984126984127,-7.857142857142857,4.523809523809524,21.666666666666664,1.349206349206349,312.3015873015873,7.063492063492063,9.444444444444445,-0.23809523809523808,-0.873015873015873,-321.8253968253968
193,325.0,87.85714285714285,-6.904761904761904,10.873015873015872,12.936507936507935,1.8253968253968254,-6.26984126984127,-48.01587301587301,120.39682539682539,-32.460317460317455,24.84126984126984,95.95238095238095,-6.904761904761904,6.26984126984127,-7.857142857142857,4.523809523809524,21.666666666666664,1.349206349206349,312.3015873015873,7.063492063492063,9.444444444444445,-0.23809523809523808,-0.873015873015873,-321.8253968253968
194,325.0,87.85714285714285,-6.904761904761904,18.49206349206349,12.777777777777777,4.523809523809524,-6.26984126984127,-40.39682539682539,138.8095238095238,-30.87301587301587,24.523809523809522,98.17460317460316,-6.904761904761904,5.7936507936507935,-7.698412698412698,4.523809523809524,21.507936507936506,4.523809523809524,308.17460317460313,7.063492063492063,9.285714285714285,0.3968253968253968,-1.349206349206349,-321.8253968253968
195,325.0,87.85714285714285,-6.904761904761904,18.49206349206349,12.777777777777777,4.523809523809524,-6.26984126984127,-40.39682539682539,138.8095238095238,-30.87301587301587,24.523809523809522,98.17460317460316,-6.904761904761904,5.7936507936507935,-7.698412698412698,4.523809523809524,21.507936507936506,4.523809523809524,308.17460317460313,7.063492063492063,9.285714285714285,0.3968253968253968,-1.349206349206349,-321.8253968253968
196,325.0,74.2063492063492,-6.904761904761904,51.34920634920635,12.46031746031746,8.015873015873016,-5.952380952380952,-56.74603174603174,135.63492063492063,-52.14285714285714,23.88888888888889,85.0,-6.746031746031746,5.952380952380952,-7.857142857142857,4.523809523809524,21.03174603174603,7.5396825396825395,301.984126984127,1.984126984126984,8.65079365079365,1.507936507936508,-0.5555555555555556,-321.8253968253968
197,325.0,74.2063492063492,-6.904761904761904,51.34920634920635,12.46031746031746,8.015873015873016,-5.952380952380952,-56.74603174603174,135.63492063492063,-52.14285714285714,23.88888888888889,85.0,-6.746031746031746,5.952380952380952,-7.857142857142857,4.523809523809524,21.03174603174603,7.5396825396825395,301.984126984127,1.984126984126984,8.65079365079365,1.507936507936508,-0.5555555555555556,-321.8253968253968
198,325.0,81.98412698412697,-6.904761904761904,251.34920634920633,12.3015873015873,2.142857142857143,-6.111111111111111,-42.460317460317455,136.26984126984127,-37.38095238095238,23.57142857142857,92.77777777777777,-6.587301587301587,5.7936507936507935,-7.698412698412698,4.523809523809524,20.555555555555554,2.142857142857143,297.06349206349205,1.6666666666666665,8.968253968253968,0.07936507936507936,0.07936507936507936,-321.8253968253968
199,325.0,81.98412698412697,-6.904761904761904,251.34920634920633,12.3015873015873,2.142857142857143,-6.111111111111111,-42.460317460317455,136.26984126984127,-37.38095238095238,23.57142857142857,92.77777777777777,-6.587301587301587,5.7936507936507935,-7.698412698412698,4.523809523809524,20.555555555555554,2.142857142857143,297.06349206349205,1.6666666666666665,8.968253968253968,0.07936507936507936,0.07936507936507936,-321.8253968253968
200,325.0,65.15873015873015,-6.746031746031746,185.3174603174603,12.142857142857142,1.507936507936508,-6.111111111111111,-43.095238095238095,144.52380952380952,-35.63492063492063,23.41269841269841,78.4920634920635,-6.587301587301587,5.7936507936507935,-7.5396825396825395,4.523809523809524,20.07936507936508,0.873015873015873,293.57142857142856,-15.158730158730158,5.952380952380952,0.23809523809523808,-0.873015873015873,-166.26984126984127
201,325.0,65.15873015873015,-6.746031746031746,185.3174603174603,12.142857142857142,1.507936507936508,-6.111111111111111,-43.095238095238095,144.52380952380952,-35.63492063492063,23.41269841269841,78.4920634920635,-6.587301587301587,5.7936507936507935,-7.5396825396825395,4.523809523809524,20.07936507936508,0.873015873015873,293.57142857142856,-15.158730158730158,5.952380952380952,0.23809523809523808,-0.873015873015873,-166.26984126984127
202,325.0,65.15873015873015,-6.746031746031746,185.3174603174603,12.142857142857142,1.507936507936508,-6.111111111111111,-43.095238095238095,144.52380952380952,-35.63492063492063,23.41269841269841,78.4920634920635,-6.587301587301587,5.7936507936507935,-7.5396825396825395,4.523809523809524,20.07936507936508,0.873015873015873,293.57142857142856,-15.158730158730158,5.952380952380952,0.23809523809523808,-0.873015873015873,-166.26984126984127
203,325.0,65.15873015873015,-6.746031746031746,185.3174603174603,12.142857142857142,1.507936507936508,-6.111111111111111,-43.095238095238095,144.52380952380952,-35.63492063492063,23.41269841269841,78.4920634920635,-6.587301587301587,5.7936507936507935,-7.5396825396825395,4.523809523809524,20.07936507936508,0.873015873015873,293.57142857142856,-15.158730158730158,5.952380952380952,0.23809523809523808,-0.873015873015873,-166.26984126984127
204,325.0,65.15873015873015,-6.746031746031746,185.3174603174603,12.142857142857142,1.507936507936508,-6.111111111111111,-43.095238095238095,144.52380952380952,-35.63492063492063,23.41269841269841,78.4920634920635,-6.587301587301587,5.7936507936507935,-7.5396825396825395,4.523809523809524,20.07936507936508,0.873015873015873,293.57142857142856,-15.158730158730158,5.952380952380952,0.23809523809523808,-0.873015873015873,-166.26984126984127
205,325.0,65.15873015873015,-6.746031746031746,185.3174603174603,12.142857142857142,1.507936507936508,-6.111111111111111,-43.095238095238095,144.52380952380952,-35.63492063492063,23.41269841269841,78.4920634920635,-6.587301587301587,5.7936507936507935,-7.5396825396825395,4.523809523809524,20.07936507936508,0.873015873015873,293.57142857142856,-15.158730158730158,5.952380952380952,0.23809523809523808,-0.873015873015873,-166.26984126984127
206,325.0,35.63492063492063,-6.428571428571428,-12.619047619047619,11.507936507936508,1.507936507936508,-5.7936507936507935,-114.36507936507935,92.61904761904762,29.920634920634917,22.142857142857142,75.0,-6.26984126984127,5.317460317460317,-7.222222222222221,-25.952380952380953,19.126984126984127,1.6666666666666665,278.015873015873,-6.26984126984127,6.587301587301587,-0.7142857142857142,-1.1904761904761905,-166.26984126984127
207,325.0,35.63492063492063,-6.428571428571428,-12.619047619047619,11.507936507936508,1.507936507936508,-5.7936507936507935,-114.36507936507935,92.61904761904762,29.920634920634917,22.142857142857142,75.0,-6.26984126984127,5.317460317460317,-7.222222222222221,-25.952380952380953,19.126984126984127,1.6666666666666665,278.015873015873,-6.26984126984127,6.587301587301587,-0.7142857142857142,-1.1904761904761905,-166.26984126984127
208,325.0,27.698412698412696,-6.428571428571428,-12.46031746031746,11.349206349206348,-2.3015873015873014,-5.7936507936507935,-109.76190476190476,104.04761904761904,27.698412698412696,21.666666666666664,63.57142857142857,-6.111111111111111,5.317460317460317,-7.222222222222221,-27.38095238095238,18.96825396825397,-2.619047619047619,273.4126984126984,3.4126984126984126,8.333333333333332,-0.3968253968253968,-0.23809523809523808,-166.26984126984127
209,325.0,27.698412698412696,-6.428571428571428,-12.46031746031746,11.349206349206348,-2.3015873015873014,-5.7936507936507935,-109.76190476190476,104.04761904761904,27.698412698412696,21.666666666666664,63.57142857142857,-6.111111111111111,5.317460317460317,-7.222222222222221,-27.38095238095238,18.96825396825397,-2.619047619047619,273.4126984126984,3.4126984126984126,8.333333333333332,-0.3968253968253968,-0.23809523809523808,-166.26984126984127
210,325.0,30.87301587301587,-6.428571428571428,-12.142857142857142,11.19047619047619,-2.619047619047619,-5.634920634920634,-100.71428571428571,99.44444444444444,29.76190476190476,21.349206349206348,58.650793650793645,-5.952380952380952,5.317460317460317,-7.063492063492063,-29.444444444444443,18.65079365079365,-2.46031746031746,268.968253968254,-13.888888888888888,7.698412698412698,0.23809523809523808,-0.873015873015873,-321.8253968253968
211,325.0,30.87301587301587,-6.428571428571428,-12.142857142857142,11.19047619047619,-2.619047619047619,-5.634920634920634,-100.71428571428571,99.44444444444444,29.76190476190476,21.349206349206348,58.650793650793645,-5.952380952380952,5.317460317460317,-7.063492063492063,-29.444444444444443,18.65079365079365,-2.46031746031746,268.968253968254,-13.888888888888888,7.698412698412698,0.23809523809523808,-0.873015873015873,-321.8253968253968
212,325.0,19.6031746031746,-6.26984126984127,-11.825396825396824,11.19047619047619,-2.9365079365079363,-5.476190476190476,-97.6984126984127,95.31746031746032,29.285714285714285,20.71428571428571,49.44444444444444,-5.952380952380952,5.158730158730158,-6.904761904761904,-30.71428571428571,18.174603174603174,-2.7777777777777777,263.4126984126984,-18.65079365079365,6.746031746031746,-0.23809523809523808,-0.7142857142857142,-321.8253968253968
213,325.0,19.6031746031746,-6.26984126984127,-11.825396825396824,11.19047619047619,-2.9365079365079363,-5.476190476190476,-97.6984126984127,95.31746031746032,29.285714285714285,20.71428571428571,49.44444444444444,-5.952380952380952,5.158730158730158,-6.904761904761904,-30.71428571428571,18.174603174603174,-2.7777777777777777,263.4126984126984,-18.65079365079365,6.746031746031746,-0.23809523809523808,-0.7142857142857142,-321.8253968253968
214,325.0,28.809523809523807,-6.111111111111111,-11.507936507936508,10.555555555555555,-3.888888888888889,-5.476190476190476,-82.3015873015873,88.01587301587301,28.65079365079365,20.396825396825395,52.61904761904761,-5.7936507936507935,5.158730158730158,-6.904761904761904,-21.19047619047619,17.857142857142858,-3.888888888888889,258.015873015873,-16.26984126984127,7.3809523809523805,-0.5555555555555556,-0.3968253968253968,-321.8253968253968
215,325.0,28.809523809523807,-6.111111111111111,-11.507936507936508,10.555555555555555,-3.888888888888889,-5.476190476190476,-82.3015873015873,88.01587301587301,28.65079365079365,20.396825396825395,52.61904761904761,-5.7936507936507935,5.158730158730158,-6.904761904761904,-21.19047619047619,17.857142857142858,-3.888888888888889,258.015873015873,-16.26984126984127,7.3809523809523805,-0.5555555555555556,-0.3968253968253968,-321.8253968253968
216,192.77777777777777,29.6031746031746,-5.952380952380952,-11.19047619047619,10.714285714285714,0.23809523809523808,-5.476190476190476,-76.1111111111111,79.28571428571428,28.333333333333332,20.238095238095237,50.55555555555555,-5.7936507936507935,5.0,-6.904761904761904,-20.71428571428571,17.857142857142858,0.23809523809523808,254.84126984126982,-40.238095238095234,6.904761904761904,0.3968253968253968,-1.6666666666666665,-321.8253968253968
217,192.77777777777777,29.6031746031746,-5.952380952380952,-11.19047619047619,10.714285714285714,0.23809523809523808,-5.476190476190476,-76.1111111111111,79.28571428571428,28.333333333333332,20.238095238095237,50.55555555555555,-5.7936507936507935,5.0,-6.904761904761904,-20.71428571428571,17.857142857142858,0.23809523809523808,254.84126984126982,-40.238095238095234,6.904761904761904,0.3968253968253968,-1.6666666666666665,-321.8253968253968
218,-66.11111111111111,21.03174603174603,-5.7936507936507935,-11.19047619047619,10.396825396825395,0.23809523809523808,-5.476190476190476,-85.47619047619047,77.53968253968253,27.857142857142854,19.92063492063492,41.98412698412698,-5.634920634920634,5.0,-6.746031746031746,-27.539682539682538,17.38095238095238,0.07936507936507936,251.66666666666666,-33.57142857142857,7.063492063492063,0.7142857142857142,-0.5555555555555556,-321.8253968253968
219,-66.11111111111111,21.03174603174603,-5.7936507936507935,-11.19047619047619,10.396825396825395,0.23809523809523808,-5.476190476190476,-85.47619047619047,77.53968253968253,27.857142857142854,19.92063492063492,41.98412698412698,-5.634920634920634,5.0,-6.746031746031746,-27.539682539682538,17.38095238095238,0.07936507936507936,251.66666666666666,-33.57142857142857,7.063492063492063,0.7142857142857142,-0.5555555555555556,-321.8253968253968
220,-325.0,9.285714285714285,-5.7936507936507935,-10.714285714285714,10.238095238095237,-5.7936507936507935,-5.158730158730158,-102.93650793650794,67.6984126984127,25.476190476190474,19.6031746031746,27.539682539682538,-5.317460317460317,4.841269841269841,-6.587301587301587,-42.14285714285714,16.904761904761905,-5.7936507936507935,245.47619047619045,-61.666666666666664,3.888888888888889,-0.5555555555555556,0.23809523809523808,-166.26984126984127
221,-325.0,9.285714285714285,-5.7936507936507935,-10.714285714285714,10.238095238095237,-5.7936507936507935,-5.158730158730158,-102.93650793650794,67.6984126984127,25.476190476190474,19.6031746031746,27.539682539682538,-5.317460317460317,4.841269841269841,-6.587301587301587,-42.14285714285714,16.904761904761905,-5.7936507936507935,245.47619047619045,-61.666666666666664,3.888888888888889,-0.5555555555555556,0.23809523809523808,-166.26984126984127
222,-325.0,4.0476190476190474,-5.634920634920634,-10.555555555555555,10.238095238095237,-10.714285714285714,-5.0,-106.58730158730158,55.79365079365079,24.523809523809522,19.126984126984127,21.666666666666664,-5.317460317460317,4.841269841269841,-6.26984126984127,-46.11111111111111,16.746031746031743,-10.714285714285714,242.46031746031744,-111.19047619047619,2.9365079365079363,-0.7142857142857142,-0.5555555555555556,-166.26984126984127
223,-325.0,4.0476190476190474,-5.634920634920634,-10.555555555555555,10.238095238095237,-10.714285714285714,-5.0,-106.58730158730158,55.79365079365079,24.523809523809522,19.126984126984127,21.666666666666664,-5.317460317460317,4.841269841269841,-6.26984126984127,-46.11111111111111,16.746031746031743,-10.714285714285714,242.46031746031744,-111.19047619047619,2.9365079365079363,-0.7142857142857142,-0.5555555555555556,-166.26984126984127
224,-325.0,17.857142857142858,-5.634920634920634,-10.238095238095237,10.079365079365079,-8.333333333333332,-5.0,-91.19047619047619,39.285714285714285,24.68253968253968,18.80952380952381,40.238095238095234,-5.317460317460317,4.682539682539682,-6.428571428571428,-38.80952380952381,16.428571428571427,-8.015873015873016,237.53968253968253,-160.3968253968254,1.0317460317460316,-0.5555555555555556,-0.07936507936507936,-166.26984126984127
225,-325.0,17.857142857142858,-5.634920634920634,-10.238095238095237,10.079365079365079,-8.333333333333332,-5.0,-91.19047619047619,39.285714285714285,24.68253968253968,18.80952380952381,40.238095238095234,-5.317460317460317,4.682539682539682,-6.428571428571428,-38.80952380952381,16.428571428571427,-8.015873015873016,237.53968253968253,-160.3968253968254,1.0317460317460316,-0.5555555555555556,-0.07936507936507936,-166.26984126984127
226,-325.0,4.365079365079365,-5.476190476190476,-3.571428571428571,9.761904761904761,-9.761904761904761,-5.0,-94.2063492063492,10.714285714285714,23.41269841269841,18.65079365079365,48.17460317460317,-5.317460317460317,4.682539682539682,-6.428571428571428,-28.96825396825397,16.26984126984127,-9.444444444444445,234.52380952380952,-207.69841269841268,-15.634920634920634,-0.5555555555555556,-0.873015873015873,-166.26984126984127
227,-325.0,4.365079365079365,-5.476190476190476,-3.571428571428571,9.761904761904761,-9.761904761904761,-5.0,-94.2063492063492,10.714285714285714,23.41269841269841,18.65079365079365,48.17460317460317,-5.317460317460317,4.682539682539682,-6.428571428571428,-28.96825396825397,16.26984126984127,-9.444444444444445,234.52380952380952,-207.69841269841268,-15.634920634920634,-0.5555555555555556,-0.873015873015873,-166.26984126984127
228,-325.0,11.507936507936508,-5.476190476190476,-7.222222222222221,9.603174603174603,-9.920634920634921,-4.841269841269841,-88.80952380952381,-51.03174603174603,23.88888888888889,18.333333333333332,53.73015873015873,-5.158730158730158,4.523809523809524,-6.26984126984127,4.365079365079365,15.95238095238095,-8.968253968253968,229.60317460317458,-262.46031746031747,-27.38095238095238,-0.3968253968253968,-0.7142857142857142,-166.26984126984127
229,-325.0,11.507936507936508,-5.476190476190476,-7.222222222222221,9.603174603174603,-9.920634920634921,-4.841269841269841,-88.80952380952381,-51.03174603174603,23.88888888888889,18.333333333333332,53.73015873015873,-5.158730158730158,4.523809523809524,-6.26984126984127,4.365079365079365,15.95238095238095,-8.968253968253968,229.60317460317458,-262.46031746031747,-27.38095238095238,-0.3968253968253968,-0.7142857142857142,-166.26984126984127
230,-325.0,31.507936507936506,-5.317460317460317,-10.079365079365079,9.444444444444445,-6.428571428571428,-4.841269841269841,-68.01587301587301,-70.07936507936508,24.68253968253968,17.857142857142858,65.63492063492063,-5.0,4.365079365079365,-6.111111111111111,12.142857142857142,15.634920634920634,-5.158730158730158,225.79365079365078,-275.7936507936508,-10.238095238095237,-0.7142857142857142,-0.873015873015873,-321.8253968253968
231,-325.0,31.507936507936506,-5.317460317460317,-10.079365079365079,9.444444444444445,-6.428571428571428,-4.841269841269841,-68.01587301587301,-70.07936507936508,24.68253968253968,17.857142857142858,65.63492063492063,-5.0,4.365079365079365,-6.111111111111111,12.142857142857142,15.634920634920634,-5.158730158730158,225.79365079365078,-275.7936507936508,-10.238095238095237,-0.7142857142857142,-0.873015873015873,-321.8253968253968
232,-257.06349206349205,31.666666666666664,-5.158730158730158,-9.603174603174603,9.444444444444445,-4.2063492063492065,-4.841269841269841,-71.5079365079365,-71.5079365079365,23.730158730158728,17.539682539682538,54.36507936507936,-5.0,4.523809523809524,-5.952380952380952,11.19047619047619,15.476190476190474,-2.7777777777777777,221.19047619047618,-294.5238095238095,-10.238095238095237,-0.5555555555555556,-1.1904761904761905,-321.8253968253968
233,-257.06349206349205,31.666666666666664,-5.158730158730158,-9.603174603174603,9.444444444444445,-4.2063492063492065,-4.841269841269841,-71.5079365079365,-71.5079365079365,23.730158730158728,17.539682539682538,54.36507936507936,-5.0,4.523809523809524,-5.952380952380952,11.19047619047619,15.476190476190474,-2.7777777777777777,221.19047619047618,-294.5238095238095,-10.238095238095237,-0.5555555555555556,-1.1904761904761905,-321.8253968253968
234,-257.06349206349205,31.666666666666664,-5.158730158730158,-9.603174603174603,9.444444444444445,-4.2063492063492065,-4.841269841269841,-71.5079365079365,-71.5079365079365,23.730158730158728,17.539682539682538,54.36507936507936,-5.0,4.523809523809524,-5.952380952380952,11.19047619047619,15.476190476190474,-2.7777777777777777,221.19047619047618,-294.5238095238095,-10.238095238095237,-0.5555555555555556,-1.1904761904761905,-321.8253968253968
235,-257.06349206349205,31.666666666666664,-5.158730158730158,-9.603174603174603,9.444444444444445,-4.2063492063492065,-4.841269841269841,-71.5079365079365,-71.5079365079365,23.730158730158728,17.539682539682538,54.36507936507936,-5.0,4.523809523809524,-5.952380952380952,11.19047619047619,15.476190476190474,-2.7777777777777777,221.19047619047618,-294.5238095238095,-10.238095238095237,-0.5555555555555556,-1.1904761904761905,-321.8253968253968
236,-257.06349206349205,31.666666666666664,-5.158730158730158,-9.603174603174603,9.444444444444445,-4.2063492063492065,-4.841269841269841,-71.5079365079365,-71.5079365079365,23.730158730158728,17.539682539682538,54.36507936507936,-5.0,4.523809523809524,-5.952380952380952,11.19047619047619,15.476190476190474,-2.7777777777777777,221.19047619047618,-294.5238095238095,-10.238095238095237,-0.5555555555555556,-1.1904761904761905,-321.8253968253968
237,-257.06349206349205,31.666666666666664,-5.158730158730158,-9.603174603174603,9.444444444444445,-4.2063492063492065,-4.841269841269841,-71.5079365079365,-71.5079365079365,23.730158730158728,17.539682539682538,54.36507936507936,-5.0,4.523809523809524,-5.952380952380952,11.19047619047619,15.476190476190474,-2.7777777777777777,221.19047619047618,-294.5238095238095,-10.238095238095237,-0.5555555555555556,-1.1904761904761905,-321.8253968253968
238,-161.66666666666666,48.33333333333333,-5.0,-9.444444444444445,8.809523809523808,-4.365079365079365,-4.841269841269841,-55.15873015873016,-67.22222222222221,22.46031746031746,16.746031746031743,59.6031746031746,-5.0,4.2063492063492065,-5.7936507936507935,11.19047619047619,14.682539682539682,-3.253968253968254,210.55555555555554,-276.90476190476187,-12.619047619047619,-0.873015873015873,-1.349206349206349,-321.8253968253968
239,-161.66666666666666,48.33333333333333,-5.0,-9.444444444444445,8.809523809523808,-4.365079365079365,-4.841269841269841,-55.15873015873016,-67.22222222222221,22.46031746031746,16.746031746031743,59.6031746031746,-5.0,4.2063492063492065,-5.7936507936507935,11.19047619047619,14.682539682539682,-3.253968253968254,210.55555555555554,-276.90476190476187,-12.619047619047619,-0.873015873015873,-1.349206349206349,-321.8253968253968
240,-66.11111111111111,65.15873015873015,-4.841269841269841,-9.285714285714285,8.333333333333332,-4.523809523809524,-4.682539682539682,-38.80952380952381,-62.93650793650793,21.19047619047619,15.95238095238095,64.84126984126983,-5.0,4.0476190476190474,-5.634920634920634,11.349206349206348,14.047619047619047,-3.571428571428571,200.07936507936506,-259.2857142857143,-15.0,-1.1904761904761905,-1.507936507936508,-166.26984126984127
241,-66.11111111111111,65.15873015873015,-4.841269841269841,-9.285714285714285,8.333333333333332,-4.523809523809524,-4.682539682539682,-38.80952380952381,-62.93650793650793,21.19047619047619,15.95238095238095,64.84126984126983,-5.0,4.0476190476190474,-5.634920634920634,11.349206349206348,14.047619047619047,-3.571428571428571,200.07936507936506,-259.2857142857143,-15.0,-1.1904761904761905,-1.507936507936508,-166.26984126984127
242,274.36507936507934,96.26984126984127,-4.682539682539682,45.0,7.222222222222221,1.984126984126984,-4.365079365079365,-60.39682539682539,-23.57142857142857,-29.444444444444443,13.73015873015873,73.25396825396825,-4.365079365079365,3.4126984126984126,-5.476190476190476,-21.984126984126984,11.825396825396824,2.3015873015873014,171.19047619047618,-307.06349206349205,-106.1111111111111,0.23809523809523808,-0.3968253968253968,-166.26984126984127
243,274.36507936507934,96.26984126984127,-4.682539682539682,45.0,7.222222222222221,1.984126984126984,-4.365079365079365,-60.39682539682539,-23.57142857142857,-29.444444444444443,13.73015873015873,73.25396825396825,-4.365079365079365,3.4126984126984126,-5.476190476190476,-21.984126984126984,11.825396825396824,2.3015873015873014,171.19047619047618,-307.06349206349205,-106.1111111111111,0.23809523809523808,-0.3968253968253968,-166.26984126984127
244,280.55555555555554,109.76190476190476,-4.365079365079365,-34.047619047619044,7.063492063492063,-1.1904761904761905,-4.2063492063492065,-56.58730158730158,-39.44444444444444,-28.65079365079365,13.412698412698411,82.93650793650794,-4.0476190476190474,3.4126984126984126,-5.158730158730158,-18.015873015873016,11.666666666666666,-0.3968253968253968,168.4920634920635,-307.38095238095235,-121.5079365079365,-1.0317460317460316,-1.1904761904761905,-166.26984126984127
245,280.55555555555554,109.76190476190476,-4.365079365079365,-34.047619047619044,7.063492063492063,-1.1904761904761905,-4.2063492063492065,-56.58730158730158,-39.44444444444444,-28.65079365079365,13.412698412698411,82.93650793650794,-4.0476190476190474,3.4126984126984126,-5.158730158730158,-18.015873015873016,11.666666666666666,-0.3968253968253968,168.4920634920635,-307.38095238095235,-121.5079365079365,-1.0317460317460316,-1.1904761904761905,-166.26984126984127
246,325.0,100.39682539682539,-4.682539682539682,-33.57142857142857,7.063492063492063,2.9365079365079363,-4.2063492063492065,-64.84126984126983,-37.698412698412696,-41.507936507936506,13.253968253968253,73.25396825396825,-4.2063492063492065,3.253968253968254,-5.317460317460317,-29.126984126984127,11.507936507936508,3.4126984126984126,165.63492063492063,-283.88888888888886,-32.77777777777778,-1.349206349206349,-1.349206349206349,-166.26984126984127
247,325.0,100.39682539682539,-4.682539682539682,-33.57142857142857,7.063492063492063,2.9365079365079363,-4.2063492063492065,-64.84126984126983,-37.698412698412696,-41.507936507936506,13.253968253968253,73.25396825396825,-4.2063492063492065,3.253968253968254,-5.317460317460317,-29.126984126984127,11.507936507936508,3.4126984126984126,165.63492063492063,-283.88888888888886,-32.77777777777778,-1.349206349206349,-1.349206349206349,-166.26984126984127
248,325.0,87.6984126984127,-4.523809523809524,-12.46031746031746,6.904761904761904,7.222222222222221,-4.2063492063492065,-79.76190476190476,-17.22222222222222,-48.49206349206349,13.253968253968253,62.14285714285714,-4.0476190476190474,3.253968253968254,-5.317460317460317,-46.269841269841265,11.349206349206348,8.015873015873016,162.77777777777777,-269.6031746031746,-36.74603174603175,-0.7142857142857142,-0.5555555555555556,-166.26984126984127
249,325.0,87.6984126984127,-4.523809523809524,-12.46031746031746,6.904761904761904,7.222222222222221,-4.2063492063492065,-79.76190476190476,-17.22222222222222,-48.49206349206349,13.253968253968253,62.14285714285714,-4.0476190476190474,3.253968253968254,-5.317460317460317,-46.269841269841265,11.349206349206348,8.015873015873016,162.77777777777777,-269.6031746031746,-36.74603174603175,-0.7142857142857142,-0.5555555555555556,-166.26984126984127
250,325.0,93.09523809523809,-4.523809523809524,75.63492063492063,7.063492063492063,5.952380952380952,-4.0476190476190474,-79.92063492063491,-17.38095238095238,-41.19047619047619,12.936507936507935,63.41269841269841,-3.888888888888889,3.4126984126984126,-5.158730158730158,-57.53968253968254,11.349206349206348,6.746031746031746,160.87301587301587,-271.66666666666663,-42.61904761904761,-0.23809523809523808,-0.873015873015873,-321.8253968253968
251,325.0,93.09523809523809,-4.523809523809524,75.63492063492063,7.063492063492063,5.952380952380952,-4.0476190476190474,-79.92063492063491,-17.38095238095238,-41.19047619047619,12.936507936507935,63.41269841269841,-3.888888888888889,3.4126984126984126,-5.158730158730158,-57.53968253968254,11.349206349206348,6.746031746031746,160.87301587301587,-271.66666666666663,-42.61904761904761,-0.23809523809523808,-0.873015873015873,-321.8253968253968
252,325.0,86.26984126984127,-4.523809523809524,152.14285714285714,6.746031746031746,1.984126984126984,-4.2063492063492065,-101.98412698412697,-4.0476190476190474,-53.73015873015873,12.777777777777777,59.285714285714285,-4.0476190476190474,3.095238095238095,-5.158730158730158,-81.19047619047619,11.031746031746032,2.619047619047619,157.38095238095238,-306.1111111111111,-97.85714285714285,-0.07936507936507936,-1.0317460317460316,-321.8253968253968
253,325.0,86.26984126984127,-4.523809523809524,152.14285714285714,6.746031746031746,1.984126984126984,-4.2063492063492065,-101.98412698412697,-4.0476190476190474,-53.73015873015873,12.777777777777777,59.285714285714285,-4.0476190476190474,3.095238095238095,-5.158730158730158,-81.19047619047619,11.031746031746032,2.619047619047619,157.38095238095238,-306.1111111111111,-97.85714285714285,-0.07936507936507936,-1.0317460317460316,-321.8253968253968
254,325.0,97.38095238095238,-4.365079365079365,-41.98412698412698,6.587301587301587,2.46031746031746,-4.0476190476190474,-82.46031746031746,7.5396825396825395,-41.507936507936506,12.46031746031746,76.42857142857143,-4.0476190476190474,3.253968253968254,-4.841269841269841,-69.6031746031746,10.873015873015872,3.253968253968254,154.84126984126982,-282.6190476190476,-75.95238095238095,-0.873015873015873,-1.507936507936508,-321.8253968253968
255,325.0,97.38095238095238,-4.365079365079365,-41.98412698412698,6.587301587301587,2.46031746031746,-4.0476190476190474,-82.46031746031746,7.5396825396825395,-41.507936507936506,12.46031746031746,76.42857142857143,-4.0476190476190474,3.253968253968254,-4.841269841269841,-69.6031746031746,10.873015873015872,3.253968253968254,154.84126984126982,-282.6190476190476,-75.95238095238095,-0.873015873015873,-1.507936507936508,-321.8253968253968
256,325.0,102.30158730158729,-4.523809523809524,46.11111111111111,6.587301587301587,8.333333333333332,-3.253968253968254,-68.65079365079364,12.46031746031746,-36.904761904761905,12.3015873015873,80.87301587301587,-4.0476190476190474,3.095238095238095,-5.0,-64.2063492063492,10.873015873015872,9.126984126984127,152.93650793650792,-299.6031746031746,-79.76190476190476,-0.23809523809523808,-1.507936507936508,-321.8253968253968
257,325.0,102.30158730158729,-4.523809523809524,46.11111111111111,6.587301587301587,8.333333333333332,-3.253968253968254,-68.65079365079364,12.46031746031746,-36.904761904761905,12.3015873015873,80.87301587301587,-4.0476190476190474,3.095238095238095,-5.0,-64.2063492063492,10.873015873015872,9.126984126984127,152.93650793650792,-299.6031746031746,-79.76190476190476,-0.23809523809523808,-1.507936507936508,-321.8253968253968
258,325.0,111.98412698412697,-4.2063492063492065,242.77777777777777,6.428571428571428,12.936507936507935,-3.571428571428571,-55.0,6.111111111111111,-26.9047619047619,12.3015873015873,86.74603174603175,-3.73015873015873,3.095238095238095,-5.158730158730158,-53.73015873015873,10.555555555555555,13.412698412698411,150.3968253968254,-304.8412698412698,-50.238095238095234,-1.0317460317460316,-1.1904761904761905,-321.8253968253968
259,325.0,111.98412698412697,-4.2063492063492065,242.77777777777777,6.428571428571428,12.936507936507935,-3.571428571428571,-55.0,6.111111111111111,-26.9047619047619,12.3015873015873,86.74603174603175,-3.73015873015873,3.095238095238095,-5.158730158730158,-53.73015873015873,10.555555555555555,13.412698412698411,150.3968253968254,-304.8412698412698,-50.238095238095234,-1.0317460317460316,-1.1904761904761905,-321.8253968253968
260,325.0,122.93650793650794,-4.2063492063492065,171.19047619047618,6.111111111111111,12.3015873015873,-3.888888888888889,-62.3015873015873,2.619047619047619,-36.269841269841265,11.984126984126984,96.74603174603175,-3.888888888888889,3.253968253968254,-5.0,-63.57142857142857,10.396825396825395,12.777777777777777,148.015873015873,-256.58730158730157,-11.19047619047619,-0.873015873015873,-1.1904761904761905,-166.26984126984127
261,325.0,122.93650793650794,-4.2063492063492065,171.19047619047618,6.111111111111111,12.3015873015873,-3.888888888888889,-62.3015873015873,2.619047619047619,-36.269841269841265,11.984126984126984,96.74603174603175,-3.888888888888889,3.253968253968254,-5.0,-63.57142857142857,10.396825396825395,12.777777777777777,148.015873015873,-256.58730158730157,-11.19047619047619,-0.873015873015873,-1.1904761904761905,-166.26984126984127
262,188.015873015873,104.2063492063492,-4.2063492063492065,325.0,6.111111111111111,16.587301587301585,-3.253968253968254,-100.23809523809523,9.761904761904761,-75.31746031746032,11.666666666666666,81.19047619047619,-3.73015873015873,3.095238095238095,-4.841269841269841,-94.68253968253968,10.238095238095237,17.22222222222222,142.61904761904762,-233.09523809523807,-55.317460317460316,-0.5555555555555556,-1.0317460317460316,-166.26984126984127
263,188.015873015873,104.2063492063492,-4.2063492063492065,325.0,6.111111111111111,16.587301587301585,-3.253968253968254,-100.23809523809523,9.761904761904761,-75.31746031746032,11.666666666666666,81.19047619047619,-3.73015873015873,3.095238095238095,-4.841269841269841,-94.68253968253968,10.238095238095237,17.22222222222222,142.61904761904762,-233.09523809523807,-55.317460317460316,-0.5555555555555556,-1.0317460317460316,-166.26984126984127
264,-144.36507936507937,99.44444444444444,-4.2063492063492065,142.77777777777777,6.111111111111111,8.492063492063492,-3.73015873015873,-108.96825396825396,18.015873015873016,-83.57142857142857,11.507936507936508,76.58730158730158,-3.73015873015873,2.9365079365079363,-4.841269841269841,-95.31746031746032,9.920634920634921,8.968253968253968,23.57142857142857,-250.7142857142857,-105.79365079365078,-0.07936507936507936,-0.3968253968253968,-166.26984126984127
265,-144.36507936507937,99.44444444444444,-4.2063492063492065,142.77777777777777,6.111111111111111,8.492063492063492,-3.73015873015873,-108.96825396825396,18.015873015873016,-83.57142857142857,11.507936507936508,76.58730158730158,-3.73015873015873,2.9365079365079363,-4.841269841269841,-95.31746031746032,9.920634920634921,8.968253968253968,23.57142857142857,-250.7142857142857,-105.79365079365078,-0.07936507936507936,-0.3968253968253968,-166.26984126984127
266,-325.0,113.4126984126984,-3.888888888888889,81.19047619047619,5.952380952380952,-2.46031746031746,-2.46031746031746,-104.52380952380952,20.873015873015873,-82.46031746031746,10.714285714285714,83.73015873015872,-3.4126984126984126,2.9365079365079363,-4.523809523809524,-87.53968253968253,9.761904761904761,-2.3015873015873014,-282.6190476190476,-191.5079365079365,-63.41269841269841,1.0317460317460316,0.23809523809523808,-166.26984126984127
267,-325.0,113.4126984126984,-3.888888888888889,81.19047619047619,5.952380952380952,-2.46031746031746,-2.46031746031746,-104.52380952380952,20.873015873015873,-82.46031746031746,10.714285714285714,83.73015873015872,-3.4126984126984126,2.9365079365079363,-4.523809523809524,-87.53968253968253,9.761904761904761,-2.3015873015873014,-282.6190476190476,-191.5079365079365,-63.41269841269841,1.0317460317460316,0.23809523809523808,-166.26984126984127
268,-310.7142857142857,123.88888888888889,-3.888888888888889,325.0,5.7936507936507935,-6.587301587301587,-2.7777777777777777,-94.52380952380952,25.79365079365079,-76.74603174603175,11.031746031746032,91.82539682539682,-3.4126984126984126,2.9365079365079363,-4.365079365079365,-82.3015873015873,9.603174603174603,-6.111111111111111,-325.0,-119.92063492063491,-14.365079365079364,-1.0317460317460316,-0.3968253968253968,-166.26984126984127
269,-310.7142857142857,123.88888888888889,-3.888888888888889,325.0,5.7936507936507935,-6.587301587301587,-2.7777777777777777,-94.52380952380952,25.79365079365079,-76.74603174603175,11.031746031746032,91.82539682539682,-3.4126984126984126,2.9365079365079363,-4.365079365079365,-82.3015873015873,9.603174603174603,-6.111111111111111,-325.0,-119.92063492063491,-14.365079365079364,-1.0317460317460316,-0.3968253968253968,-166.26984126984127
270,164.52380952380952,107.6984126984127,-3.888888888888889,325.0,5.7936507936507935,-0.5555555555555556,-1.1904761904761905,-94.52380952380952,28.65079365079365,-84.84126984126983,11.031746031746032,75.31746031746032,-3.4126984126984126,2.9365079365079363,-4.682539682539682,-77.38095238095238,9.444444444444445,0.07936507936507936,-325.0,-92.61904761904762,18.333333333333332,-1.349206349206349,-1.349206349206349,-321.8253968253968
271,164.52380952380952,107.6984126984127,-3.888888888888889,325.0,5.7936507936507935,-0.5555555555555556,-1.1904761904761905,-94.52380952380952,28.65079365079365,-84.84126984126983,11.031746031746032,75.31746031746032,-3.4126984126984126,2.9365079365079363,-4.682539682539682,-77.38095238095238,9.444444444444445,0.07936507936507936,-325.0,-92.61904761904762,18.333333333333332,-1.349206349206349,-1.349206349206349,-321.8253968253968
272,325.0,117.06349206349206,-4.0476190476190474,252.46031746031744,5.634920634920634,1.507936507936508,1.507936507936508,-77.85714285714285,23.41269841269841,-81.66666666666666,10.714285714285714,82.46031746031746,-3.253968253968254,2.7777777777777777,-4.523809523809524,-65.31746031746032,9.444444444444445,1.984126984126984,-325.0,-124.2063492063492,-6.904761904761904,-1.349206349206349,-1.0317460317460316,-321.8253968253968
273,325.0,117.06349206349206,-4.0476190476190474,252.46031746031744,5.634920634920634,1.507936507936508,1.507936507936508,-77.85714285714285,23.41269841269841,-81.66666666666666,10.714285714285714,82.46031746031746,-3.253968253968254,2.7777777777777777,-4.523809523809524,-65.31746031746032,9.444444444444445,1.984126984126984,-325.0,-124.2063492063492,-6.904761904761904,-1.349206349206349,-1.0317460317460316,-321.8253968253968
274,325.0,123.09523809523809,-3.73015873015873,11.984126984126984,5.634920634920634,-1.8253968253968254,4.365079365079365,-72.3015873015873,21.03174603174603,-87.53968253968253,10.555555555555555,83.88888888888889,-3.571428571428571,2.7777777777777777,-4.523809523809524,-75.47619047619047,9.285714285714285,-1.1904761904761905,-325.0,-177.06349206349205,-38.33333333333333,-0.873015873015873,-1.349206349206349,-321.8253968253968
275,325.0,123.09523809523809,-3.73015873015873,11.984126984126984,5.634920634920634,-1.8253968253968254,4.365079365079365,-72.3015873015873,21.03174603174603,-87.53968253968253,10.555555555555555,83.88888888888889,-3.571428571428571,2.7777777777777777,-4.523809523809524,-75.47619047619047,9.285714285714285,-1.1904761904761905,-325.0,-177.06349206349205,-38.33333333333333,-0.873015873015873,-1.349206349206349,-321.8253968253968
276,325.0,119.76190476190476,-0.3968253968253968,144.36507936507937,5.634920634920634,-1.349206349206349,6.904761904761904,-81.82539682539682,25.634920634920633,-99.76190476190476,10.396825396825395,76.9047619047619,-3.4126984126984126,2.619047619047619,-4.523809523809524,-85.63492063492063,8.968253968253968,-0.5555555555555556,-325.0,-153.57142857142856,-28.65079365079365,-1.0317460317460316,-1.1904761904761905,-321.8253968253968
277,325.0,119.76190476190476,-0.3968253968253968,144.36507936507937,5.634920634920634,-1.349206349206349,6.904761904761904,-81.82539682539682,25.634920634920633,-99.76190476190476,10.396825396825395,76.9047619047619,-3.4126984126984126,2.619047619047619,-4.523809523809524,-85.63492063492063,8.968253968253968,-0.5555555555555556,-325.0,-153.57142857142856,-28.65079365079365,-1.0317460317460316,-1.1904761904761905,-321.8253968253968
278,140.23809523809524,131.5079365079365,6.428571428571428,325.0,5.476190476190476,-0.07936507936507936,8.492063492063492,-118.17460317460316,30.238095238095237,-110.07936507936508,10.396825396825395,73.73015873015872,-3.253968253968254,2.619047619047619,-4.523809523809524,-92.30158730158729,8.968253968253968,0.3968253968253968,-325.0,-131.03174603174602,7.3809523809523805,-0.07936507936507936,-0.07936507936507936,-321.8253968253968
279,140.23809523809524,131.5079365079365,6.428571428571428,325.0,5.476190476190476,-0.07936507936507936,8.492063492063492,-118.17460317460316,30.238095238095237,-110.07936507936508,10.396825396825395,73.73015873015872,-3.253968253968254,2.619047619047619,-4.523809523809524,-92.30158730158729,8.968253968253968,0.3968253968253968,-325.0,-131.03174603174602,7.3809523809523805,-0.07936507936507936,-0.07936507936507936,-321.8253968253968
280,53.25396825396825,131.03174603174602,5.476190476190476,325.0,5.476190476190476,-0.5555555555555556,6.111111111111111,-128.33333333333331,27.539682539682538,-114.84126984126983,10.396825396825395,70.23809523809524,-3.095238095238095,2.619047619047619,-4.365079365079365,-96.9047619047619,8.968253968253968,-0.3968253968253968,-325.0,-143.4126984126984,-0.07936507936507936,0.5555555555555556,0.3968253968253968,-166.26984126984127
281,53.25396825396825,131.03174603174602,5.476190476190476,325.0,5.476190476190476,-0.5555555555555556,6.111111111111111,-128.33333333333331,27.539682539682538,-114.84126984126983,10.396825396825395,70.23809523809524,-3.095238095238095,2.619047619047619,-4.365079365079365,-96.9047619047619,8.968253968253968,-0.3968253968253968,-325.0,-143.4126984126984,-0.07936507936507936,0.5555555555555556,0.3968253968253968,-166.26984126984127
282,-44.68253968253968,129.28571428571428,23.41269841269841,325.0,5.317460317460317,-4.365079365079365,23.730158730158728,-136.74603174603175,47.857142857142854,-114.84126984126983,9.920634920634921,69.12698412698413,-3.253968253968254,2.619047619047619,-4.365079365079365,-95.95238095238095,8.65079365079365,-4.0476190476190474,-325.0,-80.23809523809523,2.9365079365079363,-1.6666666666666665,-1.507936507936508,-166.26984126984127
283,-44.68253968253968,129.28571428571428,23.41269841269841,325.0,5.317460317460317,-4.365079365079365,23.730158730158728,-136.74603174603175,47.857142857142854,-114.84126984126983,9.920634920634921,69.12698412698413,-3.253968253968254,2.619047619047619,-4.365079365079365,-95.95238095238095,8.65079365079365,-4.0476190476190474,-325.0,-80.23809523809523,2.9365079365079363,-1.6666666666666665,-1.507936507936508,-166.26984126984127
