Fp1[1],Fp2[2],F3[3],F4[4],C3[5],C4[6],P3[7],P4[8],O1[9],O2[10],F7[11],F8[12],T3[13],T4[14],T5[15],T6[16],Fz[17],Pz[18],Cz[19],Pg1[20],Pg2[21],EOGR[22],EOOGL[23],EMG[24]
-298.968253968254,325.0,325.0,-82.93650793650794,-325.0,-25.952380952380953,325.0,-325.0,325.0,-325.0,1.349206349206349,325.0,325.0,-325.0,325.0,325.0,6.587301587301587,-27.698412698412696,325.0,-325.0,-325.0,-0.23809523809523808,-0.23809523809523808,-166.26984126984127
-298.968253968254,325.0,325.0,-82.93650793650794,-325.0,-25.952380952380953,325.0,-325.0,325.0,-325.0,1.349206349206349,325.0,325.0,-325.0,325.0,325.0,6.587301587301587,-27.698412698412696,325.0,-325.0,-325.0,-0.23809523809523808,-0.23809523809523808,-166.26984126984127
-293.4126984126984,325.0,325.0,-81.5079365079365,-325.0,-25.79365079365079,325.0,-325.0,325.0,-325.0,2.142857142857143,325.0,325.0,-325.0,325.0,195.79365079365078,7.222222222222221,-26.746031746031743,325.0,-325.0,-325.0,0.23809523809523808,-0.07936507936507936,-166.26984126984127
-293.4126984126984,325.0,325.0,-81.5079365079365,-325.0,-25.79365079365079,325.0,-325.0,325.0,-325.0,2.142857142857143,325.0,325.0,-325.0,325.0,195.79365079365078,7.222222222222221,-26.746031746031743,325.0,-325.0,-325.0,0.23809523809523808,-0.07936507936507936,-166.26984126984127
-281.8253968253968,325.0,325.0,-78.4920634920635,-325.0,-18.80952380952381,325.0,-325.0,325.0,-325.0,8.65079365079365,325.0,325.0,-325.0,325.0,-129.12698412698413,13.73015873015873,-18.96825396825397,325.0,-325.0,-325.0,0.07936507936507936,0.23809523809523808,-166.26984126984127
-281.8253968253968,325.0,325.0,-78.4920634920635,-325.0,-18.80952380952381,325.0,-325.0,325.0,-325.0,8.65079365079365,325.0,325.0,-325.0,325.0,-129.12698412698413,13.73015873015873,-18.96825396825397,325.0,-325.0,-325.0,0.07936507936507936,0.23809523809523808,-166.26984126984127
-255.95238095238093,325.0,325.0,-71.82539682539682,-325.0,-8.174603174603174,325.0,-325.0,325.0,-325.0,17.857142857142858,325.0,325.0,-325.0,325.0,-325.0,23.730158730158728,-5.952380952380952,325.0,-325.0,-325.0,-0.23809523809523808,-0.07936507936507936,-166.26984126984127
-255.95238095238093,325.0,325.0,-71.82539682539682,-325.0,-8.174603174603174,325.0,-325.0,325.0,-325.0,17.857142857142858,325.0,325.0,-325.0,325.0,-325.0,23.730158730158728,-5.952380952380952,325.0,-325.0,-325.0,-0.23809523809523808,-0.07936507936507936,-166.26984126984127
-251.34920634920633,325.0,325.0,-70.71428571428571,-325.0,1.0317460317460316,325.0,-325.0,325.0,-325.0,26.746031746031743,325.0,325.0,-325.0,325.0,-325.0,32.61904761904762,3.571428571428571,325.0,-325.0,-325.0,-0.5555555555555556,-0.873015873015873,-166.26984126984127
-251.34920634920633,325.0,325.0,-70.71428571428571,-325.0,1.0317460317460316,325.0,-325.0,325.0,-325.0,26.746031746031743,325.0,325.0,-325.0,325.0,-325.0,32.61904761904762,3.571428571428571,325.0,-325.0,-325.0,-0.5555555555555556,-0.873015873015873,-166.26984126984127
-246.74603174603172,325.0,325.0,-69.76190476190476,-325.0,2.9365079365079363,325.0,-325.0,325.0,-325.0,27.857142857142854,325.0,325.0,-325.0,325.0,-325.0,33.57142857142857,5.476190476190476,325.0,-325.0,-325.0,0.3968253968253968,0.07936507936507936,-321.8253968253968
-246.74603174603172,325.0,325.0,-69.76190476190476,-325.0,2.9365079365079363,325.0,-325.0,325.0,-325.0,27.857142857142854,325.0,325.0,-325.0,325.0,-325.0,33.57142857142857,5.476190476190476,325.0,-325.0,-325.0,0.3968253968253968,0.07936507936507936,-321.8253968253968
-242.3015873015873,325.0,325.0,-68.33333333333333,-325.0,1.6666666666666665,325.0,-325.0,325.0,-325.0,25.952380952380953,325.0,325.0,-325.0,325.0,-325.0,31.825396825396822,4.365079365079365,325.0,-325.0,-325.0,0.07936507936507936,-0.3968253968253968,-321.8253968253968
-242.3015873015873,325.0,325.0,-68.33333333333333,-325.0,1.6666666666666665,325.0,-325.0,325.0,-325.0,25.952380952380953,325.0,325.0,-325.0,325.0,-325.0,31.825396825396822,4.365079365079365,325.0,-325.0,-325.0,0.07936507936507936,-0.3968253968253968,-321.8253968253968
-237.85714285714283,325.0,325.0,-67.22222222222221,-325.0,6.587301587301587,325.0,-325.0,325.0,-325.0,30.396825396825395,325.0,325.0,-325.0,325.0,-325.0,36.74603174603175,9.761904761904761,325.0,-325.0,-325.0,-0.3968253968253968,-0.873015873015873,-321.8253968253968
-237.85714285714283,325.0,325.0,-67.22222222222221,-325.0,6.587301587301587,325.0,-325.0,325.0,-325.0,30.396825396825395,325.0,325.0,-325.0,325.0,-325.0,36.74603174603175,9.761904761904761,325.0,-325.0,-325.0,-0.3968253968253968,-0.873015873015873,-321.8253968253968
-233.88888888888889,325.0,325.0,-66.26984126984127,-325.0,8.015873015873016,325.0,-325.0,325.0,-325.0,31.03174603174603,325.0,325.0,-325.0,325.0,-325.0,37.698412698412696,11.349206349206348,325.0,-325.0,-325.0,-0.7142857142857142,-0.5555555555555556,-321.8253968253968
-233.88888888888889,325.0,325.0,-66.26984126984127,-325.0,8.015873015873016,325.0,-325.0,325.0,-325.0,31.03174603174603,325.0,325.0,-325.0,325.0,-325.0,37.698412698412696,11.349206349206348,325.0,-325.0,-325.0,-0.7142857142857142,-0.5555555555555556,-321.8253968253968
-229.76190476190476,325.0,325.0,-65.15873015873015,-325.0,8.015873015873016,325.0,-325.0,325.0,-325.0,30.238095238095237,325.0,325.0,-325.0,325.0,-325.0,37.06349206349206,11.507936507936508,325.0,-325.0,-325.0,-0.07936507936507936,-0.3968253968253968,-321.8253968253968
-229.76190476190476,325.0,325.0,-65.15873015873015,-325.0,8.015873015873016,325.0,-325.0,325.0,-325.0,30.238095238095237,325.0,325.0,-325.0,325.0,-325.0,37.06349206349206,11.507936507936508,325.0,-325.0,-325.0,-0.07936507936507936,-0.3968253968253968,-321.8253968253968
-225.63492063492063,325.0,325.0,-64.04761904761905,-325.0,8.492063492063492,325.0,-325.0,325.0,-325.0,30.07936507936508,325.0,325.0,-325.0,325.0,-325.0,36.904761904761905,11.984126984126984,325.0,-325.0,-325.0,0.07936507936507936,-0.7142857142857142,-166.26984126984127
-225.63492063492063,325.0,325.0,-64.04761904761905,-325.0,8.492063492063492,325.0,-325.0,325.0,-325.0,30.07936507936508,325.0,325.0,-325.0,325.0,-325.0,36.904761904761905,11.984126984126984,325.0,-325.0,-325.0,0.07936507936507936,-0.7142857142857142,-166.26984126984127
-219.76190476190476,325.0,325.0,-62.3015873015873,-325.0,11.19047619047619,325.0,-325.0,325.0,-325.0,31.507936507936506,325.0,325.0,-325.0,325.0,-325.0,39.12698412698413,14.523809523809524,325.0,-325.0,-325.0,0.07936507936507936,-1.0317460317460316,-166.26984126984127
-219.76190476190476,325.0,325.0,-62.3015873015873,-325.0,11.19047619047619,325.0,-325.0,325.0,-325.0,31.507936507936506,325.0,325.0,-325.0,325.0,-325.0,39.12698412698413,14.523809523809524,325.0,-325.0,-325.0,0.07936507936507936,-1.0317460317460316,-166.26984126984127
-116.42857142857142,203.4126984126984,182.46031746031744,325.0,-206.26984126984127,19.92063492063492,186.42857142857142,-206.58730158730157,193.7301587301587,-277.22222222222223,22.619047619047617,195.79365079365078,184.2063492063492,-180.55555555555554,190.87301587301587,325.0,31.666666666666664,19.76190476190476,199.60317460317458,-199.28571428571428,-192.14285714285714,0.873015873015873,-0.5555555555555556,-166.26984126984127
-116.42857142857142,203.4126984126984,182.46031746031744,325.0,-206.26984126984127,19.92063492063492,186.42857142857142,-206.58730158730157,193.7301587301587,-277.22222222222223,22.619047619047617,195.79365079365078,184.2063492063492,-180.55555555555554,190.87301587301587,325.0,31.666666666666664,19.76190476190476,199.60317460317458,-199.28571428571428,-192.14285714285714,0.873015873015873,-0.5555555555555556,-166.26984126984127
-84.04761904761904,-60.873015873015866,-71.34920634920634,270.39682539682536,-150.55555555555554,6.428571428571428,-69.28571428571428,59.12698412698413,-65.63492063492063,23.88888888888889,1.984126984126984,-64.68253968253968,-70.39682539682539,-129.76190476190476,-67.06349206349206,325.0,1.8253968253968254,2.9365079365079363,-62.77777777777777,-144.52380952380952,-138.015873015873,0.873015873015873,-0.873015873015873,-166.26984126984127
-84.04761904761904,-60.873015873015866,-71.34920634920634,270.39682539682536,-150.55555555555554,6.428571428571428,-69.28571428571428,59.12698412698413,-65.63492063492063,23.88888888888889,1.984126984126984,-64.68253968253968,-70.39682539682539,-129.76190476190476,-67.06349206349206,325.0,1.8253968253968254,2.9365079365079363,-62.77777777777777,-144.52380952380952,-138.015873015873,0.873015873015873,-0.873015873015873,-166.26984126984127
-51.666666666666664,-325.0,-325.0,215.95238095238093,-94.84126984126983,-6.904761904761904,-325.0,325.0,-325.0,325.0,-18.49206349206349,-325.0,-325.0,-78.80952380952381,-325.0,325.0,-28.015873015873016,-13.73015873015873,-325.0,-89.76190476190476,-83.88888888888889,0.873015873015873,-1.1904761904761905,-166.26984126984127
-51.666666666666664,-325.0,-325.0,215.95238095238093,-94.84126984126983,-6.904761904761904,-325.0,325.0,-325.0,325.0,-18.49206349206349,-325.0,-325.0,-78.80952380952381,-325.0,325.0,-28.015873015873016,-13.73015873015873,-325.0,-89.76190476190476,-83.88888888888889,0.873015873015873,-1.1904761904761905,-166.26984126984127
-51.666666666666664,-325.0,-325.0,215.95238095238093,-94.84126984126983,-6.904761904761904,-325.0,325.0,-325.0,325.0,-18.49206349206349,-325.0,-325.0,-78.80952380952381,-325.0,325.0,-28.015873015873016,-13.73015873015873,-325.0,-89.76190476190476,-83.88888888888889,0.873015873015873,-1.1904761904761905,-321.8253968253968
-51.666666666666664,-325.0,-325.0,215.95238095238093,-94.84126984126983,-6.904761904761904,-325.0,325.0,-325.0,325.0,-18.49206349206349,-325.0,-325.0,-78.80952380952381,-325.0,325.0,-28.015873015873016,-13.73015873015873,-325.0,-89.76190476190476,-83.88888888888889,0.873015873015873,-1.1904761904761905,-321.8253968253968
-51.666666666666664,-325.0,-325.0,215.95238095238093,-94.84126984126983,-6.904761904761904,-325.0,325.0,-325.0,325.0,-18.49206349206349,-325.0,-325.0,-78.80952380952381,-325.0,325.0,-28.015873015873016,-13.73015873015873,-325.0,-89.76190476190476,-83.88888888888889,0.873015873015873,-1.1904761904761905,-321.8253968253968
-51.666666666666664,-325.0,-325.0,215.95238095238093,-94.84126984126983,-6.904761904761904,-325.0,325.0,-325.0,325.0,-18.49206349206349,-325.0,-325.0,-78.80952380952381,-325.0,325.0,-28.015873015873016,-13.73015873015873,-325.0,-89.76190476190476,-83.88888888888889,0.873015873015873,-1.1904761904761905,-321.8253968253968
-51.666666666666664,-325.0,-325.0,215.95238095238093,-94.84126984126983,-6.904761904761904,-325.0,325.0,-325.0,325.0,-18.49206349206349,-325.0,-325.0,-78.80952380952381,-325.0,325.0,-28.015873015873016,-13.73015873015873,-325.0,-89.76190476190476,-83.88888888888889,0.873015873015873,-1.1904761904761905,-321.8253968253968
-51.666666666666664,-325.0,-325.0,215.95238095238093,-94.84126984126983,-6.904761904761904,-325.0,325.0,-325.0,325.0,-18.49206349206349,-325.0,-325.0,-78.80952380952381,-325.0,325.0,-28.015873015873016,-13.73015873015873,-325.0,-89.76190476190476,-83.88888888888889,0.873015873015873,-1.1904761904761905,-321.8253968253968
-51.666666666666664,-325.0,-325.0,215.95238095238093,-94.84126984126983,-6.904761904761904,-325.0,325.0,-325.0,325.0,-18.49206349206349,-325.0,-325.0,-78.80952380952381,-325.0,325.0,-28.015873015873016,-13.73015873015873,-325.0,-89.76190476190476,-83.88888888888889,0.873015873015873,-1.1904761904761905,-321.8253968253968
-51.666666666666664,-325.0,-325.0,215.95238095238093,-94.84126984126983,-6.904761904761904,-325.0,325.0,-325.0,325.0,-18.49206349206349,-325.0,-325.0,-78.80952380952381,-325.0,325.0,-28.015873015873016,-13.73015873015873,-325.0,-89.76190476190476,-83.88888888888889,0.873015873015873,-1.1904761904761905,-321.8253968253968
-41.82539682539682,-302.46031746031747,-325.0,173.25396825396825,-76.74603174603175,0.3968253968253968,-325.0,325.0,-325.0,325.0,-12.3015873015873,-325.0,-325.0,123.09523809523809,-325.0,325.0,-21.19047619047619,-5.952380952380952,-325.0,-72.3015873015873,-67.06349206349206,-0.07936507936507936,-1.1904761904761905,-321.8253968253968
-41.82539682539682,-302.46031746031747,-325.0,173.25396825396825,-76.74603174603175,0.3968253968253968,-325.0,325.0,-325.0,325.0,-12.3015873015873,-325.0,-325.0,123.09523809523809,-325.0,325.0,-21.19047619047619,-5.952380952380952,-325.0,-72.3015873015873,-67.06349206349206,-0.07936507936507936,-1.1904761904761905,-321.8253968253968
-27.38095238095238,-241.19047619047618,-325.0,-99.92063492063491,-50.55555555555555,3.73015873015873,-325.0,310.7142857142857,-325.0,314.2063492063492,-8.809523809523808,-306.26984126984127,-325.0,325.0,-325.0,291.5079365079365,-15.634920634920634,-0.23809523809523808,-307.69841269841265,-46.74603174603175,-42.77777777777778,-0.7142857142857142,-1.1904761904761905,-166.26984126984127
-27.38095238095238,-241.19047619047618,-325.0,-99.92063492063491,-50.55555555555555,3.73015873015873,-325.0,310.7142857142857,-325.0,314.2063492063492,-8.809523809523808,-306.26984126984127,-325.0,325.0,-325.0,291.5079365079365,-15.634920634920634,-0.23809523809523808,-307.69841269841265,-46.74603174603175,-42.77777777777778,-0.7142857142857142,-1.1904761904761905,-166.26984126984127
-24.206349206349206,-213.57142857142856,-325.0,-325.0,-44.68253968253968,3.095238095238095,-325.0,296.4285714285714,-325.0,303.57142857142856,-8.65079365079365,-287.53968253968253,-325.0,325.0,-325.0,258.17460317460313,-14.682539682539682,0.23809523809523808,-290.39682539682536,-41.19047619047619,-37.53968253968254,-0.5555555555555556,-1.349206349206349,-166.26984126984127
-24.206349206349206,-213.57142857142856,-325.0,-325.0,-44.68253968253968,3.095238095238095,-325.0,296.4285714285714,-325.0,303.57142857142856,-8.65079365079365,-287.53968253968253,-325.0,325.0,-325.0,258.17460317460313,-14.682539682539682,0.23809523809523808,-290.39682539682536,-41.19047619047619,-37.53968253968254,-0.5555555555555556,-1.349206349206349,-166.26984126984127
150.3968253968254,-128.65079365079364,-197.38095238095238,-244.84126984126982,140.07936507936506,5.317460317460317,-198.33333333333331,178.96825396825395,-214.68253968253967,140.3968253968254,-1.0317460317460316,-172.61904761904762,-199.76190476190476,219.28571428571428,-201.5079365079365,205.95238095238093,-100.07936507936508,5.158730158730158,-175.0,137.38095238095238,83.57142857142857,-0.3968253968253968,-1.6666666666666665,-166.26984126984127
150.3968253968254,-128.65079365079364,-197.38095238095238,-244.84126984126982,140.07936507936506,5.317460317460317,-198.33333333333331,178.96825396825395,-214.68253968253967,140.3968253968254,-1.0317460317460316,-172.61904761904762,-199.76190476190476,219.28571428571428,-201.5079365079365,205.95238095238093,-100.07936507936508,5.158730158730158,-175.0,137.38095238095238,83.57142857142857,-0.3968253968253968,-1.6666666666666665,-166.26984126984127
325.0,-43.41269841269841,-68.96825396825396,-162.46031746031744,325.0,10.555555555555555,-70.87301587301587,60.71428571428571,-102.93650793650794,-63.888888888888886,9.761904761904761,-56.904761904761905,-73.73015873015872,112.30158730158729,-77.06349206349206,215.79365079365078,-183.09523809523807,12.777777777777777,-58.650793650793645,311.8253968253968,202.14285714285714,-0.3968253968253968,-1.507936507936508,-166.26984126984127
325.0,-43.41269841269841,-68.96825396825396,-162.46031746031744,325.0,10.555555555555555,-70.87301587301587,60.71428571428571,-102.93650793650794,-63.888888888888886,9.761904761904761,-56.904761904761905,-73.73015873015872,112.30158730158729,-77.06349206349206,215.79365079365078,-183.09523809523807,12.777777777777777,-58.650793650793645,311.8253968253968,202.14285714285714,-0.3968253968253968,-1.507936507936508,-166.26984126984127
325.0,-42.77777777777778,-68.01587301587301,-160.55555555555554,325.0,8.492063492063492,-70.07936507936508,60.079365079365076,-101.82539682539682,-84.52380952380952,8.015873015873016,-56.11111111111111,-72.61904761904762,110.87301587301587,-76.1111111111111,214.2063492063492,-180.7142857142857,11.031746031746032,-58.01587301587301,308.015873015873,199.44444444444443,-0.7142857142857142,-0.5555555555555556,-166.26984126984127
325.0,-42.77777777777778,-68.01587301587301,-160.55555555555554,325.0,8.492063492063492,-70.07936507936508,60.079365079365076,-101.82539682539682,-84.52380952380952,8.015873015873016,-56.11111111111111,-72.61904761904762,110.87301587301587,-76.1111111111111,214.2063492063492,-180.7142857142857,11.031746031746032,-58.01587301587301,308.015873015873,199.44444444444443,-0.7142857142857142,-0.5555555555555556,-166.26984126984127
325.0,-41.82539682539682,-66.74603174603175,-156.9047619047619,325.0,7.3809523809523805,-68.33333333333333,58.8095238095238,-99.76190476190476,-28.96825396825397,7.063492063492063,-54.841269841269835,-71.03174603174602,108.33333333333333,-74.68253968253968,207.2222222222222,-176.58730158730157,9.761904761904761,-56.904761904761905,301.984126984127,195.15873015873015,0.23809523809523808,-1.0317460317460316,-321.8253968253968
325.0,-41.82539682539682,-66.74603174603175,-156.9047619047619,325.0,7.3809523809523805,-68.33333333333333,58.8095238095238,-99.76190476190476,-28.96825396825397,7.063492063492063,-54.841269841269835,-71.03174603174602,108.33333333333333,-74.68253968253968,207.2222222222222,-176.58730158730157,9.761904761904761,-56.904761904761905,301.984126984127,195.15873015873015,0.23809523809523808,-1.0317460317460316,-321.8253968253968
325.0,-41.34920634920635,-65.63492063492063,-154.04761904761904,325.0,8.65079365079365,-67.22222222222221,57.857142857142854,-98.01587301587301,-53.57142857142857,8.492063492063492,-54.047619047619044,-69.76190476190476,106.58730158730158,-73.4126984126984,203.7301587301587,-173.73015873015873,11.349206349206348,-55.95238095238095,297.06349206349205,191.8253968253968,-0.07936507936507936,-0.873015873015873,-321.8253968253968
325.0,-41.34920634920635,-65.63492063492063,-154.04761904761904,325.0,8.65079365079365,-67.22222222222221,57.857142857142854,-98.01587301587301,-53.57142857142857,8.492063492063492,-54.047619047619044,-69.76190476190476,106.58730158730158,-73.4126984126984,203.7301587301587,-173.73015873015873,11.349206349206348,-55.95238095238095,297.06349206349205,191.8253968253968,-0.07936507936507936,-0.873015873015873,-321.8253968253968
325.0,-40.55555555555555,-64.52380952380952,-151.5079365079365,325.0,4.523809523809524,-66.11111111111111,57.06349206349206,-96.42857142857142,-48.17460317460317,4.0476190476190474,-52.93650793650794,-68.4920634920635,104.68253968253968,-72.14285714285714,200.07936507936506,-170.7142857142857,6.904761904761904,-55.0,291.984126984127,188.4920634920635,-0.23809523809523808,0.23809523809523808,-321.8253968253968
325.0,-40.55555555555555,-64.52380952380952,-151.5079365079365,325.0,4.523809523809524,-66.11111111111111,57.06349206349206,-96.42857142857142,-48.17460317460317,4.0476190476190474,-52.93650793650794,-68.4920634920635,104.68253968253968,-72.14285714285714,200.07936507936506,-170.7142857142857,6.904761904761904,-55.0,291.984126984127,188.4920634920635,-0.23809523809523808,0.23809523809523808,-321.8253968253968
325.0,-40.079365079365076,-63.41269841269841,-149.12698412698413,325.0,2.142857142857143,-65.15873015873015,55.95238095238095,-94.84126984126983,53.41269841269841,1.6666666666666665,-52.14285714285714,-67.6984126984127,102.77777777777777,-71.03174603174602,196.42857142857142,-167.85714285714286,4.2063492063492065,-54.047619047619044,287.06349206349205,185.47619047619045,-0.23809523809523808,-0.3968253968253968,-321.8253968253968
325.0,-40.079365079365076,-63.41269841269841,-149.12698412698413,325.0,2.142857142857143,-65.15873015873015,55.95238095238095,-94.84126984126983,53.41269841269841,1.6666666666666665,-52.14285714285714,-67.6984126984127,102.77777777777777,-71.03174603174602,196.42857142857142,-167.85714285714286,4.2063492063492065,-54.047619047619044,287.06349206349205,185.47619047619045,-0.23809523809523808,-0.3968253968253968,-321.8253968253968
325.0,-39.285714285714285,-62.460317460317455,-146.42857142857142,325.0,1.349206349206349,-63.888888888888886,54.841269841269835,-93.09523809523809,68.01587301587301,1.0317460317460316,-51.19047619047619,-66.58730158730158,101.03174603174602,-69.92063492063491,192.93650793650792,-165.0,3.73015873015873,-53.25396825396825,282.6190476190476,182.14285714285714,-0.3968253968253968,0.3968253968253968,-321.8253968253968
325.0,-39.285714285714285,-62.460317460317455,-146.42857142857142,325.0,1.349206349206349,-63.888888888888886,54.841269841269835,-93.09523809523809,68.01587301587301,1.0317460317460316,-51.19047619047619,-66.58730158730158,101.03174603174602,-69.92063492063491,192.93650793650792,-165.0,3.73015873015873,-53.25396825396825,282.6190476190476,182.14285714285714,-0.3968253968253968,0.3968253968253968,-321.8253968253968
325.0,-38.65079365079365,-61.34920634920635,-144.04761904761904,324.5238095238095,2.3015873015873014,-63.095238095238095,54.2063492063492,-91.66666666666666,65.31746031746032,2.142857142857143,-50.39682539682539,-65.47619047619047,99.28571428571428,-68.80952380952381,189.28571428571428,-161.984126984127,4.841269841269841,-52.3015873015873,277.85714285714283,178.8095238095238,-0.873015873015873,-0.3968253968253968,-166.26984126984127
325.0,-38.65079365079365,-61.34920634920635,-144.04761904761904,324.5238095238095,2.3015873015873014,-63.095238095238095,54.2063492063492,-91.66666666666666,65.31746031746032,2.142857142857143,-50.39682539682539,-65.47619047619047,99.28571428571428,-68.80952380952381,189.28571428571428,-161.984126984127,4.841269841269841,-52.3015873015873,277.85714285714283,178.8095238095238,-0.873015873015873,-0.3968253968253968,-166.26984126984127
325.0,-37.857142857142854,-59.92063492063492,-140.87301587301587,318.968253968254,5.0,-61.666666666666664,53.095238095238095,-89.76190476190476,62.14285714285714,4.682539682539682,-49.44444444444444,-64.04761904761905,97.06349206349206,-67.53968253968253,185.15873015873015,-158.65079365079364,7.222222222222221,-51.19047619047619,271.984126984127,175.3174603174603,0.07936507936507936,-1.0317460317460316,-166.26984126984127
325.0,-37.857142857142854,-59.92063492063492,-140.87301587301587,318.968253968254,5.0,-61.666666666666664,53.095238095238095,-89.76190476190476,62.14285714285714,4.682539682539682,-49.44444444444444,-64.04761904761905,97.06349206349206,-67.53968253968253,185.15873015873015,-158.65079365079364,7.222222222222221,-51.19047619047619,271.984126984127,175.3174603174603,0.07936507936507936,-1.0317460317460316,-166.26984126984127
325.0,-36.74603174603175,-58.01587301587301,-136.11111111111111,308.968253968254,-0.07936507936507936,-59.6031746031746,51.507936507936506,-86.74603174603175,41.34920634920635,-0.07936507936507936,-47.857142857142854,-61.82539682539682,93.73015873015872,-65.31746031746032,178.8095238095238,-153.09523809523807,2.3015873015873014,-49.6031746031746,262.9365079365079,169.12698412698413,-0.5555555555555556,-0.3968253968253968,-166.26984126984127
325.0,-36.74603174603175,-58.01587301587301,-136.11111111111111,308.968253968254,-0.07936507936507936,-59.6031746031746,51.507936507936506,-86.74603174603175,41.34920634920635,-0.07936507936507936,-47.857142857142854,-61.82539682539682,93.73015873015872,-65.31746031746032,178.8095238095238,-153.09523809523807,2.3015873015873014,-49.6031746031746,262.9365079365079,169.12698412698413,-0.5555555555555556,-0.3968253968253968,-166.26984126984127
325.0,-35.63492063492063,-56.58730158730158,-132.46031746031744,301.66666666666663,2.3015873015873014,-58.17460317460317,50.079365079365076,-84.68253968253968,35.15873015873016,2.142857142857143,-46.904761904761905,-60.238095238095234,91.34920634920634,-63.57142857142857,174.36507936507937,-149.28571428571428,4.841269841269841,-48.49206349206349,256.90476190476187,164.84126984126982,-1.1904761904761905,0.3968253968253968,-166.26984126984127
325.0,-35.63492063492063,-56.58730158730158,-132.46031746031744,301.66666666666663,2.3015873015873014,-58.17460317460317,50.079365079365076,-84.68253968253968,35.15873015873016,2.142857142857143,-46.904761904761905,-60.238095238095234,91.34920634920634,-63.57142857142857,174.36507936507937,-149.28571428571428,4.841269841269841,-48.49206349206349,256.90476190476187,164.84126984126982,-1.1904761904761905,0.3968253968253968,-166.26984126984127
325.0,-35.63492063492063,-56.58730158730158,-132.46031746031744,301.66666666666663,2.3015873015873014,-58.17460317460317,50.079365079365076,-84.68253968253968,35.15873015873016,2.142857142857143,-46.904761904761905,-60.238095238095234,91.34920634920634,-63.57142857142857,174.36507936507937,-149.28571428571428,4.841269841269841,-48.49206349206349,256.90476190476187,164.84126984126982,-1.1904761904761905,0.3968253968253968,-166.26984126984127
325.0,-35.63492063492063,-56.58730158730158,-132.46031746031744,301.66666666666663,2.3015873015873014,-58.17460317460317,50.079365079365076,-84.68253968253968,35.15873015873016,2.142857142857143,-46.904761904761905,-60.238095238095234,91.34920634920634,-63.57142857142857,174.36507936507937,-149.28571428571428,4.841269841269841,-48.49206349206349,256.90476190476187,164.84126984126982,-1.1904761904761905,0.3968253968253968,-166.26984126984127
325.0,-35.63492063492063,-56.58730158730158,-132.46031746031744,301.66666666666663,2.3015873015873014,-58.17460317460317,50.079365079365076,-84.68253968253968,35.15873015873016,2.142857142857143,-46.904761904761905,-60.238095238095234,91.34920634920634,-63.57142857142857,174.36507936507937,-149.28571428571428,4.841269841269841,-48.49206349206349,256.90476190476187,164.84126984126982,-1.1904761904761905,0.3968253968253968,-321.8253968253968
325.0,-35.63492063492063,-56.58730158730158,-132.46031746031744,301.66666666666663,2.3015873015873014,-58.17460317460317,50.079365079365076,-84.68253968253968,35.15873015873016,2.142857142857143,-46.904761904761905,-60.238095238095234,91.34920634920634,-63.57142857142857,174.36507936507937,-149.28571428571428,4.841269841269841,-48.49206349206349,256.90476190476187,164.84126984126982,-1.1904761904761905,0.3968253968253968,-321.8253968253968
321.8253968253968,-32.3015873015873,-51.19047619047619,-119.28571428571428,273.0952380952381,3.73015873015873,-52.61904761904761,45.317460317460316,-68.4920634920635,49.12698412698413,3.888888888888889,-42.3015873015873,-54.36507936507936,81.98412698412697,-57.698412698412696,159.28571428571428,-134.04761904761904,6.111111111111111,-43.888888888888886,231.8253968253968,147.85714285714286,-0.873015873015873,0.07936507936507936,-321.8253968253968
321.8253968253968,-32.3015873015873,-51.19047619047619,-119.28571428571428,273.0952380952381,3.73015873015873,-52.61904761904761,45.317460317460316,-68.4920634920635,49.12698412698413,3.888888888888889,-42.3015873015873,-54.36507936507936,81.98412698412697,-57.698412698412696,159.28571428571428,-134.04761904761904,6.111111111111111,-43.888888888888886,231.8253968253968,147.85714285714286,-0.873015873015873,0.07936507936507936,-321.8253968253968
73.88888888888889,93.09523809523809,-12.46031746031746,-25.79365079365079,61.34920634920635,1.1904761904761905,-12.777777777777777,-125.31746031746032,93.25396825396825,-250.2380952380952,-93.88888888888889,-9.920634920634921,-12.619047619047619,16.904761904761905,-14.523809523809524,325.0,215.0,1.507936507936508,-11.031746031746032,50.55555555555555,30.555555555555554,-0.5555555555555556,-0.5555555555555556,-321.8253968253968
73.88888888888889,93.09523809523809,-12.46031746031746,-25.79365079365079,61.34920634920635,1.1904761904761905,-12.777777777777777,-125.31746031746032,93.25396825396825,-250.2380952380952,-93.88888888888889,-9.920634920634921,-12.619047619047619,16.904761904761905,-14.523809523809524,325.0,215.0,1.507936507936508,-11.031746031746032,50.55555555555555,30.555555555555554,-0.5555555555555556,-0.5555555555555556,-321.8253968253968
73.88888888888889,93.09523809523809,-12.46031746031746,-25.79365079365079,61.34920634920635,1.1904761904761905,-12.777777777777777,-125.31746031746032,93.25396825396825,-250.2380952380952,-93.88888888888889,-9.920634920634921,-12.619047619047619,16.904761904761905,-14.523809523809524,325.0,215.0,1.507936507936508,-11.031746031746032,50.55555555555555,30.555555555555554,-0.5555555555555556,-0.5555555555555556,-321.8253968253968
73.88888888888889,93.09523809523809,-12.46031746031746,-25.79365079365079,61.34920634920635,1.1904761904761905,-12.777777777777777,-125.31746031746032,93.25396825396825,-250.2380952380952,-93.88888888888889,-9.920634920634921,-12.619047619047619,16.904761904761905,-14.523809523809524,325.0,215.0,1.507936507936508,-11.031746031746032,50.55555555555555,30.555555555555554,-0.5555555555555556,-0.5555555555555556,-321.8253968253968
73.88888888888889,93.09523809523809,-12.46031746031746,-25.79365079365079,61.34920634920635,1.1904761904761905,-12.777777777777777,-125.31746031746032,93.25396825396825,-250.2380952380952,-93.88888888888889,-9.920634920634921,-12.619047619047619,16.904761904761905,-14.523809523809524,325.0,215.0,1.507936507936508,-11.031746031746032,50.55555555555555,30.555555555555554,-0.5555555555555556,-0.5555555555555556,-321.8253968253968
73.88888888888889,93.09523809523809,-12.46031746031746,-25.79365079365079,61.34920634920635,1.1904761904761905,-12.777777777777777,-125.31746031746032,93.25396825396825,-250.2380952380952,-93.88888888888889,-9.920634920634921,-12.619047619047619,16.904761904761905,-14.523809523809524,325.0,215.0,1.507936507936508,-11.031746031746032,50.55555555555555,30.555555555555554,-0.5555555555555556,-0.5555555555555556,-321.8253968253968
73.88888888888889,93.09523809523809,-12.46031746031746,-25.79365079365079,61.34920634920635,1.1904761904761905,-12.777777777777777,-125.31746031746032,93.25396825396825,-250.2380952380952,-93.88888888888889,-9.920634920634921,-12.619047619047619,16.904761904761905,-14.523809523809524,325.0,215.0,1.507936507936508,-11.031746031746032,50.55555555555555,30.555555555555554,-0.5555555555555556,-0.5555555555555556,-166.26984126984127
73.88888888888889,93.09523809523809,-12.46031746031746,-25.79365079365079,61.34920634920635,1.1904761904761905,-12.777777777777777,-125.31746031746032,93.25396825396825,-250.2380952380952,-93.88888888888889,-9.920634920634921,-12.619047619047619,16.904761904761905,-14.523809523809524,325.0,215.0,1.507936507936508,-11.031746031746032,50.55555555555555,30.555555555555554,-0.5555555555555556,-0.5555555555555556,-166.26984126984127
73.88888888888889,93.09523809523809,-12.46031746031746,-25.79365079365079,61.34920634920635,1.1904761904761905,-12.777777777777777,-125.31746031746032,93.25396825396825,-250.2380952380952,-93.88888888888889,-9.920634920634921,-12.619047619047619,16.904761904761905,-14.523809523809524,325.0,215.0,1.507936507936508,-11.031746031746032,50.55555555555555,30.555555555555554,-0.5555555555555556,-0.5555555555555556,-166.26984126984127
73.88888888888889,93.09523809523809,-12.46031746031746,-25.79365079365079,61.34920634920635,1.1904761904761905,-12.777777777777777,-125.31746031746032,93.25396825396825,-250.2380952380952,-93.88888888888889,-9.920634920634921,-12.619047619047619,16.904761904761905,-14.523809523809524,325.0,215.0,1.507936507936508,-11.031746031746032,50.55555555555555,30.555555555555554,-0.5555555555555556,-0.5555555555555556,-166.26984126984127
73.88888888888889,93.09523809523809,-12.46031746031746,-25.79365079365079,61.34920634920635,1.1904761904761905,-12.777777777777777,-125.31746031746032,93.25396825396825,-250.2380952380952,-93.88888888888889,-9.920634920634921,-12.619047619047619,16.904761904761905,-14.523809523809524,325.0,215.0,1.507936507936508,-11.031746031746032,50.55555555555555,30.555555555555554,-0.5555555555555556,-0.5555555555555556,-166.26984126984127
73.88888888888889,93.09523809523809,-12.46031746031746,-25.79365079365079,61.34920634920635,1.1904761904761905,-12.777777777777777,-125.31746031746032,93.25396825396825,-250.2380952380952,-93.88888888888889,-9.920634920634921,-12.619047619047619,16.904761904761905,-14.523809523809524,325.0,215.0,1.507936507936508,-11.031746031746032,50.55555555555555,30.555555555555554,-0.5555555555555556,-0.5555555555555556,-166.26984126984127
73.88888888888889,93.09523809523809,-12.46031746031746,-25.79365079365079,61.34920634920635,1.1904761904761905,-12.777777777777777,-125.31746031746032,93.25396825396825,-250.2380952380952,-93.88888888888889,-9.920634920634921,-12.619047619047619,16.904761904761905,-14.523809523809524,325.0,215.0,1.507936507936508,-11.031746031746032,50.55555555555555,30.555555555555554,-0.5555555555555556,-0.5555555555555556,-166.26984126984127
73.88888888888889,93.09523809523809,-12.46031746031746,-25.79365079365079,61.34920634920635,1.1904761904761905,-12.777777777777777,-125.31746031746032,93.25396825396825,-250.2380952380952,-93.88888888888889,-9.920634920634921,-12.619047619047619,16.904761904761905,-14.523809523809524,325.0,215.0,1.507936507936508,-11.031746031746032,50.55555555555555,30.555555555555554,-0.5555555555555556,-0.5555555555555556,-166.26984126984127
73.88888888888889,93.09523809523809,-12.46031746031746,-25.79365079365079,61.34920634920635,1.1904761904761905,-12.777777777777777,-125.31746031746032,93.25396825396825,-250.2380952380952,-93.88888888888889,-9.920634920634921,-12.619047619047619,16.904761904761905,-14.523809523809524,325.0,215.0,1.507936507936508,-11.031746031746032,50.55555555555555,30.555555555555554,-0.5555555555555556,-0.5555555555555556,-166.26984126984127
73.88888888888889,93.09523809523809,-12.46031746031746,-25.79365079365079,61.34920634920635,1.1904761904761905,-12.777777777777777,-125.31746031746032,93.25396825396825,-250.2380952380952,-93.88888888888889,-9.920634920634921,-12.619047619047619,16.904761904761905,-14.523809523809524,325.0,215.0,1.507936507936508,-11.031746031746032,50.55555555555555,30.555555555555554,-0.5555555555555556,-0.5555555555555556,-166.26984126984127
73.88888888888889,93.09523809523809,-12.46031746031746,-25.79365079365079,61.34920634920635,1.1904761904761905,-12.777777777777777,-125.31746031746032,93.25396825396825,-250.2380952380952,-93.88888888888889,-9.920634920634921,-12.619047619047619,16.904761904761905,-14.523809523809524,325.0,215.0,1.507936507936508,-11.031746031746032,50.55555555555555,30.555555555555554,-0.5555555555555556,-0.5555555555555556,-321.8253968253968
73.88888888888889,93.09523809523809,-12.46031746031746,-25.79365079365079,61.34920634920635,1.1904761904761905,-12.777777777777777,-125.31746031746032,93.25396825396825,-250.2380952380952,-93.88888888888889,-9.920634920634921,-12.619047619047619,16.904761904761905,-14.523809523809524,325.0,215.0,1.507936507936508,-11.031746031746032,50.55555555555555,30.555555555555554,-0.5555555555555556,-0.5555555555555556,-321.8253968253968
73.88888888888889,93.09523809523809,-12.46031746031746,-25.79365079365079,61.34920634920635,1.1904761904761905,-12.777777777777777,-125.31746031746032,93.25396825396825,-250.2380952380952,-93.88888888888889,-9.920634920634921,-12.619047619047619,16.904761904761905,-14.523809523809524,325.0,215.0,1.507936507936508,-11.031746031746032,50.55555555555555,30.555555555555554,-0.5555555555555556,-0.5555555555555556,-321.8253968253968
73.88888888888889,93.09523809523809,-12.46031746031746,-25.79365079365079,61.34920634920635,1.1904761904761905,-12.777777777777777,-125.31746031746032,93.25396825396825,-250.2380952380952,-93.88888888888889,-9.920634920634921,-12.619047619047619,16.904761904761905,-14.523809523809524,325.0,215.0,1.507936507936508,-11.031746031746032,50.55555555555555,30.555555555555554,-0.5555555555555556,-0.5555555555555556,-321.8253968253968
73.88888888888889,93.09523809523809,-12.46031746031746,-25.79365079365079,61.34920634920635,1.1904761904761905,-12.777777777777777,-125.31746031746032,93.25396825396825,-250.2380952380952,-93.88888888888889,-9.920634920634921,-12.619047619047619,16.904761904761905,-14.523809523809524,325.0,215.0,1.507936507936508,-11.031746031746032,50.55555555555555,30.555555555555554,-0.5555555555555556,-0.5555555555555556,-321.8253968253968
73.88888888888889,93.09523809523809,-12.46031746031746,-25.79365079365079,61.34920634920635,1.1904761904761905,-12.777777777777777,-125.31746031746032,93.25396825396825,-250.2380952380952,-93.88888888888889,-9.920634920634921,-12.619047619047619,16.904761904761905,-14.523809523809524,325.0,215.0,1.507936507936508,-11.031746031746032,50.55555555555555,30.555555555555554,-0.5555555555555556,-0.5555555555555556,-321.8253968253968
73.88888888888889,93.09523809523809,-12.46031746031746,-25.79365079365079,61.34920634920635,1.1904761904761905,-12.777777777777777,-125.31746031746032,93.25396825396825,-250.2380952380952,-93.88888888888889,-9.920634920634921,-12.619047619047619,16.904761904761905,-14.523809523809524,325.0,215.0,1.507936507936508,-11.031746031746032,50.55555555555555,30.555555555555554,-0.5555555555555556,-0.5555555555555556,-321.8253968253968
73.88888888888889,93.09523809523809,-12.46031746031746,-25.79365079365079,61.34920634920635,1.1904761904761905,-12.777777777777777,-125.31746031746032,93.25396825396825,-250.2380952380952,-93.88888888888889,-9.920634920634921,-12.619047619047619,16.904761904761905,-14.523809523809524,325.0,215.0,1.507936507936508,-11.031746031746032,50.55555555555555,30.555555555555554,-0.5555555555555556,-0.5555555555555556,-321.8253968253968
73.88888888888889,93.09523809523809,-12.46031746031746,-25.79365079365079,61.34920634920635,1.1904761904761905,-12.777777777777777,-125.31746031746032,93.25396825396825,-250.2380952380952,-93.88888888888889,-9.920634920634921,-12.619047619047619,16.904761904761905,-14.523809523809524,325.0,215.0,1.507936507936508,-11.031746031746032,50.55555555555555,30.555555555555554,-0.5555555555555556,-0.5555555555555556,-321.8253968253968
73.88888888888889,93.09523809523809,-12.46031746031746,-25.79365079365079,61.34920634920635,1.1904761904761905,-12.777777777777777,-125.31746031746032,93.25396825396825,-250.2380952380952,-93.88888888888889,-9.920634920634921,-12.619047619047619,16.904761904761905,-14.523809523809524,325.0,215.0,1.507936507936508,-11.031746031746032,50.55555555555555,30.555555555555554,-0.5555555555555556,-0.5555555555555556,-321.8253968253968
27.698412698412696,59.76190476190476,-19.92063492063492,-3.73015873015873,7.698412698412698,123.88888888888889,-5.317460317460317,-31.666666666666664,46.74603174603175,-11.349206349206348,-313.88888888888886,-3.73015873015873,-15.476190476190474,6.111111111111111,-166.58730158730157,137.85714285714286,152.3015873015873,-3.253968253968254,153.88888888888889,28.65079365079365,-149.44444444444443,-0.5555555555555556,-0.5555555555555556,-166.26984126984127
27.698412698412696,59.76190476190476,-19.92063492063492,-3.73015873015873,7.698412698412698,123.88888888888889,-5.317460317460317,-31.666666666666664,46.74603174603175,-11.349206349206348,-313.88888888888886,-3.73015873015873,-15.476190476190474,6.111111111111111,-166.58730158730157,137.85714285714286,152.3015873015873,-3.253968253968254,153.88888888888889,28.65079365079365,-149.44444444444443,-0.5555555555555556,-0.5555555555555556,-166.26984126984127
0.07936507936507936,-5.952380952380952,-29.6031746031746,12.3015873015873,-31.666666666666664,251.98412698412696,-0.07936507936507936,21.507936507936506,-7.857142857142857,16.904761904761905,-302.77777777777777,-0.07936507936507936,-21.19047619047619,-0.3968253968253968,-321.3492063492063,-8.333333333333332,-20.396825396825395,-3.253968253968254,316.4285714285714,18.49206349206349,-322.1428571428571,-0.5555555555555556,-0.5555555555555556,-166.26984126984127
0.07936507936507936,-5.952380952380952,-29.6031746031746,12.3015873015873,-31.666666666666664,251.98412698412696,-0.07936507936507936,21.507936507936506,-7.857142857142857,16.904761904761905,-302.77777777777777,-0.07936507936507936,-21.19047619047619,-0.3968253968253968,-321.3492063492063,-8.333333333333332,-20.396825396825395,-3.253968253968254,316.4285714285714,18.49206349206349,-322.1428571428571,-0.5555555555555556,-0.5555555555555556,-166.26984126984127
0.07936507936507936,-5.952380952380952,-29.6031746031746,12.3015873015873,-31.666666666666664,251.98412698412696,-0.07936507936507936,21.507936507936506,-7.857142857142857,16.904761904761905,-302.77777777777777,-0.07936507936507936,-21.19047619047619,-0.3968253968253968,-321.3492063492063,-8.333333333333332,-20.396825396825395,-3.253968253968254,316.4285714285714,18.49206349206349,-322.1428571428571,-0.5555555555555556,-0.5555555555555556,-166.26984126984127
0.07936507936507936,-5.952380952380952,-29.6031746031746,12.3015873015873,-31.666666666666664,251.98412698412696,-0.07936507936507936,21.507936507936506,-7.857142857142857,16.904761904761905,-302.77777777777777,-0.07936507936507936,-21.19047619047619,-0.3968253968253968,-321.3492063492063,-8.333333333333332,-20.396825396825395,-3.253968253968254,316.4285714285714,18.49206349206349,-322.1428571428571,-0.5555555555555556,-0.5555555555555556,-166.26984126984127
0.07936507936507936,-5.952380952380952,-29.6031746031746,12.3015873015873,-31.666666666666664,251.98412698412696,-0.07936507936507936,21.507936507936506,-7.857142857142857,16.904761904761905,-302.77777777777777,-0.07936507936507936,-21.19047619047619,-0.3968253968253968,-321.3492063492063,-8.333333333333332,-20.396825396825395,-3.253968253968254,316.4285714285714,18.49206349206349,-322.1428571428571,-0.5555555555555556,-0.5555555555555556,-166.26984126984127
0.07936507936507936,-5.952380952380952,-29.6031746031746,12.3015873015873,-31.666666666666664,251.98412698412696,-0.07936507936507936,21.507936507936506,-7.857142857142857,16.904761904761905,-302.77777777777777,-0.07936507936507936,-21.19047619047619,-0.3968253968253968,-321.3492063492063,-8.333333333333332,-20.396825396825395,-3.253968253968254,316.4285714285714,18.49206349206349,-322.1428571428571,-0.5555555555555556,-0.5555555555555556,-166.26984126984127
24.68253968253968,68.01587301587301,-19.6031746031746,-2.619047619047619,5.0,124.2063492063492,-4.682539682539682,-36.904761904761905,48.33333333333333,-34.682539682539684,-313.88888888888886,12.936507936507935,-15.158730158730158,5.476190476190476,-166.11111111111111,121.82539682539682,152.3015873015873,-3.4126984126984126,166.42857142857142,26.428571428571427,-150.7142857142857,-0.3968253968253968,-0.23809523809523808,-166.26984126984127
24.68253968253968,68.01587301587301,-19.6031746031746,-2.619047619047619,5.0,124.2063492063492,-4.682539682539682,-36.904761904761905,48.33333333333333,-34.682539682539684,-313.88888888888886,12.936507936507935,-15.158730158730158,5.476190476190476,-166.11111111111111,121.82539682539682,152.3015873015873,-3.4126984126984126,166.42857142857142,26.428571428571427,-150.7142857142857,-0.3968253968253968,-0.23809523809523808,-166.26984126984127
48.49206349206349,138.65079365079364,-8.968253968253968,-17.38095238095238,41.19047619047619,0.5555555555555556,-8.492063492063492,-95.0,105.95238095238095,-115.95238095238095,-325.0,29.444444444444443,-8.809523809523808,11.507936507936508,-10.396825396825395,248.65079365079364,325.0,0.7142857142857142,22.142857142857142,34.047619047619044,20.396825396825395,-0.5555555555555556,0.7142857142857142,-321.8253968253968
48.49206349206349,138.65079365079364,-8.968253968253968,-17.38095238095238,41.19047619047619,0.5555555555555556,-8.492063492063492,-95.0,105.95238095238095,-115.95238095238095,-325.0,29.444444444444443,-8.809523809523808,11.507936507936508,-10.396825396825395,248.65079365079364,325.0,0.7142857142857142,22.142857142857142,34.047619047619044,20.396825396825395,-0.5555555555555556,0.7142857142857142,-321.8253968253968
47.698412698412696,138.96825396825395,-8.809523809523808,-16.904761904761905,40.55555555555555,1.6666666666666665,-5.952380952380952,-91.03174603174602,105.47619047619047,-156.58730158730157,-325.0,37.53968253968254,-8.809523809523808,11.19047619047619,-10.396825396825395,244.36507936507934,325.0,1.984126984126984,29.285714285714285,33.41269841269841,20.07936507936508,-1.349206349206349,0.3968253968253968,-321.8253968253968
47.698412698412696,138.96825396825395,-8.809523809523808,-16.904761904761905,40.55555555555555,1.6666666666666665,-5.952380952380952,-91.03174603174602,105.47619047619047,-156.58730158730157,-325.0,37.53968253968254,-8.809523809523808,11.19047619047619,-10.396825396825395,244.36507936507934,325.0,1.984126984126984,29.285714285714285,33.41269841269841,20.07936507936508,-1.349206349206349,0.3968253968253968,-321.8253968253968
46.904761904761905,143.25396825396825,-8.809523809523808,-16.904761904761905,39.92063492063492,-0.5555555555555556,-4.365079365079365,-95.31746031746032,104.2063492063492,-143.25396825396825,-325.0,41.34920634920635,-8.492063492063492,11.031746031746032,-10.396825396825395,240.07936507936506,325.0,-0.7142857142857142,31.98412698412698,32.61904761904762,19.76190476190476,0.07936507936507936,-0.07936507936507936,-321.8253968253968
46.904761904761905,143.25396825396825,-8.809523809523808,-16.904761904761905,39.92063492063492,-0.5555555555555556,-4.365079365079365,-95.31746031746032,104.2063492063492,-143.25396825396825,-325.0,41.34920634920635,-8.492063492063492,11.031746031746032,-10.396825396825395,240.07936507936506,325.0,-0.7142857142857142,31.98412698412698,32.61904761904762,19.76190476190476,0.07936507936507936,-0.07936507936507936,-321.8253968253968
45.95238095238095,139.12698412698413,-8.65079365079365,-16.428571428571427,39.285714285714285,3.888888888888889,-6.587301587301587,-104.04761904761904,99.6031746031746,-164.84126984126982,-325.0,41.19047619047619,-8.65079365079365,10.873015873015872,-10.238095238095237,236.1111111111111,325.0,4.0476190476190474,25.476190476190474,32.3015873015873,19.444444444444443,-0.7142857142857142,-1.1904761904761905,-321.8253968253968
45.95238095238095,139.12698412698413,-8.65079365079365,-16.428571428571427,39.285714285714285,3.888888888888889,-6.587301587301587,-104.04761904761904,99.6031746031746,-164.84126984126982,-325.0,41.19047619047619,-8.65079365079365,10.873015873015872,-10.238095238095237,236.1111111111111,325.0,4.0476190476190474,25.476190476190474,32.3015873015873,19.444444444444443,-0.7142857142857142,-1.1904761904761905,-321.8253968253968
45.317460317460316,137.69841269841268,-8.492063492063492,-16.26984126984127,38.65079365079365,4.682539682539682,-7.3809523809523805,-108.33333333333333,96.74603174603175,-167.38095238095238,-325.0,44.047619047619044,-8.492063492063492,10.714285714285714,-9.920634920634921,231.98412698412696,325.0,4.841269841269841,20.555555555555554,31.825396825396822,19.126984126984127,-0.23809523809523808,-0.07936507936507936,-321.8253968253968
45.317460317460316,137.69841269841268,-8.492063492063492,-16.26984126984127,38.65079365079365,4.682539682539682,-7.3809523809523805,-108.33333333333333,96.74603174603175,-167.38095238095238,-325.0,44.047619047619044,-8.492063492063492,10.714285714285714,-9.920634920634921,231.98412698412696,325.0,4.841269841269841,20.555555555555554,31.825396825396822,19.126984126984127,-0.23809523809523808,-0.07936507936507936,-321.8253968253968
45.15873015873016,136.11111111111111,-8.492063492063492,-16.11111111111111,38.49206349206349,5.634920634920634,-8.015873015873016,-111.66666666666666,95.47619047619047,-164.84126984126982,-325.0,43.57142857142857,-8.333333333333332,10.714285714285714,-9.761904761904761,230.87301587301587,325.0,5.634920634920634,17.698412698412696,31.825396825396822,18.96825396825397,-0.07936507936507936,0.07936507936507936,-166.26984126984127
45.15873015873016,136.11111111111111,-8.492063492063492,-16.11111111111111,38.49206349206349,5.634920634920634,-8.015873015873016,-111.66666666666666,95.47619047619047,-164.84126984126982,-325.0,43.57142857142857,-8.333333333333332,10.714285714285714,-9.761904761904761,230.87301587301587,325.0,5.634920634920634,17.698412698412696,31.825396825396822,18.96825396825397,-0.07936507936507936,0.07936507936507936,-166.26984126984127
45.15873015873016,136.11111111111111,-8.492063492063492,-16.11111111111111,38.49206349206349,5.634920634920634,-8.015873015873016,-111.66666666666666,95.47619047619047,-164.84126984126982,-325.0,43.57142857142857,-8.333333333333332,10.714285714285714,-9.761904761904761,230.87301587301587,325.0,5.634920634920634,17.698412698412696,31.825396825396822,18.96825396825397,-0.07936507936507936,0.07936507936507936,-166.26984126984127
45.15873015873016,136.11111111111111,-8.492063492063492,-16.11111111111111,38.49206349206349,5.634920634920634,-8.015873015873016,-111.66666666666666,95.47619047619047,-164.84126984126982,-325.0,43.57142857142857,-8.333333333333332,10.714285714285714,-9.761904761904761,230.87301587301587,325.0,5.634920634920634,17.698412698412696,31.825396825396822,18.96825396825397,-0.07936507936507936,0.07936507936507936,-166.26984126984127
45.15873015873016,136.11111111111111,-8.492063492063492,-16.11111111111111,38.49206349206349,5.634920634920634,-8.015873015873016,-111.66666666666666,95.47619047619047,-164.84126984126982,-325.0,43.57142857142857,-8.333333333333332,10.714285714285714,-9.761904761904761,230.87301587301587,325.0,5.634920634920634,17.698412698412696,31.825396825396822,18.96825396825397,-0.07936507936507936,0.07936507936507936,-166.26984126984127
45.15873015873016,136.11111111111111,-8.492063492063492,-16.11111111111111,38.49206349206349,5.634920634920634,-8.015873015873016,-111.66666666666666,95.47619047619047,-164.84126984126982,-325.0,43.57142857142857,-8.333333333333332,10.714285714285714,-9.761904761904761,230.87301587301587,325.0,5.634920634920634,17.698412698412696,31.825396825396822,18.96825396825397,-0.07936507936507936,0.07936507936507936,-166.26984126984127
45.15873015873016,136.11111111111111,-8.492063492063492,-16.11111111111111,38.49206349206349,5.634920634920634,-8.015873015873016,-111.66666666666666,95.47619047619047,-164.84126984126982,-325.0,43.57142857142857,-8.333333333333332,10.714285714285714,-9.761904761904761,230.87301587301587,325.0,5.634920634920634,17.698412698412696,31.825396825396822,18.96825396825397,-0.07936507936507936,0.07936507936507936,-166.26984126984127
45.15873015873016,136.11111111111111,-8.492063492063492,-16.11111111111111,38.49206349206349,5.634920634920634,-8.015873015873016,-111.66666666666666,95.47619047619047,-164.84126984126982,-325.0,43.57142857142857,-8.333333333333332,10.714285714285714,-9.761904761904761,230.87301587301587,325.0,5.634920634920634,17.698412698412696,31.825396825396822,18.96825396825397,-0.07936507936507936,0.07936507936507936,-166.26984126984127
41.666666666666664,137.69841269841268,-8.015873015873016,-15.0,35.63492063492063,4.682539682539682,48.01587301587301,-108.01587301587301,135.3174603174603,-218.8095238095238,-322.46031746031747,52.61904761904761,-7.857142857142857,10.079365079365079,-9.444444444444445,213.7301587301587,325.0,4.682539682539682,43.888888888888886,29.126984126984127,17.698412698412696,0.3968253968253968,-0.3968253968253968,-166.26984126984127
41.666666666666664,137.69841269841268,-8.015873015873016,-15.0,35.63492063492063,4.682539682539682,48.01587301587301,-108.01587301587301,135.3174603174603,-218.8095238095238,-322.46031746031747,52.61904761904761,-7.857142857142857,10.079365079365079,-9.444444444444445,213.7301587301587,325.0,4.682539682539682,43.888888888888886,29.126984126984127,17.698412698412696,0.3968253968253968,-0.3968253968253968,-166.26984126984127
40.714285714285715,136.11111111111111,-8.015873015873016,-14.84126984126984,34.84126984126984,3.73015873015873,52.61904761904761,-106.1111111111111,137.69841269841268,-151.19047619047618,-315.7936507936508,59.44444444444444,-7.698412698412698,9.603174603174603,-9.444444444444445,208.96825396825395,325.0,3.253968253968254,49.6031746031746,28.65079365079365,17.22222222222222,-1.349206349206349,-0.7142857142857142,-321.8253968253968
40.714285714285715,136.11111111111111,-8.015873015873016,-14.84126984126984,34.84126984126984,3.73015873015873,52.61904761904761,-106.1111111111111,137.69841269841268,-151.19047619047618,-315.7936507936508,59.44444444444444,-7.698412698412698,9.603174603174603,-9.444444444444445,208.96825396825395,325.0,3.253968253968254,49.6031746031746,28.65079365079365,17.22222222222222,-1.349206349206349,-0.7142857142857142,-321.8253968253968
39.92063492063492,126.26984126984127,-7.698412698412698,-14.523809523809524,34.52380952380952,1.507936507936508,58.8095238095238,-111.19047619047619,138.33333333333331,-174.2063492063492,-310.7142857142857,58.650793650793645,-7.857142857142857,9.444444444444445,-9.126984126984127,157.53968253968253,325.0,1.349206349206349,50.39682539682539,28.174603174603174,17.063492063492063,-0.23809523809523808,-0.07936507936507936,-321.8253968253968
39.92063492063492,126.26984126984127,-7.698412698412698,-14.523809523809524,34.52380952380952,1.507936507936508,58.8095238095238,-111.19047619047619,138.33333333333331,-174.2063492063492,-310.7142857142857,58.650793650793645,-7.857142857142857,9.444444444444445,-9.126984126984127,157.53968253968253,325.0,1.349206349206349,50.39682539682539,28.174603174603174,17.063492063492063,-0.23809523809523808,-0.07936507936507936,-321.8253968253968
39.92063492063492,124.84126984126983,-7.698412698412698,-14.523809523809524,34.36507936507936,0.3968253968253968,60.873015873015866,-110.39682539682539,139.12698412698413,-182.3015873015873,-309.2857142857143,59.44444444444444,-7.857142857142857,9.603174603174603,-9.126984126984127,108.80952380952381,325.0,-0.07936507936507936,52.61904761904761,28.015873015873016,17.063492063492063,-0.07936507936507936,0.23809523809523808,-321.8253968253968
39.92063492063492,124.84126984126983,-7.698412698412698,-14.523809523809524,34.36507936507936,0.3968253968253968,60.873015873015866,-110.39682539682539,139.12698412698413,-182.3015873015873,-309.2857142857143,59.44444444444444,-7.857142857142857,9.603174603174603,-9.126984126984127,108.80952380952381,325.0,-0.07936507936507936,52.61904761904761,28.015873015873016,17.063492063492063,-0.07936507936507936,0.23809523809523808,-321.8253968253968
38.65079365079365,136.9047619047619,-7.5396825396825395,-14.206349206349206,33.25396825396825,-6.587301587301587,66.42857142857143,-101.03174603174602,138.8095238095238,-159.9206349206349,-300.39682539682536,70.23809523809524,-7.063492063492063,9.285714285714285,-8.968253968253968,-291.031746031746,325.0,-6.26984126984127,62.93650793650793,27.38095238095238,16.428571428571427,-0.873015873015873,-0.5555555555555556,-321.8253968253968
38.65079365079365,136.9047619047619,-7.5396825396825395,-14.206349206349206,33.25396825396825,-6.587301587301587,66.42857142857143,-101.03174603174602,138.8095238095238,-159.9206349206349,-300.39682539682536,70.23809523809524,-7.063492063492063,9.285714285714285,-8.968253968253968,-291.031746031746,325.0,-6.26984126984127,62.93650793650793,27.38095238095238,16.428571428571427,-0.873015873015873,-0.5555555555555556,-321.8253968253968
37.857142857142854,138.17460317460316,-7.5396825396825395,-13.888888888888888,32.77777777777778,-1.0317460317460316,59.12698412698413,-110.55555555555554,130.87301587301587,-179.76190476190476,-295.1587301587301,70.87301587301587,-7.222222222222221,8.968253968253968,-8.809523809523808,-262.46031746031747,325.0,-1.349206349206349,58.650793650793645,26.9047619047619,16.11111111111111,-0.873015873015873,-0.23809523809523808,-321.8253968253968
37.857142857142854,138.17460317460316,-7.5396825396825395,-13.888888888888888,32.77777777777778,-1.0317460317460316,59.12698412698413,-110.55555555555554,130.87301587301587,-179.76190476190476,-295.1587301587301,70.87301587301587,-7.222222222222221,8.968253968253968,-8.809523809523808,-262.46031746031747,325.0,-1.349206349206349,58.650793650793645,26.9047619047619,16.11111111111111,-0.873015873015873,-0.23809523809523808,-321.8253968253968
37.38095238095238,127.6984126984127,-7.3809523809523805,-13.571428571428571,32.14285714285714,-1.507936507936508,52.61904761904761,-117.85714285714285,122.77777777777777,-200.3968253968254,-290.55555555555554,66.42857142857143,-7.063492063492063,8.968253968253968,-8.65079365079365,-114.36507936507935,325.0,-1.507936507936508,51.19047619047619,26.428571428571427,15.793650793650793,-0.5555555555555556,-0.07936507936507936,-166.26984126984127
37.38095238095238,127.6984126984127,-7.3809523809523805,-13.571428571428571,32.14285714285714,-1.507936507936508,52.61904761904761,-117.85714285714285,122.77777777777777,-200.3968253968254,-290.55555555555554,66.42857142857143,-7.063492063492063,8.968253968253968,-8.65079365079365,-114.36507936507935,325.0,-1.507936507936508,51.19047619047619,26.428571428571427,15.793650793650793,-0.5555555555555556,-0.07936507936507936,-166.26984126984127
36.58730158730159,121.03174603174602,-7.222222222222221,-13.412698412698411,31.507936507936506,-1.349206349206349,57.38095238095238,-115.31746031746032,123.88888888888889,-143.88888888888889,-285.7936507936508,67.06349206349206,-7.063492063492063,8.809523809523808,-8.492063492063492,-147.06349206349205,325.0,-1.1904761904761905,52.14285714285714,26.11111111111111,15.634920634920634,-1.349206349206349,-0.23809523809523808,-166.26984126984127
36.58730158730159,121.03174603174602,-7.222222222222221,-13.412698412698411,31.507936507936506,-1.349206349206349,57.38095238095238,-115.31746031746032,123.88888888888889,-143.88888888888889,-285.7936507936508,67.06349206349206,-7.063492063492063,8.809523809523808,-8.492063492063492,-147.06349206349205,325.0,-1.1904761904761905,52.14285714285714,26.11111111111111,15.634920634920634,-1.349206349206349,-0.23809523809523808,-166.26984126984127
36.11111111111111,131.03174603174602,-7.222222222222221,-13.412698412698411,31.19047619047619,-1.1904761904761905,62.77777777777777,-107.22222222222221,126.58730158730158,-113.25396825396825,-280.87301587301585,73.73015873015872,-6.746031746031746,8.65079365079365,-8.492063492063492,-270.55555555555554,325.0,-1.0317460317460316,58.8095238095238,25.476190476190474,15.317460317460316,-1.0317460317460316,-0.07936507936507936,-166.26984126984127
36.11111111111111,131.03174603174602,-7.222222222222221,-13.412698412698411,31.19047619047619,-1.1904761904761905,62.77777777777777,-107.22222222222221,126.58730158730158,-113.25396825396825,-280.87301587301585,73.73015873015872,-6.746031746031746,8.65079365079365,-8.492063492063492,-270.55555555555554,325.0,-1.0317460317460316,58.8095238095238,25.476190476190474,15.317460317460316,-1.0317460317460316,-0.07936507936507936,-166.26984126984127
18.49206349206349,140.7142857142857,-7.222222222222221,-13.095238095238095,30.87301587301587,-0.873015873015873,61.19047619047619,-101.03174603174602,122.93650793650794,-115.31746031746032,-277.38095238095235,81.5079365079365,-6.904761904761904,8.492063492063492,-8.492063492063492,-286.26984126984127,325.0,-1.0317460317460316,68.17460317460318,25.476190476190474,15.317460317460316,-0.5555555555555556,-1.0317460317460316,-166.26984126984127
18.49206349206349,140.7142857142857,-7.222222222222221,-13.095238095238095,30.87301587301587,-0.873015873015873,61.19047619047619,-101.03174603174602,122.93650793650794,-115.31746031746032,-277.38095238095235,81.5079365079365,-6.904761904761904,8.492063492063492,-8.492063492063492,-286.26984126984127,325.0,-1.0317460317460316,68.17460317460318,25.476190476190474,15.317460317460316,-0.5555555555555556,-1.0317460317460316,-166.26984126984127
18.49206349206349,140.7142857142857,-7.222222222222221,-13.095238095238095,30.87301587301587,-0.873015873015873,61.19047619047619,-101.03174603174602,122.93650793650794,-115.31746031746032,-277.38095238095235,81.5079365079365,-6.904761904761904,8.492063492063492,-8.492063492063492,-286.26984126984127,325.0,-1.0317460317460316,68.17460317460318,25.476190476190474,15.317460317460316,-0.5555555555555556,-1.0317460317460316,-166.26984126984127
18.49206349206349,140.7142857142857,-7.222222222222221,-13.095238095238095,30.87301587301587,-0.873015873015873,61.19047619047619,-101.03174603174602,122.93650793650794,-115.31746031746032,-277.38095238095235,81.5079365079365,-6.904761904761904,8.492063492063492,-8.492063492063492,-286.26984126984127,325.0,-1.0317460317460316,68.17460317460318,25.476190476190474,15.317460317460316,-0.5555555555555556,-1.0317460317460316,-166.26984126984127
18.49206349206349,140.7142857142857,-7.222222222222221,-13.095238095238095,30.87301587301587,-0.873015873015873,61.19047619047619,-101.03174603174602,122.93650793650794,-115.31746031746032,-277.38095238095235,81.5079365079365,-6.904761904761904,8.492063492063492,-8.492063492063492,-286.26984126984127,325.0,-1.0317460317460316,68.17460317460318,25.476190476190474,15.317460317460316,-0.5555555555555556,-1.0317460317460316,-321.8253968253968
18.49206349206349,140.7142857142857,-7.222222222222221,-13.095238095238095,30.87301587301587,-0.873015873015873,61.19047619047619,-101.03174603174602,122.93650793650794,-115.31746031746032,-277.38095238095235,81.5079365079365,-6.904761904761904,8.492063492063492,-8.492063492063492,-286.26984126984127,325.0,-1.0317460317460316,68.17460317460318,25.476190476190474,15.317460317460316,-0.5555555555555556,-1.0317460317460316,-321.8253968253968
18.49206349206349,140.7142857142857,-7.222222222222221,-13.095238095238095,30.87301587301587,-0.873015873015873,61.19047619047619,-101.03174603174602,122.93650793650794,-115.31746031746032,-277.38095238095235,81.5079365079365,-6.904761904761904,8.492063492063492,-8.492063492063492,-286.26984126984127,325.0,-1.0317460317460316,68.17460317460318,25.476190476190474,15.317460317460316,-0.5555555555555556,-1.0317460317460316,-321.8253968253968
18.49206349206349,140.7142857142857,-7.222222222222221,-13.095238095238095,30.87301587301587,-0.873015873015873,61.19047619047619,-101.03174603174602,122.93650793650794,-115.31746031746032,-277.38095238095235,81.5079365079365,-6.904761904761904,8.492063492063492,-8.492063492063492,-286.26984126984127,325.0,-1.0317460317460316,68.17460317460318,25.476190476190474,15.317460317460316,-0.5555555555555556,-1.0317460317460316,-321.8253968253968
18.49206349206349,140.7142857142857,-7.222222222222221,-13.095238095238095,30.87301587301587,-0.873015873015873,61.19047619047619,-101.03174603174602,122.93650793650794,-115.31746031746032,-277.38095238095235,81.5079365079365,-6.904761904761904,8.492063492063492,-8.492063492063492,-286.26984126984127,325.0,-1.0317460317460316,68.17460317460318,25.476190476190474,15.317460317460316,-0.5555555555555556,-1.0317460317460316,-321.8253968253968
18.49206349206349,140.7142857142857,-7.222222222222221,-13.095238095238095,30.87301587301587,-0.873015873015873,61.19047619047619,-101.03174603174602,122.93650793650794,-115.31746031746032,-277.38095238095235,81.5079365079365,-6.904761904761904,8.492063492063492,-8.492063492063492,-286.26984126984127,325.0,-1.0317460317460316,68.17460317460318,25.476190476190474,15.317460317460316,-0.5555555555555556,-1.0317460317460316,-321.8253968253968
18.49206349206349,140.7142857142857,-7.222222222222221,-13.095238095238095,30.87301587301587,-0.873015873015873,61.19047619047619,-101.03174603174602,122.93650793650794,-115.31746031746032,-277.38095238095235,81.5079365079365,-6.904761904761904,8.492063492063492,-8.492063492063492,-286.26984126984127,325.0,-1.0317460317460316,68.17460317460318,25.476190476190474,15.317460317460316,-0.5555555555555556,-1.0317460317460316,-321.8253968253968
18.49206349206349,140.7142857142857,-7.222222222222221,-13.095238095238095,30.87301587301587,-0.873015873015873,61.19047619047619,-101.03174603174602,122.93650793650794,-115.31746031746032,-277.38095238095235,81.5079365079365,-6.904761904761904,8.492063492063492,-8.492063492063492,-286.26984126984127,325.0,-1.0317460317460316,68.17460317460318,25.476190476190474,15.317460317460316,-0.5555555555555556,-1.0317460317460316,-321.8253968253968
18.49206349206349,140.7142857142857,-7.222222222222221,-13.095238095238095,30.87301587301587,-0.873015873015873,61.19047619047619,-101.03174603174602,122.93650793650794,-115.31746031746032,-277.38095238095235,81.5079365079365,-6.904761904761904,8.492063492063492,-8.492063492063492,-286.26984126984127,325.0,-1.0317460317460316,68.17460317460318,25.476190476190474,15.317460317460316,-0.5555555555555556,-1.0317460317460316,-321.8253968253968
18.49206349206349,140.7142857142857,-7.222222222222221,-13.095238095238095,30.87301587301587,-0.873015873015873,61.19047619047619,-101.03174603174602,122.93650793650794,-115.31746031746032,-277.38095238095235,81.5079365079365,-6.904761904761904,8.492063492063492,-8.492063492063492,-286.26984126984127,325.0,-1.0317460317460316,68.17460317460318,25.476190476190474,15.317460317460316,-0.5555555555555556,-1.0317460317460316,-321.8253968253968
18.49206349206349,140.7142857142857,-7.222222222222221,-13.095238095238095,30.87301587301587,-0.873015873015873,61.19047619047619,-101.03174603174602,122.93650793650794,-115.31746031746032,-277.38095238095235,81.5079365079365,-6.904761904761904,8.492063492063492,-8.492063492063492,-286.26984126984127,325.0,-1.0317460317460316,68.17460317460318,25.476190476190474,15.317460317460316,-0.5555555555555556,-1.0317460317460316,-166.26984126984127
18.49206349206349,140.7142857142857,-7.222222222222221,-13.095238095238095,30.87301587301587,-0.873015873015873,61.19047619047619,-101.03174603174602,122.93650793650794,-115.31746031746032,-277.38095238095235,81.5079365079365,-6.904761904761904,8.492063492063492,-8.492063492063492,-286.26984126984127,325.0,-1.0317460317460316,68.17460317460318,25.476190476190474,15.317460317460316,-0.5555555555555556,-1.0317460317460316,-166.26984126984127
18.49206349206349,140.7142857142857,-7.222222222222221,-13.095238095238095,30.87301587301587,-0.873015873015873,61.19047619047619,-101.03174603174602,122.93650793650794,-115.31746031746032,-277.38095238095235,81.5079365079365,-6.904761904761904,8.492063492063492,-8.492063492063492,-286.26984126984127,325.0,-1.0317460317460316,68.17460317460318,25.476190476190474,15.317460317460316,-0.5555555555555556,-1.0317460317460316,-166.26984126984127
18.49206349206349,140.7142857142857,-7.222222222222221,-13.095238095238095,30.87301587301587,-0.873015873015873,61.19047619047619,-101.03174603174602,122.93650793650794,-115.31746031746032,-277.38095238095235,81.5079365079365,-6.904761904761904,8.492063492063492,-8.492063492063492,-286.26984126984127,325.0,-1.0317460317460316,68.17460317460318,25.476190476190474,15.317460317460316,-0.5555555555555556,-1.0317460317460316,-166.26984126984127
19.76190476190476,132.61904761904762,-6.904761904761904,-12.142857142857142,28.49206349206349,-3.571428571428571,69.44444444444444,-106.58730158730158,119.6031746031746,-50.87301587301587,-257.06349206349205,83.88888888888889,-6.587301587301587,7.857142857142857,-8.015873015873016,-290.55555555555554,325.0,-3.253968253968254,74.2063492063492,23.41269841269841,14.047619047619047,0.07936507936507936,-0.7142857142857142,-166.26984126984127
19.76190476190476,132.61904761904762,-6.904761904761904,-12.142857142857142,28.49206349206349,-3.571428571428571,69.44444444444444,-106.58730158730158,119.6031746031746,-50.87301587301587,-257.06349206349205,83.88888888888889,-6.587301587301587,7.857142857142857,-8.015873015873016,-290.55555555555554,325.0,-3.253968253968254,74.2063492063492,23.41269841269841,14.047619047619047,0.07936507936507936,-0.7142857142857142,-166.26984126984127
29.76190476190476,123.57142857142857,-6.26984126984127,-11.19047619047619,25.952380952380953,-8.333333333333332,80.87301587301587,-110.23809523809523,120.23809523809523,45.15873015873016,-233.7301587301587,90.23809523809523,-5.952380952380952,7.222222222222221,-7.698412698412698,-264.8412698412698,325.0,-7.222222222222221,83.4126984126984,21.19047619047619,12.777777777777777,-0.3968253968253968,-0.7142857142857142,-166.26984126984127
29.76190476190476,123.57142857142857,-6.26984126984127,-11.19047619047619,25.952380952380953,-8.333333333333332,80.87301587301587,-110.23809523809523,120.23809523809523,45.15873015873016,-233.7301587301587,90.23809523809523,-5.952380952380952,7.222222222222221,-7.698412698412698,-264.8412698412698,325.0,-7.222222222222221,83.4126984126984,21.19047619047619,12.777777777777777,-0.3968253968253968,-0.7142857142857142,-166.26984126984127
29.920634920634917,126.1111111111111,-6.428571428571428,-11.031746031746032,25.79365079365079,-8.492063492063492,78.65079365079364,-110.39682539682539,117.06349206349206,45.0,-230.87301587301587,88.96825396825396,-5.952380952380952,7.222222222222221,-7.5396825396825395,-155.79365079365078,325.0,-7.3809523809523805,80.39682539682539,21.19047619047619,12.777777777777777,0.5555555555555556,-1.507936507936508,-166.26984126984127
29.920634920634917,126.1111111111111,-6.428571428571428,-11.031746031746032,25.79365079365079,-8.492063492063492,78.65079365079364,-110.39682539682539,117.06349206349206,45.0,-230.87301587301587,88.96825396825396,-5.952380952380952,7.222222222222221,-7.5396825396825395,-155.79365079365078,325.0,-7.3809523809523805,80.39682539682539,21.19047619047619,12.777777777777777,0.5555555555555556,-1.507936507936508,-166.26984126984127
3.73015873015873,125.95238095238095,-6.26984126984127,-10.873015873015872,25.317460317460316,-0.07936507936507936,78.17460317460316,-116.26984126984127,115.15873015873015,51.666666666666664,-228.015873015873,88.65079365079364,-5.7936507936507935,7.063492063492063,-7.5396825396825395,-141.03174603174602,325.0,1.349206349206349,78.80952380952381,20.873015873015873,12.619047619047619,0.07936507936507936,-1.1904761904761905,-321.8253968253968
3.73015873015873,125.95238095238095,-6.26984126984127,-10.873015873015872,25.317460317460316,-0.07936507936507936,78.17460317460316,-116.26984126984127,115.15873015873015,51.666666666666664,-228.015873015873,88.65079365079364,-5.7936507936507935,7.063492063492063,-7.5396825396825395,-141.03174603174602,325.0,1.349206349206349,78.80952380952381,20.873015873015873,12.619047619047619,0.07936507936507936,-1.1904761904761905,-321.8253968253968
-293.57142857142856,125.31746031746032,-6.111111111111111,-10.714285714285714,24.68253968253968,5.7936507936507935,74.36507936507937,-126.26984126984127,108.01587301587301,42.3015873015873,-222.3015873015873,92.77777777777777,-5.634920634920634,6.904761904761904,-7.222222222222221,-114.04761904761904,325.0,7.5396825396825395,78.4920634920635,20.396825396825395,11.984126984126984,0.07936507936507936,-0.873015873015873,-321.8253968253968
-293.57142857142856,125.31746031746032,-6.111111111111111,-10.714285714285714,24.68253968253968,5.7936507936507935,74.36507936507937,-126.26984126984127,108.01587301587301,42.3015873015873,-222.3015873015873,92.77777777777777,-5.634920634920634,6.904761904761904,-7.222222222222221,-114.04761904761904,325.0,7.5396825396825395,78.4920634920635,20.396825396825395,11.984126984126984,0.07936507936507936,-0.873015873015873,-321.8253968253968
-325.0,125.95238095238095,-6.111111111111111,-10.555555555555555,24.523809523809522,4.841269841269841,75.47619047619047,-127.53968253968253,108.17460317460316,35.95238095238095,-221.34920634920633,94.2063492063492,-5.7936507936507935,6.904761904761904,-7.063492063492063,-128.015873015873,325.0,6.111111111111111,79.12698412698413,20.238095238095237,11.984126984126984,0.7142857142857142,-1.1904761904761905,-321.8253968253968
-325.0,125.95238095238095,-6.111111111111111,-10.555555555555555,24.523809523809522,4.841269841269841,75.47619047619047,-127.53968253968253,108.17460317460316,35.95238095238095,-221.34920634920633,94.2063492063492,-5.7936507936507935,6.904761904761904,-7.063492063492063,-128.015873015873,325.0,6.111111111111111,79.12698412698413,20.238095238095237,11.984126984126984,0.7142857142857142,-1.1904761904761905,-321.8253968253968
-325.0,129.28571428571428,-5.952380952380952,-10.079365079365079,23.730158730158728,-1.8253968253968254,78.80952380952381,-120.23809523809523,102.30158730158729,55.63492063492063,-213.88888888888889,102.93650793650794,-5.317460317460317,6.587301587301587,-6.904761904761904,-325.0,325.0,-0.3968253968253968,89.28571428571428,19.76190476190476,11.825396825396824,-0.23809523809523808,-0.7142857142857142,-321.8253968253968
-325.0,129.28571428571428,-5.952380952380952,-10.079365079365079,23.730158730158728,-1.8253968253968254,78.80952380952381,-120.23809523809523,102.30158730158729,55.63492063492063,-213.88888888888889,102.93650793650794,-5.317460317460317,6.587301587301587,-6.904761904761904,-325.0,325.0,-0.3968253968253968,89.28571428571428,19.76190476190476,11.825396825396824,-0.23809523809523808,-0.7142857142857142,-321.8253968253968
-325.0,130.87301587301587,-5.634920634920634,-10.079365079365079,23.41269841269841,-6.904761904761904,77.85714285714285,-122.14285714285714,101.5079365079365,-10.555555555555555,-209.44444444444443,101.34920634920634,-5.317460317460317,6.428571428571428,-6.746031746031746,-325.0,325.0,-5.158730158730158,90.07936507936508,19.285714285714285,11.031746031746032,-0.7142857142857142,-1.0317460317460316,-321.8253968253968
-325.0,130.87301587301587,-5.634920634920634,-10.079365079365079,23.41269841269841,-6.904761904761904,77.85714285714285,-122.14285714285714,101.5079365079365,-10.555555555555555,-209.44444444444443,101.34920634920634,-5.317460317460317,6.428571428571428,-6.746031746031746,-325.0,325.0,-5.158730158730158,90.07936507936508,19.285714285714285,11.031746031746032,-0.7142857142857142,-1.0317460317460316,-321.8253968253968
-325.0,126.26984126984127,-5.7936507936507935,-9.920634920634921,22.777777777777775,-5.476190476190476,61.82539682539682,-121.5079365079365,84.52380952380952,-81.19047619047619,-205.95238095238093,104.36507936507935,-5.317460317460317,6.428571428571428,-6.904761904761904,-240.55555555555554,325.0,-3.73015873015873,95.47619047619047,18.96825396825397,11.349206349206348,-1.1904761904761905,-0.873015873015873,-166.26984126984127
-325.0,126.26984126984127,-5.7936507936507935,-9.920634920634921,22.777777777777775,-5.476190476190476,61.82539682539682,-121.5079365079365,84.52380952380952,-81.19047619047619,-205.95238095238093,104.36507936507935,-5.317460317460317,6.428571428571428,-6.904761904761904,-240.55555555555554,325.0,-3.73015873015873,95.47619047619047,18.96825396825397,11.349206349206348,-1.1904761904761905,-0.873015873015873,-166.26984126984127
-89.92063492063491,128.17460317460316,-5.7936507936507935,-10.079365079365079,22.46031746031746,-3.73015873015873,64.68253968253968,-118.8095238095238,85.0,-40.238095238095234,-202.61904761904762,113.88888888888889,-5.317460317460317,6.26984126984127,-6.746031746031746,-139.6031746031746,325.0,-1.8253968253968254,101.98412698412697,18.65079365079365,10.714285714285714,-0.5555555555555556,-0.873015873015873,-166.26984126984127
-89.92063492063491,128.17460317460316,-5.7936507936507935,-10.079365079365079,22.46031746031746,-3.73015873015873,64.68253968253968,-118.8095238095238,85.0,-40.238095238095234,-202.61904761904762,113.88888888888889,-5.317460317460317,6.26984126984127,-6.746031746031746,-139.6031746031746,325.0,-1.8253968253968254,101.98412698412697,18.65079365079365,10.714285714285714,-0.5555555555555556,-0.873015873015873,-166.26984126984127
71.82539682539682,134.52380952380952,-5.7936507936507935,-9.920634920634921,22.46031746031746,6.111111111111111,79.28571428571428,-111.19047619047619,97.38095238095238,8.65079365079365,-200.07936507936506,116.1111111111111,-5.158730158730158,6.26984126984127,-6.746031746031746,-147.38095238095238,325.0,8.015873015873016,105.95238095238095,18.49206349206349,11.19047619047619,-0.23809523809523808,-0.7142857142857142,-166.26984126984127
71.82539682539682,134.52380952380952,-5.7936507936507935,-9.920634920634921,22.46031746031746,6.111111111111111,79.28571428571428,-111.19047619047619,97.38095238095238,8.65079365079365,-200.07936507936506,116.1111111111111,-5.158730158730158,6.26984126984127,-6.746031746031746,-147.38095238095238,325.0,8.015873015873016,105.95238095238095,18.49206349206349,11.19047619047619,-0.23809523809523808,-0.7142857142857142,-166.26984126984127
-183.88888888888889,131.19047619047618,-5.634920634920634,-9.603174603174603,21.825396825396822,10.079365079365079,83.73015873015872,-109.44444444444444,100.87301587301587,-14.84126984126984,-196.11111111111111,113.25396825396825,-5.317460317460317,6.111111111111111,-6.746031746031746,-209.76190476190476,325.0,11.666666666666666,106.58730158730158,18.174603174603174,9.603174603174603,0.07936507936507936,0.23809523809523808,-166.26984126984127
-183.88888888888889,131.19047619047618,-5.634920634920634,-9.603174603174603,21.825396825396822,10.079365079365079,83.73015873015872,-109.44444444444444,100.87301587301587,-14.84126984126984,-196.11111111111111,113.25396825396825,-5.317460317460317,6.111111111111111,-6.746031746031746,-209.76190476190476,325.0,11.666666666666666,106.58730158730158,18.174603174603174,9.603174603174603,0.07936507936507936,0.23809523809523808,-166.26984126984127
73.09523809523809,127.85714285714285,-1.8253968253968254,-9.444444444444445,21.349206349206348,0.873015873015873,88.4920634920635,-111.98412698412697,105.63492063492063,-55.63492063492063,-192.93650793650792,115.0,-5.158730158730158,6.111111111111111,-6.587301587301587,-325.0,325.0,2.7777777777777777,104.52380952380952,17.698412698412696,9.761904761904761,-0.5555555555555556,-0.5555555555555556,-166.26984126984127
73.09523809523809,127.85714285714285,-1.8253968253968254,-9.444444444444445,21.349206349206348,0.873015873015873,88.4920634920635,-111.98412698412697,105.63492063492063,-55.63492063492063,-192.93650793650792,115.0,-5.158730158730158,6.111111111111111,-6.587301587301587,-325.0,325.0,2.7777777777777777,104.52380952380952,17.698412698412696,9.761904761904761,-0.5555555555555556,-0.5555555555555556,-166.26984126984127
141.34920634920636,126.58730158730158,-0.873015873015873,-9.285714285714285,21.03174603174603,5.158730158730158,80.55555555555556,-111.98412698412697,97.06349206349206,-8.015873015873016,-188.015873015873,117.85714285714285,-5.158730158730158,5.7936507936507935,-6.428571428571428,-194.52380952380952,325.0,6.904761904761904,106.42857142857142,17.38095238095238,8.65079365079365,-0.23809523809523808,-0.7142857142857142,-321.8253968253968
141.34920634920636,126.58730158730158,-0.873015873015873,-9.285714285714285,21.03174603174603,5.158730158730158,80.55555555555556,-111.98412698412697,97.06349206349206,-8.015873015873016,-188.015873015873,117.85714285714285,-5.158730158730158,5.7936507936507935,-6.428571428571428,-194.52380952380952,325.0,6.904761904761904,106.42857142857142,17.38095238095238,8.65079365079365,-0.23809523809523808,-0.7142857142857142,-321.8253968253968
142.77777777777777,132.3015873015873,-5.952380952380952,-9.285714285714285,21.03174603174603,6.428571428571428,63.57142857142857,-114.04761904761904,80.23809523809523,-27.38095238095238,-185.79365079365078,122.6190476190476,-5.0,5.7936507936507935,-6.428571428571428,-57.06349206349206,325.0,8.492063492063492,109.12698412698413,17.22222222222222,9.761904761904761,0.873015873015873,-0.23809523809523808,-321.8253968253968
142.77777777777777,132.3015873015873,-5.952380952380952,-9.285714285714285,21.03174603174603,6.428571428571428,63.57142857142857,-114.04761904761904,80.23809523809523,-27.38095238095238,-185.79365079365078,122.6190476190476,-5.0,5.7936507936507935,-6.428571428571428,-57.06349206349206,325.0,8.492063492063492,109.12698412698413,17.22222222222222,9.761904761904761,0.873015873015873,-0.23809523809523808,-321.8253968253968
138.65079365079364,133.25396825396825,-5.634920634920634,-8.968253968253968,20.238095238095237,9.603174603174603,53.095238095238095,-114.84126984126983,63.25396825396825,-117.6984126984127,-181.984126984127,123.88888888888889,-5.0,5.7936507936507935,-6.26984126984127,-214.84126984126982,325.0,11.666666666666666,116.9047619047619,16.904761904761905,9.603174603174603,0.873015873015873,-0.3968253968253968,-321.8253968253968
138.65079365079364,133.25396825396825,-5.634920634920634,-8.968253968253968,20.238095238095237,9.603174603174603,53.095238095238095,-114.84126984126983,63.25396825396825,-117.6984126984127,-181.984126984127,123.88888888888889,-5.0,5.7936507936507935,-6.26984126984127,-214.84126984126982,325.0,11.666666666666666,116.9047619047619,16.904761904761905,9.603174603174603,0.873015873015873,-0.3968253968253968,-321.8253968253968
135.79365079365078,132.14285714285714,-5.634920634920634,-8.809523809523808,19.92063492063492,3.571428571428571,53.57142857142857,-114.36507936507935,61.19047619047619,-84.36507936507937,-178.96825396825395,123.4126984126984,-4.841269841269841,5.634920634920634,-6.26984126984127,-214.84126984126982,325.0,5.317460317460317,120.87301587301586,16.587301587301585,9.126984126984127,0.07936507936507936,-0.3968253968253968,-321.8253968253968
135.79365079365078,132.14285714285714,-5.634920634920634,-8.809523809523808,19.92063492063492,3.571428571428571,53.57142857142857,-114.36507936507935,61.19047619047619,-84.36507936507937,-178.96825396825395,123.4126984126984,-4.841269841269841,5.634920634920634,-6.26984126984127,-214.84126984126982,325.0,5.317460317460317,120.87301587301586,16.587301587301585,9.126984126984127,0.07936507936507936,-0.3968253968253968,-321.8253968253968
133.0952380952381,132.3015873015873,-5.476190476190476,-8.809523809523808,19.6031746031746,1.6666666666666665,52.93650793650794,-115.47619047619047,58.17460317460317,-32.14285714285714,-175.79365079365078,124.52380952380952,-5.0,5.476190476190476,-6.428571428571428,-161.8253968253968,325.0,3.571428571428571,117.85714285714285,16.26984126984127,6.587301587301587,-0.3968253968253968,-0.3968253968253968,-321.8253968253968
133.0952380952381,132.3015873015873,-5.476190476190476,-8.809523809523808,19.6031746031746,1.6666666666666665,52.93650793650794,-115.47619047619047,58.17460317460317,-32.14285714285714,-175.79365079365078,124.52380952380952,-5.0,5.476190476190476,-6.428571428571428,-161.8253968253968,325.0,3.571428571428571,117.85714285714285,16.26984126984127,6.587301587301587,-0.3968253968253968,-0.3968253968253968,-321.8253968253968
130.55555555555554,134.04761904761904,-5.476190476190476,-8.65079365079365,19.285714285714285,10.714285714285714,56.904761904761905,-112.93650793650794,59.6031746031746,-17.539682539682538,-172.93650793650792,124.52380952380952,-5.0,5.317460317460317,-6.111111111111111,-108.33333333333333,325.0,12.142857142857142,120.55555555555554,15.95238095238095,9.761904761904761,0.07936507936507936,0.7142857142857142,-166.26984126984127
130.55555555555554,134.04761904761904,-5.476190476190476,-8.65079365079365,19.285714285714285,10.714285714285714,56.904761904761905,-112.93650793650794,59.6031746031746,-17.539682539682538,-172.93650793650792,124.52380952380952,-5.0,5.317460317460317,-6.111111111111111,-108.33333333333333,325.0,12.142857142857142,120.55555555555554,15.95238095238095,9.761904761904761,0.07936507936507936,0.7142857142857142,-166.26984126984127
128.4920634920635,133.73015873015873,-5.476190476190476,-8.65079365079365,18.96825396825397,10.079365079365079,56.58730158730158,-112.46031746031746,57.53968253968254,-21.825396825396822,-170.87301587301587,122.77777777777777,-5.0,5.317460317460317,-6.111111111111111,147.85714285714286,325.0,11.825396825396824,119.76190476190476,15.793650793650793,8.333333333333332,-0.07936507936507936,0.07936507936507936,-166.26984126984127
128.4920634920635,133.73015873015873,-5.476190476190476,-8.65079365079365,18.96825396825397,10.079365079365079,56.58730158730158,-112.46031746031746,57.53968253968254,-21.825396825396822,-170.87301587301587,122.77777777777777,-5.0,5.317460317460317,-6.111111111111111,147.85714285714286,325.0,11.825396825396824,119.76190476190476,15.793650793650793,8.333333333333332,-0.07936507936507936,0.07936507936507936,-166.26984126984127
126.1111111111111,133.88888888888889,-5.317460317460317,-8.492063492063492,18.49206349206349,12.936507936507935,57.698412698412696,-110.71428571428571,56.58730158730158,-49.6031746031746,-168.015873015873,122.93650793650794,-4.841269841269841,5.317460317460317,-6.26984126984127,325.0,325.0,14.682539682539682,117.53968253968253,15.158730158730158,9.285714285714285,-0.07936507936507936,-0.07936507936507936,-166.26984126984127
126.1111111111111,133.88888888888889,-5.317460317460317,-8.492063492063492,18.49206349206349,12.936507936507935,57.698412698412696,-110.71428571428571,56.58730158730158,-49.6031746031746,-168.015873015873,122.93650793650794,-4.841269841269841,5.317460317460317,-6.26984126984127,325.0,325.0,14.682539682539682,117.53968253968253,15.158730158730158,9.285714285714285,-0.07936507936507936,-0.07936507936507936,-166.26984126984127
123.57142857142857,139.9206349206349,-5.476190476190476,-8.333333333333332,18.65079365079365,12.619047619047619,58.49206349206349,-106.9047619047619,57.857142857142854,-121.66666666666666,-165.15873015873015,128.65079365079364,-5.0,5.317460317460317,-6.111111111111111,325.0,325.0,14.047619047619047,121.82539682539682,15.158730158730158,7.063492063492063,0.3968253968253968,0.07936507936507936,-166.26984126984127
123.57142857142857,139.9206349206349,-5.476190476190476,-8.333333333333332,18.65079365079365,12.619047619047619,58.49206349206349,-106.9047619047619,57.857142857142854,-121.66666666666666,-165.15873015873015,128.65079365079364,-5.0,5.317460317460317,-6.111111111111111,325.0,325.0,14.047619047619047,121.82539682539682,15.158730158730158,7.063492063492063,0.3968253968253968,0.07936507936507936,-166.26984126984127
121.19047619047619,139.12698412698413,-3.253968253968254,-8.333333333333332,18.174603174603174,8.65079365079365,64.04761904761905,-109.92063492063491,62.3015873015873,-101.98412698412697,-163.09523809523807,126.26984126984127,-4.841269841269841,5.317460317460317,-6.111111111111111,317.85714285714283,325.0,10.079365079365079,118.65079365079364,15.0,8.174603174603174,0.23809523809523808,0.07936507936507936,-166.26984126984127
121.19047619047619,139.12698412698413,-3.253968253968254,-8.333333333333332,18.174603174603174,8.65079365079365,64.04761904761905,-109.92063492063491,62.3015873015873,-101.98412698412697,-163.09523809523807,126.26984126984127,-4.841269841269841,5.317460317460317,-6.111111111111111,317.85714285714283,325.0,10.079365079365079,118.65079365079364,15.0,8.174603174603174,0.23809523809523808,0.07936507936507936,-166.26984126984127
118.96825396825396,138.4920634920635,-1.0317460317460316,-8.333333333333332,17.857142857142858,4.841269841269841,69.6031746031746,-112.93650793650794,66.9047619047619,-82.3015873015873,-161.03174603174602,124.04761904761904,-4.523809523809524,5.317460317460317,-6.111111111111111,310.7142857142857,325.0,6.26984126984127,115.47619047619047,14.84126984126984,9.444444444444445,0.23809523809523808,0.07936507936507936,-321.8253968253968
118.96825396825396,138.4920634920635,-1.0317460317460316,-8.333333333333332,17.857142857142858,4.841269841269841,69.6031746031746,-112.93650793650794,66.9047619047619,-82.3015873015873,-161.03174603174602,124.04761904761904,-4.523809523809524,5.317460317460317,-6.111111111111111,310.7142857142857,325.0,6.26984126984127,115.47619047619047,14.84126984126984,9.444444444444445,0.23809523809523808,0.07936507936507936,-321.8253968253968
107.38095238095238,136.42857142857142,8.333333333333332,-8.015873015873016,17.698412698412696,3.253968253968254,73.25396825396825,-112.77777777777777,67.6984126984127,-98.80952380952381,-158.4920634920635,126.1111111111111,-4.523809523809524,5.158730158730158,-5.0,239.44444444444443,325.0,5.0,118.8095238095238,14.682539682539682,8.333333333333332,-0.23809523809523808,-0.23809523809523808,-321.8253968253968
107.38095238095238,136.42857142857142,8.333333333333332,-8.015873015873016,17.698412698412696,3.253968253968254,73.25396825396825,-112.77777777777777,67.6984126984127,-98.80952380952381,-158.4920634920635,126.1111111111111,-4.523809523809524,5.158730158730158,-5.0,239.44444444444443,325.0,5.0,118.8095238095238,14.682539682539682,8.333333333333332,-0.23809523809523808,-0.23809523809523808,-321.8253968253968
82.3015873015873,136.58730158730157,11.825396825396824,-8.015873015873016,17.38095238095238,8.809523809523808,71.03174603174602,-108.96825396825396,61.19047619047619,-205.3174603174603,-153.25396825396825,131.19047619047618,-4.0476190476190474,4.841269841269841,-5.158730158730158,310.7142857142857,325.0,10.555555555555555,121.66666666666666,14.365079365079364,6.904761904761904,-0.3968253968253968,-0.23809523809523808,-321.8253968253968
82.3015873015873,136.58730158730157,11.825396825396824,-8.015873015873016,17.38095238095238,8.809523809523808,71.03174603174602,-108.96825396825396,61.19047619047619,-205.3174603174603,-153.25396825396825,131.19047619047618,-4.0476190476190474,4.841269841269841,-5.158730158730158,310.7142857142857,325.0,10.555555555555555,121.66666666666666,14.365079365079364,6.904761904761904,-0.3968253968253968,-0.23809523809523808,-321.8253968253968
85.31746031746032,132.3015873015873,10.396825396825395,-7.698412698412698,16.904761904761905,3.4126984126984126,73.25396825396825,-111.03174603174602,62.460317460317455,-259.6031746031746,-150.3968253968254,125.79365079365078,-4.365079365079365,4.841269841269841,-2.7777777777777777,218.015873015873,325.0,5.0,115.31746031746032,14.047619047619047,4.841269841269841,-1.1904761904761905,-0.5555555555555556,-321.8253968253968
85.31746031746032,132.3015873015873,10.396825396825395,-7.698412698412698,16.904761904761905,3.4126984126984126,73.25396825396825,-111.03174603174602,62.460317460317455,-259.6031746031746,-150.3968253968254,125.79365079365078,-4.365079365079365,4.841269841269841,-2.7777777777777777,218.015873015873,325.0,5.0,115.31746031746032,14.047619047619047,4.841269841269841,-1.1904761904761905,-0.5555555555555556,-321.8253968253968
100.55555555555554,132.77777777777777,16.746031746031743,-7.5396825396825395,16.11111111111111,0.5555555555555556,74.04761904761904,-114.2063492063492,63.095238095238095,-269.6031746031746,-142.46031746031744,120.71428571428571,-4.2063492063492065,4.523809523809524,9.920634920634921,-325.0,325.0,1.507936507936508,120.71428571428571,13.253968253968253,4.841269841269841,0.07936507936507936,-0.7142857142857142,-321.8253968253968
100.55555555555554,132.77777777777777,16.746031746031743,-7.5396825396825395,16.11111111111111,0.5555555555555556,74.04761904761904,-114.2063492063492,63.095238095238095,-269.6031746031746,-142.46031746031744,120.71428571428571,-4.2063492063492065,4.523809523809524,9.920634920634921,-325.0,325.0,1.507936507936508,120.71428571428571,13.253968253968253,4.841269841269841,0.07936507936507936,-0.7142857142857142,-321.8253968253968
-39.92063492063492,135.79365079365078,21.984126984126984,-7.222222222222221,15.793650793650793,-3.888888888888889,75.0,-113.4126984126984,61.98412698412698,-279.2857142857143,-140.23809523809524,122.14285714285714,-4.0476190476190474,4.523809523809524,11.984126984126984,-325.0,325.0,-2.142857142857143,120.55555555555554,13.095238095238095,1.6666666666666665,1.0317460317460316,-0.7142857142857142,-166.26984126984127
-39.92063492063492,135.79365079365078,21.984126984126984,-7.222222222222221,15.793650793650793,-3.888888888888889,75.0,-113.4126984126984,61.98412698412698,-279.2857142857143,-140.23809523809524,122.14285714285714,-4.0476190476190474,4.523809523809524,11.984126984126984,-325.0,325.0,-2.142857142857143,120.55555555555554,13.095238095238095,1.6666666666666665,1.0317460317460316,-0.7142857142857142,-166.26984126984127
4.523809523809524,126.9047619047619,29.126984126984127,-7.222222222222221,15.317460317460316,-2.7777777777777777,77.85714285714285,-107.53968253968253,63.095238095238095,-256.58730158730157,-137.69841269841268,122.30158730158729,-3.571428571428571,4.365079365079365,18.80952380952381,-325.0,325.0,-1.507936507936508,122.77777777777777,12.777777777777777,1.6666666666666665,-0.3968253968253968,-0.873015873015873,-166.26984126984127
4.523809523809524,126.9047619047619,29.126984126984127,-7.222222222222221,15.317460317460316,-2.7777777777777777,77.85714285714285,-107.53968253968253,63.095238095238095,-256.58730158730157,-137.69841269841268,122.30158730158729,-3.571428571428571,4.365079365079365,18.80952380952381,-325.0,325.0,-1.507936507936508,122.77777777777777,12.777777777777777,1.6666666666666665,-0.3968253968253968,-0.873015873015873,-166.26984126984127
103.73015873015872,126.42857142857142,30.555555555555554,-6.904761904761904,15.158730158730158,0.3968253968253968,77.53968253968253,-102.93650793650794,63.25396825396825,-153.4126984126984,-135.3174603174603,122.14285714285714,-3.888888888888889,4.365079365079365,23.730158730158728,-325.0,325.0,1.8253968253968254,125.0,12.777777777777777,2.619047619047619,-0.873015873015873,-0.7142857142857142,-166.26984126984127
103.73015873015872,126.42857142857142,30.555555555555554,-6.904761904761904,15.158730158730158,0.3968253968253968,77.53968253968253,-102.93650793650794,63.25396825396825,-153.4126984126984,-135.3174603174603,122.14285714285714,-3.888888888888889,4.365079365079365,23.730158730158728,-325.0,325.0,1.8253968253968254,125.0,12.777777777777777,2.619047619047619,-0.873015873015873,-0.7142857142857142,-166.26984126984127
103.73015873015872,131.984126984127,30.555555555555554,-6.904761904761904,15.158730158730158,9.444444444444445,74.36507936507937,-97.85714285714285,62.61904761904761,-105.79365079365078,-133.25396825396825,126.1111111111111,-4.0476190476190474,4.0476190476190474,20.238095238095237,-325.0,325.0,10.714285714285714,129.76190476190476,11.984126984126984,2.46031746031746,0.23809523809523808,-1.0317460317460316,-166.26984126984127
103.73015873015872,131.984126984127,30.555555555555554,-6.904761904761904,15.158730158730158,9.444444444444445,74.36507936507937,-97.85714285714285,62.61904761904761,-105.79365079365078,-133.25396825396825,126.1111111111111,-4.0476190476190474,4.0476190476190474,20.238095238095237,-325.0,325.0,10.714285714285714,129.76190476190476,11.984126984126984,2.46031746031746,0.23809523809523808,-1.0317460317460316,-166.26984126984127
102.77777777777777,134.36507936507937,31.507936507936506,-6.904761904761904,15.0,10.396825396825395,75.47619047619047,-95.79365079365078,63.888888888888886,-105.15873015873015,-132.61904761904762,127.38095238095238,-4.0476190476190474,4.2063492063492065,21.507936507936506,-325.0,325.0,11.666666666666666,131.8253968253968,12.3015873015873,4.841269841269841,0.7142857142857142,-1.0317460317460316,-166.26984126984127
102.77777777777777,134.36507936507937,31.507936507936506,-6.904761904761904,15.0,10.396825396825395,75.47619047619047,-95.79365079365078,63.888888888888886,-105.15873015873015,-132.61904761904762,127.38095238095238,-4.0476190476190474,4.2063492063492065,21.507936507936506,-325.0,325.0,11.666666666666666,131.8253968253968,12.3015873015873,4.841269841269841,0.7142857142857142,-1.0317460317460316,-166.26984126984127
102.77777777777777,134.36507936507937,31.507936507936506,-6.904761904761904,15.0,10.396825396825395,75.47619047619047,-95.79365079365078,63.888888888888886,-105.15873015873015,-132.61904761904762,127.38095238095238,-4.0476190476190474,4.2063492063492065,21.507936507936506,-325.0,325.0,11.666666666666666,131.8253968253968,12.3015873015873,4.841269841269841,0.7142857142857142,-1.0317460317460316,-321.8253968253968
102.77777777777777,134.36507936507937,31.507936507936506,-6.904761904761904,15.0,10.396825396825395,75.47619047619047,-95.79365079365078,63.888888888888886,-105.15873015873015,-132.61904761904762,127.38095238095238,-4.0476190476190474,4.2063492063492065,21.507936507936506,-325.0,325.0,11.666666666666666,131.8253968253968,12.3015873015873,4.841269841269841,0.7142857142857142,-1.0317460317460316,-321.8253968253968
97.22222222222221,127.22222222222221,31.507936507936506,-6.587301587301587,14.206349206349206,10.555555555555555,69.28571428571428,-98.01587301587301,53.57142857142857,-48.80952380952381,-126.58730158730158,127.06349206349206,-3.888888888888889,4.0476190476190474,22.936507936507937,-325.0,325.0,11.666666666666666,121.34920634920634,9.920634920634921,-0.873015873015873,-0.873015873015873,0.23809523809523808,-321.8253968253968
97.22222222222221,127.22222222222221,31.507936507936506,-6.587301587301587,14.206349206349206,10.555555555555555,69.28571428571428,-98.01587301587301,53.57142857142857,-48.80952380952381,-126.58730158730158,127.06349206349206,-3.888888888888889,4.0476190476190474,22.936507936507937,-325.0,325.0,11.666666666666666,121.34920634920634,9.920634920634921,-0.873015873015873,-0.873015873015873,0.23809523809523808,-321.8253968253968
95.63492063492063,128.33333333333331,41.507936507936506,-6.587301587301587,14.365079365079364,8.174603174603174,77.06349206349206,-97.38095238095238,60.873015873015866,-101.5079365079365,-125.0,121.82539682539682,-3.73015873015873,3.888888888888889,31.03174603174603,-325.0,325.0,9.603174603174603,117.53968253968253,11.031746031746032,0.5555555555555556,-0.3968253968253968,0.07936507936507936,-321.8253968253968
95.63492063492063,128.33333333333331,41.507936507936506,-6.587301587301587,14.365079365079364,8.174603174603174,77.06349206349206,-97.38095238095238,60.873015873015866,-101.5079365079365,-125.0,121.82539682539682,-3.73015873015873,3.888888888888889,31.03174603174603,-325.0,325.0,9.603174603174603,117.53968253968253,11.031746031746032,0.5555555555555556,-0.3968253968253968,0.07936507936507936,-321.8253968253968
93.57142857142857,119.44444444444444,40.55555555555555,-6.428571428571428,13.888888888888888,5.0,76.42857142857143,-92.77777777777777,60.238095238095234,-114.04761904761904,-122.6190476190476,117.85714285714285,7.063492063492063,4.0476190476190474,30.396825396825395,-325.0,325.0,6.111111111111111,116.9047619047619,7.3809523809523805,-8.492063492063492,-0.23809523809523808,-0.873015873015873,-321.8253968253968
93.57142857142857,119.44444444444444,40.55555555555555,-6.428571428571428,13.888888888888888,5.0,76.42857142857143,-92.77777777777777,60.238095238095234,-114.04761904761904,-122.6190476190476,117.85714285714285,7.063492063492063,4.0476190476190474,30.396825396825395,-325.0,325.0,6.111111111111111,116.9047619047619,7.3809523809523805,-8.492063492063492,-0.23809523809523808,-0.873015873015873,-321.8253968253968
91.98412698412697,119.6031746031746,36.904761904761905,-6.428571428571428,13.571428571428571,11.666666666666666,72.77777777777777,-88.4920634920635,56.42857142857142,-123.57142857142857,-121.03174603174602,119.12698412698413,-0.5555555555555556,4.2063492063492065,29.285714285714285,-325.0,325.0,12.619047619047619,118.96825396825396,11.19047619047619,-5.158730158730158,-1.1904761904761905,-1.0317460317460316,-321.8253968253968
91.98412698412697,119.6031746031746,36.904761904761905,-6.428571428571428,13.571428571428571,11.666666666666666,72.77777777777777,-88.4920634920635,56.42857142857142,-123.57142857142857,-121.03174603174602,119.12698412698413,-0.5555555555555556,4.2063492063492065,29.285714285714285,-325.0,325.0,12.619047619047619,118.96825396825396,11.19047619047619,-5.158730158730158,-1.1904761904761905,-1.0317460317460316,-321.8253968253968
-325.0,123.09523809523809,43.57142857142857,-5.634920634920634,13.412698412698411,7.222222222222221,73.57142857142857,-89.6031746031746,56.58730158730158,-148.33333333333331,-118.33333333333333,123.09523809523809,10.079365079365079,3.888888888888889,34.2063492063492,-325.0,318.6507936507936,7.698412698412698,124.36507936507935,4.523809523809524,-11.984126984126984,1.1904761904761905,-0.07936507936507936,-166.26984126984127
-325.0,123.09523809523809,43.57142857142857,-5.634920634920634,13.412698412698411,7.222222222222221,73.57142857142857,-89.6031746031746,56.58730158730158,-148.33333333333331,-118.33333333333333,123.09523809523809,10.079365079365079,3.888888888888889,34.2063492063492,-325.0,318.6507936507936,7.698412698412698,124.36507936507935,4.523809523809524,-11.984126984126984,1.1904761904761905,-0.07936507936507936,-166.26984126984127
-325.0,127.53968253968253,44.68253968253968,-4.0476190476190474,13.253968253968253,0.7142857142857142,70.23809523809524,-95.15873015873015,52.93650793650794,-123.4126984126984,-116.74603174603173,121.19047619047619,18.333333333333332,3.888888888888889,32.460317460317455,-309.9206349206349,314.68253968253964,1.1904761904761905,121.82539682539682,8.015873015873016,-7.5396825396825395,0.7142857142857142,-0.23809523809523808,-166.26984126984127
-325.0,127.53968253968253,44.68253968253968,-4.0476190476190474,13.253968253968253,0.7142857142857142,70.23809523809524,-95.15873015873015,52.93650793650794,-123.4126984126984,-116.74603174603173,121.19047619047619,18.333333333333332,3.888888888888889,32.460317460317455,-309.9206349206349,314.68253968253964,1.1904761904761905,121.82539682539682,8.015873015873016,-7.5396825396825395,0.7142857142857142,-0.23809523809523808,-166.26984126984127
-325.0,130.7142857142857,49.12698412698413,-3.73015873015873,12.936507936507935,-0.07936507936507936,74.52380952380952,-99.28571428571428,54.2063492063492,-120.71428571428571,-114.52380952380952,119.92063492063491,9.761904761904761,3.73015873015873,36.11111111111111,-222.93650793650792,308.17460317460313,0.873015873015873,119.28571428571428,6.111111111111111,-9.126984126984127,0.23809523809523808,-0.7142857142857142,-166.26984126984127
-325.0,130.7142857142857,49.12698412698413,-3.73015873015873,12.936507936507935,-0.07936507936507936,74.52380952380952,-99.28571428571428,54.2063492063492,-120.71428571428571,-114.52380952380952,119.92063492063491,9.761904761904761,3.73015873015873,36.11111111111111,-222.93650793650792,308.17460317460313,0.873015873015873,119.28571428571428,6.111111111111111,-9.126984126984127,0.23809523809523808,-0.7142857142857142,-166.26984126984127
-325.0,125.31746031746032,50.238095238095234,5.634920634920634,12.777777777777777,-1.349206349206349,80.87301587301587,-94.2063492063492,57.857142857142854,-139.44444444444443,-112.46031746031746,119.76190476190476,11.349206349206348,3.73015873015873,43.73015873015873,-166.74603174603175,302.9365079365079,-0.07936507936507936,123.25396825396825,6.587301587301587,-8.65079365079365,0.23809523809523808,-0.07936507936507936,-166.26984126984127
-325.0,125.31746031746032,50.238095238095234,5.634920634920634,12.777777777777777,-1.349206349206349,80.87301587301587,-94.2063492063492,57.857142857142854,-139.44444444444443,-112.46031746031746,119.76190476190476,11.349206349206348,3.73015873015873,43.73015873015873,-166.74603174603175,302.9365079365079,-0.07936507936507936,123.25396825396825,6.587301587301587,-8.65079365079365,0.23809523809523808,-0.07936507936507936,-166.26984126984127
-325.0,119.28571428571428,47.857142857142854,21.984126984126984,12.46031746031746,0.3968253968253968,79.12698412698413,-91.03174603174602,57.22222222222222,-117.53968253968253,-110.55555555555554,119.28571428571428,20.396825396825395,3.571428571428571,44.68253968253968,-271.984126984127,297.85714285714283,0.5555555555555556,125.63492063492063,4.841269841269841,-18.174603174603174,0.5555555555555556,-1.0317460317460316,-166.26984126984127
-325.0,119.28571428571428,47.857142857142854,21.984126984126984,12.46031746031746,0.3968253968253968,79.12698412698413,-91.03174603174602,57.22222222222222,-117.53968253968253,-110.55555555555554,119.28571428571428,20.396825396825395,3.571428571428571,44.68253968253968,-271.984126984127,297.85714285714283,0.5555555555555556,125.63492063492063,4.841269841269841,-18.174603174603174,0.5555555555555556,-1.0317460317460316,-166.26984126984127
-325.0,118.8095238095238,46.904761904761905,23.730158730158728,12.46031746031746,-5.7936507936507935,77.38095238095238,-94.84126984126983,54.2063492063492,-118.96825396825396,-108.80952380952381,118.65079365079364,20.873015873015873,3.73015873015873,45.95238095238095,-325.0,292.9365079365079,-5.158730158730158,121.03174603174602,6.428571428571428,-14.365079365079364,0.5555555555555556,-0.5555555555555556,-321.8253968253968
-325.0,118.8095238095238,46.904761904761905,23.730158730158728,12.46031746031746,-5.7936507936507935,77.38095238095238,-94.84126984126983,54.2063492063492,-118.96825396825396,-108.80952380952381,118.65079365079364,20.873015873015873,3.73015873015873,45.95238095238095,-325.0,292.9365079365079,-5.158730158730158,121.03174603174602,6.428571428571428,-14.365079365079364,0.5555555555555556,-0.5555555555555556,-321.8253968253968
-325.0,119.28571428571428,45.95238095238095,23.730158730158728,12.3015873015873,-7.3809523809523805,77.38095238095238,-94.84126984126983,54.2063492063492,-122.6190476190476,-108.17460317460316,117.85714285714285,22.3015873015873,3.73015873015873,45.95238095238095,-325.0,291.66666666666663,-7.222222222222221,120.07936507936508,7.222222222222221,-10.079365079365079,0.23809523809523808,-0.5555555555555556,-321.8253968253968
-325.0,119.28571428571428,45.95238095238095,23.730158730158728,12.3015873015873,-7.3809523809523805,77.38095238095238,-94.84126984126983,54.2063492063492,-122.6190476190476,-108.17460317460316,117.85714285714285,22.3015873015873,3.73015873015873,45.95238095238095,-325.0,291.66666666666663,-7.222222222222221,120.07936507936508,7.222222222222221,-10.079365079365079,0.23809523809523808,-0.5555555555555556,-321.8253968253968
209.44444444444443,124.84126984126983,56.74603174603174,15.634920634920634,11.984126984126984,-5.317460317460317,76.1111111111111,-91.03174603174602,49.92063492063492,-106.42857142857142,-105.0,121.82539682539682,28.65079365079365,3.253968253968254,46.904761904761905,-325.0,282.1428571428571,-4.682539682539682,126.1111111111111,4.0476190476190474,-7.5396825396825395,0.3968253968253968,0.7142857142857142,-321.8253968253968
209.44444444444443,124.84126984126983,56.74603174603174,15.634920634920634,11.984126984126984,-5.317460317460317,76.1111111111111,-91.03174603174602,49.92063492063492,-106.42857142857142,-105.0,121.82539682539682,28.65079365079365,3.253968253968254,46.904761904761905,-325.0,282.1428571428571,-4.682539682539682,126.1111111111111,4.0476190476190474,-7.5396825396825395,0.3968253968253968,0.7142857142857142,-321.8253968253968
39.76190476190476,125.79365079365078,65.79365079365078,2.7777777777777777,11.666666666666666,-2.46031746031746,77.85714285714285,-88.33333333333333,50.55555555555555,-86.9047619047619,-102.77777777777777,124.36507936507935,35.15873015873016,3.4126984126984126,48.33333333333333,-325.0,276.1111111111111,-1.8253968253968254,130.55555555555554,1.6666666666666665,-22.619047619047617,-0.7142857142857142,-0.23809523809523808,-321.8253968253968
39.76190476190476,125.79365079365078,65.79365079365078,2.7777777777777777,11.666666666666666,-2.46031746031746,77.85714285714285,-88.33333333333333,50.55555555555555,-86.9047619047619,-102.77777777777777,124.36507936507935,35.15873015873016,3.4126984126984126,48.33333333333333,-325.0,276.1111111111111,-1.8253968253968254,130.55555555555554,1.6666666666666665,-22.619047619047617,-0.7142857142857142,-0.23809523809523808,-321.8253968253968
222.77777777777777,120.07936507936508,69.6031746031746,9.761904761904761,11.507936507936508,2.142857142857143,83.73015873015872,-88.80952380952381,55.95238095238095,-75.15873015873015,-100.87301587301587,122.6190476190476,38.01587301587301,3.4126984126984126,54.68253968253968,-325.0,271.3492063492063,2.9365079365079363,129.6031746031746,1.8253968253968254,-18.65079365079365,-0.3968253968253968,-0.7142857142857142,-321.8253968253968
222.77777777777777,120.07936507936508,69.6031746031746,9.761904761904761,11.507936507936508,2.142857142857143,83.73015873015872,-88.80952380952381,55.95238095238095,-75.15873015873015,-100.87301587301587,122.6190476190476,38.01587301587301,3.4126984126984126,54.68253968253968,-325.0,271.3492063492063,2.9365079365079363,129.6031746031746,1.8253968253968254,-18.65079365079365,-0.3968253968253968,-0.7142857142857142,-321.8253968253968
261.66666666666663,120.87301587301586,69.76190476190476,9.444444444444445,11.349206349206348,1.6666666666666665,85.95238095238095,-88.4920634920635,58.8095238095238,-83.25396825396825,-99.76190476190476,122.6190476190476,40.87301587301587,3.4126984126984126,60.39682539682539,-325.0,268.3333333333333,1.507936507936508,131.5079365079365,-9.920634920634921,-32.3015873015873,-0.5555555555555556,-1.0317460317460316,-166.26984126984127
261.66666666666663,120.87301587301586,69.76190476190476,9.444444444444445,11.349206349206348,1.6666666666666665,85.95238095238095,-88.4920634920635,58.8095238095238,-83.25396825396825,-99.76190476190476,122.6190476190476,40.87301587301587,3.4126984126984126,60.39682539682539,-325.0,268.3333333333333,1.507936507936508,131.5079365079365,-9.920634920634921,-32.3015873015873,-0.5555555555555556,-1.0317460317460316,-166.26984126984127
295.7936507936508,124.04761904761904,69.12698412698413,3.888888888888889,11.349206349206348,7.698412698412698,85.95238095238095,-86.26984126984127,59.76190476190476,-55.79365079365079,-98.17460317460316,120.55555555555554,40.39682539682539,3.253968253968254,65.15873015873015,-325.0,263.4126984126984,8.492063492063492,128.015873015873,1.8253968253968254,-24.523809523809522,0.23809523809523808,-1.507936507936508,-166.26984126984127
295.7936507936508,124.04761904761904,69.12698412698413,3.888888888888889,11.349206349206348,7.698412698412698,85.95238095238095,-86.26984126984127,59.76190476190476,-55.79365079365079,-98.17460317460316,120.55555555555554,40.39682539682539,3.253968253968254,65.15873015873015,-325.0,263.4126984126984,8.492063492063492,128.015873015873,1.8253968253968254,-24.523809523809522,0.23809523809523808,-1.507936507936508,-166.26984126984127
287.6984126984127,121.82539682539682,69.92063492063491,-6.26984126984127,10.873015873015872,8.174603174603174,87.22222222222221,-82.61904761904762,61.507936507936506,-40.238095238095234,-96.1111111111111,120.23809523809523,40.238095238095234,3.253968253968254,62.77777777777777,-325.0,258.015873015873,8.174603174603174,123.73015873015872,-7.063492063492063,-37.06349206349206,-0.3968253968253968,-0.7142857142857142,-166.26984126984127
287.6984126984127,121.82539682539682,69.92063492063491,-6.26984126984127,10.873015873015872,8.174603174603174,87.22222222222221,-82.61904761904762,61.507936507936506,-40.238095238095234,-96.1111111111111,120.23809523809523,40.238095238095234,3.253968253968254,62.77777777777777,-325.0,258.015873015873,8.174603174603174,123.73015873015872,-7.063492063492063,-37.06349206349206,-0.3968253968253968,-0.7142857142857142,-166.26984126984127
189.60317460317458,121.19047619047619,70.39682539682539,13.888888888888888,10.873015873015872,1.507936507936508,84.68253968253968,-84.36507936507937,56.58730158730158,-103.73015873015872,-94.36507936507935,121.34920634920634,33.73015873015873,3.095238095238095,60.39682539682539,-325.0,253.7301587301587,1.6666666666666665,118.96825396825396,-9.285714285714285,-37.53968253968254,-0.3968253968253968,-0.3968253968253968,-166.26984126984127
189.60317460317458,121.19047619047619,70.39682539682539,13.888888888888888,10.873015873015872,1.507936507936508,84.68253968253968,-84.36507936507937,56.58730158730158,-103.73015873015872,-94.36507936507935,121.34920634920634,33.73015873015873,3.095238095238095,60.39682539682539,-325.0,253.7301587301587,1.6666666666666665,118.96825396825396,-9.285714285714285,-37.53968253968254,-0.3968253968253968,-0.3968253968253968,-166.26984126984127
227.2222222222222,122.93650793650794,63.095238095238095,36.269841269841265,10.555555555555555,5.476190476190476,71.5079365079365,-92.61904761904762,42.14285714285714,-140.55555555555554,-92.77777777777777,125.15873015873015,38.80952380952381,3.095238095238095,49.76190476190476,-325.0,249.44444444444443,5.476190476190476,118.49206349206348,-15.95238095238095,-36.269841269841265,-0.3968253968253968,-1.1904761904761905,-166.26984126984127
227.2222222222222,122.93650793650794,63.095238095238095,36.269841269841265,10.555555555555555,5.476190476190476,71.5079365079365,-92.61904761904762,42.14285714285714,-140.55555555555554,-92.77777777777777,125.15873015873015,38.80952380952381,3.095238095238095,49.76190476190476,-325.0,249.44444444444443,5.476190476190476,118.49206349206348,-15.95238095238095,-36.269841269841265,-0.3968253968253968,-1.1904761904761905,-166.26984126984127
115.31746031746032,119.12698412698413,71.98412698412697,41.03174603174603,10.396825396825395,6.111111111111111,73.57142857142857,-99.6031746031746,45.95238095238095,-176.74603174603175,-91.19047619047619,122.46031746031746,45.476190476190474,3.095238095238095,54.047619047619044,-325.0,245.15873015873015,6.26984126984127,120.55555555555554,-13.253968253968253,-37.698412698412696,0.5555555555555556,-0.5555555555555556,-321.8253968253968
115.31746031746032,119.12698412698413,71.98412698412697,41.03174603174603,10.396825396825395,6.111111111111111,73.57142857142857,-99.6031746031746,45.95238095238095,-176.74603174603175,-91.19047619047619,122.46031746031746,45.476190476190474,3.095238095238095,54.047619047619044,-325.0,245.15873015873015,6.26984126984127,120.55555555555554,-13.253968253968253,-37.698412698412696,0.5555555555555556,-0.5555555555555556,-321.8253968253968
-77.38095238095238,122.14285714285714,80.23809523809523,48.96825396825397,10.238095238095237,3.4126984126984126,77.85714285714285,-102.46031746031746,47.22222222222222,-217.2222222222222,-89.76190476190476,124.04761904761904,44.36507936507936,2.9365079365079363,61.19047619047619,-325.0,241.03174603174602,3.571428571428571,126.9047619047619,-21.03174603174603,-57.22222222222222,0.7142857142857142,-0.873015873015873,-321.8253968253968
-77.38095238095238,122.14285714285714,80.23809523809523,48.96825396825397,10.238095238095237,3.4126984126984126,77.85714285714285,-102.46031746031746,47.22222222222222,-217.2222222222222,-89.76190476190476,124.04761904761904,44.36507936507936,2.9365079365079363,61.19047619047619,-325.0,241.03174603174602,3.571428571428571,126.9047619047619,-21.03174603174603,-57.22222222222222,0.7142857142857142,-0.873015873015873,-321.8253968253968
270.7142857142857,124.36507936507935,83.25396825396825,62.93650793650793,10.079365079365079,4.0476190476190474,81.03174603174602,-92.46031746031746,51.19047619047619,-241.8253968253968,-88.4920634920635,124.84126984126983,51.82539682539682,3.095238095238095,63.41269841269841,-325.0,236.9047619047619,3.73015873015873,134.36507936507937,-23.730158730158728,-42.460317460317455,-1.0317460317460316,-0.3968253968253968,-321.8253968253968
270.7142857142857,124.36507936507935,83.25396825396825,62.93650793650793,10.079365079365079,4.0476190476190474,81.03174603174602,-92.46031746031746,51.19047619047619,-241.8253968253968,-88.4920634920635,124.84126984126983,51.82539682539682,3.095238095238095,63.41269841269841,-325.0,236.9047619047619,3.73015873015873,134.36507936507937,-23.730158730158728,-42.460317460317455,-1.0317460317460316,-0.3968253968253968,-321.8253968253968
275.4761904761905,118.33333333333333,77.38095238095238,57.857142857142854,10.079365079365079,1.349206349206349,86.58730158730158,-88.4920634920635,58.96825396825397,-220.55555555555554,-87.38095238095238,122.77777777777777,54.2063492063492,2.9365079365079363,69.12698412698413,-227.53968253968253,233.88888888888889,1.349206349206349,130.7142857142857,-28.65079365079365,-48.80952380952381,-0.5555555555555556,-0.23809523809523808,-321.8253968253968
275.4761904761905,118.33333333333333,77.38095238095238,57.857142857142854,10.079365079365079,1.349206349206349,86.58730158730158,-88.4920634920635,58.96825396825397,-220.55555555555554,-87.38095238095238,122.77777777777777,54.2063492063492,2.9365079365079363,69.12698412698413,-227.53968253968253,233.88888888888889,1.349206349206349,130.7142857142857,-28.65079365079365,-48.80952380952381,-0.5555555555555556,-0.23809523809523808,-321.8253968253968
262.77777777777777,111.34920634920634,65.63492063492063,56.904761904761905,9.761904761904761,4.365079365079365,88.17460317460316,-82.77777777777777,61.666666666666664,-175.15873015873015,-85.31746031746032,120.55555555555554,45.476190476190474,2.9365079365079363,68.96825396825396,-173.09523809523807,228.96825396825395,3.73015873015873,122.30158730158729,-23.41269841269841,-56.11111111111111,0.5555555555555556,-0.07936507936507936,-321.8253968253968
262.77777777777777,111.34920634920634,65.63492063492063,56.904761904761905,9.761904761904761,4.365079365079365,88.17460317460316,-82.77777777777777,61.666666666666664,-175.15873015873015,-85.31746031746032,120.55555555555554,45.476190476190474,2.9365079365079363,68.96825396825396,-173.09523809523807,228.96825396825395,3.73015873015873,122.30158730158729,-23.41269841269841,-56.11111111111111,0.5555555555555556,-0.07936507936507936,-321.8253968253968
255.63492063492063,107.53968253968253,75.63492063492063,68.96825396825396,9.603174603174603,0.7142857142857142,91.19047619047619,-83.25396825396825,63.25396825396825,-214.2063492063492,-84.04761904761904,120.71428571428571,51.507936507936506,2.9365079365079363,71.5079365079365,-95.47619047619047,225.15873015873015,0.5555555555555556,121.98412698412697,-42.93650793650794,-72.3015873015873,0.5555555555555556,-0.873015873015873,-166.26984126984127
255.63492063492063,107.53968253968253,75.63492063492063,68.96825396825396,9.603174603174603,0.7142857142857142,91.19047619047619,-83.25396825396825,63.25396825396825,-214.2063492063492,-84.04761904761904,120.71428571428571,51.507936507936506,2.9365079365079363,71.5079365079365,-95.47619047619047,225.15873015873015,0.5555555555555556,121.98412698412697,-42.93650793650794,-72.3015873015873,0.5555555555555556,-0.873015873015873,-166.26984126984127
252.14285714285714,106.26984126984127,79.28571428571428,83.25396825396825,9.761904761904761,-3.888888888888889,89.44444444444444,-85.0,59.6031746031746,-226.9047619047619,-82.93650793650794,121.5079365079365,54.36507936507936,2.7777777777777777,71.82539682539682,17.38095238095238,222.3015873015873,-3.571428571428571,122.6190476190476,-40.39682539682539,-67.53968253968253,-0.7142857142857142,-0.7142857142857142,-166.26984126984127
252.14285714285714,106.26984126984127,79.28571428571428,83.25396825396825,9.761904761904761,-3.888888888888889,89.44444444444444,-85.0,59.6031746031746,-226.9047619047619,-82.93650793650794,121.5079365079365,54.36507936507936,2.7777777777777777,71.82539682539682,17.38095238095238,222.3015873015873,-3.571428571428571,122.6190476190476,-40.39682539682539,-67.53968253968253,-0.7142857142857142,-0.7142857142857142,-166.26984126984127
250.3968253968254,111.19047619047619,77.06349206349206,83.09523809523809,9.444444444444445,-1.507936507936508,83.4126984126984,-89.12698412698413,54.2063492063492,-233.25396825396825,-81.82539682539682,121.19047619047619,55.476190476190474,2.619047619047619,69.44444444444444,-72.77777777777777,219.44444444444443,-1.349206349206349,119.76190476190476,-41.666666666666664,-64.52380952380952,-0.3968253968253968,-0.873015873015873,-166.26984126984127
250.3968253968254,111.19047619047619,77.06349206349206,83.09523809523809,9.444444444444445,-1.507936507936508,83.4126984126984,-89.12698412698413,54.2063492063492,-233.25396825396825,-81.82539682539682,121.19047619047619,55.476190476190474,2.619047619047619,69.44444444444444,-72.77777777777777,219.44444444444443,-1.349206349206349,119.76190476190476,-41.666666666666664,-64.52380952380952,-0.3968253968253968,-0.873015873015873,-166.26984126984127
248.8095238095238,116.1111111111111,75.0,83.09523809523809,9.285714285714285,0.873015873015873,77.53968253968253,-93.09523809523809,48.80952380952381,-239.44444444444443,-80.71428571428571,121.03174603174602,56.58730158730158,2.619047619047619,67.06349206349206,-162.77777777777777,216.58730158730157,0.873015873015873,117.06349206349206,-42.93650793650794,-61.34920634920635,-0.07936507936507936,-1.0317460317460316,-166.26984126984127
248.8095238095238,116.1111111111111,75.0,83.09523809523809,9.285714285714285,0.873015873015873,77.53968253968253,-93.09523809523809,48.80952380952381,-239.44444444444443,-80.71428571428571,121.03174603174602,56.58730158730158,2.619047619047619,67.06349206349206,-162.77777777777777,216.58730158730157,0.873015873015873,117.06349206349206,-42.93650793650794,-61.34920634920635,-0.07936507936507936,-1.0317460317460316,-166.26984126984127
