Fp1[1],Fp2[2],F3[3],F4[4],C3[5],C4[6],P3[7],P4[8],O1[9],O2[10],F7[11],F8[12],T3[13],T4[14],T5[15],T6[16],Fz[17],Pz[18],Cz[19],Pg1[20],Pg2[21],EOGR[22],EOOGL[23],EMG[24]
-154.36507936507937,-174.2063492063492,-140.55555555555554,-171.34920634920633,-154.68253968253967,-156.11111111111111,4.365079365079365,3.095238095238095,325.0,-188.33333333333331,29.126984126984127,325.0,-325.0,-105.15873015873015,325.0,-106.9047619047619,325.0,325.0,-267.22222222222223,-218.015873015873,-325.0,-5.476190476190476,4.2063492063492065,-166.26984126984127
-154.36507936507937,-174.2063492063492,-140.55555555555554,-171.34920634920633,-154.68253968253967,-156.11111111111111,4.365079365079365,3.095238095238095,325.0,-188.33333333333331,29.126984126984127,325.0,-325.0,-105.15873015873015,325.0,-106.9047619047619,325.0,325.0,-267.22222222222223,-218.015873015873,-325.0,-5.476190476190476,4.2063492063492065,-166.26984126984127
36.904761904761905,-123.57142857142857,-325.0,-325.0,325.0,-325.0,325.0,-89.6031746031746,325.0,-171.66666666666666,20.238095238095237,325.0,-325.0,-90.55555555555556,325.0,-90.23809523809523,325.0,325.0,-262.46031746031747,-209.12698412698413,-325.0,4.523809523809524,-4.523809523809524,-166.26984126984127
36.904761904761905,-123.57142857142857,-325.0,-325.0,325.0,-325.0,325.0,-89.6031746031746,325.0,-171.66666666666666,20.238095238095237,325.0,-325.0,-90.55555555555556,325.0,-90.23809523809523,325.0,325.0,-262.46031746031747,-209.12698412698413,-325.0,4.523809523809524,-4.523809523809524,-166.26984126984127
32.460317460317455,-137.22222222222223,-325.0,-325.0,325.0,-325.0,325.0,-105.47619047619047,325.0,76.58730158730158,16.26984126984127,325.0,-325.0,-105.31746031746032,325.0,-106.26984126984127,325.0,325.0,-259.2857142857143,-198.33333333333331,-325.0,1.349206349206349,-2.3015873015873014,-166.26984126984127
32.460317460317455,-137.22222222222223,-325.0,-325.0,325.0,-325.0,325.0,-105.47619047619047,325.0,76.58730158730158,16.26984126984127,325.0,-325.0,-105.31746031746032,325.0,-106.26984126984127,325.0,325.0,-259.2857142857143,-198.33333333333331,-325.0,1.349206349206349,-2.3015873015873014,-166.26984126984127
27.063492063492063,-206.58730158730157,-325.0,-325.0,325.0,-325.0,325.0,-182.77777777777777,325.0,325.0,14.365079365079364,325.0,-325.0,-181.66666666666666,325.0,-183.7301587301587,325.0,325.0,-239.60317460317458,-117.06349206349206,-325.0,0.23809523809523808,-1.349206349206349,-166.26984126984127
27.063492063492063,-206.58730158730157,-325.0,-325.0,325.0,-325.0,325.0,-182.77777777777777,325.0,325.0,14.365079365079364,325.0,-325.0,-181.66666666666666,325.0,-183.7301587301587,325.0,325.0,-239.60317460317458,-117.06349206349206,-325.0,0.23809523809523808,-1.349206349206349,-166.26984126984127
26.9047619047619,-205.47619047619045,-325.0,-325.0,325.0,-325.0,325.0,-182.77777777777777,325.0,325.0,14.682539682539682,325.0,-325.0,-181.19047619047618,325.0,-183.25396825396825,325.0,325.0,-237.53968253968253,-109.28571428571428,-325.0,5.158730158730158,-4.841269841269841,-166.26984126984127
26.9047619047619,-205.47619047619045,-325.0,-325.0,325.0,-325.0,325.0,-182.77777777777777,325.0,325.0,14.682539682539682,325.0,-325.0,-181.19047619047618,325.0,-183.25396825396825,325.0,325.0,-237.53968253968253,-109.28571428571428,-325.0,5.158730158730158,-4.841269841269841,-166.26984126984127
34.36507936507936,-247.53968253968253,-325.0,-325.0,325.0,-325.0,325.0,-225.15873015873015,325.0,325.0,27.22222222222222,325.0,-325.0,-224.2063492063492,325.0,-228.33333333333331,325.0,325.0,-207.69841269841268,4.682539682539682,-325.0,-0.3968253968253968,0.07936507936507936,-321.8253968253968
34.36507936507936,-247.53968253968253,-325.0,-325.0,325.0,-325.0,325.0,-225.15873015873015,325.0,325.0,27.22222222222222,325.0,-325.0,-224.2063492063492,325.0,-228.33333333333331,325.0,325.0,-207.69841269841268,4.682539682539682,-325.0,-0.3968253968253968,0.07936507936507936,-321.8253968253968
31.19047619047619,-244.52380952380952,-325.0,-325.0,325.0,-325.0,325.0,-222.14285714285714,325.0,325.0,24.365079365079364,325.0,-325.0,-221.19047619047618,325.0,-225.0,325.0,325.0,-206.1111111111111,6.26984126984127,-325.0,-0.5555555555555556,0.07936507936507936,-321.8253968253968
31.19047619047619,-244.52380952380952,-325.0,-325.0,325.0,-325.0,325.0,-222.14285714285714,325.0,325.0,24.365079365079364,325.0,-325.0,-221.19047619047618,325.0,-225.0,325.0,325.0,-206.1111111111111,6.26984126984127,-325.0,-0.5555555555555556,0.07936507936507936,-321.8253968253968
31.19047619047619,-244.52380952380952,-325.0,-325.0,325.0,-325.0,325.0,-222.14285714285714,325.0,325.0,24.365079365079364,325.0,-325.0,-221.19047619047618,325.0,-225.0,325.0,325.0,-206.1111111111111,6.26984126984127,-325.0,-0.5555555555555556,0.07936507936507936,-321.8253968253968
31.19047619047619,-244.52380952380952,-325.0,-325.0,325.0,-325.0,325.0,-222.14285714285714,325.0,325.0,24.365079365079364,325.0,-325.0,-221.19047619047618,325.0,-225.0,325.0,325.0,-206.1111111111111,6.26984126984127,-325.0,-0.5555555555555556,0.07936507936507936,-321.8253968253968
24.523809523809522,-253.88888888888889,-325.0,-325.0,325.0,-325.0,325.0,-230.07936507936506,325.0,325.0,20.555555555555554,308.968253968254,-325.0,-228.49206349206347,325.0,-233.7301587301587,318.015873015873,325.0,-186.26984126984127,49.76190476190476,-325.0,-0.873015873015873,-1.8253968253968254,-321.8253968253968
24.523809523809522,-253.88888888888889,-325.0,-325.0,325.0,-325.0,325.0,-230.07936507936506,325.0,325.0,20.555555555555554,308.968253968254,-325.0,-228.49206349206347,325.0,-233.7301587301587,318.015873015873,325.0,-186.26984126984127,49.76190476190476,-325.0,-0.873015873015873,-1.8253968253968254,-321.8253968253968
24.523809523809522,-253.88888888888889,-325.0,-325.0,325.0,-325.0,325.0,-230.07936507936506,325.0,325.0,20.555555555555554,308.968253968254,-325.0,-228.49206349206347,325.0,-233.7301587301587,318.015873015873,325.0,-186.26984126984127,49.76190476190476,-325.0,-0.873015873015873,-1.8253968253968254,-321.8253968253968
24.523809523809522,-253.88888888888889,-325.0,-325.0,325.0,-325.0,325.0,-230.07936507936506,325.0,325.0,20.555555555555554,308.968253968254,-325.0,-228.49206349206347,325.0,-233.7301587301587,318.015873015873,325.0,-186.26984126984127,49.76190476190476,-325.0,-0.873015873015873,-1.8253968253968254,-321.8253968253968
22.619047619047617,-258.6507936507936,-325.0,-325.0,322.6190476190476,-321.031746031746,311.984126984127,-234.36507936507934,314.2063492063492,325.0,19.285714285714285,296.1111111111111,-325.0,-232.46031746031744,325.0,-238.17460317460316,304.5238095238095,317.22222222222223,-178.65079365079364,63.888888888888886,-325.0,-4.365079365079365,3.571428571428571,-166.26984126984127
22.619047619047617,-258.6507936507936,-325.0,-325.0,322.6190476190476,-321.031746031746,311.984126984127,-234.36507936507934,314.2063492063492,325.0,19.285714285714285,296.1111111111111,-325.0,-232.46031746031744,325.0,-238.17460317460316,304.5238095238095,317.22222222222223,-178.65079365079364,63.888888888888886,-325.0,-4.365079365079365,3.571428571428571,-166.26984126984127
22.619047619047617,-258.6507936507936,-325.0,-325.0,322.6190476190476,-321.031746031746,311.984126984127,-234.36507936507934,314.2063492063492,325.0,19.285714285714285,296.1111111111111,-325.0,-232.46031746031744,325.0,-238.17460317460316,304.5238095238095,317.22222222222223,-178.65079365079364,63.888888888888886,-325.0,-4.365079365079365,3.571428571428571,-166.26984126984127
22.619047619047617,-258.6507936507936,-325.0,-325.0,322.6190476190476,-321.031746031746,311.984126984127,-234.36507936507934,314.2063492063492,325.0,19.285714285714285,296.1111111111111,-325.0,-232.46031746031744,325.0,-238.17460317460316,304.5238095238095,317.22222222222223,-178.65079365079364,63.888888888888886,-325.0,-4.365079365079365,3.571428571428571,-166.26984126984127
15.95238095238095,-217.38095238095238,-295.7936507936508,-288.015873015873,283.25396825396825,-281.66666666666663,272.3015873015873,-197.38095238095238,274.68253968253964,314.36507936507934,15.158730158730158,242.46031746031744,-285.0,-195.15873015873015,286.26984126984127,-201.5079365079365,265.3174603174603,278.4920634920635,-156.58730158730157,80.39682539682539,-283.57142857142856,-0.07936507936507936,-1.1904761904761905,-166.26984126984127
15.95238095238095,-217.38095238095238,-295.7936507936508,-288.015873015873,283.25396825396825,-281.66666666666663,272.3015873015873,-197.38095238095238,274.68253968253964,314.36507936507934,15.158730158730158,242.46031746031744,-285.0,-195.15873015873015,286.26984126984127,-201.5079365079365,265.3174603174603,278.4920634920635,-156.58730158730157,80.39682539682539,-283.57142857142856,-0.07936507936507936,-1.1904761904761905,-166.26984126984127
9.444444444444445,-175.95238095238093,-266.58730158730157,-250.87301587301585,244.04761904761904,-242.3015873015873,232.6190476190476,-160.23809523809524,235.15873015873015,303.88888888888886,11.031746031746032,188.96825396825395,-245.0,-157.85714285714286,247.53968253968253,-164.84126984126982,226.1111111111111,239.76190476190476,-134.36507936507937,96.9047619047619,-241.98412698412696,4.365079365079365,-5.7936507936507935,-166.26984126984127
9.444444444444445,-175.95238095238093,-266.58730158730157,-250.87301587301585,244.04761904761904,-242.3015873015873,232.6190476190476,-160.23809523809524,235.15873015873015,303.88888888888886,11.031746031746032,188.96825396825395,-245.0,-157.85714285714286,247.53968253968253,-164.84126984126982,226.1111111111111,239.76190476190476,-134.36507936507937,96.9047619047619,-241.98412698412696,4.365079365079365,-5.7936507936507935,-166.26984126984127
-24.206349206349206,325.0,325.0,-75.63492063492063,-325.0,325.0,-234.68253968253967,217.2222222222222,-325.0,88.65079365079364,-20.238095238095237,-325.0,-72.14285714285714,217.38095238095238,39.12698412698413,223.4126984126984,65.15873015873015,74.52380952380952,-41.666666666666664,-15.476190476190474,-69.44444444444444,-0.07936507936507936,-0.23809523809523808,-166.26984126984127
-24.206349206349206,325.0,325.0,-75.63492063492063,-325.0,325.0,-234.68253968253967,217.2222222222222,-325.0,88.65079365079364,-20.238095238095237,-325.0,-72.14285714285714,217.38095238095238,39.12698412698413,223.4126984126984,65.15873015873015,74.52380952380952,-41.666666666666664,-15.476190476190474,-69.44444444444444,-0.07936507936507936,-0.23809523809523808,-166.26984126984127
-24.84126984126984,325.0,325.0,-75.0,-325.0,325.0,-325.0,226.9047619047619,-325.0,87.85714285714285,-20.873015873015873,-325.0,-71.5079365079365,227.85714285714283,3.253968253968254,233.88888888888889,64.52380952380952,74.04761904761904,-41.19047619047619,-17.698412698412696,-68.65079365079364,1.349206349206349,-2.142857142857143,-321.8253968253968
-24.84126984126984,325.0,325.0,-75.0,-325.0,325.0,-325.0,226.9047619047619,-325.0,87.85714285714285,-20.873015873015873,-325.0,-71.5079365079365,227.85714285714283,3.253968253968254,233.88888888888889,64.52380952380952,74.04761904761904,-41.19047619047619,-17.698412698412696,-68.65079365079364,1.349206349206349,-2.142857142857143,-321.8253968253968
-33.41269841269841,325.0,325.0,-72.14285714285714,-325.0,325.0,-325.0,275.95238095238096,-325.0,84.52380952380952,-29.444444444444443,-325.0,-68.65079365079364,276.4285714285714,-160.87301587301587,279.44444444444446,-94.68253968253968,71.34920634920634,-39.6031746031746,-27.38095238095238,-65.95238095238095,-1.984126984126984,0.873015873015873,-321.8253968253968
-33.41269841269841,325.0,325.0,-72.14285714285714,-325.0,325.0,-325.0,275.95238095238096,-325.0,84.52380952380952,-29.444444444444443,-325.0,-68.65079365079364,276.4285714285714,-160.87301587301587,279.44444444444446,-94.68253968253968,71.34920634920634,-39.6031746031746,-27.38095238095238,-65.95238095238095,-1.984126984126984,0.873015873015873,-321.8253968253968
-23.730158730158728,281.8253968253968,325.0,-56.42857142857142,-325.0,325.0,-325.0,236.1111111111111,-325.0,65.79365079365078,-20.238095238095237,-267.6984126984127,-53.41269841269841,235.15873015873015,-325.0,240.55555555555554,-289.4444444444444,56.11111111111111,-31.19047619047619,-181.03174603174602,-51.19047619047619,-0.07936507936507936,-0.23809523809523808,-321.8253968253968
-23.730158730158728,281.8253968253968,325.0,-56.42857142857142,-325.0,325.0,-325.0,236.1111111111111,-325.0,65.79365079365078,-20.238095238095237,-267.6984126984127,-53.41269841269841,235.15873015873015,-325.0,240.55555555555554,-289.4444444444444,56.11111111111111,-31.19047619047619,-181.03174603174602,-51.19047619047619,-0.07936507936507936,-0.23809523809523808,-321.8253968253968
-13.73015873015873,225.79365079365078,325.0,-41.34920634920635,-311.031746031746,325.0,-325.0,115.63492063492063,-325.0,47.698412698412696,-11.19047619047619,-199.12698412698413,-38.80952380952381,113.57142857142857,-325.0,123.57142857142857,-325.0,41.34920634920635,-23.095238095238095,-325.0,325.0,1.8253968253968254,-3.253968253968254,-321.8253968253968
-13.73015873015873,225.79365079365078,325.0,-41.34920634920635,-311.031746031746,325.0,-325.0,115.63492063492063,-325.0,47.698412698412696,-11.19047619047619,-199.12698412698413,-38.80952380952381,113.57142857142857,-325.0,123.57142857142857,-325.0,41.34920634920635,-23.095238095238095,-325.0,325.0,1.8253968253968254,-3.253968253968254,-321.8253968253968
-11.349206349206348,220.07936507936506,325.0,-40.238095238095234,-303.88888888888886,325.0,-325.0,90.39682539682539,-325.0,46.269841269841265,-8.809523809523808,-194.36507936507937,-37.857142857142854,87.6984126984127,-325.0,98.65079365079364,-325.0,40.39682539682539,-22.619047619047617,-325.0,325.0,-1.984126984126984,0.7142857142857142,-321.8253968253968
-11.349206349206348,220.07936507936506,325.0,-40.238095238095234,-303.88888888888886,325.0,-325.0,90.39682539682539,-325.0,46.269841269841265,-8.809523809523808,-194.36507936507937,-37.857142857142854,87.6984126984127,-325.0,98.65079365079364,-325.0,40.39682539682539,-22.619047619047617,-325.0,325.0,-1.984126984126984,0.7142857142857142,-321.8253968253968
-14.206349206349206,216.42857142857142,325.0,-39.44444444444444,-298.968253968254,325.0,-325.0,78.80952380952381,-325.0,45.317460317460316,-11.984126984126984,-190.87301587301587,-37.22222222222222,77.85714285714285,-325.0,87.53968253968253,-325.0,39.76190476190476,-22.142857142857142,-325.0,325.0,2.46031746031746,-2.3015873015873014,-166.26984126984127
-14.206349206349206,216.42857142857142,325.0,-39.44444444444444,-298.968253968254,325.0,-325.0,78.80952380952381,-325.0,45.317460317460316,-11.984126984126984,-190.87301587301587,-37.22222222222222,77.85714285714285,-325.0,87.53968253968253,-325.0,39.76190476190476,-22.142857142857142,-325.0,325.0,2.46031746031746,-2.3015873015873014,-166.26984126984127
-9.761904761904761,209.28571428571428,325.0,-38.33333333333333,-289.6031746031746,325.0,-325.0,52.14285714285714,-325.0,44.047619047619044,-7.3809523809523805,-184.68253968253967,14.047619047619047,49.6031746031746,-325.0,59.76190476190476,-325.0,38.49206349206349,-21.666666666666664,-325.0,325.0,-3.73015873015873,1.8253968253968254,-166.26984126984127
-9.761904761904761,209.28571428571428,325.0,-38.33333333333333,-289.6031746031746,325.0,-325.0,52.14285714285714,-325.0,44.047619047619044,-7.3809523809523805,-184.68253968253967,14.047619047619047,49.6031746031746,-325.0,59.76190476190476,-325.0,38.49206349206349,-21.666666666666664,-325.0,325.0,-3.73015873015873,1.8253968253968254,-166.26984126984127
-3.253968253968254,185.63492063492063,316.1111111111111,-34.047619047619044,-258.4920634920635,325.0,-325.0,-15.634920634920634,-325.0,38.80952380952381,-1.349206349206349,-163.57142857142856,250.55555555555554,-16.904761904761905,-325.0,-9.285714285714285,-325.0,34.2063492063492,-19.285714285714285,-299.76190476190476,325.0,5.7936507936507935,-4.523809523809524,-166.26984126984127
-3.253968253968254,185.63492063492063,316.1111111111111,-34.047619047619044,-258.4920634920635,325.0,-325.0,-15.634920634920634,-325.0,38.80952380952381,-1.349206349206349,-163.57142857142856,250.55555555555554,-16.904761904761905,-325.0,-9.285714285714285,-325.0,34.2063492063492,-19.285714285714285,-299.76190476190476,325.0,5.7936507936507935,-4.523809523809524,-166.26984126984127
-0.07936507936507936,169.76190476190476,307.22222222222223,-31.19047619047619,-237.69841269841268,325.0,-325.0,-52.77777777777777,-325.0,35.476190476190474,1.6666666666666665,-149.6031746031746,325.0,-54.36507936507936,-325.0,-47.698412698412696,-325.0,31.507936507936506,-17.857142857142858,-274.36507936507934,325.0,5.7936507936507935,-4.0476190476190474,-166.26984126984127
-0.07936507936507936,169.76190476190476,307.22222222222223,-31.19047619047619,-237.69841269841268,325.0,-325.0,-52.77777777777777,-325.0,35.476190476190474,1.6666666666666665,-149.6031746031746,325.0,-54.36507936507936,-325.0,-47.698412698412696,-325.0,31.507936507936506,-17.857142857142858,-274.36507936507934,325.0,5.7936507936507935,-4.0476190476190474,-166.26984126984127
3.888888888888889,36.904761904761905,-180.23809523809524,325.0,-56.58730158730158,81.19047619047619,-81.19047619047619,15.634920634920634,-76.1111111111111,-176.26984126984127,4.2063492063492065,-33.73015873015873,191.19047619047618,11.031746031746032,-88.65079365079364,11.825396825396824,-86.74603174603175,-325.0,325.0,-60.238095238095234,138.4920634920635,-3.73015873015873,1.6666666666666665,-166.26984126984127
3.888888888888889,36.904761904761905,-180.23809523809524,325.0,-56.58730158730158,81.19047619047619,-81.19047619047619,15.634920634920634,-76.1111111111111,-176.26984126984127,4.2063492063492065,-33.73015873015873,191.19047619047618,11.031746031746032,-88.65079365079364,11.825396825396824,-86.74603174603175,-325.0,325.0,-60.238095238095234,138.4920634920635,-3.73015873015873,1.6666666666666665,-166.26984126984127
4.841269841269841,36.74603174603175,-325.0,325.0,-56.269841269841265,80.87301587301587,-81.03174603174602,19.126984126984127,-75.79365079365078,-176.11111111111111,5.317460317460317,-33.57142857142857,190.3968253968254,10.714285714285714,-88.17460317460316,13.253968253968253,-86.26984126984127,-325.0,325.0,-59.76190476190476,137.85714285714286,-5.158730158730158,4.2063492063492065,-321.8253968253968
4.841269841269841,36.74603174603175,-325.0,325.0,-56.269841269841265,80.87301587301587,-81.03174603174602,19.126984126984127,-75.79365079365078,-176.11111111111111,5.317460317460317,-33.57142857142857,190.3968253968254,10.714285714285714,-88.17460317460316,13.253968253968253,-86.26984126984127,-325.0,325.0,-59.76190476190476,137.85714285714286,-5.158730158730158,4.2063492063492065,-321.8253968253968
4.841269841269841,36.74603174603175,-325.0,325.0,-56.269841269841265,80.87301587301587,-81.03174603174602,19.126984126984127,-75.79365079365078,-176.11111111111111,5.317460317460317,-33.57142857142857,190.3968253968254,10.714285714285714,-88.17460317460316,13.253968253968253,-86.26984126984127,-325.0,325.0,-59.76190476190476,137.85714285714286,-5.158730158730158,4.2063492063492065,-321.8253968253968
4.841269841269841,36.74603174603175,-325.0,325.0,-56.269841269841265,80.87301587301587,-81.03174603174602,19.126984126984127,-75.79365079365078,-176.11111111111111,5.317460317460317,-33.57142857142857,190.3968253968254,10.714285714285714,-88.17460317460316,13.253968253968253,-86.26984126984127,-325.0,325.0,-59.76190476190476,137.85714285714286,-5.158730158730158,4.2063492063492065,-321.8253968253968
4.841269841269841,36.74603174603175,-325.0,325.0,-56.269841269841265,80.87301587301587,-81.03174603174602,19.126984126984127,-75.79365079365078,-176.11111111111111,5.317460317460317,-33.57142857142857,190.3968253968254,10.714285714285714,-88.17460317460316,13.253968253968253,-86.26984126984127,-325.0,325.0,-59.76190476190476,137.85714285714286,-5.158730158730158,4.2063492063492065,-321.8253968253968
4.841269841269841,36.74603174603175,-325.0,325.0,-56.269841269841265,80.87301587301587,-81.03174603174602,19.126984126984127,-75.79365079365078,-176.11111111111111,5.317460317460317,-33.57142857142857,190.3968253968254,10.714285714285714,-88.17460317460316,13.253968253968253,-86.26984126984127,-325.0,325.0,-59.76190476190476,137.85714285714286,-5.158730158730158,4.2063492063492065,-321.8253968253968
4.841269841269841,36.74603174603175,-325.0,325.0,-56.269841269841265,80.87301587301587,-81.03174603174602,19.126984126984127,-75.79365079365078,-176.11111111111111,5.317460317460317,-33.57142857142857,190.3968253968254,10.714285714285714,-88.17460317460316,13.253968253968253,-86.26984126984127,-325.0,325.0,-59.76190476190476,137.85714285714286,-5.158730158730158,4.2063492063492065,-321.8253968253968
4.841269841269841,36.74603174603175,-325.0,325.0,-56.269841269841265,80.87301587301587,-81.03174603174602,19.126984126984127,-75.79365079365078,-176.11111111111111,5.317460317460317,-33.57142857142857,190.3968253968254,10.714285714285714,-88.17460317460316,13.253968253968253,-86.26984126984127,-325.0,325.0,-59.76190476190476,137.85714285714286,-5.158730158730158,4.2063492063492065,-321.8253968253968
4.2063492063492065,34.047619047619044,5.0,325.0,-52.3015873015873,74.84126984126983,-74.84126984126983,-101.5079365079365,-70.39682539682539,-176.58730158730157,4.523809523809524,-31.349206349206348,176.42857142857142,-104.84126984126983,-82.14285714285714,-104.84126984126983,-79.76190476190476,325.0,325.0,-55.317460317460316,127.38095238095238,-0.7142857142857142,-0.7142857142857142,-321.8253968253968
4.2063492063492065,34.047619047619044,5.0,325.0,-52.3015873015873,74.84126984126983,-74.84126984126983,-101.5079365079365,-70.39682539682539,-176.58730158730157,4.523809523809524,-31.349206349206348,176.42857142857142,-104.84126984126983,-82.14285714285714,-104.84126984126983,-79.76190476190476,325.0,325.0,-55.317460317460316,127.38095238095238,-0.7142857142857142,-0.7142857142857142,-321.8253968253968
4.2063492063492065,34.047619047619044,5.0,325.0,-52.3015873015873,74.84126984126983,-74.84126984126983,-101.5079365079365,-70.39682539682539,-176.58730158730157,4.523809523809524,-31.349206349206348,176.42857142857142,-104.84126984126983,-82.14285714285714,-104.84126984126983,-79.76190476190476,325.0,325.0,-55.317460317460316,127.38095238095238,-0.7142857142857142,-0.7142857142857142,-166.26984126984127
4.2063492063492065,34.047619047619044,5.0,325.0,-52.3015873015873,74.84126984126983,-74.84126984126983,-101.5079365079365,-70.39682539682539,-176.58730158730157,4.523809523809524,-31.349206349206348,176.42857142857142,-104.84126984126983,-82.14285714285714,-104.84126984126983,-79.76190476190476,325.0,325.0,-55.317460317460316,127.38095238095238,-0.7142857142857142,-0.7142857142857142,-166.26984126984127
11.984126984126984,32.93650793650794,-79.44444444444444,325.0,-50.87301587301587,72.61904761904762,-72.46031746031746,-70.39682539682539,-68.01587301587301,-176.42857142857142,12.777777777777777,-30.396825396825395,170.55555555555554,-72.77777777777777,-79.6031746031746,-73.88888888888889,-77.22222222222221,325.0,325.0,-53.57142857142857,122.93650793650794,-0.23809523809523808,-0.23809523809523808,-166.26984126984127
11.984126984126984,32.93650793650794,-79.44444444444444,325.0,-50.87301587301587,72.61904761904762,-72.46031746031746,-70.39682539682539,-68.01587301587301,-176.42857142857142,12.777777777777777,-30.396825396825395,170.55555555555554,-72.77777777777777,-79.6031746031746,-73.88888888888889,-77.22222222222221,325.0,325.0,-53.57142857142857,122.93650793650794,-0.23809523809523808,-0.23809523809523808,-166.26984126984127
11.984126984126984,32.93650793650794,-79.44444444444444,325.0,-50.87301587301587,72.61904761904762,-72.46031746031746,-70.39682539682539,-68.01587301587301,-176.42857142857142,12.777777777777777,-30.396825396825395,170.55555555555554,-72.77777777777777,-79.6031746031746,-73.88888888888889,-77.22222222222221,325.0,325.0,-53.57142857142857,122.93650793650794,-0.23809523809523808,-0.23809523809523808,-166.26984126984127
11.984126984126984,32.93650793650794,-79.44444444444444,325.0,-50.87301587301587,72.61904761904762,-72.46031746031746,-70.39682539682539,-68.01587301587301,-176.42857142857142,12.777777777777777,-30.396825396825395,170.55555555555554,-72.77777777777777,-79.6031746031746,-73.88888888888889,-77.22222222222221,325.0,325.0,-53.57142857142857,122.93650793650794,-0.23809523809523808,-0.23809523809523808,-166.26984126984127
4.841269841269841,7.222222222222221,96.42857142857142,265.1587301587301,-40.39682539682539,57.06349206349206,-57.38095238095238,11.349206349206348,-53.888888888888886,-169.28571428571428,5.158730158730158,55.95238095238095,133.73015873015873,12.46031746031746,-63.25396825396825,9.126984126984127,-60.873015873015866,-0.07936507936507936,320.39682539682536,137.22222222222223,95.79365079365078,-1.6666666666666665,-1.0317460317460316,-166.26984126984127
4.841269841269841,7.222222222222221,96.42857142857142,265.1587301587301,-40.39682539682539,57.06349206349206,-57.38095238095238,11.349206349206348,-53.888888888888886,-169.28571428571428,5.158730158730158,55.95238095238095,133.73015873015873,12.46031746031746,-63.25396825396825,9.126984126984127,-60.873015873015866,-0.07936507936507936,320.39682539682536,137.22222222222223,95.79365079365078,-1.6666666666666665,-1.0317460317460316,-166.26984126984127
0.3968253968253968,-19.92063492063492,-325.0,218.4920634920635,-34.047619047619044,47.22222222222222,-47.53968253968254,91.82539682539682,-44.52380952380952,-162.93650793650792,0.7142857142857142,144.52380952380952,109.92063492063491,86.9047619047619,-52.61904761904761,89.44444444444444,-50.238095238095234,-325.0,313.57142857142856,142.3015873015873,78.65079365079364,-4.0476190476190474,3.73015873015873,-166.26984126984127
0.3968253968253968,-19.92063492063492,-325.0,218.4920634920635,-34.047619047619044,47.22222222222222,-47.53968253968254,91.82539682539682,-44.52380952380952,-162.93650793650792,0.7142857142857142,144.52380952380952,109.92063492063491,86.9047619047619,-52.61904761904761,89.44444444444444,-50.238095238095234,-325.0,313.57142857142856,142.3015873015873,78.65079365079364,-4.0476190476190474,3.73015873015873,-166.26984126984127
0.3968253968253968,-19.92063492063492,-325.0,218.4920634920635,-34.047619047619044,47.22222222222222,-47.53968253968254,91.82539682539682,-44.52380952380952,-162.93650793650792,0.7142857142857142,144.52380952380952,109.92063492063491,86.9047619047619,-52.61904761904761,89.44444444444444,-50.238095238095234,-325.0,313.57142857142856,142.3015873015873,78.65079365079364,-4.0476190476190474,3.73015873015873,-321.8253968253968
0.3968253968253968,-19.92063492063492,-325.0,218.4920634920635,-34.047619047619044,47.22222222222222,-47.53968253968254,91.82539682539682,-44.52380952380952,-162.93650793650792,0.7142857142857142,144.52380952380952,109.92063492063491,86.9047619047619,-52.61904761904761,89.44444444444444,-50.238095238095234,-325.0,313.57142857142856,142.3015873015873,78.65079365079364,-4.0476190476190474,3.73015873015873,-321.8253968253968
8.015873015873016,-97.38095238095238,132.61904761904762,177.85714285714286,-28.174603174603174,38.65079365079365,-39.12698412698413,11.19047619047619,-36.74603174603175,-164.84126984126982,8.174603174603174,-68.4920634920635,89.44444444444444,12.3015873015873,-43.41269841269841,12.142857142857142,-41.03174603174603,-325.0,256.26984126984127,325.0,63.41269841269841,-0.873015873015873,-0.7142857142857142,-321.8253968253968
8.015873015873016,-97.38095238095238,132.61904761904762,177.85714285714286,-28.174603174603174,38.65079365079365,-39.12698412698413,11.19047619047619,-36.74603174603175,-164.84126984126982,8.174603174603174,-68.4920634920635,89.44444444444444,12.3015873015873,-43.41269841269841,12.142857142857142,-41.03174603174603,-325.0,256.26984126984127,325.0,63.41269841269841,-0.873015873015873,-0.7142857142857142,-321.8253968253968
8.809523809523808,-104.52380952380952,210.3968253968254,173.25396825396825,-27.539682539682538,37.53968253968254,-38.49206349206349,25.952380952380953,-36.11111111111111,-199.9206349206349,8.968253968253968,-66.58730158730158,87.53968253968253,28.65079365079365,-42.460317460317455,26.587301587301585,-39.92063492063492,-325.0,249.9206349206349,325.0,61.98412698412698,-1.8253968253968254,-0.23809523809523808,-321.8253968253968
8.809523809523808,-104.52380952380952,210.3968253968254,173.25396825396825,-27.539682539682538,37.53968253968254,-38.49206349206349,25.952380952380953,-36.11111111111111,-199.9206349206349,8.968253968253968,-66.58730158730158,87.53968253968253,28.65079365079365,-42.460317460317455,26.587301587301585,-39.92063492063492,-325.0,249.9206349206349,325.0,61.98412698412698,-1.8253968253968254,-0.23809523809523808,-321.8253968253968
8.809523809523808,-104.52380952380952,210.3968253968254,173.25396825396825,-27.539682539682538,37.53968253968254,-38.49206349206349,25.952380952380953,-36.11111111111111,-199.9206349206349,8.968253968253968,-66.58730158730158,87.53968253968253,28.65079365079365,-42.460317460317455,26.587301587301585,-39.92063492063492,-325.0,249.9206349206349,325.0,61.98412698412698,-1.8253968253968254,-0.23809523809523808,-321.8253968253968
8.809523809523808,-104.52380952380952,210.3968253968254,173.25396825396825,-27.539682539682538,37.53968253968254,-38.49206349206349,25.952380952380953,-36.11111111111111,-199.9206349206349,8.968253968253968,-66.58730158730158,87.53968253968253,28.65079365079365,-42.460317460317455,26.587301587301585,-39.92063492063492,-325.0,249.9206349206349,325.0,61.98412698412698,-1.8253968253968254,-0.23809523809523808,-321.8253968253968
8.809523809523808,-104.52380952380952,210.3968253968254,173.25396825396825,-27.539682539682538,37.53968253968254,-38.49206349206349,25.952380952380953,-36.11111111111111,-199.9206349206349,8.968253968253968,-66.58730158730158,87.53968253968253,28.65079365079365,-42.460317460317455,26.587301587301585,-39.92063492063492,-325.0,249.9206349206349,325.0,61.98412698412698,-1.8253968253968254,-0.23809523809523808,-321.8253968253968
8.809523809523808,-104.52380952380952,210.3968253968254,173.25396825396825,-27.539682539682538,37.53968253968254,-38.49206349206349,25.952380952380953,-36.11111111111111,-199.9206349206349,8.968253968253968,-66.58730158730158,87.53968253968253,28.65079365079365,-42.460317460317455,26.587301587301585,-39.92063492063492,-325.0,249.9206349206349,325.0,61.98412698412698,-1.8253968253968254,-0.23809523809523808,-321.8253968253968
0.07936507936507936,-148.015873015873,68.17460317460318,148.33333333333331,-24.047619047619047,32.460317460317455,-33.095238095238095,58.650793650793645,-31.19047619047619,-262.46031746031747,0.873015873015873,-60.39682539682539,75.0,63.73015873015873,-36.904761904761905,61.82539682539682,-34.52380952380952,-325.0,214.84126984126982,325.0,52.93650793650794,0.5555555555555556,-2.142857142857143,-166.26984126984127
0.07936507936507936,-148.015873015873,68.17460317460318,148.33333333333331,-24.047619047619047,32.460317460317455,-33.095238095238095,58.650793650793645,-31.19047619047619,-262.46031746031747,0.873015873015873,-60.39682539682539,75.0,63.73015873015873,-36.904761904761905,61.82539682539682,-34.52380952380952,-325.0,214.84126984126982,325.0,52.93650793650794,0.5555555555555556,-2.142857142857143,-166.26984126984127
-7.3809523809523805,-186.74603174603175,-199.60317460317458,122.6190476190476,-20.396825396825395,27.063492063492063,-27.539682539682538,84.68253968253968,-26.11111111111111,-325.0,-6.111111111111111,-54.047619047619044,61.82539682539682,86.1111111111111,-31.03174603174603,88.4920634920635,-28.96825396825397,-325.0,178.33333333333331,325.0,43.57142857142857,-0.07936507936507936,0.23809523809523808,-166.26984126984127
-7.3809523809523805,-186.74603174603175,-199.60317460317458,122.6190476190476,-20.396825396825395,27.063492063492063,-27.539682539682538,84.68253968253968,-26.11111111111111,-325.0,-6.111111111111111,-54.047619047619044,61.82539682539682,86.1111111111111,-31.03174603174603,88.4920634920635,-28.96825396825397,-325.0,178.33333333333331,325.0,43.57142857142857,-0.07936507936507936,0.23809523809523808,-166.26984126984127
-3.73015873015873,-198.8095238095238,-325.0,120.39682539682539,-19.92063492063492,26.9047619047619,-27.063492063492063,69.12698412698413,-25.634920634920633,-316.4285714285714,-2.142857142857143,-53.25396825396825,61.03174603174603,71.66666666666666,-30.396825396825395,74.2063492063492,-28.49206349206349,-325.0,175.3174603174603,325.0,42.93650793650794,1.8253968253968254,-0.23809523809523808,-166.26984126984127
-3.73015873015873,-198.8095238095238,-325.0,120.39682539682539,-19.92063492063492,26.9047619047619,-27.063492063492063,69.12698412698413,-25.634920634920633,-316.4285714285714,-2.142857142857143,-53.25396825396825,61.03174603174603,71.66666666666666,-30.396825396825395,74.2063492063492,-28.49206349206349,-325.0,175.3174603174603,325.0,42.93650793650794,1.8253968253968254,-0.23809523809523808,-166.26984126984127
-5.7936507936507935,-187.06349206349205,-279.9206349206349,116.9047619047619,-19.444444444444443,26.11111111111111,-26.428571428571427,81.5079365079365,-25.0,-320.7142857142857,-4.0476190476190474,124.04761904761904,59.285714285714285,80.39682539682539,-29.6031746031746,84.52380952380952,-27.539682539682538,-174.36507936507937,-74.84126984126983,325.0,41.666666666666664,-1.1904761904761905,1.507936507936508,-166.26984126984127
-5.7936507936507935,-187.06349206349205,-279.9206349206349,116.9047619047619,-19.444444444444443,26.11111111111111,-26.428571428571427,81.5079365079365,-25.0,-320.7142857142857,-4.0476190476190474,124.04761904761904,59.285714285714285,80.39682539682539,-29.6031746031746,84.52380952380952,-27.539682539682538,-174.36507936507937,-74.84126984126983,325.0,41.666666666666664,-1.1904761904761905,1.507936507936508,-166.26984126984127
-7.698412698412698,-175.15873015873015,-234.68253968253967,113.4126984126984,-18.96825396825397,25.317460317460316,-25.634920634920633,94.04761904761904,-24.206349206349206,-325.0,-5.7936507936507935,301.5079365079365,57.53968253968254,89.28571428571428,-28.809523809523807,94.84126984126983,-26.587301587301585,-23.730158730158728,-325.0,325.0,40.39682539682539,-4.0476190476190474,3.253968253968254,-166.26984126984127
-7.698412698412698,-175.15873015873015,-234.68253968253967,113.4126984126984,-18.96825396825397,25.317460317460316,-25.634920634920633,94.04761904761904,-24.206349206349206,-325.0,-5.7936507936507935,301.5079365079365,57.53968253968254,89.28571428571428,-28.809523809523807,94.84126984126983,-26.587301587301585,-23.730158730158728,-325.0,325.0,40.39682539682539,-4.0476190476190474,3.253968253968254,-166.26984126984127
-7.698412698412698,-175.15873015873015,-234.68253968253967,113.4126984126984,-18.96825396825397,25.317460317460316,-25.634920634920633,94.04761904761904,-24.206349206349206,-325.0,-5.7936507936507935,301.5079365079365,57.53968253968254,89.28571428571428,-28.809523809523807,94.84126984126983,-26.587301587301585,-23.730158730158728,-325.0,325.0,40.39682539682539,-4.0476190476190474,3.253968253968254,-321.8253968253968
-7.698412698412698,-175.15873015873015,-234.68253968253967,113.4126984126984,-18.96825396825397,25.317460317460316,-25.634920634920633,94.04761904761904,-24.206349206349206,-325.0,-5.7936507936507935,301.5079365079365,57.53968253968254,89.28571428571428,-28.809523809523807,94.84126984126983,-26.587301587301585,-23.730158730158728,-325.0,325.0,40.39682539682539,-4.0476190476190474,3.253968253968254,-321.8253968253968
-8.015873015873016,-223.7301587301587,-2.46031746031746,107.85714285714285,-18.333333333333332,24.047619047619047,-24.365079365079364,56.11111111111111,-23.095238095238095,-325.0,-6.111111111111111,257.06349206349205,54.68253968253968,53.095238095238095,-27.698412698412696,58.33333333333333,-25.317460317460316,23.57142857142857,-325.0,325.0,38.49206349206349,-3.73015873015873,3.888888888888889,-321.8253968253968
-8.015873015873016,-223.7301587301587,-2.46031746031746,107.85714285714285,-18.333333333333332,24.047619047619047,-24.365079365079364,56.11111111111111,-23.095238095238095,-325.0,-6.111111111111111,257.06349206349205,54.68253968253968,53.095238095238095,-27.698412698412696,58.33333333333333,-25.317460317460316,23.57142857142857,-325.0,325.0,38.49206349206349,-3.73015873015873,3.888888888888889,-321.8253968253968
-8.333333333333332,-272.3015873015873,229.9206349206349,102.46031746031746,-17.539682539682538,22.936507936507937,-23.095238095238095,18.174603174603174,-21.984126984126984,-325.0,-6.428571428571428,212.61904761904762,51.98412698412698,16.904761904761905,-26.428571428571427,21.825396825396822,-23.88888888888889,70.87301587301587,-325.0,325.0,36.58730158730159,-3.4126984126984126,4.682539682539682,-321.8253968253968
-8.333333333333332,-272.3015873015873,229.9206349206349,102.46031746031746,-17.539682539682538,22.936507936507937,-23.095238095238095,18.174603174603174,-21.984126984126984,-325.0,-6.428571428571428,212.61904761904762,51.98412698412698,16.904761904761905,-26.428571428571427,21.825396825396822,-23.88888888888889,70.87301587301587,-325.0,325.0,36.58730158730159,-3.4126984126984126,4.682539682539682,-321.8253968253968
-8.333333333333332,-272.3015873015873,229.9206349206349,102.46031746031746,-17.539682539682538,22.936507936507937,-23.095238095238095,18.174603174603174,-21.984126984126984,-325.0,-6.428571428571428,212.61904761904762,51.98412698412698,16.904761904761905,-26.428571428571427,21.825396825396822,-23.88888888888889,70.87301587301587,-325.0,325.0,36.58730158730159,-3.4126984126984126,4.682539682539682,-321.8253968253968
-8.333333333333332,-272.3015873015873,229.9206349206349,102.46031746031746,-17.539682539682538,22.936507936507937,-23.095238095238095,18.174603174603174,-21.984126984126984,-325.0,-6.428571428571428,212.61904761904762,51.98412698412698,16.904761904761905,-26.428571428571427,21.825396825396822,-23.88888888888889,70.87301587301587,-325.0,325.0,36.58730158730159,-3.4126984126984126,4.682539682539682,-321.8253968253968
-8.333333333333332,-272.3015873015873,229.9206349206349,102.46031746031746,-17.539682539682538,22.936507936507937,-23.095238095238095,18.174603174603174,-21.984126984126984,-325.0,-6.428571428571428,212.61904761904762,51.98412698412698,16.904761904761905,-26.428571428571427,21.825396825396822,-23.88888888888889,70.87301587301587,-325.0,325.0,36.58730158730159,-3.4126984126984126,4.682539682539682,-321.8253968253968
-8.333333333333332,-272.3015873015873,229.9206349206349,102.46031746031746,-17.539682539682538,22.936507936507937,-23.095238095238095,18.174603174603174,-21.984126984126984,-325.0,-6.428571428571428,212.61904761904762,51.98412698412698,16.904761904761905,-26.428571428571427,21.825396825396822,-23.88888888888889,70.87301587301587,-325.0,325.0,36.58730158730159,-3.4126984126984126,4.682539682539682,-321.8253968253968
-8.333333333333332,-272.3015873015873,229.9206349206349,102.46031746031746,-17.539682539682538,22.936507936507937,-23.095238095238095,18.174603174603174,-21.984126984126984,-325.0,-6.428571428571428,212.61904761904762,51.98412698412698,16.904761904761905,-26.428571428571427,21.825396825396822,-23.88888888888889,70.87301587301587,-325.0,325.0,36.58730158730159,-3.4126984126984126,4.682539682539682,-166.26984126984127
-8.333333333333332,-272.3015873015873,229.9206349206349,102.46031746031746,-17.539682539682538,22.936507936507937,-23.095238095238095,18.174603174603174,-21.984126984126984,-325.0,-6.428571428571428,212.61904761904762,51.98412698412698,16.904761904761905,-26.428571428571427,21.825396825396822,-23.88888888888889,70.87301587301587,-325.0,325.0,36.58730158730159,-3.4126984126984126,4.682539682539682,-166.26984126984127
-3.095238095238095,-263.0952380952381,-47.53968253968254,95.31746031746032,-16.587301587301585,21.349206349206348,-21.825396825396822,16.428571428571427,-20.71428571428571,-273.88888888888886,-0.7142857142857142,268.8095238095238,48.49206349206349,19.126984126984127,-24.84126984126984,22.3015873015873,-22.46031746031746,-115.47619047619047,-80.39682539682539,324.68253968253964,33.888888888888886,-0.07936507936507936,2.142857142857143,-166.26984126984127
-3.095238095238095,-263.0952380952381,-47.53968253968254,95.31746031746032,-16.587301587301585,21.349206349206348,-21.825396825396822,16.428571428571427,-20.71428571428571,-273.88888888888886,-0.7142857142857142,268.8095238095238,48.49206349206349,19.126984126984127,-24.84126984126984,22.3015873015873,-22.46031746031746,-115.47619047619047,-80.39682539682539,324.68253968253964,33.888888888888886,-0.07936507936507936,2.142857142857143,-166.26984126984127
0.7142857142857142,-325.0,-219.28571428571428,87.53968253968253,-15.634920634920634,19.76190476190476,-20.238095238095237,31.349206349206348,-19.126984126984127,-325.0,3.73015873015873,325.0,44.52380952380952,36.11111111111111,-23.095238095238095,36.11111111111111,-21.03174603174603,-299.2857142857143,122.77777777777777,325.0,31.349206349206348,3.571428571428571,-4.365079365079365,-166.26984126984127
0.7142857142857142,-325.0,-219.28571428571428,87.53968253968253,-15.634920634920634,19.76190476190476,-20.238095238095237,31.349206349206348,-19.126984126984127,-325.0,3.73015873015873,325.0,44.52380952380952,36.11111111111111,-23.095238095238095,36.11111111111111,-21.03174603174603,-299.2857142857143,122.77777777777777,325.0,31.349206349206348,3.571428571428571,-4.365079365079365,-166.26984126984127
6.428571428571428,-324.2063492063492,-325.0,85.47619047619047,-15.0,15.634920634920634,-19.92063492063492,-1.507936507936508,-18.80952380952381,-325.0,9.444444444444445,230.07936507936506,43.41269841269841,1.0317460317460316,-22.619047619047617,4.523809523809524,-20.555555555555554,-293.4126984126984,218.65079365079364,325.0,30.555555555555554,-0.23809523809523808,2.3015873015873014,-166.26984126984127
6.428571428571428,-324.2063492063492,-325.0,85.47619047619047,-15.0,15.634920634920634,-19.92063492063492,-1.507936507936508,-18.80952380952381,-325.0,9.444444444444445,230.07936507936506,43.41269841269841,1.0317460317460316,-22.619047619047617,4.523809523809524,-20.555555555555554,-293.4126984126984,218.65079365079364,325.0,30.555555555555554,-0.23809523809523808,2.3015873015873014,-166.26984126984127
1.6666666666666665,-325.0,-68.80952380952381,84.52380952380952,-15.0,2.7777777777777777,-19.6031746031746,35.63492063492063,-18.65079365079365,-325.0,4.365079365079365,44.84126984126984,43.095238095238095,40.238095238095234,-22.3015873015873,42.61904761904761,-20.238095238095237,-289.9206349206349,52.3015873015873,325.0,30.07936507936508,-0.07936507936507936,-0.07936507936507936,-166.26984126984127
1.6666666666666665,-325.0,-68.80952380952381,84.52380952380952,-15.0,2.7777777777777777,-19.6031746031746,35.63492063492063,-18.65079365079365,-325.0,4.365079365079365,44.84126984126984,43.095238095238095,40.238095238095234,-22.3015873015873,42.61904761904761,-20.238095238095237,-289.9206349206349,52.3015873015873,325.0,30.07936507936508,-0.07936507936507936,-0.07936507936507936,-166.26984126984127
-8.333333333333332,-325.0,-69.28571428571428,82.93650793650794,-14.523809523809524,-125.63492063492063,-19.444444444444443,89.6031746031746,-18.333333333333332,-325.0,-5.317460317460317,-73.88888888888889,42.3015873015873,88.4920634920635,-21.825396825396822,94.36507936507935,-20.238095238095237,-285.1587301587301,52.61904761904761,325.0,29.76190476190476,-4.523809523809524,4.2063492063492065,-321.8253968253968
-8.333333333333332,-325.0,-69.28571428571428,82.93650793650794,-14.523809523809524,-125.63492063492063,-19.444444444444443,89.6031746031746,-18.333333333333332,-325.0,-5.317460317460317,-73.88888888888889,42.3015873015873,88.4920634920635,-21.825396825396822,94.36507936507935,-20.238095238095237,-285.1587301587301,52.61904761904761,325.0,29.76190476190476,-4.523809523809524,4.2063492063492065,-321.8253968253968
-4.523809523809524,-325.0,-63.57142857142857,81.82539682539682,-14.523809523809524,-69.6031746031746,-19.285714285714285,77.38095238095238,-18.174603174603174,-325.0,-1.6666666666666665,-55.476190476190474,41.82539682539682,78.01587301587301,-21.666666666666664,81.82539682539682,-19.92063492063492,-281.8253968253968,90.55555555555556,325.0,29.285714285714285,-3.571428571428571,2.142857142857143,-321.8253968253968
-4.523809523809524,-325.0,-63.57142857142857,81.82539682539682,-14.523809523809524,-69.6031746031746,-19.285714285714285,77.38095238095238,-18.174603174603174,-325.0,-1.6666666666666665,-55.476190476190474,41.82539682539682,78.01587301587301,-21.666666666666664,81.82539682539682,-19.92063492063492,-281.8253968253968,90.55555555555556,325.0,29.285714285714285,-3.571428571428571,2.142857142857143,-321.8253968253968
-0.7142857142857142,-325.0,-57.857142857142854,80.87301587301587,-14.365079365079364,-13.412698412698411,-18.96825396825397,65.15873015873015,-18.015873015873016,-325.0,1.984126984126984,-36.904761904761905,41.507936507936506,67.53968253968253,-21.349206349206348,69.44444444444444,-19.6031746031746,-278.3333333333333,128.65079365079364,325.0,28.96825396825397,-2.619047619047619,0.23809523809523808,-321.8253968253968
-0.7142857142857142,-325.0,-57.857142857142854,80.87301587301587,-14.365079365079364,-13.412698412698411,-18.96825396825397,65.15873015873015,-18.015873015873016,-325.0,1.984126984126984,-36.904761904761905,41.507936507936506,67.53968253968253,-21.349206349206348,69.44444444444444,-19.6031746031746,-278.3333333333333,128.65079365079364,325.0,28.96825396825397,-2.619047619047619,0.23809523809523808,-321.8253968253968
-5.317460317460317,-325.0,78.17460317460316,78.33333333333333,-14.047619047619047,-62.93650793650793,-18.49206349206349,74.52380952380952,-17.539682539682538,-325.0,-2.7777777777777777,-41.98412698412698,40.238095238095234,78.17460317460316,-20.873015873015873,78.17460317460316,-19.126984126984127,-270.7142857142857,216.9047619047619,325.0,28.015873015873016,-0.23809523809523808,-2.7777777777777777,-321.8253968253968
-5.317460317460317,-325.0,78.17460317460316,78.33333333333333,-14.047619047619047,-62.93650793650793,-18.49206349206349,74.52380952380952,-17.539682539682538,-325.0,-2.7777777777777777,-41.98412698412698,40.238095238095234,78.17460317460316,-20.873015873015873,78.17460317460316,-19.126984126984127,-270.7142857142857,216.9047619047619,325.0,28.015873015873016,-0.23809523809523808,-2.7777777777777777,-321.8253968253968
-6.746031746031746,-325.0,158.33333333333331,78.01587301587301,-13.888888888888888,-31.666666666666664,-18.49206349206349,61.98412698412698,-17.38095238095238,-325.0,-4.523809523809524,-36.42857142857142,40.079365079365076,63.73015873015873,-20.71428571428571,65.15873015873015,-18.96825396825397,-269.76190476190476,211.03174603174602,325.0,27.857142857142854,-2.619047619047619,0.07936507936507936,-321.8253968253968
-6.746031746031746,-325.0,158.33333333333331,78.01587301587301,-13.888888888888888,-31.666666666666664,-18.49206349206349,61.98412698412698,-17.38095238095238,-325.0,-4.523809523809524,-36.42857142857142,40.079365079365076,63.73015873015873,-20.71428571428571,65.15873015873015,-18.96825396825397,-269.76190476190476,211.03174603174602,325.0,27.857142857142854,-2.619047619047619,0.07936507936507936,-321.8253968253968
-7.3809523809523805,-325.0,59.44444444444444,76.74603174603175,-13.888888888888888,-45.15873015873016,-18.333333333333332,71.5079365079365,-17.063492063492063,-325.0,-5.158730158730158,-35.317460317460316,39.285714285714285,73.4126984126984,-20.396825396825395,74.84126984126983,-18.65079365079365,-265.4761904761905,226.1111111111111,325.0,27.38095238095238,-3.253968253968254,-0.3968253968253968,-166.26984126984127
-7.3809523809523805,-325.0,59.44444444444444,76.74603174603175,-13.888888888888888,-45.15873015873016,-18.333333333333332,71.5079365079365,-17.063492063492063,-325.0,-5.158730158730158,-35.317460317460316,39.285714285714285,73.4126984126984,-20.396825396825395,74.84126984126983,-18.65079365079365,-265.4761904761905,226.1111111111111,325.0,27.38095238095238,-3.253968253968254,-0.3968253968253968,-166.26984126984127
-5.317460317460317,-325.0,-325.0,74.52380952380952,-13.571428571428571,-210.07936507936506,-17.857142857142858,35.0,-16.746031746031743,-325.0,-2.619047619047619,-17.539682539682538,38.01587301587301,32.93650793650794,-19.92063492063492,38.33333333333333,-18.174603174603174,-258.015873015873,281.3492063492063,325.0,25.317460317460316,-1.1904761904761905,2.619047619047619,-166.26984126984127
-5.317460317460317,-325.0,-325.0,74.52380952380952,-13.571428571428571,-210.07936507936506,-17.857142857142858,35.0,-16.746031746031743,-325.0,-2.619047619047619,-17.539682539682538,38.01587301587301,32.93650793650794,-19.92063492063492,38.33333333333333,-18.174603174603174,-258.015873015873,281.3492063492063,325.0,25.317460317460316,-1.1904761904761905,2.619047619047619,-166.26984126984127
1.507936507936508,-325.0,-102.46031746031746,73.09523809523809,-13.412698412698411,-92.14285714285714,-17.22222222222222,42.460317460317455,-16.587301587301585,-325.0,4.0476190476190474,-0.07936507936507936,37.53968253968254,48.49206349206349,-19.76190476190476,47.698412698412696,-17.857142857142858,-253.7301587301587,277.6984126984127,325.0,25.952380952380953,0.07936507936507936,-2.3015873015873014,-166.26984126984127
1.507936507936508,-325.0,-102.46031746031746,73.09523809523809,-13.412698412698411,-92.14285714285714,-17.22222222222222,42.460317460317455,-16.587301587301585,-325.0,4.0476190476190474,-0.07936507936507936,37.53968253968254,48.49206349206349,-19.76190476190476,47.698412698412696,-17.857142857142858,-253.7301587301587,277.6984126984127,325.0,25.952380952380953,0.07936507936507936,-2.3015873015873014,-166.26984126984127
3.571428571428571,-325.0,-59.44444444444444,72.77777777777777,-13.253968253968253,-57.698412698412696,-17.22222222222222,41.34920634920635,-16.587301587301585,-325.0,6.111111111111111,6.587301587301587,37.22222222222222,44.84126984126984,-19.6031746031746,45.476190476190474,-17.857142857142858,-252.77777777777777,274.5238095238095,325.0,26.11111111111111,-2.9365079365079363,0.07936507936507936,-166.26984126984127
3.571428571428571,-325.0,-59.44444444444444,72.77777777777777,-13.253968253968253,-57.698412698412696,-17.22222222222222,41.34920634920635,-16.587301587301585,-325.0,6.111111111111111,6.587301587301587,37.22222222222222,44.84126984126984,-19.6031746031746,45.476190476190474,-17.857142857142858,-252.77777777777777,274.5238095238095,325.0,26.11111111111111,-2.9365079365079363,0.07936507936507936,-166.26984126984127
-0.23809523809523808,-325.0,-0.07936507936507936,70.55555555555556,-12.936507936507935,-133.0952380952381,-16.904761904761905,20.396825396825395,-16.11111111111111,-325.0,2.46031746031746,23.88888888888889,36.58730158730159,29.285714285714285,-18.96825396825397,25.79365079365079,-17.22222222222222,-246.58730158730157,274.2063492063492,325.0,20.873015873015873,4.0476190476190474,-4.682539682539682,-166.26984126984127
-0.23809523809523808,-325.0,-0.07936507936507936,70.55555555555556,-12.936507936507935,-133.0952380952381,-16.904761904761905,20.396825396825395,-16.11111111111111,-325.0,2.46031746031746,23.88888888888889,36.58730158730159,29.285714285714285,-18.96825396825397,25.79365079365079,-17.22222222222222,-246.58730158730157,274.2063492063492,325.0,20.873015873015873,4.0476190476190474,-4.682539682539682,-166.26984126984127
5.0,-325.0,-90.23809523809523,69.76190476190476,-13.095238095238095,-174.2063492063492,-16.746031746031743,-38.01587301587301,-15.95238095238095,-325.0,7.5396825396825395,44.047619047619044,35.95238095238095,-44.047619047619044,-19.126984126984127,-37.38095238095238,-17.063492063492063,-242.93650793650792,269.44444444444446,325.0,23.730158730158728,-4.0476190476190474,4.2063492063492065,-321.8253968253968
5.0,-325.0,-90.23809523809523,69.76190476190476,-13.095238095238095,-174.2063492063492,-16.746031746031743,-38.01587301587301,-15.95238095238095,-325.0,7.5396825396825395,44.047619047619044,35.95238095238095,-44.047619047619044,-19.126984126984127,-37.38095238095238,-17.063492063492063,-242.93650793650792,269.44444444444446,325.0,23.730158730158728,-4.0476190476190474,4.2063492063492065,-321.8253968253968
3.571428571428571,-325.0,231.98412698412696,68.17460317460318,-12.619047619047619,-104.84126984126983,-16.587301587301585,-24.047619047619047,-15.476190476190474,-325.0,6.111111111111111,43.25396825396825,35.0,-17.539682539682538,-18.65079365079365,-19.6031746031746,-16.746031746031743,-238.17460317460316,263.0952380952381,325.0,17.698412698412696,-0.873015873015873,-2.46031746031746,-321.8253968253968
3.571428571428571,-325.0,231.98412698412696,68.17460317460318,-12.619047619047619,-104.84126984126983,-16.587301587301585,-24.047619047619047,-15.476190476190474,-325.0,6.111111111111111,43.25396825396825,35.0,-17.539682539682538,-18.65079365079365,-19.6031746031746,-16.746031746031743,-238.17460317460316,263.0952380952381,325.0,17.698412698412696,-0.873015873015873,-2.46031746031746,-321.8253968253968
12.619047619047619,-325.0,200.87301587301587,67.22222222222221,-12.619047619047619,-232.3015873015873,-16.11111111111111,-91.66666666666666,-15.317460317460316,-325.0,15.317460317460316,50.87301587301587,34.52380952380952,-94.04761904761904,-18.49206349206349,-89.6031746031746,-16.587301587301585,-234.52380952380952,258.4920634920635,325.0,-19.92063492063492,-0.5555555555555556,1.8253968253968254,-321.8253968253968
12.619047619047619,-325.0,200.87301587301587,67.22222222222221,-12.619047619047619,-232.3015873015873,-16.11111111111111,-91.66666666666666,-15.317460317460316,-325.0,15.317460317460316,50.87301587301587,34.52380952380952,-94.04761904761904,-18.49206349206349,-89.6031746031746,-16.587301587301585,-234.52380952380952,258.4920634920635,325.0,-19.92063492063492,-0.5555555555555556,1.8253968253968254,-321.8253968253968
13.888888888888888,-325.0,265.4761904761905,66.11111111111111,-12.3015873015873,-153.73015873015873,-16.11111111111111,-64.68253968253968,-15.158730158730158,-325.0,16.428571428571427,53.095238095238095,34.2063492063492,-54.2063492063492,-18.174603174603174,-56.904761904761905,-16.587301587301585,-231.34920634920633,254.84126984126982,325.0,-9.603174603174603,4.0476190476190474,-4.0476190476190474,-321.8253968253968
13.888888888888888,-325.0,265.4761904761905,66.11111111111111,-12.3015873015873,-153.73015873015873,-16.11111111111111,-64.68253968253968,-15.158730158730158,-325.0,16.428571428571427,53.095238095238095,34.2063492063492,-54.2063492063492,-18.174603174603174,-56.904761904761905,-16.587301587301585,-231.34920634920633,254.84126984126982,325.0,-9.603174603174603,4.0476190476190474,-4.0476190476190474,-321.8253968253968
13.888888888888888,-325.0,265.4761904761905,66.11111111111111,-12.3015873015873,-153.73015873015873,-16.11111111111111,-64.68253968253968,-15.158730158730158,-325.0,16.428571428571427,53.095238095238095,34.2063492063492,-54.2063492063492,-18.174603174603174,-56.904761904761905,-16.587301587301585,-231.34920634920633,254.84126984126982,325.0,-9.603174603174603,4.0476190476190474,-4.0476190476190474,-321.8253968253968
13.888888888888888,-325.0,265.4761904761905,66.11111111111111,-12.3015873015873,-153.73015873015873,-16.11111111111111,-64.68253968253968,-15.158730158730158,-325.0,16.428571428571427,53.095238095238095,34.2063492063492,-54.2063492063492,-18.174603174603174,-56.904761904761905,-16.587301587301585,-231.34920634920633,254.84126984126982,325.0,-9.603174603174603,4.0476190476190474,-4.0476190476190474,-321.8253968253968
10.873015873015872,-325.0,294.04761904761904,64.84126984126983,-8.65079365079365,-120.55555555555554,-15.95238095238095,-54.52380952380952,-15.0,-325.0,13.253968253968253,63.888888888888886,33.41269841269841,-47.53968253968254,-18.015873015873016,-49.6031746031746,-16.26984126984127,-226.9047619047619,249.28571428571428,325.0,6.111111111111111,0.3968253968253968,-2.3015873015873014,-166.26984126984127
10.873015873015872,-325.0,294.04761904761904,64.84126984126983,-8.65079365079365,-120.55555555555554,-15.95238095238095,-54.52380952380952,-15.0,-325.0,13.253968253968253,63.888888888888886,33.41269841269841,-47.53968253968254,-18.015873015873016,-49.6031746031746,-16.26984126984127,-226.9047619047619,249.28571428571428,325.0,6.111111111111111,0.3968253968253968,-2.3015873015873014,-166.26984126984127
13.412698412698411,-325.0,217.69841269841268,62.61904761904761,-2.142857142857143,-250.2380952380952,-15.317460317460316,-98.96825396825396,-14.523809523809524,-325.0,16.26984126984127,69.76190476190476,32.3015873015873,-101.34920634920634,-17.38095238095238,-97.22222222222221,-15.634920634920634,-219.76190476190476,240.3968253968254,325.0,-68.4920634920635,-0.07936507936507936,1.349206349206349,-166.26984126984127
13.412698412698411,-325.0,217.69841269841268,62.61904761904761,-2.142857142857143,-250.2380952380952,-15.317460317460316,-98.96825396825396,-14.523809523809524,-325.0,16.26984126984127,69.76190476190476,32.3015873015873,-101.34920634920634,-17.38095238095238,-97.22222222222221,-15.634920634920634,-219.76190476190476,240.3968253968254,325.0,-68.4920634920635,-0.07936507936507936,1.349206349206349,-166.26984126984127
14.047619047619047,-325.0,180.3968253968254,62.3015873015873,4.0476190476190474,-293.0952380952381,-15.158730158730158,-98.01587301587301,-14.365079365079364,-325.0,17.063492063492063,64.68253968253968,32.14285714285714,-97.85714285714285,-17.22222222222222,-94.04761904761904,-15.317460317460316,-218.8095238095238,239.28571428571428,325.0,-146.42857142857142,3.888888888888889,-1.1904761904761905,-166.26984126984127
14.047619047619047,-325.0,180.3968253968254,62.3015873015873,4.0476190476190474,-293.0952380952381,-15.158730158730158,-98.01587301587301,-14.365079365079364,-325.0,17.063492063492063,64.68253968253968,32.14285714285714,-97.85714285714285,-17.22222222222222,-94.04761904761904,-15.317460317460316,-218.8095238095238,239.28571428571428,325.0,-146.42857142857142,3.888888888888889,-1.1904761904761905,-166.26984126984127
13.412698412698411,-325.0,-215.79365079365078,60.55555555555555,42.77777777777778,-270.07936507936506,-14.84126984126984,-35.63492063492063,-14.047619047619047,-325.0,15.95238095238095,79.12698412698413,31.19047619047619,-38.17460317460317,-17.063492063492063,-32.3015873015873,-15.0,-212.77777777777777,231.66666666666666,325.0,-117.38095238095238,0.5555555555555556,1.984126984126984,-166.26984126984127
13.412698412698411,-325.0,-215.79365079365078,60.55555555555555,42.77777777777778,-270.07936507936506,-14.84126984126984,-35.63492063492063,-14.047619047619047,-325.0,15.95238095238095,79.12698412698413,31.19047619047619,-38.17460317460317,-17.063492063492063,-32.3015873015873,-15.0,-212.77777777777777,231.66666666666666,325.0,-117.38095238095238,0.5555555555555556,1.984126984126984,-166.26984126984127
14.84126984126984,-325.0,-38.80952380952381,59.76190476190476,42.3015873015873,-206.42857142857142,-14.523809523809524,-23.57142857142857,-13.888888888888888,-325.0,16.904761904761905,87.06349206349206,30.71428571428571,-21.03174603174603,-16.904761904761905,-19.76190476190476,-15.0,-210.2380952380952,228.49206349206347,325.0,-104.36507936507935,1.0317460317460316,-0.07936507936507936,-166.26984126984127
14.84126984126984,-325.0,-38.80952380952381,59.76190476190476,42.3015873015873,-206.42857142857142,-14.523809523809524,-23.57142857142857,-13.888888888888888,-325.0,16.904761904761905,87.06349206349206,30.71428571428571,-21.03174603174603,-16.904761904761905,-19.76190476190476,-15.0,-210.2380952380952,228.49206349206347,325.0,-104.36507936507935,1.0317460317460316,-0.07936507936507936,-166.26984126984127
14.047619047619047,-325.0,225.79365079365078,58.8095238095238,41.98412698412698,-203.88888888888889,-14.365079365079364,-63.888888888888886,-13.73015873015873,-325.0,16.26984126984127,97.85714285714285,30.238095238095237,-62.460317460317455,-16.428571428571427,-62.3015873015873,-14.84126984126984,-206.9047619047619,224.52380952380952,325.0,-104.68253968253968,-0.23809523809523808,-0.3968253968253968,-321.8253968253968
14.047619047619047,-325.0,225.79365079365078,58.8095238095238,41.98412698412698,-203.88888888888889,-14.365079365079364,-63.888888888888886,-13.73015873015873,-325.0,16.26984126984127,97.85714285714285,30.238095238095237,-62.460317460317455,-16.428571428571427,-62.3015873015873,-14.84126984126984,-206.9047619047619,224.52380952380952,325.0,-104.68253968253968,-0.23809523809523808,-0.3968253968253968,-321.8253968253968
8.809523809523808,-325.0,289.9206349206349,57.698412698412696,54.841269841269835,-180.23809523809524,-14.365079365079364,-68.33333333333333,-13.253968253968253,-325.0,10.873015873015872,111.5079365079365,29.920634920634917,-58.01587301587301,-16.11111111111111,-60.873015873015866,-14.365079365079364,-203.4126984126984,220.55555555555554,325.0,-131.03174603174602,3.888888888888889,-4.523809523809524,-321.8253968253968
8.809523809523808,-325.0,289.9206349206349,57.698412698412696,54.841269841269835,-180.23809523809524,-14.365079365079364,-68.33333333333333,-13.253968253968253,-325.0,10.873015873015872,111.5079365079365,29.920634920634917,-58.01587301587301,-16.11111111111111,-60.873015873015866,-14.365079365079364,-203.4126984126984,220.55555555555554,325.0,-131.03174603174602,3.888888888888889,-4.523809523809524,-321.8253968253968
12.3015873015873,-325.0,47.698412698412696,56.58730158730158,70.87301587301587,-263.88888888888886,-14.047619047619047,-69.28571428571428,-13.253968253968253,-325.0,14.365079365079364,117.38095238095238,29.285714285714285,-72.3015873015873,-15.95238095238095,-67.06349206349206,-14.206349206349206,-199.44444444444443,215.63492063492063,325.0,-165.63492063492063,-0.7142857142857142,1.349206349206349,-321.8253968253968
12.3015873015873,-325.0,47.698412698412696,56.58730158730158,70.87301587301587,-263.88888888888886,-14.047619047619047,-69.28571428571428,-13.253968253968253,-325.0,14.365079365079364,117.38095238095238,29.285714285714285,-72.3015873015873,-15.95238095238095,-67.06349206349206,-14.206349206349206,-199.44444444444443,215.63492063492063,325.0,-165.63492063492063,-0.7142857142857142,1.349206349206349,-321.8253968253968
2.3015873015873014,-325.0,201.5079365079365,55.63492063492063,84.2063492063492,-181.19047619047618,-14.206349206349206,-34.2063492063492,-12.936507936507935,-325.0,4.2063492063492065,115.31746031746032,28.809523809523807,-24.84126984126984,-15.476190476190474,-28.333333333333332,-13.888888888888888,-196.74603174603175,212.61904761904762,325.0,-195.47619047619045,2.619047619047619,-4.365079365079365,-321.8253968253968
2.3015873015873014,-325.0,201.5079365079365,55.63492063492063,84.2063492063492,-181.19047619047618,-14.206349206349206,-34.2063492063492,-12.936507936507935,-325.0,4.2063492063492065,115.31746031746032,28.809523809523807,-24.84126984126984,-15.476190476190474,-28.333333333333332,-13.888888888888888,-196.74603174603175,212.61904761904762,325.0,-195.47619047619045,2.619047619047619,-4.365079365079365,-321.8253968253968
9.761904761904761,-325.0,-116.26984126984127,54.36507936507936,67.22222222222221,-270.07936507936506,-13.73015873015873,-56.42857142857142,-12.936507936507935,-325.0,11.666666666666666,118.01587301587301,28.333333333333332,-59.6031746031746,-15.476190476190474,-54.36507936507936,-13.73015873015873,-192.93650793650792,207.85714285714283,325.0,-189.60317460317458,-0.873015873015873,2.46031746031746,-321.8253968253968
9.761904761904761,-325.0,-116.26984126984127,54.36507936507936,67.22222222222221,-270.07936507936506,-13.73015873015873,-56.42857142857142,-12.936507936507935,-325.0,11.666666666666666,118.01587301587301,28.333333333333332,-59.6031746031746,-15.476190476190474,-54.36507936507936,-13.73015873015873,-192.93650793650792,207.85714285714283,325.0,-189.60317460317458,-0.873015873015873,2.46031746031746,-321.8253968253968
7.3809523809523805,-325.0,-75.79365079365078,53.888888888888886,56.58730158730158,-209.12698412698413,-13.412698412698411,-19.92063492063492,-12.777777777777777,-325.0,9.126984126984127,124.2063492063492,28.015873015873016,-17.698412698412696,-15.317460317460316,-16.587301587301585,-13.571428571428571,-190.55555555555554,205.0,325.0,-168.4920634920635,-0.5555555555555556,-0.23809523809523808,-166.26984126984127
7.3809523809523805,-325.0,-75.79365079365078,53.888888888888886,56.58730158730158,-209.12698412698413,-13.412698412698411,-19.92063492063492,-12.777777777777777,-325.0,9.126984126984127,124.2063492063492,28.015873015873016,-17.698412698412696,-15.317460317460316,-16.587301587301585,-13.571428571428571,-190.55555555555554,205.0,325.0,-168.4920634920635,-0.5555555555555556,-0.23809523809523808,-166.26984126984127
6.587301587301587,-325.0,-88.01587301587301,52.460317460317455,75.63492063492063,-261.8253968253968,-13.412698412698411,-43.25396825396825,-12.619047619047619,-325.0,8.492063492063492,140.7142857142857,27.38095238095238,-49.285714285714285,-15.158730158730158,-44.68253968253968,-13.412698412698411,-186.9047619047619,200.3968253968254,324.8412698412698,-194.68253968253967,-1.1904761904761905,1.349206349206349,-166.26984126984127
6.587301587301587,-325.0,-88.01587301587301,52.460317460317455,75.63492063492063,-261.8253968253968,-13.412698412698411,-43.25396825396825,-12.619047619047619,-325.0,8.492063492063492,140.7142857142857,27.38095238095238,-49.285714285714285,-15.158730158730158,-44.68253968253968,-13.412698412698411,-186.9047619047619,200.3968253968254,324.8412698412698,-194.68253968253967,-1.1904761904761905,1.349206349206349,-166.26984126984127
4.2063492063492065,-325.0,267.53968253968253,51.507936507936506,112.30158730158729,-132.61904761904762,-13.095238095238095,-50.079365079365076,-12.3015873015873,-325.0,5.7936507936507935,149.76190476190476,26.9047619047619,-43.095238095238095,-15.0,-47.06349206349206,-13.253968253968253,-184.04761904761904,196.74603174603175,325.0,-139.12698412698413,0.5555555555555556,-2.9365079365079363,-166.26984126984127
4.2063492063492065,-325.0,267.53968253968253,51.507936507936506,112.30158730158729,-132.61904761904762,-13.095238095238095,-50.079365079365076,-12.3015873015873,-325.0,5.7936507936507935,149.76190476190476,26.9047619047619,-43.095238095238095,-15.0,-47.06349206349206,-13.253968253968253,-184.04761904761904,196.74603174603175,325.0,-139.12698412698413,0.5555555555555556,-2.9365079365079363,-166.26984126984127
7.698412698412698,-325.0,161.03174603174602,50.87301587301587,119.92063492063491,-254.68253968253967,-12.936507936507935,-97.6984126984127,-12.142857142857142,-325.0,9.444444444444445,154.36507936507937,26.587301587301585,-101.66666666666666,-14.84126984126984,-97.38095238095238,-12.936507936507935,-181.03174603174602,193.25396825396825,320.23809523809524,-205.63492063492063,0.23809523809523808,1.8253968253968254,-166.26984126984127
7.698412698412698,-325.0,161.03174603174602,50.87301587301587,119.92063492063491,-254.68253968253967,-12.936507936507935,-97.6984126984127,-12.142857142857142,-325.0,9.444444444444445,154.36507936507937,26.587301587301585,-101.66666666666666,-14.84126984126984,-97.38095238095238,-12.936507936507935,-181.03174603174602,193.25396825396825,320.23809523809524,-205.63492063492063,0.23809523809523808,1.8253968253968254,-166.26984126984127
7.3809523809523805,-325.0,107.53968253968253,50.71428571428571,124.52380952380952,-300.55555555555554,-12.777777777777777,-97.85714285714285,-11.984126984126984,-325.0,9.285714285714285,153.57142857142856,26.428571428571427,-100.07936507936508,-14.682539682539682,-95.47619047619047,-12.936507936507935,-180.23809523809524,192.46031746031744,315.6349206349206,-325.0,3.888888888888889,-0.07936507936507936,-166.26984126984127
7.3809523809523805,-325.0,107.53968253968253,50.71428571428571,124.52380952380952,-300.55555555555554,-12.777777777777777,-97.85714285714285,-11.984126984126984,-325.0,9.285714285714285,153.57142857142856,26.428571428571427,-100.07936507936508,-14.682539682539682,-95.47619047619047,-12.936507936507935,-180.23809523809524,192.46031746031744,315.6349206349206,-325.0,3.888888888888889,-0.07936507936507936,-166.26984126984127
7.857142857142857,-325.0,201.98412698412696,48.96825396825397,111.03174603174602,-263.88888888888886,-12.619047619047619,-101.5079365079365,-11.984126984126984,-325.0,9.603174603174603,151.66666666666666,25.79365079365079,-106.1111111111111,-14.365079365079364,-102.14285714285714,-12.619047619047619,-175.47619047619045,186.42857142857142,320.39682539682536,-219.9206349206349,-1.984126984126984,1.1904761904761905,-321.8253968253968
7.857142857142857,-325.0,201.98412698412696,48.96825396825397,111.03174603174602,-263.88888888888886,-12.619047619047619,-101.5079365079365,-11.984126984126984,-325.0,9.603174603174603,151.66666666666666,25.79365079365079,-106.1111111111111,-14.365079365079364,-102.14285714285714,-12.619047619047619,-175.47619047619045,186.42857142857142,320.39682539682536,-219.9206349206349,-1.984126984126984,1.1904761904761905,-321.8253968253968
2.9365079365079363,-325.0,269.76190476190476,48.33333333333333,98.17460317460316,-137.22222222222223,-12.3015873015873,-59.92063492063492,-11.507936507936508,-325.0,4.365079365079365,161.34920634920633,25.158730158730158,-52.61904761904761,-14.047619047619047,-55.95238095238095,-12.46031746031746,-172.61904761904762,183.25396825396825,325.0,-188.96825396825395,1.349206349206349,-2.7777777777777777,-321.8253968253968
2.9365079365079363,-325.0,269.76190476190476,48.33333333333333,98.17460317460316,-137.22222222222223,-12.3015873015873,-59.92063492063492,-11.507936507936508,-325.0,4.365079365079365,161.34920634920633,25.158730158730158,-52.61904761904761,-14.047619047619047,-55.95238095238095,-12.46031746031746,-172.61904761904762,183.25396825396825,325.0,-188.96825396825395,1.349206349206349,-2.7777777777777777,-321.8253968253968
7.3809523809523805,-325.0,16.26984126984127,47.53968253968254,107.85714285714285,-249.76190476190476,-12.142857142857142,-68.96825396825396,-11.349206349206348,-325.0,8.968253968253968,175.47619047619045,24.68253968253968,-73.4126984126984,-14.047619047619047,-68.80952380952381,-12.3015873015873,-169.9206349206349,179.9206349206349,308.015873015873,-227.85714285714283,-1.1904761904761905,1.6666666666666665,-321.8253968253968
7.3809523809523805,-325.0,16.26984126984127,47.53968253968254,107.85714285714285,-249.76190476190476,-12.142857142857142,-68.96825396825396,-11.349206349206348,-325.0,8.968253968253968,175.47619047619045,24.68253968253968,-73.4126984126984,-14.047619047619047,-68.80952380952381,-12.3015873015873,-169.9206349206349,179.9206349206349,308.015873015873,-227.85714285714283,-1.1904761904761905,1.6666666666666665,-321.8253968253968
7.5396825396825395,-325.0,166.9047619047619,46.74603174603175,122.46031746031746,-178.65079365079364,-12.142857142857142,-50.55555555555555,-11.349206349206348,-325.0,8.809523809523808,173.57142857142856,24.523809523809522,-43.25396825396825,-13.571428571428571,-46.74603174603175,-12.3015873015873,-167.53968253968253,177.53968253968253,314.36507936507934,-325.0,4.0476190476190474,-4.523809523809524,-321.8253968253968
7.5396825396825395,-325.0,166.9047619047619,46.74603174603175,122.46031746031746,-178.65079365079364,-12.142857142857142,-50.55555555555555,-11.349206349206348,-325.0,8.809523809523808,173.57142857142856,24.523809523809522,-43.25396825396825,-13.571428571428571,-46.74603174603175,-12.3015873015873,-167.53968253968253,177.53968253968253,314.36507936507934,-325.0,4.0476190476190474,-4.523809523809524,-321.8253968253968
3.73015873015873,-325.0,-79.12698412698413,45.476190476190474,129.9206349206349,-239.9206349206349,-11.825396825396824,-25.634920634920633,-11.031746031746032,-321.66666666666663,5.0,176.26984126984127,23.730158730158728,-24.206349206349206,-13.253968253968253,-23.095238095238095,-11.984126984126984,-162.93650793650792,172.14285714285714,291.984126984127,-325.0,3.571428571428571,-2.3015873015873014,-321.8253968253968
3.73015873015873,-325.0,-79.12698412698413,45.476190476190474,129.9206349206349,-239.9206349206349,-11.825396825396824,-25.634920634920633,-11.031746031746032,-321.66666666666663,5.0,176.26984126984127,23.730158730158728,-24.206349206349206,-13.253968253968253,-23.095238095238095,-11.984126984126984,-162.93650793650792,172.14285714285714,291.984126984127,-325.0,3.571428571428571,-2.3015873015873014,-321.8253968253968
-1.1904761904761905,-325.0,-325.0,43.57142857142857,129.44444444444443,-296.26984126984127,-11.19047619047619,4.523809523809524,-10.555555555555555,-313.0952380952381,-0.07936507936507936,191.98412698412696,22.619047619047617,-0.5555555555555556,-12.936507936507935,5.952380952380952,-11.349206349206348,-155.95238095238093,164.04761904761904,261.8253968253968,-325.0,3.253968253968254,0.23809523809523808,-166.26984126984127
-1.1904761904761905,-325.0,-325.0,43.57142857142857,129.44444444444443,-296.26984126984127,-11.19047619047619,4.523809523809524,-10.555555555555555,-313.0952380952381,-0.07936507936507936,191.98412698412696,22.619047619047617,-0.5555555555555556,-12.936507936507935,5.952380952380952,-11.349206349206348,-155.95238095238093,164.04761904761904,261.8253968253968,-325.0,3.253968253968254,0.23809523809523808,-166.26984126984127
-2.7777777777777777,-325.0,114.68253968253967,42.14285714285714,117.6984126984127,-125.79365079365078,-11.031746031746032,-12.142857142857142,-10.238095238095237,-303.88888888888886,-1.984126984126984,210.2380952380952,22.142857142857142,-6.111111111111111,-12.619047619047619,-10.555555555555555,-11.031746031746032,-151.34920634920633,159.12698412698413,287.53968253968253,-216.42857142857142,-0.5555555555555556,-3.253968253968254,-166.26984126984127
-2.7777777777777777,-325.0,114.68253968253967,42.14285714285714,117.6984126984127,-125.79365079365078,-11.031746031746032,-12.142857142857142,-10.238095238095237,-303.88888888888886,-1.984126984126984,210.2380952380952,22.142857142857142,-6.111111111111111,-12.619047619047619,-10.555555555555555,-11.031746031746032,-151.34920634920633,159.12698412698413,287.53968253968253,-216.42857142857142,-0.5555555555555556,-3.253968253968254,-166.26984126984127
-2.46031746031746,-325.0,-290.39682539682536,41.34920634920635,106.58730158730158,-246.9047619047619,-10.873015873015872,-24.365079365079364,-10.238095238095237,-298.968253968254,-1.6666666666666665,208.8095238095238,21.825396825396822,-29.6031746031746,-12.619047619047619,-24.365079365079364,-10.873015873015872,-149.12698412698413,156.42857142857142,267.22222222222223,-253.25396825396825,-1.6666666666666665,1.984126984126984,-166.26984126984127
-2.46031746031746,-325.0,-290.39682539682536,41.34920634920635,106.58730158730158,-246.9047619047619,-10.873015873015872,-24.365079365079364,-10.238095238095237,-298.968253968254,-1.6666666666666665,208.8095238095238,21.825396825396822,-29.6031746031746,-12.619047619047619,-24.365079365079364,-10.873015873015872,-149.12698412698413,156.42857142857142,267.22222222222223,-253.25396825396825,-1.6666666666666665,1.984126984126984,-166.26984126984127
-9.761904761904761,-325.0,39.12698412698413,40.55555555555555,76.74603174603175,-128.8095238095238,-10.714285714285714,14.047619047619047,-9.920634920634921,-293.88888888888886,-9.126984126984127,213.88888888888889,21.19047619047619,21.03174603174603,-12.142857142857142,17.22222222222222,-10.714285714285714,-146.74603174603175,153.73015873015873,278.8095238095238,-230.3968253968254,0.3968253968253968,-2.9365079365079363,-166.26984126984127
-9.761904761904761,-325.0,39.12698412698413,40.55555555555555,76.74603174603175,-128.8095238095238,-10.714285714285714,14.047619047619047,-9.920634920634921,-293.88888888888886,-9.126984126984127,213.88888888888889,21.19047619047619,21.03174603174603,-12.142857142857142,17.22222222222222,-10.714285714285714,-146.74603174603175,153.73015873015873,278.8095238095238,-230.3968253968254,0.3968253968253968,-2.9365079365079363,-166.26984126984127
-1.1904761904761905,-325.0,-325.0,39.92063492063492,80.07936507936508,-233.4126984126984,-10.555555555555555,-20.873015873015873,-9.920634920634921,-289.1269841269841,-0.3968253968253968,218.8095238095238,21.03174603174603,-27.698412698412696,-12.142857142857142,-23.095238095238095,-10.555555555555555,-144.36507936507937,151.03174603174602,256.4285714285714,-261.984126984127,-1.8253968253968254,1.984126984126984,-166.26984126984127
-1.1904761904761905,-325.0,-325.0,39.92063492063492,80.07936507936508,-233.4126984126984,-10.555555555555555,-20.873015873015873,-9.920634920634921,-289.1269841269841,-0.3968253968253968,218.8095238095238,21.03174603174603,-27.698412698412696,-12.142857142857142,-23.095238095238095,-10.555555555555555,-144.36507936507937,151.03174603174602,256.4285714285714,-261.984126984127,-1.8253968253968254,1.984126984126984,-166.26984126984127
5.158730158730158,-325.0,-325.0,39.285714285714285,94.52380952380952,-107.38095238095238,-10.238095238095237,40.39682539682539,-9.603174603174603,-284.2063492063492,5.634920634920634,238.33333333333331,20.71428571428571,47.22222222222222,-11.984126984126984,43.73015873015873,-10.396825396825395,-141.984126984127,148.65079365079364,268.968253968254,-247.2222222222222,0.5555555555555556,-2.619047619047619,-321.8253968253968
5.158730158730158,-325.0,-325.0,39.285714285714285,94.52380952380952,-107.38095238095238,-10.238095238095237,40.39682539682539,-9.603174603174603,-284.2063492063492,5.634920634920634,238.33333333333331,20.71428571428571,47.22222222222222,-11.984126984126984,43.73015873015873,-10.396825396825395,-141.984126984127,148.65079365079364,268.968253968254,-247.2222222222222,0.5555555555555556,-2.619047619047619,-321.8253968253968
8.968253968253968,-325.0,-325.0,38.49206349206349,96.58730158730158,-227.06349206349205,-10.396825396825395,-10.555555555555555,-9.603174603174603,-279.6031746031746,9.920634920634921,242.6190476190476,20.396825396825395,-18.015873015873016,-11.825396825396824,-13.412698412698411,-10.238095238095237,-139.9206349206349,145.95238095238093,245.63492063492063,-272.46031746031747,-1.349206349206349,2.46031746031746,-321.8253968253968
8.968253968253968,-325.0,-325.0,38.49206349206349,96.58730158730158,-227.06349206349205,-10.396825396825395,-10.555555555555555,-9.603174603174603,-279.6031746031746,9.920634920634921,242.6190476190476,20.396825396825395,-18.015873015873016,-11.825396825396824,-13.412698412698411,-10.238095238095237,-139.9206349206349,145.95238095238093,245.63492063492063,-272.46031746031747,-1.349206349206349,2.46031746031746,-321.8253968253968
3.888888888888889,-325.0,-280.7142857142857,38.01587301587301,98.65079365079364,-177.2222222222222,-10.238095238095237,3.73015873015873,-9.444444444444445,-276.1111111111111,4.523809523809524,233.4126984126984,20.07936507936508,3.571428571428571,-11.666666666666666,3.253968253968254,-10.079365079365079,-138.17460317460316,144.04761904761904,245.15873015873015,-251.8253968253968,-0.3968253968253968,-0.23809523809523808,-321.8253968253968
3.888888888888889,-325.0,-280.7142857142857,38.01587301587301,98.65079365079364,-177.2222222222222,-10.238095238095237,3.73015873015873,-9.444444444444445,-276.1111111111111,4.523809523809524,233.4126984126984,20.07936507936508,3.571428571428571,-11.666666666666666,3.253968253968254,-10.079365079365079,-138.17460317460316,144.04761904761904,245.15873015873015,-251.8253968253968,-0.3968253968253968,-0.23809523809523808,-321.8253968253968
2.7777777777777777,-325.0,-325.0,37.38095238095238,110.71428571428571,-256.26984126984127,-10.079365079365079,-8.333333333333332,-9.444444444444445,-270.39682539682536,3.253968253968254,211.03174603174602,19.76190476190476,-15.634920634920634,-11.666666666666666,-10.555555555555555,-10.079365079365079,-135.3174603174603,141.19047619047618,246.9047619047619,-279.44444444444446,-0.5555555555555556,1.507936507936508,-321.8253968253968
2.7777777777777777,-325.0,-325.0,37.38095238095238,110.71428571428571,-256.26984126984127,-10.079365079365079,-8.333333333333332,-9.444444444444445,-270.39682539682536,3.253968253968254,211.03174603174602,19.76190476190476,-15.634920634920634,-11.666666666666666,-10.555555555555555,-10.079365079365079,-135.3174603174603,141.19047619047618,246.9047619047619,-279.44444444444446,-0.5555555555555556,1.507936507936508,-321.8253968253968
3.571428571428571,-325.0,-325.0,36.58730158730159,127.6984126984127,-215.15873015873015,-9.761904761904761,-10.396825396825395,-8.968253968253968,-266.74603174603175,3.888888888888889,205.15873015873015,19.444444444444443,-4.365079365079365,-11.031746031746032,-6.904761904761904,-9.761904761904761,-133.4126984126984,139.12698412698413,250.7142857142857,-325.0,6.111111111111111,-3.888888888888889,-321.8253968253968
3.571428571428571,-325.0,-325.0,36.58730158730159,127.6984126984127,-215.15873015873015,-9.761904761904761,-10.396825396825395,-8.968253968253968,-266.74603174603175,3.888888888888889,205.15873015873015,19.444444444444443,-4.365079365079365,-11.031746031746032,-6.904761904761904,-9.761904761904761,-133.4126984126984,139.12698412698413,250.7142857142857,-325.0,6.111111111111111,-3.888888888888889,-321.8253968253968
5.476190476190476,-325.0,-325.0,35.95238095238095,108.80952380952381,-268.17460317460313,-9.920634920634921,-16.26984126984127,-9.285714285714285,-261.3492063492063,5.952380952380952,212.77777777777777,19.126984126984127,-24.047619047619047,-11.349206349206348,-18.80952380952381,-9.761904761904761,-131.03174603174602,136.26984126984127,241.66666666666666,-291.66666666666663,-2.3015873015873014,1.6666666666666665,-166.26984126984127
5.476190476190476,-325.0,-325.0,35.95238095238095,108.80952380952381,-268.17460317460313,-9.920634920634921,-16.26984126984127,-9.285714285714285,-261.3492063492063,5.952380952380952,212.77777777777777,19.126984126984127,-24.047619047619047,-11.349206349206348,-18.80952380952381,-9.761904761904761,-131.03174603174602,136.26984126984127,241.66666666666666,-291.66666666666663,-2.3015873015873014,1.6666666666666665,-166.26984126984127
-0.7142857142857142,-325.0,-165.47619047619045,35.317460317460316,122.77777777777777,-158.17460317460316,-9.603174603174603,16.904761904761905,-8.968253968253968,-257.06349206349205,-0.7142857142857142,213.57142857142856,18.65079365079365,24.365079365079364,-11.031746031746032,19.76190476190476,-9.603174603174603,-128.8095238095238,134.04761904761904,246.26984126984127,-281.66666666666663,0.7142857142857142,-3.571428571428571,-166.26984126984127
-0.7142857142857142,-325.0,-165.47619047619045,35.317460317460316,122.77777777777777,-158.17460317460316,-9.603174603174603,16.904761904761905,-8.968253968253968,-257.06349206349205,-0.7142857142857142,213.57142857142856,18.65079365079365,24.365079365079364,-11.031746031746032,19.76190476190476,-9.603174603174603,-128.8095238095238,134.04761904761904,246.26984126984127,-281.66666666666663,0.7142857142857142,-3.571428571428571,-166.26984126984127
4.523809523809524,-325.0,-325.0,34.84126984126984,139.76190476190476,-263.0952380952381,-9.444444444444445,-31.03174603174603,-8.333333333333332,-252.77777777777777,4.841269841269841,217.2222222222222,18.65079365079365,-39.44444444444444,-11.031746031746032,-34.52380952380952,-9.444444444444445,-126.9047619047619,131.66666666666666,234.84126984126982,-304.2063492063492,-0.5555555555555556,2.3015873015873014,-166.26984126984127
4.523809523809524,-325.0,-325.0,34.84126984126984,139.76190476190476,-263.0952380952381,-9.444444444444445,-31.03174603174603,-8.333333333333332,-252.77777777777777,4.841269841269841,217.2222222222222,18.65079365079365,-39.44444444444444,-11.031746031746032,-34.52380952380952,-9.444444444444445,-126.9047619047619,131.66666666666666,234.84126984126982,-304.2063492063492,-0.5555555555555556,2.3015873015873014,-166.26984126984127
5.952380952380952,-325.0,-325.0,34.36507936507936,150.07936507936506,-215.0,-9.444444444444445,-23.095238095238095,-8.174603174603174,-249.44444444444443,6.111111111111111,196.42857142857142,18.49206349206349,-16.11111111111111,-10.555555555555555,-17.539682539682538,-9.285714285714285,-125.0,130.07936507936506,236.58730158730157,-325.0,5.952380952380952,-3.253968253968254,-166.26984126984127
5.952380952380952,-325.0,-325.0,34.36507936507936,150.07936507936506,-215.0,-9.444444444444445,-23.095238095238095,-8.174603174603174,-249.44444444444443,6.111111111111111,196.42857142857142,18.49206349206349,-16.11111111111111,-10.555555555555555,-17.539682539682538,-9.285714285714285,-125.0,130.07936507936506,236.58730158730157,-325.0,5.952380952380952,-3.253968253968254,-166.26984126984127
-0.5555555555555556,-325.0,-325.0,33.73015873015873,128.8095238095238,-272.46031746031747,-9.444444444444445,-12.619047619047619,-8.65079365079365,-228.65079365079364,-0.23809523809523808,187.06349206349205,17.857142857142858,-20.238095238095237,-10.714285714285714,-15.0,-9.285714285714285,-122.77777777777777,127.22222222222221,228.96825396825395,-324.36507936507934,-1.6666666666666665,1.8253968253968254,-166.26984126984127
-0.5555555555555556,-325.0,-325.0,33.73015873015873,128.8095238095238,-272.46031746031747,-9.444444444444445,-12.619047619047619,-8.65079365079365,-228.65079365079364,-0.23809523809523808,187.06349206349205,17.857142857142858,-20.238095238095237,-10.714285714285714,-15.0,-9.285714285714285,-122.77777777777777,127.22222222222221,228.96825396825395,-324.36507936507934,-1.6666666666666665,1.8253968253968254,-166.26984126984127
1.984126984126984,-325.0,-325.0,33.57142857142857,135.95238095238093,-325.0,-9.444444444444445,-32.77777777777778,-8.492063492063492,-217.85714285714283,2.3015873015873014,183.57142857142856,17.857142857142858,-42.77777777777778,-10.555555555555555,-35.79365079365079,-9.285714285714285,-122.14285714285714,126.74603174603173,219.44444444444443,-325.0,1.984126984126984,0.23809523809523808,-321.8253968253968
1.984126984126984,-325.0,-325.0,33.57142857142857,135.95238095238093,-325.0,-9.444444444444445,-32.77777777777778,-8.492063492063492,-217.85714285714283,2.3015873015873014,183.57142857142856,17.857142857142858,-42.77777777777778,-10.555555555555555,-35.79365079365079,-9.285714285714285,-122.14285714285714,126.74603174603173,219.44444444444443,-325.0,1.984126984126984,0.23809523809523808,-321.8253968253968
-8.492063492063492,-325.0,-276.1111111111111,32.61904761904762,124.52380952380952,-276.58730158730157,-9.126984126984127,-21.03174603174603,-7.222222222222221,-202.3015873015873,-8.174603174603174,168.8095238095238,17.38095238095238,-28.174603174603174,-10.396825396825395,-23.41269841269841,-9.126984126984127,-118.8095238095238,122.93650793650794,220.7142857142857,-325.0,-1.8253968253968254,1.1904761904761905,-321.8253968253968
-8.492063492063492,-325.0,-276.1111111111111,32.61904761904762,124.52380952380952,-276.58730158730157,-9.126984126984127,-21.03174603174603,-7.222222222222221,-202.3015873015873,-8.174603174603174,168.8095238095238,17.38095238095238,-28.174603174603174,-10.396825396825395,-23.41269841269841,-9.126984126984127,-118.8095238095238,122.93650793650794,220.7142857142857,-325.0,-1.8253968253968254,1.1904761904761905,-321.8253968253968
-2.3015873015873014,-325.0,57.53968253968254,32.14285714285714,120.23809523809523,-184.84126984126982,-8.968253968253968,-19.126984126984127,-7.857142857142857,-225.95238095238093,-2.3015873015873014,169.76190476190476,17.063492063492063,-12.619047619047619,-10.238095238095237,-17.063492063492063,-8.809523809523808,-116.9047619047619,121.03174603174602,224.04761904761904,-318.17460317460313,0.7142857142857142,-3.888888888888889,-321.8253968253968
-2.3015873015873014,-325.0,57.53968253968254,32.14285714285714,120.23809523809523,-184.84126984126982,-8.968253968253968,-19.126984126984127,-7.857142857142857,-225.95238095238093,-2.3015873015873014,169.76190476190476,17.063492063492063,-12.619047619047619,-10.238095238095237,-17.063492063492063,-8.809523809523808,-116.9047619047619,121.03174603174602,224.04761904761904,-318.17460317460313,0.7142857142857142,-3.888888888888889,-321.8253968253968
-0.7142857142857142,-325.0,-271.19047619047615,31.507936507936506,93.73015873015872,-259.1269841269841,-8.968253968253968,-42.77777777777778,-8.174603174603174,-180.07936507936506,-0.7142857142857142,179.76190476190476,16.587301587301585,-49.12698412698413,-10.079365079365079,-44.68253968253968,-8.65079365079365,-115.15873015873015,118.8095238095238,206.74603174603175,-325.0,-1.8253968253968254,1.349206349206349,-321.8253968253968
-0.7142857142857142,-325.0,-271.19047619047615,31.507936507936506,93.73015873015872,-259.1269841269841,-8.968253968253968,-42.77777777777778,-8.174603174603174,-180.07936507936506,-0.7142857142857142,179.76190476190476,16.587301587301585,-49.12698412698413,-10.079365079365079,-44.68253968253968,-8.65079365079365,-115.15873015873015,118.8095238095238,206.74603174603175,-325.0,-1.8253968253968254,1.349206349206349,-321.8253968253968
1.8253968253968254,-325.0,128.33333333333331,30.87301587301587,107.6984126984127,-163.57142857142856,-8.65079365079365,-23.730158730158728,-8.174603174603174,-215.47619047619045,1.8253968253968254,181.34920634920633,16.746031746031743,-17.539682539682538,-10.079365079365079,-22.142857142857142,-8.492063492063492,-113.09523809523809,116.74603174603173,215.3174603174603,-324.8412698412698,1.1904761904761905,-3.73015873015873,-321.8253968253968
1.8253968253968254,-325.0,128.33333333333331,30.87301587301587,107.6984126984127,-163.57142857142856,-8.65079365079365,-23.730158730158728,-8.174603174603174,-215.47619047619045,1.8253968253968254,181.34920634920633,16.746031746031743,-17.539682539682538,-10.079365079365079,-22.142857142857142,-8.492063492063492,-113.09523809523809,116.74603174603173,215.3174603174603,-324.8412698412698,1.1904761904761905,-3.73015873015873,-321.8253968253968
-2.7777777777777777,-325.0,-101.82539682539682,30.555555555555554,114.36507936507935,-273.57142857142856,-8.65079365079365,-52.93650793650794,1.507936507936508,-177.06349206349205,-2.7777777777777777,193.09523809523807,16.26984126984127,-59.92063492063492,-9.920634920634921,-55.476190476190474,-8.65079365079365,-111.5079365079365,114.84126984126983,206.42857142857142,-325.0,-2.619047619047619,1.507936507936508,-166.26984126984127
-2.7777777777777777,-325.0,-101.82539682539682,30.555555555555554,114.36507936507935,-273.57142857142856,-8.65079365079365,-52.93650793650794,1.507936507936508,-177.06349206349205,-2.7777777777777777,193.09523809523807,16.26984126984127,-59.92063492063492,-9.920634920634921,-55.476190476190474,-8.65079365079365,-111.5079365079365,114.84126984126983,206.42857142857142,-325.0,-2.619047619047619,1.507936507936508,-166.26984126984127
-10.714285714285714,-325.0,198.33333333333331,30.07936507936508,122.14285714285714,-169.9206349206349,-8.492063492063492,-25.0,-5.317460317460317,-209.44444444444443,-11.19047619047619,202.46031746031744,15.95238095238095,-18.80952380952381,-9.603174603174603,-22.936507936507937,-8.333333333333332,-109.76190476190476,112.77777777777777,209.44444444444443,-325.0,1.1904761904761905,-3.73015873015873,-166.26984126984127
-10.714285714285714,-325.0,198.33333333333331,30.07936507936508,122.14285714285714,-169.9206349206349,-8.492063492063492,-25.0,-5.317460317460317,-209.44444444444443,-11.19047619047619,202.46031746031744,15.95238095238095,-18.80952380952381,-9.603174603174603,-22.936507936507937,-8.333333333333332,-109.76190476190476,112.77777777777777,209.44444444444443,-325.0,1.1904761904761905,-3.73015873015873,-166.26984126984127
-7.222222222222221,-323.73015873015873,-119.6031746031746,29.6031746031746,151.8253968253968,-203.25396825396825,-8.65079365079365,-36.58730158730159,13.095238095238095,-198.96825396825395,-7.698412698412698,213.57142857142856,15.793650793650793,-43.888888888888886,-9.603174603174603,-40.714285714285715,-8.809523809523808,-108.33333333333333,111.5079365079365,209.12698412698413,-325.0,-5.7936507936507935,3.095238095238095,-166.26984126984127
-7.222222222222221,-323.73015873015873,-119.6031746031746,29.6031746031746,151.8253968253968,-203.25396825396825,-8.65079365079365,-36.58730158730159,13.095238095238095,-198.96825396825395,-7.698412698412698,213.57142857142856,15.793650793650793,-43.888888888888886,-9.603174603174603,-40.714285714285715,-8.809523809523808,-108.33333333333333,111.5079365079365,209.12698412698413,-325.0,-5.7936507936507935,3.095238095238095,-166.26984126984127
-2.46031746031746,-319.76190476190476,102.61904761904762,29.126984126984127,150.87301587301587,-145.63492063492063,-8.65079365079365,-39.285714285714285,2.9365079365079363,-206.42857142857142,-2.7777777777777777,212.61904761904762,15.634920634920634,-40.714285714285715,-9.603174603174603,-41.666666666666664,-8.65079365079365,-107.06349206349206,110.07936507936508,207.2222222222222,-322.6190476190476,-3.888888888888889,0.5555555555555556,-166.26984126984127
-2.46031746031746,-319.76190476190476,102.61904761904762,29.126984126984127,150.87301587301587,-145.63492063492063,-8.65079365079365,-39.285714285714285,2.9365079365079363,-206.42857142857142,-2.7777777777777777,212.61904761904762,15.634920634920634,-40.714285714285715,-9.603174603174603,-41.666666666666664,-8.65079365079365,-107.06349206349206,110.07936507936508,207.2222222222222,-322.6190476190476,-3.888888888888889,0.5555555555555556,-166.26984126984127
5.158730158730158,-311.8253968253968,215.63492063492063,28.49206349206349,142.93650793650792,-240.07936507936506,-8.333333333333332,-108.17460317460316,5.634920634920634,-211.8253968253968,5.158730158730158,215.47619047619045,15.0,-113.57142857142857,-9.444444444444445,-110.55555555555554,-8.333333333333332,-104.68253968253968,107.38095238095238,187.2222222222222,-322.6190476190476,-1.507936507936508,1.6666666666666665,-166.26984126984127
5.158730158730158,-311.8253968253968,215.63492063492063,28.49206349206349,142.93650793650792,-240.07936507936506,-8.333333333333332,-108.17460317460316,5.634920634920634,-211.8253968253968,5.158730158730158,215.47619047619045,15.0,-113.57142857142857,-9.444444444444445,-110.55555555555554,-8.333333333333332,-104.68253968253968,107.38095238095238,187.2222222222222,-322.6190476190476,-1.507936507936508,1.6666666666666665,-166.26984126984127
0.3968253968253968,-308.015873015873,215.63492063492063,28.015873015873016,139.76190476190476,-171.5079365079365,-8.174603174603174,-77.06349206349206,5.158730158730158,-208.17460317460316,0.5555555555555556,238.17460317460316,14.84126984126984,-77.22222222222221,-9.285714285714285,-77.22222222222221,-8.174603174603174,-103.25396825396825,105.95238095238095,185.3174603174603,-316.74603174603175,-0.23809523809523808,-0.07936507936507936,-321.8253968253968
0.3968253968253968,-308.015873015873,215.63492063492063,28.015873015873016,139.76190476190476,-171.5079365079365,-8.174603174603174,-77.06349206349206,5.158730158730158,-208.17460317460316,0.5555555555555556,238.17460317460316,14.84126984126984,-77.22222222222221,-9.285714285714285,-77.22222222222221,-8.174603174603174,-103.25396825396825,105.95238095238095,185.3174603174603,-316.74603174603175,-0.23809523809523808,-0.07936507936507936,-321.8253968253968
1.507936507936508,-301.66666666666663,122.6190476190476,27.539682539682538,137.22222222222223,-206.42857142857142,-8.333333333333332,-98.80952380952381,18.333333333333332,-203.7301587301587,1.0317460317460316,286.58730158730157,14.84126984126984,-104.52380952380952,-9.285714285714285,-100.87301587301587,-7.698412698412698,-101.03174603174602,103.57142857142857,177.2222222222222,-323.57142857142856,-2.619047619047619,1.349206349206349,-321.8253968253968
1.507936507936508,-301.66666666666663,122.6190476190476,27.539682539682538,137.22222222222223,-206.42857142857142,-8.333333333333332,-98.80952380952381,18.333333333333332,-203.7301587301587,1.0317460317460316,286.58730158730157,14.84126984126984,-104.52380952380952,-9.285714285714285,-100.87301587301587,-7.698412698412698,-101.03174603174602,103.57142857142857,177.2222222222222,-323.57142857142856,-2.619047619047619,1.349206349206349,-321.8253968253968
-4.841269841269841,-296.90476190476187,274.68253968253964,27.22222222222222,129.6031746031746,-104.84126984126983,-7.857142857142857,-50.238095238095234,2.7777777777777777,-200.23809523809524,-5.317460317460317,265.6349206349206,14.523809523809524,-44.2063492063492,-8.968253968253968,-48.650793650793645,-7.5396825396825395,-99.44444444444444,101.82539682539682,187.38095238095238,-316.58730158730157,1.507936507936508,-3.571428571428571,-321.8253968253968
-4.841269841269841,-296.90476190476187,274.68253968253964,27.22222222222222,129.6031746031746,-104.84126984126983,-7.857142857142857,-50.238095238095234,2.7777777777777777,-200.23809523809524,-5.317460317460317,265.6349206349206,14.523809523809524,-44.2063492063492,-8.968253968253968,-48.650793650793645,-7.5396825396825395,-99.44444444444444,101.82539682539682,187.38095238095238,-316.58730158730157,1.507936507936508,-3.571428571428571,-321.8253968253968
-1.8253968253968254,-292.1428571428571,48.49206349206349,26.587301587301585,111.5079365079365,-211.66666666666666,-8.015873015873016,-70.23809523809524,13.73015873015873,-196.9047619047619,-2.142857142857143,277.06349206349205,14.365079365079364,-76.42857142857143,-8.968253968253968,-72.93650793650794,-7.698412698412698,-97.85714285714285,100.07936507936508,167.53968253968253,-322.46031746031747,-1.8253968253968254,0.23809523809523808,-321.8253968253968
-1.8253968253968254,-292.1428571428571,48.49206349206349,26.587301587301585,111.5079365079365,-211.66666666666666,-8.015873015873016,-70.23809523809524,13.73015873015873,-196.9047619047619,-2.142857142857143,277.06349206349205,14.365079365079364,-76.42857142857143,-8.968253968253968,-72.93650793650794,-7.698412698412698,-97.85714285714285,100.07936507936508,167.53968253968253,-322.46031746031747,-1.8253968253968254,0.23809523809523808,-321.8253968253968
-2.142857142857143,-288.4920634920635,135.15873015873015,26.11111111111111,123.09523809523809,-159.44444444444443,-8.015873015873016,-56.42857142857142,11.666666666666666,-194.36507936507937,-2.7777777777777777,288.4920634920635,14.365079365079364,-56.74603174603174,-8.809523809523808,-57.06349206349206,-7.5396825396825395,-96.58730158730158,98.80952380952381,167.06349206349205,-320.39682539682536,0.07936507936507936,-1.6666666666666665,-321.8253968253968
-2.142857142857143,-288.4920634920635,135.15873015873015,26.11111111111111,123.09523809523809,-159.44444444444443,-8.015873015873016,-56.42857142857142,11.666666666666666,-194.36507936507937,-2.7777777777777777,288.4920634920635,14.365079365079364,-56.74603174603174,-8.809523809523808,-57.06349206349206,-7.5396825396825395,-96.58730158730158,98.80952380952381,167.06349206349205,-320.39682539682536,0.07936507936507936,-1.6666666666666665,-321.8253968253968
-0.3968253968253968,-282.77777777777777,-67.6984126984127,25.634920634920633,153.88888888888889,-210.2380952380952,-4.0476190476190474,-74.2063492063492,55.476190476190474,-190.55555555555554,-1.1904761904761905,297.22222222222223,13.888888888888888,-79.92063492063491,-6.26984126984127,-76.9047619047619,14.523809523809524,-94.84126984126983,96.74603174603175,164.2063492063492,-325.0,-1.1904761904761905,0.873015873015873,-166.26984126984127
-0.3968253968253968,-282.77777777777777,-67.6984126984127,25.634920634920633,153.88888888888889,-210.2380952380952,-4.0476190476190474,-74.2063492063492,55.476190476190474,-190.55555555555554,-1.1904761904761905,297.22222222222223,13.888888888888888,-79.92063492063491,-6.26984126984127,-76.9047619047619,14.523809523809524,-94.84126984126983,96.74603174603175,164.2063492063492,-325.0,-1.1904761904761905,0.873015873015873,-166.26984126984127
0.23809523809523808,-278.015873015873,46.11111111111111,25.158730158730158,165.47619047619045,-117.06349206349206,-6.26984126984127,-20.71428571428571,41.98412698412698,-187.06349206349205,-0.5555555555555556,275.4761904761905,13.73015873015873,-14.84126984126984,-8.015873015873016,-19.285714285714285,0.07936507936507936,-93.09523809523809,95.0,174.84126984126982,-325.0,1.349206349206349,-3.4126984126984126,-166.26984126984127
0.23809523809523808,-278.015873015873,46.11111111111111,25.158730158730158,165.47619047619045,-117.06349206349206,-6.26984126984127,-20.71428571428571,41.98412698412698,-187.06349206349205,-0.5555555555555556,275.4761904761905,13.73015873015873,-14.84126984126984,-8.015873015873016,-19.285714285714285,0.07936507936507936,-93.09523809523809,95.0,174.84126984126982,-325.0,1.349206349206349,-3.4126984126984126,-166.26984126984127
2.7777777777777777,-274.8412698412698,-255.63492063492063,25.0,173.09523809523807,-163.4126984126984,-1.984126984126984,-28.49206349206349,55.15873015873016,-181.66666666666666,2.46031746031746,252.77777777777777,13.571428571428571,-36.42857142857142,-8.809523809523808,-34.2063492063492,10.873015873015872,-91.98412698412697,93.88888888888889,178.96825396825395,-325.0,-6.26984126984127,2.619047619047619,-166.26984126984127
2.7777777777777777,-274.8412698412698,-255.63492063492063,25.0,173.09523809523807,-163.4126984126984,-1.984126984126984,-28.49206349206349,55.15873015873016,-181.66666666666666,2.46031746031746,252.77777777777777,13.571428571428571,-36.42857142857142,-8.809523809523808,-34.2063492063492,10.873015873015872,-91.98412698412697,93.88888888888889,178.96825396825395,-325.0,-6.26984126984127,2.619047619047619,-166.26984126984127
3.4126984126984126,-271.5079365079365,-91.03174603174602,24.84126984126984,163.88888888888889,-117.38095238095238,-4.0476190476190474,-17.38095238095238,35.0,-181.03174603174602,2.7777777777777777,244.84126984126982,13.412698412698411,-18.80952380952381,-8.809523809523808,-20.07936507936508,3.73015873015873,-90.87301587301587,92.77777777777777,177.06349206349205,-325.0,-3.4126984126984126,0.3968253968253968,-166.26984126984127
3.4126984126984126,-271.5079365079365,-91.03174603174602,24.84126984126984,163.88888888888889,-117.38095238095238,-4.0476190476190474,-17.38095238095238,35.0,-181.03174603174602,2.7777777777777777,244.84126984126982,13.412698412698411,-18.80952380952381,-8.809523809523808,-20.07936507936508,3.73015873015873,-90.87301587301587,92.77777777777777,177.06349206349205,-325.0,-3.4126984126984126,0.3968253968253968,-166.26984126984127
3.888888888888889,-265.95238095238096,-125.63492063492063,22.619047619047617,151.34920634920633,-183.4126984126984,-4.841269841269841,-22.936507936507937,37.857142857142854,-164.52380952380952,3.253968253968254,230.07936507936506,13.095238095238095,-23.41269841269841,-8.492063492063492,-23.57142857142857,6.428571428571428,-89.28571428571428,90.87301587301587,159.12698412698413,-325.0,0.7142857142857142,-0.23809523809523808,-166.26984126984127
3.888888888888889,-265.95238095238096,-125.63492063492063,22.619047619047617,151.34920634920633,-183.4126984126984,-4.841269841269841,-22.936507936507937,37.857142857142854,-164.52380952380952,3.253968253968254,230.07936507936506,13.095238095238095,-23.41269841269841,-8.492063492063492,-23.57142857142857,6.428571428571428,-89.28571428571428,90.87301587301587,159.12698412698413,-325.0,0.7142857142857142,-0.23809523809523808,-166.26984126984127
0.07936507936507936,-259.6031746031746,-325.0,23.253968253968253,150.07936507936506,-183.88888888888889,-4.523809523809524,-4.841269841269841,37.53968253968254,-167.85714285714286,-0.5555555555555556,222.61904761904762,12.936507936507935,-5.7936507936507935,-8.174603174603174,-5.7936507936507935,5.476190476190476,-86.9047619047619,88.33333333333333,164.68253968253967,-325.0,0.07936507936507936,-0.5555555555555556,-321.8253968253968
0.07936507936507936,-259.6031746031746,-325.0,23.253968253968253,150.07936507936506,-183.88888888888889,-4.523809523809524,-4.841269841269841,37.53968253968254,-167.85714285714286,-0.5555555555555556,222.61904761904762,12.936507936507935,-5.7936507936507935,-8.174603174603174,-5.7936507936507935,5.476190476190476,-86.9047619047619,88.33333333333333,164.68253968253967,-325.0,0.07936507936507936,-0.5555555555555556,-321.8253968253968
6.904761904761904,-255.3174603174603,-325.0,21.19047619047619,169.44444444444443,-301.19047619047615,10.714285714285714,-56.904761904761905,79.92063492063491,-138.33333333333331,6.587301587301587,204.2063492063492,12.619047619047619,-64.04761904761905,-6.26984126984127,-60.39682539682539,30.87301587301587,-85.63492063492063,86.9047619047619,134.04761904761904,-325.0,1.1904761904761905,0.07936507936507936,-321.8253968253968
6.904761904761904,-255.3174603174603,-325.0,21.19047619047619,169.44444444444443,-301.19047619047615,10.714285714285714,-56.904761904761905,79.92063492063491,-138.33333333333331,6.587301587301587,204.2063492063492,12.619047619047619,-64.04761904761905,-6.26984126984127,-60.39682539682539,30.87301587301587,-85.63492063492063,86.9047619047619,134.04761904761904,-325.0,1.1904761904761905,0.07936507936507936,-321.8253968253968
-8.333333333333332,-251.03174603174602,-74.2063492063492,22.936507936507937,133.88888888888889,-88.65079365079364,-8.174603174603174,25.79365079365079,3.4126984126984126,-169.76190476190476,-9.285714285714285,209.60317460317458,12.46031746031746,31.19047619047619,-8.174603174603174,25.158730158730158,-8.809523809523808,-84.04761904761904,85.47619047619047,164.36507936507937,-325.0,-2.619047619047619,-1.8253968253968254,-321.8253968253968
-8.333333333333332,-251.03174603174602,-74.2063492063492,22.936507936507937,133.88888888888889,-88.65079365079364,-8.174603174603174,25.79365079365079,3.4126984126984126,-169.76190476190476,-9.285714285714285,209.60317460317458,12.46031746031746,31.19047619047619,-8.174603174603174,25.158730158730158,-8.809523809523808,-84.04761904761904,85.47619047619047,164.36507936507937,-325.0,-2.619047619047619,-1.8253968253968254,-321.8253968253968
-1.8253968253968254,-246.1111111111111,-243.88888888888889,19.126984126984127,104.04761904761904,-264.68253968253964,-8.015873015873016,-24.365079365079364,27.539682539682538,-146.58730158730157,-2.46031746031746,200.07936507936506,12.142857142857142,-27.063492063492063,-7.857142857142857,-25.634920634920633,-4.2063492063492065,-82.46031746031746,83.73015873015872,135.79365079365078,-325.0,3.253968253968254,-2.3015873015873014,-321.8253968253968
-1.8253968253968254,-246.1111111111111,-243.88888888888889,19.126984126984127,104.04761904761904,-264.68253968253964,-8.015873015873016,-24.365079365079364,27.539682539682538,-146.58730158730157,-2.46031746031746,200.07936507936506,12.142857142857142,-27.063492063492063,-7.857142857142857,-25.634920634920633,-4.2063492063492065,-82.46031746031746,83.73015873015872,135.79365079365078,-325.0,3.253968253968254,-2.3015873015873014,-321.8253968253968
-1.984126984126984,-241.98412698412696,-0.7142857142857142,22.142857142857142,72.61904761904762,-127.6984126984127,-6.904761904761904,-2.9365079365079363,0.3968253968253968,-161.66666666666666,-2.7777777777777777,208.4920634920635,12.142857142857142,-2.3015873015873014,-7.857142857142857,-4.682539682539682,-4.523809523809524,-81.19047619047619,82.3015873015873,158.8095238095238,-316.58730158730157,-4.0476190476190474,0.5555555555555556,-321.8253968253968
-1.984126984126984,-241.98412698412696,-0.7142857142857142,22.142857142857142,72.61904761904762,-127.6984126984127,-6.904761904761904,-2.9365079365079363,0.3968253968253968,-161.66666666666666,-2.7777777777777777,208.4920634920635,12.142857142857142,-2.3015873015873014,-7.857142857142857,-4.682539682539682,-4.523809523809524,-81.19047619047619,82.3015873015873,158.8095238095238,-316.58730158730157,-4.0476190476190474,0.5555555555555556,-321.8253968253968
2.3015873015873014,-238.17460317460316,-230.7142857142857,19.92063492063492,132.93650793650792,-259.44444444444446,-0.7142857142857142,-31.825396825396822,63.095238095238095,-143.4126984126984,1.507936507936508,198.17460317460316,11.825396825396824,-33.73015873015873,-7.5396825396825395,-32.61904761904762,21.984126984126984,-79.76190476190476,80.87301587301587,136.58730158730157,-325.0,3.4126984126984126,-2.142857142857143,-166.26984126984127
2.3015873015873014,-238.17460317460316,-230.7142857142857,19.92063492063492,132.93650793650792,-259.44444444444446,-0.7142857142857142,-31.825396825396822,63.095238095238095,-143.4126984126984,1.507936507936508,198.17460317460316,11.825396825396824,-33.73015873015873,-7.5396825396825395,-32.61904761904762,21.984126984126984,-79.76190476190476,80.87301587301587,136.58730158730157,-325.0,3.4126984126984126,-2.142857142857143,-166.26984126984127
-2.619047619047619,-235.3174603174603,-56.42857142857142,21.19047619047619,125.15873015873015,-189.12698412698413,-4.0476190476190474,-26.587301587301585,43.73015873015873,-155.79365079365078,-3.571428571428571,218.4920634920635,11.666666666666666,-28.015873015873016,-6.904761904761904,-28.809523809523807,6.746031746031746,-78.80952380952381,79.92063492063491,148.17460317460316,-325.0,-1.1904761904761905,-0.7142857142857142,-166.26984126984127
-2.619047619047619,-235.3174603174603,-56.42857142857142,21.19047619047619,125.15873015873015,-189.12698412698413,-4.0476190476190474,-26.587301587301585,43.73015873015873,-155.79365079365078,-3.571428571428571,218.4920634920635,11.666666666666666,-28.015873015873016,-6.904761904761904,-28.809523809523807,6.746031746031746,-78.80952380952381,79.92063492063491,148.17460317460316,-325.0,-1.1904761904761905,-0.7142857142857142,-166.26984126984127
-4.0476190476190474,-231.5079365079365,-142.46031746031744,17.22222222222222,108.33333333333333,-293.0952380952381,-3.888888888888889,-56.58730158730158,58.650793650793645,-156.42857142857142,-5.0,239.12698412698413,11.825396825396824,-64.52380952380952,10.873015873015872,-59.6031746031746,10.714285714285714,-77.53968253968253,78.33333333333333,107.85714285714285,-325.0,1.1904761904761905,1.349206349206349,-166.26984126984127
-4.0476190476190474,-231.5079365079365,-142.46031746031744,17.22222222222222,108.33333333333333,-293.0952380952381,-3.888888888888889,-56.58730158730158,58.650793650793645,-156.42857142857142,-5.0,239.12698412698413,11.825396825396824,-64.52380952380952,10.873015873015872,-59.6031746031746,10.714285714285714,-77.53968253968253,78.33333333333333,107.85714285714285,-325.0,1.1904761904761905,1.349206349206349,-166.26984126984127
-4.0476190476190474,-231.5079365079365,-142.46031746031744,17.22222222222222,108.33333333333333,-293.0952380952381,-3.888888888888889,-56.58730158730158,58.650793650793645,-156.42857142857142,-5.0,239.12698412698413,11.825396825396824,-64.52380952380952,10.873015873015872,-59.6031746031746,10.714285714285714,-77.53968253968253,78.33333333333333,107.85714285714285,-325.0,1.1904761904761905,1.349206349206349,-166.26984126984127
-4.0476190476190474,-231.5079365079365,-142.46031746031744,17.22222222222222,108.33333333333333,-293.0952380952381,-3.888888888888889,-56.58730158730158,58.650793650793645,-156.42857142857142,-5.0,239.12698412698413,11.825396825396824,-64.52380952380952,10.873015873015872,-59.6031746031746,10.714285714285714,-77.53968253968253,78.33333333333333,107.85714285714285,-325.0,1.1904761904761905,1.349206349206349,-166.26984126984127
-4.0476190476190474,-231.5079365079365,-142.46031746031744,17.22222222222222,108.33333333333333,-293.0952380952381,-3.888888888888889,-56.58730158730158,58.650793650793645,-156.42857142857142,-5.0,239.12698412698413,11.825396825396824,-64.52380952380952,10.873015873015872,-59.6031746031746,10.714285714285714,-77.53968253968253,78.33333333333333,107.85714285714285,-325.0,1.1904761904761905,1.349206349206349,-166.26984126984127
-4.0476190476190474,-231.5079365079365,-142.46031746031744,17.22222222222222,108.33333333333333,-293.0952380952381,-3.888888888888889,-56.58730158730158,58.650793650793645,-156.42857142857142,-5.0,239.12698412698413,11.825396825396824,-64.52380952380952,10.873015873015872,-59.6031746031746,10.714285714285714,-77.53968253968253,78.33333333333333,107.85714285714285,-325.0,1.1904761904761905,1.349206349206349,-166.26984126984127
-5.952380952380952,-225.0,-131.34920634920636,18.015873015873016,129.28571428571428,-234.68253968253967,5.634920634920634,-41.19047619047619,62.460317460317455,-151.8253968253968,-6.746031746031746,230.7142857142857,11.349206349206348,-48.49206349206349,1.0317460317460316,-45.476190476190474,18.49206349206349,-75.47619047619047,76.1111111111111,125.47619047619047,-325.0,-2.619047619047619,1.349206349206349,-321.8253968253968
-5.952380952380952,-225.0,-131.34920634920636,18.015873015873016,129.28571428571428,-234.68253968253967,5.634920634920634,-41.19047619047619,62.460317460317455,-151.8253968253968,-6.746031746031746,230.7142857142857,11.349206349206348,-48.49206349206349,1.0317460317460316,-45.476190476190474,18.49206349206349,-75.47619047619047,76.1111111111111,125.47619047619047,-325.0,-2.619047619047619,1.349206349206349,-321.8253968253968
-3.4126984126984126,-216.9047619047619,-202.61904761904762,9.761904761904761,171.19047619047618,-309.2857142857143,42.460317460317455,-57.22222222222222,106.74603174603175,-144.2063492063492,-4.0476190476190474,194.36507936507937,10.873015873015872,-62.93650793650793,-0.5555555555555556,-59.92063492063492,62.460317460317455,-72.77777777777777,73.4126984126984,111.66666666666666,-325.0,0.7142857142857142,-1.0317460317460316,-321.8253968253968
-3.4126984126984126,-216.9047619047619,-202.61904761904762,9.761904761904761,171.19047619047618,-309.2857142857143,42.460317460317455,-57.22222222222222,106.74603174603175,-144.2063492063492,-4.0476190476190474,194.36507936507937,10.873015873015872,-62.93650793650793,-0.5555555555555556,-59.92063492063492,62.460317460317455,-72.77777777777777,73.4126984126984,111.66666666666666,-325.0,0.7142857142857142,-1.0317460317460316,-321.8253968253968
1.0317460317460316,-213.4126984126984,-263.88888888888886,8.65079365079365,157.2222222222222,-299.1269841269841,33.41269841269841,-62.460317460317455,94.84126984126983,-139.12698412698413,0.3968253968253968,193.57142857142856,10.714285714285714,-66.74603174603175,-2.9365079365079363,-63.57142857142857,55.79365079365079,-71.66666666666666,72.14285714285714,104.04761904761904,-325.0,1.349206349206349,0.23809523809523808,-321.8253968253968
1.0317460317460316,-213.4126984126984,-263.88888888888886,8.65079365079365,157.2222222222222,-299.1269841269841,33.41269841269841,-62.460317460317455,94.84126984126983,-139.12698412698413,0.3968253968253968,193.57142857142856,10.714285714285714,-66.74603174603175,-2.9365079365079363,-63.57142857142857,55.79365079365079,-71.66666666666666,72.14285714285714,104.04761904761904,-325.0,1.349206349206349,0.23809523809523808,-321.8253968253968
5.634920634920634,-209.76190476190476,-325.0,7.698412698412698,143.25396825396825,-288.968253968254,24.523809523809522,-67.53968253968253,83.09523809523809,-134.04761904761904,5.0,192.93650793650792,10.714285714285714,-70.55555555555556,-5.158730158730158,-67.06349206349206,49.12698412698413,-70.39682539682539,70.87301587301587,96.58730158730158,-325.0,2.142857142857143,1.6666666666666665,-321.8253968253968
5.634920634920634,-209.76190476190476,-325.0,7.698412698412698,143.25396825396825,-288.968253968254,24.523809523809522,-67.53968253968253,83.09523809523809,-134.04761904761904,5.0,192.93650793650792,10.714285714285714,-70.55555555555556,-5.158730158730158,-67.06349206349206,49.12698412698413,-70.39682539682539,70.87301587301587,96.58730158730158,-325.0,2.142857142857143,1.6666666666666665,-321.8253968253968
5.634920634920634,-209.76190476190476,-325.0,7.698412698412698,143.25396825396825,-288.968253968254,24.523809523809522,-67.53968253968253,83.09523809523809,-134.04761904761904,5.0,192.93650793650792,10.714285714285714,-70.55555555555556,-5.158730158730158,-67.06349206349206,49.12698412698413,-70.39682539682539,70.87301587301587,96.58730158730158,-325.0,2.142857142857143,1.6666666666666665,-321.8253968253968
5.634920634920634,-209.76190476190476,-325.0,7.698412698412698,143.25396825396825,-288.968253968254,24.523809523809522,-67.53968253968253,83.09523809523809,-134.04761904761904,5.0,192.93650793650792,10.714285714285714,-70.55555555555556,-5.158730158730158,-67.06349206349206,49.12698412698413,-70.39682539682539,70.87301587301587,96.58730158730158,-325.0,2.142857142857143,1.6666666666666665,-321.8253968253968
5.634920634920634,-209.76190476190476,-325.0,7.698412698412698,143.25396825396825,-288.968253968254,24.523809523809522,-67.53968253968253,83.09523809523809,-134.04761904761904,5.0,192.93650793650792,10.714285714285714,-70.55555555555556,-5.158730158730158,-67.06349206349206,49.12698412698413,-70.39682539682539,70.87301587301587,96.58730158730158,-325.0,2.142857142857143,1.6666666666666665,-166.26984126984127
5.634920634920634,-209.76190476190476,-325.0,7.698412698412698,143.25396825396825,-288.968253968254,24.523809523809522,-67.53968253968253,83.09523809523809,-134.04761904761904,5.0,192.93650793650792,10.714285714285714,-70.55555555555556,-5.158730158730158,-67.06349206349206,49.12698412698413,-70.39682539682539,70.87301587301587,96.58730158730158,-325.0,2.142857142857143,1.6666666666666665,-166.26984126984127
5.634920634920634,-209.76190476190476,-325.0,7.698412698412698,143.25396825396825,-288.968253968254,24.523809523809522,-67.53968253968253,83.09523809523809,-134.04761904761904,5.0,192.93650793650792,10.714285714285714,-70.55555555555556,-5.158730158730158,-67.06349206349206,49.12698412698413,-70.39682539682539,70.87301587301587,96.58730158730158,-325.0,2.142857142857143,1.6666666666666665,-166.26984126984127
5.634920634920634,-209.76190476190476,-325.0,7.698412698412698,143.25396825396825,-288.968253968254,24.523809523809522,-67.53968253968253,83.09523809523809,-134.04761904761904,5.0,192.93650793650792,10.714285714285714,-70.55555555555556,-5.158730158730158,-67.06349206349206,49.12698412698413,-70.39682539682539,70.87301587301587,96.58730158730158,-325.0,2.142857142857143,1.6666666666666665,-166.26984126984127
5.634920634920634,-209.76190476190476,-325.0,7.698412698412698,143.25396825396825,-288.968253968254,24.523809523809522,-67.53968253968253,83.09523809523809,-134.04761904761904,5.0,192.93650793650792,10.714285714285714,-70.55555555555556,-5.158730158730158,-67.06349206349206,49.12698412698413,-70.39682539682539,70.87301587301587,96.58730158730158,-325.0,2.142857142857143,1.6666666666666665,-166.26984126984127
5.634920634920634,-209.76190476190476,-325.0,7.698412698412698,143.25396825396825,-288.968253968254,24.523809523809522,-67.53968253968253,83.09523809523809,-134.04761904761904,5.0,192.93650793650792,10.714285714285714,-70.55555555555556,-5.158730158730158,-67.06349206349206,49.12698412698413,-70.39682539682539,70.87301587301587,96.58730158730158,-325.0,2.142857142857143,1.6666666666666665,-166.26984126984127
5.634920634920634,-209.76190476190476,-325.0,7.698412698412698,143.25396825396825,-288.968253968254,24.523809523809522,-67.53968253968253,83.09523809523809,-134.04761904761904,5.0,192.93650793650792,10.714285714285714,-70.55555555555556,-5.158730158730158,-67.06349206349206,49.12698412698413,-70.39682539682539,70.87301587301587,96.58730158730158,-325.0,2.142857142857143,1.6666666666666665,-166.26984126984127
5.634920634920634,-209.76190476190476,-325.0,7.698412698412698,143.25396825396825,-288.968253968254,24.523809523809522,-67.53968253968253,83.09523809523809,-134.04761904761904,5.0,192.93650793650792,10.714285714285714,-70.55555555555556,-5.158730158730158,-67.06349206349206,49.12698412698413,-70.39682539682539,70.87301587301587,96.58730158730158,-325.0,2.142857142857143,1.6666666666666665,-166.26984126984127
5.634920634920634,-209.76190476190476,-325.0,7.698412698412698,143.25396825396825,-288.968253968254,24.523809523809522,-67.53968253968253,83.09523809523809,-134.04761904761904,5.0,192.93650793650792,10.714285714285714,-70.55555555555556,-5.158730158730158,-67.06349206349206,49.12698412698413,-70.39682539682539,70.87301587301587,96.58730158730158,-325.0,2.142857142857143,1.6666666666666665,-166.26984126984127
