Fp1[1],Fp2[2],F3[3],F4[4],C3[5],C4[6],P3[7],P4[8],O1[9],O2[10],F7[11],F8[12],T3[13],T4[14],T5[15],T6[16],Fz[17],Pz[18],Cz[19],Pg1[20],Pg2[21],EOGR[22],EOOGL[23],EMG[24]
42.14285714285714,-180.55555555555554,-92.77777777777777,-239.76190476190476,143.25396825396825,-15.634920634920634,119.92063492063491,-132.93650793650792,58.33333333333333,50.39682539682539,-89.44444444444444,182.46031746031744,-243.4126984126984,-92.46031746031746,138.4920634920635,-31.98412698412698,143.25396825396825,-47.06349206349206,-222.77777777777777,-17.857142857142858,-71.03174603174602,37.06349206349206,149.6031746031746,-166.26984126984127
42.14285714285714,-180.55555555555554,-92.77777777777777,-239.76190476190476,143.25396825396825,-15.634920634920634,119.92063492063491,-132.93650793650792,58.33333333333333,50.39682539682539,-89.44444444444444,182.46031746031744,-243.4126984126984,-92.46031746031746,138.4920634920635,-31.98412698412698,143.25396825396825,-47.06349206349206,-222.77777777777777,-17.857142857142858,-71.03174603174602,37.06349206349206,149.6031746031746,-166.26984126984127
18.65079365079365,-302.46031746031747,139.6031746031746,-154.52380952380952,-38.33333333333333,293.73015873015873,-80.39682539682539,-243.7301587301587,-187.06349206349205,-224.04761904761904,-227.69841269841268,51.98412698412698,-161.66666666666666,-162.46031746031744,-39.44444444444444,-40.55555555555555,-21.666666666666664,-62.460317460317455,-120.55555555555554,146.58730158730157,182.93650793650792,67.53968253968253,301.984126984127,-166.26984126984127
18.65079365079365,-302.46031746031747,139.6031746031746,-154.52380952380952,-38.33333333333333,293.73015873015873,-80.39682539682539,-243.7301587301587,-187.06349206349205,-224.04761904761904,-227.69841269841268,51.98412698412698,-161.66666666666666,-162.46031746031744,-39.44444444444444,-40.55555555555555,-21.666666666666664,-62.460317460317455,-120.55555555555554,146.58730158730157,182.93650793650792,67.53968253968253,301.984126984127,-166.26984126984127
26.11111111111111,-229.44444444444443,-92.77777777777777,-239.76190476190476,132.14285714285714,-15.634920634920634,97.06349206349206,-184.68253968253967,36.74603174603175,50.39682539682539,-102.46031746031746,159.9206349206349,-243.4126984126984,-143.88888888888889,116.26984126984127,-83.73015873015872,120.87301587301586,-105.0,-222.77777777777777,47.38095238095238,-71.03174603174602,29.444444444444443,152.77777777777777,-166.26984126984127
26.11111111111111,-229.44444444444443,-92.77777777777777,-239.76190476190476,132.14285714285714,-15.634920634920634,97.06349206349206,-184.68253968253967,36.74603174603175,50.39682539682539,-102.46031746031746,159.9206349206349,-243.4126984126984,-143.88888888888889,116.26984126984127,-83.73015873015872,120.87301587301586,-105.0,-222.77777777777777,47.38095238095238,-71.03174603174602,29.444444444444443,152.77777777777777,-166.26984126984127
35.79365079365079,-167.38095238095238,-325.0,-325.0,299.1269841269841,-325.0,270.87301587301585,-136.9047619047619,257.22222222222223,325.0,25.634920634920633,264.36507936507934,-325.0,-135.63492063492063,268.8095238095238,-138.33333333333331,260.07936507936506,-160.07936507936506,-325.0,-38.01587301587301,-325.0,2.9365079365079363,-1.6666666666666665,-166.26984126984127
35.79365079365079,-167.38095238095238,-325.0,-325.0,299.1269841269841,-325.0,270.87301587301585,-136.9047619047619,257.22222222222223,325.0,25.634920634920633,264.36507936507934,-325.0,-135.63492063492063,268.8095238095238,-138.33333333333331,260.07936507936506,-160.07936507936506,-325.0,-38.01587301587301,-325.0,2.9365079365079363,-1.6666666666666665,-166.26984126984127
41.19047619047619,-185.63492063492063,-325.0,-325.0,293.88888888888886,-325.0,266.26984126984127,-154.2063492063492,252.77777777777777,325.0,31.666666666666664,259.9206349206349,-325.0,-153.57142857142856,264.2063492063492,-156.11111111111111,255.47619047619045,-177.06349206349205,-325.0,-20.873015873015873,-325.0,-4.365079365079365,1.1904761904761905,-166.26984126984127
41.19047619047619,-185.63492063492063,-325.0,-325.0,293.88888888888886,-325.0,266.26984126984127,-154.2063492063492,252.77777777777777,325.0,31.666666666666664,259.9206349206349,-325.0,-153.57142857142856,264.2063492063492,-156.11111111111111,255.47619047619045,-177.06349206349205,-325.0,-20.873015873015873,-325.0,-4.365079365079365,1.1904761904761905,-166.26984126984127
44.84126984126984,-193.25396825396825,-325.0,-325.0,292.77777777777777,-325.0,265.1587301587301,-161.66666666666666,251.66666666666666,325.0,35.476190476190474,258.8095238095238,-325.0,-160.87301587301587,263.25396825396825,-163.73015873015873,254.36507936507934,-184.36507936507937,-325.0,-13.253968253968253,-325.0,-7.857142857142857,3.095238095238095,-321.8253968253968
44.84126984126984,-193.25396825396825,-325.0,-325.0,292.77777777777777,-325.0,265.1587301587301,-161.66666666666666,251.66666666666666,325.0,35.476190476190474,258.8095238095238,-325.0,-160.87301587301587,263.25396825396825,-163.73015873015873,254.36507936507934,-184.36507936507937,-325.0,-13.253968253968253,-325.0,-7.857142857142857,3.095238095238095,-321.8253968253968
35.317460317460316,-200.23809523809524,-325.0,-325.0,284.5238095238095,-325.0,257.22222222222223,-168.65079365079364,244.52380952380952,325.0,26.428571428571427,250.87301587301585,-325.0,-167.53968253968253,255.47619047619045,-170.23809523809524,246.9047619047619,-194.04761904761904,-325.0,-2.142857142857143,-325.0,-4.682539682539682,0.5555555555555556,-321.8253968253968
35.317460317460316,-200.23809523809524,-325.0,-325.0,284.5238095238095,-325.0,257.22222222222223,-168.65079365079364,244.52380952380952,325.0,26.428571428571427,250.87301587301585,-325.0,-167.53968253968253,255.47619047619045,-170.23809523809524,246.9047619047619,-194.04761904761904,-325.0,-2.142857142857143,-325.0,-4.682539682539682,0.5555555555555556,-321.8253968253968
41.507936507936506,-213.88888888888889,-325.0,-325.0,281.031746031746,-325.0,253.88888888888889,-181.8253968253968,241.34920634920633,325.0,32.77777777777778,248.015873015873,-325.0,-180.3968253968254,252.46031746031744,-183.7301587301587,243.7301587301587,-208.4920634920635,-325.0,14.365079365079364,-325.0,-0.873015873015873,0.5555555555555556,-321.8253968253968
41.507936507936506,-213.88888888888889,-325.0,-325.0,281.031746031746,-325.0,253.88888888888889,-181.8253968253968,241.34920634920633,325.0,32.77777777777778,248.015873015873,-325.0,-180.3968253968254,252.46031746031744,-183.7301587301587,243.7301587301587,-208.4920634920635,-325.0,14.365079365079364,-325.0,-0.873015873015873,0.5555555555555556,-321.8253968253968
37.38095238095238,-217.06349206349205,-325.0,-325.0,276.1111111111111,-325.0,249.60317460317458,-185.3174603174603,237.38095238095238,325.0,28.96825396825397,243.57142857142856,-325.0,-183.88888888888889,248.015873015873,-187.06349206349205,239.28571428571428,-211.8253968253968,-325.0,17.063492063492063,-325.0,-1.1904761904761905,-1.984126984126984,-321.8253968253968
37.38095238095238,-217.06349206349205,-325.0,-325.0,276.1111111111111,-325.0,249.60317460317458,-185.3174603174603,237.38095238095238,325.0,28.96825396825397,243.57142857142856,-325.0,-183.88888888888889,248.015873015873,-187.06349206349205,239.28571428571428,-211.8253968253968,-325.0,17.063492063492063,-325.0,-1.1904761904761905,-1.984126984126984,-321.8253968253968
27.063492063492063,-219.12698412698413,-325.0,-325.0,270.7142857142857,-325.0,244.36507936507934,-187.2222222222222,232.3015873015873,325.0,19.6031746031746,238.33333333333331,-325.0,-185.15873015873015,242.93650793650792,-188.4920634920635,234.2063492063492,-215.47619047619045,-325.0,21.349206349206348,-325.0,3.571428571428571,-1.507936507936508,-321.8253968253968
27.063492063492063,-219.12698412698413,-325.0,-325.0,270.7142857142857,-325.0,244.36507936507934,-187.2222222222222,232.3015873015873,325.0,19.6031746031746,238.33333333333331,-325.0,-185.15873015873015,242.93650793650792,-188.4920634920635,234.2063492063492,-215.47619047619045,-325.0,21.349206349206348,-325.0,3.571428571428571,-1.507936507936508,-321.8253968253968
21.666666666666664,-221.66666666666666,-325.0,-325.0,266.26984126984127,-325.0,240.2380952380952,-189.9206349206349,228.33333333333331,325.0,14.682539682539682,234.2063492063492,-325.0,-188.33333333333331,238.8095238095238,-191.66666666666666,230.3968253968254,-221.03174603174602,-325.0,24.047619047619047,-325.0,-4.523809523809524,1.0317460317460316,-166.26984126984127
21.666666666666664,-221.66666666666666,-325.0,-325.0,266.26984126984127,-325.0,240.2380952380952,-189.9206349206349,228.33333333333331,325.0,14.682539682539682,234.2063492063492,-325.0,-188.33333333333331,238.8095238095238,-191.66666666666666,230.3968253968254,-221.03174603174602,-325.0,24.047619047619047,-325.0,-4.523809523809524,1.0317460317460316,-166.26984126984127
21.349206349206348,-223.4126984126984,-325.0,-325.0,265.0,-325.0,239.28571428571428,-191.66666666666666,227.38095238095238,325.0,14.365079365079364,233.25396825396825,-325.0,-189.9206349206349,237.85714285714283,-193.57142857142856,229.28571428571428,-223.09523809523807,-325.0,25.476190476190474,-325.0,-8.333333333333332,2.9365079365079363,-166.26984126984127
21.349206349206348,-223.4126984126984,-325.0,-325.0,265.0,-325.0,239.28571428571428,-191.66666666666666,227.38095238095238,325.0,14.365079365079364,233.25396825396825,-325.0,-189.9206349206349,237.85714285714283,-193.57142857142856,229.28571428571428,-223.09523809523807,-325.0,25.476190476190474,-325.0,-8.333333333333332,2.9365079365079363,-166.26984126984127
21.349206349206348,-223.4126984126984,-325.0,-325.0,265.0,-325.0,239.28571428571428,-191.66666666666666,227.38095238095238,325.0,14.365079365079364,233.25396825396825,-325.0,-189.9206349206349,237.85714285714283,-193.57142857142856,229.28571428571428,-223.09523809523807,-325.0,25.476190476190474,-325.0,-8.333333333333332,2.9365079365079363,-166.26984126984127
21.349206349206348,-223.4126984126984,-325.0,-325.0,265.0,-325.0,239.28571428571428,-191.66666666666666,227.38095238095238,325.0,14.365079365079364,233.25396825396825,-325.0,-189.9206349206349,237.85714285714283,-193.57142857142856,229.28571428571428,-223.09523809523807,-325.0,25.476190476190474,-325.0,-8.333333333333332,2.9365079365079363,-166.26984126984127
24.047619047619047,-234.52380952380952,-325.0,-325.0,252.46031746031744,-310.87301587301585,227.38095238095238,-204.2063492063492,216.26984126984127,325.0,18.49206349206349,221.66666666666666,-325.0,-202.3015873015873,226.42857142857142,-206.26984126984127,217.85714285714283,-237.85714285714283,-325.0,48.650793650793645,-325.0,-8.492063492063492,2.619047619047619,-166.26984126984127
24.047619047619047,-234.52380952380952,-325.0,-325.0,252.46031746031744,-310.87301587301585,227.38095238095238,-204.2063492063492,216.26984126984127,325.0,18.49206349206349,221.66666666666666,-325.0,-202.3015873015873,226.42857142857142,-206.26984126984127,217.85714285714283,-237.85714285714283,-325.0,48.650793650793645,-325.0,-8.492063492063492,2.619047619047619,-166.26984126984127
26.9047619047619,-245.63492063492063,-325.0,-325.0,240.07936507936506,-296.58730158730157,215.63492063492063,-216.74603174603175,205.15873015873015,325.0,22.777777777777775,210.2380952380952,-325.0,-214.52380952380952,215.15873015873015,-218.8095238095238,206.58730158730157,-252.46031746031744,-325.0,71.82539682539682,-325.0,-8.492063492063492,2.3015873015873014,-166.26984126984127
26.9047619047619,-245.63492063492063,-325.0,-325.0,240.07936507936506,-296.58730158730157,215.63492063492063,-216.74603174603175,205.15873015873015,325.0,22.777777777777775,210.2380952380952,-325.0,-214.52380952380952,215.15873015873015,-218.8095238095238,206.58730158730157,-252.46031746031744,-325.0,71.82539682539682,-325.0,-8.492063492063492,2.3015873015873014,-166.26984126984127
-7.5396825396825395,-132.46031746031744,-224.68253968253967,-256.58730158730157,161.984126984127,-201.34920634920633,143.25396825396825,-124.04761904761904,136.9047619047619,258.17460317460313,-5.317460317460317,139.76190476190476,-216.26984126984127,-119.92063492063491,144.04761904761904,-125.47619047619047,136.42857142857142,-151.984126984127,-220.2380952380952,76.74603174603175,-215.3174603174603,-1.6666666666666665,-0.5555555555555556,-321.8253968253968
-7.5396825396825395,-132.46031746031744,-224.68253968253967,-256.58730158730157,161.984126984127,-201.34920634920633,143.25396825396825,-124.04761904761904,136.9047619047619,258.17460317460313,-5.317460317460317,139.76190476190476,-216.26984126984127,-119.92063492063491,144.04761904761904,-125.47619047619047,136.42857142857142,-151.984126984127,-220.2380952380952,76.74603174603175,-215.3174603174603,-1.6666666666666665,-0.5555555555555556,-321.8253968253968
-20.873015873015873,325.0,-136.42857142857142,-154.68253968253967,98.01587301587301,-123.4126984126984,85.31746031746032,13.888888888888888,82.3015873015873,153.73015873015873,-15.476190476190474,56.11111111111111,-129.6031746031746,17.22222222222222,86.74603174603175,13.412698412698411,80.87301587301587,0.3968253968253968,-134.2063492063492,28.333333333333332,-127.38095238095238,-0.5555555555555556,-1.0317460317460316,-321.8253968253968
-20.873015873015873,325.0,-136.42857142857142,-154.68253968253967,98.01587301587301,-123.4126984126984,85.31746031746032,13.888888888888888,82.3015873015873,153.73015873015873,-15.476190476190474,56.11111111111111,-129.6031746031746,17.22222222222222,86.74603174603175,13.412698412698411,80.87301587301587,0.3968253968253968,-134.2063492063492,28.333333333333332,-127.38095238095238,-0.5555555555555556,-1.0317460317460316,-321.8253968253968
-28.65079365079365,270.87301587301585,325.0,-68.96825396825396,-325.0,325.0,-325.0,325.0,-325.0,67.06349206349206,-26.587301587301585,-325.0,-56.58730158730158,325.0,-325.0,325.0,-325.0,325.0,-60.55555555555555,-325.0,-54.68253968253968,-6.26984126984127,0.873015873015873,-321.8253968253968
-28.65079365079365,270.87301587301585,325.0,-68.96825396825396,-325.0,325.0,-325.0,325.0,-325.0,67.06349206349206,-26.587301587301585,-325.0,-56.58730158730158,325.0,-325.0,325.0,-325.0,325.0,-60.55555555555555,-325.0,-54.68253968253968,-6.26984126984127,0.873015873015873,-321.8253968253968
-18.015873015873016,266.4285714285714,8.968253968253968,-67.53968253968253,-325.0,325.0,-325.0,325.0,-325.0,65.95238095238095,-16.11111111111111,-325.0,-55.63492063492063,325.0,-325.0,325.0,-325.0,325.0,-59.44444444444444,-325.0,-53.57142857142857,4.682539682539682,-2.9365079365079363,-321.8253968253968
-18.015873015873016,266.4285714285714,8.968253968253968,-67.53968253968253,-325.0,325.0,-325.0,325.0,-325.0,65.95238095238095,-16.11111111111111,-325.0,-55.63492063492063,325.0,-325.0,325.0,-325.0,325.0,-59.44444444444444,-325.0,-53.57142857142857,4.682539682539682,-2.9365079365079363,-321.8253968253968
-15.476190476190474,263.0952380952381,29.285714285714285,-66.58730158730158,-325.0,325.0,-325.0,325.0,-325.0,65.15873015873015,-14.523809523809524,-325.0,-55.15873015873016,325.0,-325.0,325.0,-325.0,325.0,-58.650793650793645,-325.0,-52.93650793650794,-3.253968253968254,-0.5555555555555556,-321.8253968253968
-15.476190476190474,263.0952380952381,29.285714285714285,-66.58730158730158,-325.0,325.0,-325.0,325.0,-325.0,65.15873015873015,-14.523809523809524,-325.0,-55.15873015873016,325.0,-325.0,325.0,-325.0,325.0,-58.650793650793645,-325.0,-52.93650793650794,-3.253968253968254,-0.5555555555555556,-321.8253968253968
-20.07936507936508,257.53968253968253,325.0,-65.0,-325.0,325.0,-325.0,315.0,-325.0,63.57142857142857,-19.285714285714285,-325.0,-53.73015873015873,315.0,-325.0,319.6031746031746,-325.0,325.0,-57.38095238095238,-325.0,-51.82539682539682,4.0476190476190474,-2.619047619047619,-166.26984126984127
-20.07936507936508,257.53968253968253,325.0,-65.0,-325.0,325.0,-325.0,315.0,-325.0,63.57142857142857,-19.285714285714285,-325.0,-53.73015873015873,315.0,-325.0,319.6031746031746,-325.0,325.0,-57.38095238095238,-325.0,-51.82539682539682,4.0476190476190474,-2.619047619047619,-166.26984126984127
-17.698412698412696,254.36507936507934,325.0,-64.36507936507937,-325.0,325.0,-325.0,298.8095238095238,-325.0,62.93650793650793,-17.063492063492063,-325.0,-52.77777777777777,294.68253968253964,-325.0,307.06349206349205,-325.0,325.0,-56.74603174603174,-325.0,-50.87301587301587,-3.095238095238095,-0.07936507936507936,-166.26984126984127
-17.698412698412696,254.36507936507934,325.0,-64.36507936507937,-325.0,325.0,-325.0,298.8095238095238,-325.0,62.93650793650793,-17.063492063492063,-325.0,-52.77777777777777,294.68253968253964,-325.0,307.06349206349205,-325.0,325.0,-56.74603174603174,-325.0,-50.87301587301587,-3.095238095238095,-0.07936507936507936,-166.26984126984127
-14.047619047619047,239.76190476190476,325.0,-60.71428571428571,-325.0,325.0,-325.0,227.53968253968253,-325.0,59.12698412698413,-13.412698412698411,-325.0,-49.76190476190476,225.3174603174603,-325.0,236.74603174603175,-325.0,325.0,-53.73015873015873,-325.0,-48.01587301587301,0.5555555555555556,-0.7142857142857142,-166.26984126984127
-14.047619047619047,239.76190476190476,325.0,-60.71428571428571,-325.0,325.0,-325.0,227.53968253968253,-325.0,59.12698412698413,-13.412698412698411,-325.0,-49.76190476190476,225.3174603174603,-325.0,236.74603174603175,-325.0,325.0,-53.73015873015873,-325.0,-48.01587301587301,0.5555555555555556,-0.7142857142857142,-166.26984126984127
-10.873015873015872,231.66666666666666,325.0,-58.650793650793645,-325.0,325.0,-325.0,190.7142857142857,-325.0,56.74603174603174,-9.920634920634921,-325.0,-48.17460317460317,188.33333333333331,-325.0,199.76190476190476,-325.0,325.0,-51.666666666666664,-325.0,-46.269841269841265,-0.3968253968253968,-0.3968253968253968,-166.26984126984127
-10.873015873015872,231.66666666666666,325.0,-58.650793650793645,-325.0,325.0,-325.0,190.7142857142857,-325.0,56.74603174603174,-9.920634920634921,-325.0,-48.17460317460317,188.33333333333331,-325.0,199.76190476190476,-325.0,325.0,-51.666666666666664,-325.0,-46.269841269841265,-0.3968253968253968,-0.3968253968253968,-166.26984126984127
-12.777777777777777,222.93650793650792,325.0,-56.42857142857142,-325.0,325.0,-325.0,162.46031746031744,-325.0,54.841269841269835,-11.825396825396824,-318.968253968254,-46.269841269841265,160.7142857142857,-325.0,171.66666666666666,-325.0,318.8095238095238,-50.079365079365076,-325.0,-44.68253968253968,-3.253968253968254,1.6666666666666665,-166.26984126984127
-12.777777777777777,222.93650793650792,325.0,-56.42857142857142,-325.0,325.0,-325.0,162.46031746031744,-325.0,54.841269841269835,-11.825396825396824,-318.968253968254,-46.269841269841265,160.7142857142857,-325.0,171.66666666666666,-325.0,318.8095238095238,-50.079365079365076,-325.0,-44.68253968253968,-3.253968253968254,1.6666666666666665,-166.26984126984127
-7.063492063492063,211.03174603174602,325.0,-53.57142857142857,-325.0,325.0,-325.0,115.0,-325.0,51.666666666666664,-5.634920634920634,-302.1428571428571,-43.73015873015873,112.6190476190476,-325.0,123.09523809523809,-325.0,302.46031746031747,-47.22222222222222,-325.0,-42.14285714285714,-0.5555555555555556,-0.873015873015873,-321.8253968253968
-7.063492063492063,211.03174603174602,325.0,-53.57142857142857,-325.0,325.0,-325.0,115.0,-325.0,51.666666666666664,-5.634920634920634,-302.1428571428571,-43.73015873015873,112.6190476190476,-325.0,123.09523809523809,-325.0,302.46031746031747,-47.22222222222222,-325.0,-42.14285714285714,-0.5555555555555556,-0.873015873015873,-321.8253968253968
-7.063492063492063,200.3968253968254,325.0,-51.03174603174603,-325.0,325.0,-325.0,82.14285714285714,-325.0,48.96825396825397,-5.0,-287.22222222222223,-41.507936507936506,79.76190476190476,-325.0,89.76190476190476,-325.0,287.85714285714283,-45.0,-324.68253968253964,57.53968253968254,-0.873015873015873,-0.23809523809523808,-321.8253968253968
-7.063492063492063,200.3968253968254,325.0,-51.03174603174603,-325.0,325.0,-325.0,82.14285714285714,-325.0,48.96825396825397,-5.0,-287.22222222222223,-41.507936507936506,79.76190476190476,-325.0,89.76190476190476,-325.0,287.85714285714283,-45.0,-324.68253968253964,57.53968253968254,-0.873015873015873,-0.23809523809523808,-321.8253968253968
-6.111111111111111,196.11111111111111,325.0,-49.44444444444444,-321.3492063492063,325.0,-325.0,69.44444444444444,-325.0,47.857142857142854,-3.888888888888889,-281.3492063492063,-40.714285714285715,66.9047619047619,-325.0,77.38095238095238,-325.0,281.8253968253968,-44.047619047619044,-319.9206349206349,154.2063492063492,4.2063492063492065,-1.8253968253968254,-321.8253968253968
-6.111111111111111,196.11111111111111,325.0,-49.44444444444444,-321.3492063492063,325.0,-325.0,69.44444444444444,-325.0,47.857142857142854,-3.888888888888889,-281.3492063492063,-40.714285714285715,66.9047619047619,-325.0,77.38095238095238,-325.0,281.8253968253968,-44.047619047619044,-319.9206349206349,154.2063492063492,4.2063492063492065,-1.8253968253968254,-321.8253968253968
-13.73015873015873,190.55555555555554,325.0,-48.33333333333333,-312.46031746031747,325.0,-325.0,39.6031746031746,-325.0,46.58730158730158,-11.984126984126984,-273.25396825396825,-39.285714285714285,37.06349206349206,-325.0,46.42857142857142,-325.0,273.88888888888886,-42.93650793650794,-310.39682539682536,325.0,-1.1904761904761905,-0.5555555555555556,-321.8253968253968
-13.73015873015873,190.55555555555554,325.0,-48.33333333333333,-312.46031746031747,325.0,-325.0,39.6031746031746,-325.0,46.58730158730158,-11.984126984126984,-273.25396825396825,-39.285714285714285,37.06349206349206,-325.0,46.42857142857142,-325.0,273.88888888888886,-42.93650793650794,-310.39682539682536,325.0,-1.1904761904761905,-0.5555555555555556,-321.8253968253968
-5.634920634920634,182.46031746031744,325.0,-46.269841269841265,-300.23809523809524,325.0,-325.0,6.746031746031746,-325.0,44.52380952380952,-3.4126984126984126,-261.984126984127,2.142857142857143,4.365079365079365,-325.0,13.412698412698411,-325.0,262.77777777777777,-41.19047619047619,-297.53968253968253,325.0,-0.5555555555555556,-0.3968253968253968,-321.8253968253968
-5.634920634920634,182.46031746031744,325.0,-46.269841269841265,-300.23809523809524,325.0,-325.0,6.746031746031746,-325.0,44.52380952380952,-3.4126984126984126,-261.984126984127,2.142857142857143,4.365079365079365,-325.0,13.412698412698411,-325.0,262.77777777777777,-41.19047619047619,-297.53968253968253,325.0,-0.5555555555555556,-0.3968253968253968,-321.8253968253968
0.3968253968253968,167.38095238095238,325.0,-42.61904761904761,-277.22222222222223,325.0,-325.0,-59.285714285714285,-325.0,40.87301587301587,2.3015873015873014,-240.55555555555554,325.0,-62.93650793650793,-325.0,-54.841269841269835,-325.0,241.8253968253968,-38.17460317460317,-273.25396825396825,325.0,-8.809523809523808,3.73015873015873,-166.26984126984127
0.3968253968253968,167.38095238095238,325.0,-42.61904761904761,-277.22222222222223,325.0,-325.0,-59.285714285714285,-325.0,40.87301587301587,2.3015873015873014,-240.55555555555554,325.0,-62.93650793650793,-325.0,-54.841269841269835,-325.0,241.8253968253968,-38.17460317460317,-273.25396825396825,325.0,-8.809523809523808,3.73015873015873,-166.26984126984127
0.3968253968253968,167.38095238095238,325.0,-42.61904761904761,-277.22222222222223,325.0,-325.0,-59.285714285714285,-325.0,40.87301587301587,2.3015873015873014,-240.55555555555554,325.0,-62.93650793650793,-325.0,-54.841269841269835,-325.0,241.8253968253968,-38.17460317460317,-273.25396825396825,325.0,-8.809523809523808,3.73015873015873,-166.26984126984127
0.3968253968253968,167.38095238095238,325.0,-42.61904761904761,-277.22222222222223,325.0,-325.0,-59.285714285714285,-325.0,40.87301587301587,2.3015873015873014,-240.55555555555554,325.0,-62.93650793650793,-325.0,-54.841269841269835,-325.0,241.8253968253968,-38.17460317460317,-273.25396825396825,325.0,-8.809523809523808,3.73015873015873,-166.26984126984127
1.349206349206349,161.8253968253968,325.0,-41.34920634920635,-268.6507936507936,325.0,-325.0,-75.15873015873015,-325.0,39.44444444444444,3.73015873015873,-232.77777777777777,325.0,-78.01587301587301,-325.0,-70.87301587301587,-325.0,234.2063492063492,-36.904761904761905,-264.36507936507934,325.0,-9.285714285714285,3.253968253968254,-166.26984126984127
1.349206349206349,161.8253968253968,325.0,-41.34920634920635,-268.6507936507936,325.0,-325.0,-75.15873015873015,-325.0,39.44444444444444,3.73015873015873,-232.77777777777777,325.0,-78.01587301587301,-325.0,-70.87301587301587,-325.0,234.2063492063492,-36.904761904761905,-264.36507936507934,325.0,-9.285714285714285,3.253968253968254,-166.26984126984127
1.0317460317460316,155.0,325.0,-39.6031746031746,-258.015873015873,325.0,-325.0,-88.17460317460316,-325.0,37.53968253968254,3.888888888888889,-223.25396825396825,325.0,-89.92063492063491,-325.0,-83.57142857142857,-325.0,224.68253968253967,-35.317460317460316,-253.25396825396825,325.0,-1.0317460317460316,-0.873015873015873,-166.26984126984127
1.0317460317460316,155.0,325.0,-39.6031746031746,-258.015873015873,325.0,-325.0,-88.17460317460316,-325.0,37.53968253968254,3.888888888888889,-223.25396825396825,325.0,-89.92063492063491,-325.0,-83.57142857142857,-325.0,224.68253968253967,-35.317460317460316,-253.25396825396825,325.0,-1.0317460317460316,-0.873015873015873,-166.26984126984127
-4.0476190476190474,152.46031746031744,325.0,-39.12698412698413,-253.4126984126984,325.0,-325.0,-76.74603174603175,-325.0,37.06349206349206,-1.0317460317460316,-219.28571428571428,325.0,-79.44444444444444,-325.0,-72.77777777777777,-325.0,220.87301587301587,-34.682539682539684,-248.96825396825395,325.0,-1.984126984126984,-0.5555555555555556,-166.26984126984127
-4.0476190476190474,152.46031746031744,325.0,-39.12698412698413,-253.4126984126984,325.0,-325.0,-76.74603174603175,-325.0,37.06349206349206,-1.0317460317460316,-219.28571428571428,325.0,-79.44444444444444,-325.0,-72.77777777777777,-325.0,220.87301587301587,-34.682539682539684,-248.96825396825395,325.0,-1.984126984126984,-0.5555555555555556,-166.26984126984127
-1.349206349206349,149.12698412698413,325.0,-38.17460317460317,-248.8095238095238,325.0,-325.0,-83.25396825396825,-325.0,36.269841269841265,1.507936507936508,-215.0,325.0,-85.79365079365078,-325.0,-79.44444444444444,-325.0,216.26984126984127,-34.047619047619044,-243.7301587301587,325.0,4.0476190476190474,-2.142857142857143,-321.8253968253968
-1.349206349206349,149.12698412698413,325.0,-38.17460317460317,-248.8095238095238,325.0,-325.0,-83.25396825396825,-325.0,36.269841269841265,1.507936507936508,-215.0,325.0,-85.79365079365078,-325.0,-79.44444444444444,-325.0,216.26984126984127,-34.047619047619044,-243.7301587301587,325.0,4.0476190476190474,-2.142857142857143,-321.8253968253968
-2.142857142857143,144.2063492063492,325.0,-36.74603174603175,-240.87301587301587,325.0,-325.0,-91.66666666666666,-325.0,35.0,0.5555555555555556,-207.69841269841268,325.0,-93.88888888888889,-325.0,-88.17460317460316,-325.0,209.12698412698413,-32.93650793650794,-235.47619047619045,325.0,-4.523809523809524,0.873015873015873,-321.8253968253968
-2.142857142857143,144.2063492063492,325.0,-36.74603174603175,-240.87301587301587,325.0,-325.0,-91.66666666666666,-325.0,35.0,0.5555555555555556,-207.69841269841268,325.0,-93.88888888888889,-325.0,-88.17460317460316,-325.0,209.12698412698413,-32.93650793650794,-235.47619047619045,325.0,-4.523809523809524,0.873015873015873,-321.8253968253968
-2.619047619047619,139.28571428571428,325.0,-35.63492063492063,-233.09523809523807,325.0,-325.0,-94.52380952380952,-325.0,33.73015873015873,0.5555555555555556,-201.03174603174602,325.0,-96.74603174603175,-325.0,-91.66666666666666,-325.0,202.46031746031744,-31.98412698412698,-227.69841269841268,325.0,4.0476190476190474,-2.142857142857143,-321.8253968253968
-2.619047619047619,139.28571428571428,325.0,-35.63492063492063,-233.09523809523807,325.0,-325.0,-94.52380952380952,-325.0,33.73015873015873,0.5555555555555556,-201.03174603174602,325.0,-96.74603174603175,-325.0,-91.66666666666666,-325.0,202.46031746031744,-31.98412698412698,-227.69841269841268,325.0,4.0476190476190474,-2.142857142857143,-321.8253968253968
2.142857142857143,136.74603174603175,325.0,-34.84126984126984,-229.44444444444443,325.0,-325.0,-100.07936507936508,-324.68253968253964,33.25396825396825,4.841269841269841,-197.69841269841268,325.0,-103.4126984126984,-325.0,-98.01587301587301,-325.0,198.96825396825395,-31.349206349206348,-223.57142857142856,325.0,-4.682539682539682,1.0317460317460316,-321.8253968253968
2.142857142857143,136.74603174603175,325.0,-34.84126984126984,-229.44444444444443,325.0,-325.0,-100.07936507936508,-324.68253968253964,33.25396825396825,4.841269841269841,-197.69841269841268,325.0,-103.4126984126984,-325.0,-98.01587301587301,-325.0,198.96825396825395,-31.349206349206348,-223.57142857142856,325.0,-4.682539682539682,1.0317460317460316,-321.8253968253968
-3.73015873015873,133.25396825396825,325.0,-34.047619047619044,-223.88888888888889,325.0,-325.0,-95.47619047619047,-317.53968253968253,32.3015873015873,-1.0317460317460316,-192.46031746031744,325.0,-98.33333333333333,-325.0,-93.57142857142857,-325.0,194.2063492063492,-30.555555555555554,-218.17460317460316,325.0,2.9365079365079363,-2.7777777777777777,-321.8253968253968
-3.73015873015873,133.25396825396825,325.0,-34.047619047619044,-223.88888888888889,325.0,-325.0,-95.47619047619047,-317.53968253968253,32.3015873015873,-1.0317460317460316,-192.46031746031744,325.0,-98.33333333333333,-325.0,-93.57142857142857,-325.0,194.2063492063492,-30.555555555555554,-218.17460317460316,325.0,2.9365079365079363,-2.7777777777777777,-321.8253968253968
1.0317460317460316,127.6984126984127,325.0,-32.77777777777778,-215.0,325.0,-322.46031746031747,-100.55555555555554,-304.8412698412698,30.87301587301587,3.571428571428571,-184.68253968253967,325.0,-103.88888888888889,-325.0,-99.28571428571428,-325.0,186.11111111111111,-29.444444444444443,-208.96825396825395,325.0,-4.365079365079365,1.507936507936508,-166.26984126984127
1.0317460317460316,127.6984126984127,325.0,-32.77777777777778,-215.0,325.0,-322.46031746031747,-100.55555555555554,-304.8412698412698,30.87301587301587,3.571428571428571,-184.68253968253967,325.0,-103.88888888888889,-325.0,-99.28571428571428,-325.0,186.11111111111111,-29.444444444444443,-208.96825396825395,325.0,-4.365079365079365,1.507936507936508,-166.26984126984127
6.26984126984127,125.63492063492063,325.0,-32.14285714285714,-211.5079365079365,325.0,-317.22222222222223,-106.74603174603175,-299.9206349206349,30.396825396825395,9.126984126984127,-181.66666666666666,325.0,-109.28571428571428,-325.0,-105.63492063492063,-325.0,183.09523809523807,-28.809523809523807,-205.15873015873015,325.0,4.365079365079365,-2.142857142857143,-166.26984126984127
6.26984126984127,125.63492063492063,325.0,-32.14285714285714,-211.5079365079365,325.0,-317.22222222222223,-106.74603174603175,-299.9206349206349,30.396825396825395,9.126984126984127,-181.66666666666666,325.0,-109.28571428571428,-325.0,-105.63492063492063,-325.0,183.09523809523807,-28.809523809523807,-205.15873015873015,325.0,4.365079365079365,-2.142857142857143,-166.26984126984127
1.349206349206349,123.4126984126984,325.0,-31.507936507936506,-208.17460317460316,325.0,-311.8253968253968,-104.52380952380952,-295.1587301587301,30.07936507936508,4.0476190476190474,-178.65079365079364,325.0,-107.22222222222221,-322.77777777777777,-103.09523809523809,-325.0,180.23809523809524,-28.49206349206349,-201.8253968253968,325.0,-4.841269841269841,0.873015873015873,-166.26984126984127
1.349206349206349,123.4126984126984,325.0,-31.507936507936506,-208.17460317460316,325.0,-311.8253968253968,-104.52380952380952,-295.1587301587301,30.07936507936508,4.0476190476190474,-178.65079365079364,325.0,-107.22222222222221,-322.77777777777777,-103.09523809523809,-325.0,180.23809523809524,-28.49206349206349,-201.8253968253968,325.0,-4.841269841269841,0.873015873015873,-166.26984126984127
-2.46031746031746,121.19047619047619,325.0,-31.19047619047619,-204.68253968253967,324.5238095238095,-306.90476190476187,-98.96825396825396,-290.23809523809524,29.444444444444443,1.1904761904761905,-175.47619047619045,325.0,-101.66666666666666,-317.69841269841265,-98.01587301587301,-325.0,177.2222222222222,-28.015873015873016,-198.4920634920635,325.0,3.4126984126984126,-1.984126984126984,-166.26984126984127
-2.46031746031746,121.19047619047619,325.0,-31.19047619047619,-204.68253968253967,324.5238095238095,-306.90476190476187,-98.96825396825396,-290.23809523809524,29.444444444444443,1.1904761904761905,-175.47619047619045,325.0,-101.66666666666666,-317.69841269841265,-98.01587301587301,-325.0,177.2222222222222,-28.015873015873016,-198.4920634920635,325.0,3.4126984126984126,-1.984126984126984,-166.26984126984127
7.222222222222221,119.76190476190476,325.0,-30.87301587301587,-202.46031746031744,321.3492063492063,-302.9365079365079,-111.03174603174602,-286.58730158730157,28.96825396825397,10.714285714285714,-173.25396825396825,325.0,-114.52380952380952,-313.88888888888886,-110.87301587301587,-322.46031746031747,174.68253968253967,-27.539682539682538,-196.11111111111111,325.0,-1.6666666666666665,-1.1904761904761905,-166.26984126984127
7.222222222222221,119.76190476190476,325.0,-30.87301587301587,-202.46031746031744,321.3492063492063,-302.9365079365079,-111.03174603174602,-286.58730158730157,28.96825396825397,10.714285714285714,-173.25396825396825,325.0,-114.52380952380952,-313.88888888888886,-110.87301587301587,-322.46031746031747,174.68253968253967,-27.539682539682538,-196.11111111111111,325.0,-1.6666666666666665,-1.1904761904761905,-166.26984126984127
7.857142857142857,118.33333333333333,325.0,-25.634920634920633,-200.07936507936506,317.38095238095235,-299.2857142857143,-108.33333333333333,-283.25396825396825,28.49206349206349,11.666666666666666,-171.19047619047618,325.0,-111.82539682539682,-310.23809523809524,-108.33333333333333,-318.4920634920635,172.61904761904762,-27.22222222222222,-193.57142857142856,325.0,2.7777777777777777,-2.7777777777777777,-321.8253968253968
7.857142857142857,118.33333333333333,325.0,-25.634920634920633,-200.07936507936506,317.38095238095235,-299.2857142857143,-108.33333333333333,-283.25396825396825,28.49206349206349,11.666666666666666,-171.19047619047618,325.0,-111.82539682539682,-310.23809523809524,-108.33333333333333,-318.4920634920635,172.61904761904762,-27.22222222222222,-193.57142857142856,325.0,2.7777777777777777,-2.7777777777777777,-321.8253968253968
5.0,115.15873015873015,325.0,-28.333333333333332,-195.3174603174603,309.6031746031746,-291.8253968253968,-106.58730158730158,-276.58730158730157,28.015873015873016,8.968253968253968,-166.74603174603175,325.0,-110.07936507936508,-302.6190476190476,-106.74603174603175,-310.23809523809524,168.4920634920635,-26.746031746031743,-188.65079365079364,325.0,-4.365079365079365,1.349206349206349,-321.8253968253968
5.0,115.15873015873015,325.0,-28.333333333333332,-195.3174603174603,309.6031746031746,-291.8253968253968,-106.58730158730158,-276.58730158730157,28.015873015873016,8.968253968253968,-166.74603174603175,325.0,-110.07936507936508,-302.6190476190476,-106.74603174603175,-310.23809523809524,168.4920634920635,-26.746031746031743,-188.65079365079364,325.0,-4.365079365079365,1.349206349206349,-321.8253968253968
-1.0317460317460316,112.93650793650794,325.0,29.6031746031746,-191.98412698412696,304.5238095238095,-287.06349206349205,-95.15873015873015,-271.984126984127,27.539682539682538,2.9365079365079363,-164.04761904761904,325.0,-98.96825396825396,-298.015873015873,-95.95238095238095,-305.3174603174603,165.63492063492063,-23.095238095238095,-185.3174603174603,325.0,4.523809523809524,-1.6666666666666665,-321.8253968253968
-1.0317460317460316,112.93650793650794,325.0,29.6031746031746,-191.98412698412696,304.5238095238095,-287.06349206349205,-95.15873015873015,-271.984126984127,27.539682539682538,2.9365079365079363,-164.04761904761904,325.0,-98.96825396825396,-298.015873015873,-95.95238095238095,-305.3174603174603,165.63492063492063,-23.095238095238095,-185.3174603174603,325.0,4.523809523809524,-1.6666666666666665,-321.8253968253968
-2.7777777777777777,111.19047619047619,325.0,-13.73015873015873,-189.12698412698413,299.4444444444444,-282.46031746031747,-99.92063492063491,-267.53968253968253,27.063492063492063,0.873015873015873,-161.5079365079365,325.0,-103.73015873015872,-292.9365079365079,-100.87301587301587,-300.39682539682536,162.93650793650792,-14.047619047619047,-182.3015873015873,325.0,-4.365079365079365,0.873015873015873,-321.8253968253968
-2.7777777777777777,111.19047619047619,325.0,-13.73015873015873,-189.12698412698413,299.4444444444444,-282.46031746031747,-99.92063492063491,-267.53968253968253,27.063492063492063,0.873015873015873,-161.5079365079365,325.0,-103.73015873015872,-292.9365079365079,-100.87301587301587,-300.39682539682536,162.93650793650792,-14.047619047619047,-182.3015873015873,325.0,-4.365079365079365,0.873015873015873,-321.8253968253968
5.634920634920634,109.28571428571428,325.0,74.36507936507937,-185.95238095238093,294.36507936507934,-277.6984126984127,-97.22222222222221,-263.25396825396825,26.26984126984127,9.285714285714285,-158.65079365079364,325.0,-101.5079365079365,-288.17460317460313,-98.96825396825396,-295.3174603174603,160.23809523809524,-5.0,-179.28571428571428,325.0,4.0476190476190474,-1.507936507936508,-321.8253968253968
5.634920634920634,109.28571428571428,325.0,74.36507936507937,-185.95238095238093,294.36507936507934,-277.6984126984127,-97.22222222222221,-263.25396825396825,26.26984126984127,9.285714285714285,-158.65079365079364,325.0,-101.5079365079365,-288.17460317460313,-98.96825396825396,-295.3174603174603,160.23809523809524,-5.0,-179.28571428571428,325.0,4.0476190476190474,-1.507936507936508,-321.8253968253968
9.285714285714285,106.9047619047619,325.0,29.444444444444443,-182.3015873015873,288.4920634920635,-272.1428571428571,-104.04761904761904,-258.015873015873,26.11111111111111,12.936507936507935,-155.3174603174603,325.0,-108.01587301587301,-282.46031746031747,-105.47619047619047,-289.2857142857143,156.9047619047619,5.476190476190476,-175.47619047619045,325.0,-0.3968253968253968,0.873015873015873,-166.26984126984127
9.285714285714285,106.9047619047619,325.0,29.444444444444443,-182.3015873015873,288.4920634920635,-272.1428571428571,-104.04761904761904,-258.015873015873,26.11111111111111,12.936507936507935,-155.3174603174603,325.0,-108.01587301587301,-282.46031746031747,-105.47619047619047,-289.2857142857143,156.9047619047619,5.476190476190476,-175.47619047619045,325.0,-0.3968253968253968,0.873015873015873,-166.26984126984127
9.126984126984127,103.88888888888889,325.0,107.38095238095238,-177.2222222222222,280.07936507936506,-264.36507936507934,-98.96825396825396,-250.55555555555554,25.158730158730158,12.3015873015873,-151.03174603174602,325.0,-103.4126984126984,-274.68253968253964,-101.66666666666666,-280.7142857142857,152.3015873015873,19.6031746031746,-170.07936507936506,325.0,-5.0,1.0317460317460316,-166.26984126984127
9.126984126984127,103.88888888888889,325.0,107.38095238095238,-177.2222222222222,280.07936507936506,-264.36507936507934,-98.96825396825396,-250.55555555555554,25.158730158730158,12.3015873015873,-151.03174603174602,325.0,-103.4126984126984,-274.68253968253964,-101.66666666666666,-280.7142857142857,152.3015873015873,19.6031746031746,-170.07936507936506,325.0,-5.0,1.0317460317460316,-166.26984126984127
1.984126984126984,102.14285714285714,325.0,181.8253968253968,-174.52380952380952,275.4761904761905,-259.76190476190476,-100.23809523809523,-246.42857142857142,24.523809523809522,5.0,-148.17460317460316,325.0,-104.84126984126983,-270.23809523809524,-102.30158730158729,-276.26984126984127,149.76190476190476,27.38095238095238,-167.38095238095238,325.0,4.365079365079365,-1.6666666666666665,-166.26984126984127
1.984126984126984,102.14285714285714,325.0,181.8253968253968,-174.52380952380952,275.4761904761905,-259.76190476190476,-100.23809523809523,-246.42857142857142,24.523809523809522,5.0,-148.17460317460316,325.0,-104.84126984126983,-270.23809523809524,-102.30158730158729,-276.26984126984127,149.76190476190476,27.38095238095238,-167.38095238095238,325.0,4.365079365079365,-1.6666666666666665,-166.26984126984127
-4.523809523809524,100.71428571428571,325.0,240.2380952380952,-172.3015873015873,271.984126984127,-256.4285714285714,-75.63492063492063,-243.57142857142856,24.523809523809522,-1.8253968253968254,-146.11111111111111,325.0,-77.22222222222221,-266.74603174603175,-77.22222222222221,-272.6190476190476,148.17460317460316,33.41269841269841,-165.15873015873015,325.0,-1.1904761904761905,-1.1904761904761905,-166.26984126984127
-4.523809523809524,100.71428571428571,325.0,240.2380952380952,-172.3015873015873,271.984126984127,-256.4285714285714,-75.63492063492063,-243.57142857142856,24.523809523809522,-1.8253968253968254,-146.11111111111111,325.0,-77.22222222222221,-266.74603174603175,-77.22222222222221,-272.6190476190476,148.17460317460316,33.41269841269841,-165.15873015873015,325.0,-1.1904761904761905,-1.1904761904761905,-166.26984126984127
3.253968253968254,98.49206349206348,324.68253968253964,216.26984126984127,-168.65079365079364,266.4285714285714,-251.34920634920633,-100.87301587301587,-238.49206349206347,24.047619047619047,6.26984126984127,-143.25396825396825,325.0,-106.42857142857142,-261.8253968253968,-103.88888888888889,-267.06349206349205,144.84126984126982,41.666666666666664,-161.66666666666666,325.0,4.2063492063492065,-1.6666666666666665,-166.26984126984127
3.253968253968254,98.49206349206348,324.68253968253964,216.26984126984127,-168.65079365079364,266.4285714285714,-251.34920634920633,-100.87301587301587,-238.49206349206347,24.047619047619047,6.26984126984127,-143.25396825396825,325.0,-106.42857142857142,-261.8253968253968,-103.88888888888889,-267.06349206349205,144.84126984126982,41.666666666666664,-161.66666666666666,325.0,4.2063492063492065,-1.6666666666666665,-166.26984126984127
-5.476190476190476,96.9047619047619,320.23809523809524,303.0952380952381,-165.95238095238093,262.1428571428571,-247.38095238095238,-76.74603174603175,-234.52380952380952,23.41269841269841,-2.619047619047619,-140.87301587301587,325.0,-81.03174603174602,-257.38095238095235,-79.92063492063491,-262.6190476190476,142.46031746031744,49.12698412698413,-158.96825396825395,325.0,-4.682539682539682,0.7142857142857142,-321.8253968253968
-5.476190476190476,96.9047619047619,320.23809523809524,303.0952380952381,-165.95238095238093,262.1428571428571,-247.38095238095238,-76.74603174603175,-234.52380952380952,23.41269841269841,-2.619047619047619,-140.87301587301587,325.0,-81.03174603174602,-257.38095238095235,-79.92063492063491,-262.6190476190476,142.46031746031744,49.12698412698413,-158.96825396825395,325.0,-4.682539682539682,0.7142857142857142,-321.8253968253968
-1.8253968253968254,95.15873015873015,314.8412698412698,241.66666666666666,-163.57142857142856,257.6984126984127,-243.09523809523807,-92.14285714285714,-230.7142857142857,23.095238095238095,0.5555555555555556,-138.33333333333331,325.0,-98.01587301587301,-253.25396825396825,-95.95238095238095,-258.17460317460313,139.9206349206349,55.15873015873016,-156.26984126984127,325.0,4.682539682539682,-1.8253968253968254,-321.8253968253968
-1.8253968253968254,95.15873015873015,314.8412698412698,241.66666666666666,-163.57142857142856,257.6984126984127,-243.09523809523807,-92.14285714285714,-230.7142857142857,23.095238095238095,0.5555555555555556,-138.33333333333331,325.0,-98.01587301587301,-253.25396825396825,-95.95238095238095,-258.17460317460313,139.9206349206349,55.15873015873016,-156.26984126984127,325.0,4.682539682539682,-1.8253968253968254,-321.8253968253968
3.73015873015873,89.28571428571428,67.22222222222221,314.8412698412698,-154.04761904761904,242.46031746031744,-228.8095238095238,-100.23809523809523,-217.2222222222222,21.666666666666664,-156.74603174603175,-140.23809523809524,152.3015873015873,-105.79365079365078,-238.65079365079364,-104.2063492063492,-242.93650793650792,131.66666666666666,75.79365079365078,-146.9047619047619,325.0,0.23809523809523808,-0.07936507936507936,-321.8253968253968
3.73015873015873,89.28571428571428,67.22222222222221,314.8412698412698,-154.04761904761904,242.46031746031744,-228.8095238095238,-100.23809523809523,-217.2222222222222,21.666666666666664,-156.74603174603175,-140.23809523809524,152.3015873015873,-105.79365079365078,-238.65079365079364,-104.2063492063492,-242.93650793650792,131.66666666666666,75.79365079365078,-146.9047619047619,325.0,0.23809523809523808,-0.07936507936507936,-321.8253968253968
9.761904761904761,83.25396825396825,91.34920634920634,318.6507936507936,-144.04761904761904,226.58730158730157,-213.25396825396825,-48.96825396825397,-203.09523809523807,20.396825396825395,11.349206349206348,-121.19047619047619,325.0,-55.317460317460316,-223.25396825396825,-52.14285714285714,-226.42857142857142,122.77777777777777,98.65079365079364,-136.58730158730157,325.0,2.7777777777777777,0.7142857142857142,-321.8253968253968
9.761904761904761,83.25396825396825,91.34920634920634,318.6507936507936,-144.04761904761904,226.58730158730157,-213.25396825396825,-48.96825396825397,-203.09523809523807,20.396825396825395,11.349206349206348,-121.19047619047619,325.0,-55.317460317460316,-223.25396825396825,-52.14285714285714,-226.42857142857142,122.77777777777777,98.65079365079364,-136.58730158730157,325.0,2.7777777777777777,0.7142857142857142,-321.8253968253968
9.761904761904761,81.5079365079365,196.58730158730157,325.0,-141.03174603174602,221.66666666666666,-209.28571428571428,-73.73015873015872,-198.96825396825395,15.793650793650793,11.507936507936508,-118.96825396825396,325.0,-81.5079365079365,-218.96825396825395,-78.80952380952381,-221.8253968253968,120.39682539682539,103.4126984126984,-133.88888888888889,325.0,-4.365079365079365,2.142857142857143,-321.8253968253968
9.761904761904761,81.5079365079365,196.58730158730157,325.0,-141.03174603174602,221.66666666666666,-209.28571428571428,-73.73015873015872,-198.96825396825395,15.793650793650793,11.507936507936508,-118.96825396825396,325.0,-81.5079365079365,-218.96825396825395,-78.80952380952381,-221.8253968253968,120.39682539682539,103.4126984126984,-133.88888888888889,325.0,-4.365079365079365,2.142857142857143,-321.8253968253968
9.603174603174603,80.55555555555556,181.19047619047618,325.0,-139.44444444444443,218.8095238095238,-206.58730158730157,-78.17460317460316,-196.42857142857142,8.65079365079365,11.349206349206348,-117.38095238095238,325.0,-82.14285714285714,-216.1111111111111,-82.3015873015873,-218.96825396825395,118.8095238095238,106.42857142857142,-131.984126984127,325.0,-0.23809523809523808,-0.3968253968253968,-166.26984126984127
9.603174603174603,80.55555555555556,181.19047619047618,325.0,-139.44444444444443,218.8095238095238,-206.58730158730157,-78.17460317460316,-196.42857142857142,8.65079365079365,11.349206349206348,-117.38095238095238,325.0,-82.14285714285714,-216.1111111111111,-82.3015873015873,-218.96825396825395,118.8095238095238,106.42857142857142,-131.984126984127,325.0,-0.23809523809523808,-0.3968253968253968,-166.26984126984127
7.3809523809523805,78.65079365079364,274.5238095238095,325.0,-136.74603174603175,214.36507936507937,-202.3015873015873,-79.92063492063491,-192.77777777777777,-3.095238095238095,9.444444444444445,-114.84126984126983,325.0,-89.92063492063491,-211.98412698412696,-87.38095238095238,-214.68253968253967,116.42857142857142,131.5079365079365,-129.44444444444443,325.0,-5.317460317460317,1.6666666666666665,-166.26984126984127
7.3809523809523805,78.65079365079364,274.5238095238095,325.0,-136.74603174603175,214.36507936507937,-202.3015873015873,-79.92063492063491,-192.77777777777777,-3.095238095238095,9.444444444444445,-114.84126984126983,325.0,-89.92063492063491,-211.98412698412696,-87.38095238095238,-214.68253968253967,116.42857142857142,131.5079365079365,-129.44444444444443,325.0,-5.317460317460317,1.6666666666666665,-166.26984126984127
10.238095238095237,77.22222222222221,264.68253968253964,325.0,-134.36507936507937,210.87301587301587,-198.8095238095238,-90.87301587301587,-189.44444444444443,-11.666666666666666,12.619047619047619,-112.93650793650794,325.0,-92.93650793650794,-208.4920634920635,-94.68253968253968,-211.03174603174602,114.36507936507935,133.4126984126984,-127.06349206349206,325.0,3.888888888888889,-2.142857142857143,-166.26984126984127
10.238095238095237,77.22222222222221,264.68253968253964,325.0,-134.36507936507937,210.87301587301587,-198.8095238095238,-90.87301587301587,-189.44444444444443,-11.666666666666666,12.619047619047619,-112.93650793650794,325.0,-92.93650793650794,-208.4920634920635,-94.68253968253968,-211.03174603174602,114.36507936507935,133.4126984126984,-127.06349206349206,325.0,3.888888888888889,-2.142857142857143,-166.26984126984127
14.84126984126984,75.95238095238095,258.4920634920635,325.0,-132.3015873015873,207.38095238095238,-195.79365079365078,-89.76190476190476,-186.26984126984127,-20.07936507936508,16.428571428571427,-111.03174603174602,325.0,-98.17460317460316,-205.0,-95.95238095238095,-207.53968253968253,112.46031746031746,241.98412698412696,-125.15873015873015,325.0,-5.634920634920634,1.8253968253968254,-166.26984126984127
14.84126984126984,75.95238095238095,258.4920634920635,325.0,-132.3015873015873,207.38095238095238,-195.79365079365078,-89.76190476190476,-186.26984126984127,-20.07936507936508,16.428571428571427,-111.03174603174602,325.0,-98.17460317460316,-205.0,-95.95238095238095,-207.53968253968253,112.46031746031746,241.98412698412696,-125.15873015873015,325.0,-5.634920634920634,1.8253968253968254,-166.26984126984127
10.555555555555555,74.68253968253968,253.7301587301587,325.0,-130.23809523809524,203.7301587301587,-192.61904761904762,-86.58730158730158,-183.25396825396825,-28.49206349206349,12.3015873015873,-108.96825396825396,325.0,-89.12698412698413,-201.66666666666666,-90.87301587301587,-203.88888888888889,110.55555555555554,245.47619047619045,-122.93650793650794,325.0,4.2063492063492065,-1.984126984126984,-166.26984126984127
10.555555555555555,74.68253968253968,253.7301587301587,325.0,-130.23809523809524,203.7301587301587,-192.61904761904762,-86.58730158730158,-183.25396825396825,-28.49206349206349,12.3015873015873,-108.96825396825396,325.0,-89.12698412698413,-201.66666666666666,-90.87301587301587,-203.88888888888889,110.55555555555554,245.47619047619045,-122.93650793650794,325.0,4.2063492063492065,-1.984126984126984,-166.26984126984127
9.920634920634921,74.52380952380952,253.7301587301587,325.0,-129.6031746031746,202.93650793650792,-191.66666666666666,-94.52380952380952,-182.46031746031744,-30.555555555555554,11.349206349206348,-108.49206349206348,325.0,-95.31746031746032,-200.7142857142857,-98.65079365079364,-203.09523809523807,110.07936507936508,232.6190476190476,-122.46031746031746,325.0,5.952380952380952,-4.841269841269841,-321.8253968253968
9.920634920634921,74.52380952380952,253.7301587301587,325.0,-129.6031746031746,202.93650793650792,-191.66666666666666,-94.52380952380952,-182.46031746031744,-30.555555555555554,11.349206349206348,-108.49206349206348,325.0,-95.31746031746032,-200.7142857142857,-98.65079365079364,-203.09523809523807,110.07936507936508,232.6190476190476,-122.46031746031746,325.0,5.952380952380952,-4.841269841269841,-321.8253968253968
9.920634920634921,74.52380952380952,253.7301587301587,325.0,-129.6031746031746,202.93650793650792,-191.66666666666666,-94.52380952380952,-182.46031746031744,-30.555555555555554,11.349206349206348,-108.49206349206348,325.0,-95.31746031746032,-200.7142857142857,-98.65079365079364,-203.09523809523807,110.07936507936508,232.6190476190476,-122.46031746031746,325.0,5.952380952380952,-4.841269841269841,-321.8253968253968
9.920634920634921,74.52380952380952,253.7301587301587,325.0,-129.6031746031746,202.93650793650792,-191.66666666666666,-94.52380952380952,-182.46031746031744,-30.555555555555554,11.349206349206348,-108.49206349206348,325.0,-95.31746031746032,-200.7142857142857,-98.65079365079364,-203.09523809523807,110.07936507936508,232.6190476190476,-122.46031746031746,325.0,5.952380952380952,-4.841269841269841,-321.8253968253968
10.396825396825395,72.61904761904762,247.53968253968253,325.0,-126.58730158730158,198.015873015873,-187.06349206349205,-98.33333333333333,-178.015873015873,-41.82539682539682,11.825396825396824,-105.95238095238095,325.0,-102.30158730158729,-196.11111111111111,-102.77777777777777,-198.17460317460316,107.22222222222221,278.8095238095238,-119.28571428571428,317.53968253968253,-0.23809523809523808,-0.873015873015873,-321.8253968253968
10.396825396825395,72.61904761904762,247.53968253968253,325.0,-126.58730158730158,198.015873015873,-187.06349206349205,-98.33333333333333,-178.015873015873,-41.82539682539682,11.825396825396824,-105.95238095238095,325.0,-102.30158730158729,-196.11111111111111,-102.77777777777777,-198.17460317460316,107.22222222222221,278.8095238095238,-119.28571428571428,317.53968253968253,-0.23809523809523808,-0.873015873015873,-321.8253968253968
13.571428571428571,69.6031746031746,238.33333333333331,325.0,-121.98412698412697,190.7142857142857,-180.07936507936506,-88.80952380952381,-171.5079365079365,-57.857142857142854,15.158730158730158,-101.98412698412697,325.0,-91.5079365079365,-188.96825396825395,-93.57142857142857,-190.7142857142857,103.25396825396825,325.0,-114.68253968253967,306.1111111111111,4.365079365079365,-2.7777777777777777,-321.8253968253968
13.571428571428571,69.6031746031746,238.33333333333331,325.0,-121.98412698412697,190.7142857142857,-180.07936507936506,-88.80952380952381,-171.5079365079365,-57.857142857142854,15.158730158730158,-101.98412698412697,325.0,-91.5079365079365,-188.96825396825395,-93.57142857142857,-190.7142857142857,103.25396825396825,325.0,-114.68253968253967,306.1111111111111,4.365079365079365,-2.7777777777777777,-321.8253968253968
15.158730158730158,68.65079365079364,235.15873015873015,325.0,-120.55555555555554,188.17460317460316,-177.85714285714286,-90.07936507936508,-169.28571428571428,-63.095238095238095,16.428571428571427,-100.71428571428571,325.0,-98.17460317460316,-186.74603174603175,-97.38095238095238,-188.33333333333331,102.14285714285714,325.0,-113.57142857142857,302.3015873015873,-3.4126984126984126,-1.0317460317460316,-321.8253968253968
15.158730158730158,68.65079365079364,235.15873015873015,325.0,-120.55555555555554,188.17460317460316,-177.85714285714286,-90.07936507936508,-169.28571428571428,-63.095238095238095,16.428571428571427,-100.71428571428571,325.0,-98.17460317460316,-186.74603174603175,-97.38095238095238,-188.33333333333331,102.14285714285714,325.0,-113.57142857142857,302.3015873015873,-3.4126984126984126,-1.0317460317460316,-321.8253968253968
8.492063492063492,67.85714285714285,232.14285714285714,325.0,-119.12698412698413,185.79365079365078,-175.63492063492063,-77.53968253968253,-167.38095238095238,-68.17460317460318,9.603174603174603,-99.44444444444444,325.0,-82.14285714285714,-184.52380952380952,-83.09523809523809,-185.95238095238093,100.87301587301587,325.0,-111.98412698412697,298.3333333333333,0.873015873015873,-2.7777777777777777,-166.26984126984127
8.492063492063492,67.85714285714285,232.14285714285714,325.0,-119.12698412698413,185.79365079365078,-175.63492063492063,-77.53968253968253,-167.38095238095238,-68.17460317460318,9.603174603174603,-99.44444444444444,325.0,-82.14285714285714,-184.52380952380952,-83.09523809523809,-185.95238095238093,100.87301587301587,325.0,-111.98412698412697,298.3333333333333,0.873015873015873,-2.7777777777777777,-166.26984126984127
1.984126984126984,67.06349206349206,229.12698412698413,325.0,-117.6984126984127,183.57142857142856,-173.4126984126984,-64.84126984126983,-165.3174603174603,-73.09523809523809,2.7777777777777777,-98.01587301587301,325.0,-66.11111111111111,-182.3015873015873,-68.80952380952381,-183.57142857142856,99.6031746031746,325.0,-110.39682539682539,294.5238095238095,5.317460317460317,-4.365079365079365,-166.26984126984127
1.984126984126984,67.06349206349206,229.12698412698413,325.0,-117.6984126984127,183.57142857142856,-173.4126984126984,-64.84126984126983,-165.3174603174603,-73.09523809523809,2.7777777777777777,-98.01587301587301,325.0,-66.11111111111111,-182.3015873015873,-68.80952380952381,-183.57142857142856,99.6031746031746,325.0,-110.39682539682539,294.5238095238095,5.317460317460317,-4.365079365079365,-166.26984126984127
-1.349206349206349,63.888888888888886,218.17460317460316,325.0,-112.46031746031746,175.15873015873015,-165.47619047619045,-53.095238095238095,-158.015873015873,-88.96825396825396,-1.6666666666666665,-93.73015873015872,325.0,-61.19047619047619,-174.52380952380952,-59.44444444444444,-175.3174603174603,94.84126984126983,325.0,-105.47619047619047,281.031746031746,-5.158730158730158,1.349206349206349,-166.26984126984127
-1.349206349206349,63.888888888888886,218.17460317460316,325.0,-112.46031746031746,175.15873015873015,-165.47619047619045,-53.095238095238095,-158.015873015873,-88.96825396825396,-1.6666666666666665,-93.73015873015872,325.0,-61.19047619047619,-174.52380952380952,-59.44444444444444,-175.3174603174603,94.84126984126983,325.0,-105.47619047619047,281.031746031746,-5.158730158730158,1.349206349206349,-166.26984126984127
4.682539682539682,62.93650793650793,214.52380952380952,325.0,-110.71428571428571,172.3015873015873,-162.61904761904762,-60.873015873015866,-155.3174603174603,-94.2063492063492,4.365079365079365,-91.98412698412697,325.0,-63.25396825396825,-171.5079365079365,-65.63492063492063,-172.3015873015873,93.25396825396825,325.0,-103.4126984126984,275.95238095238096,4.841269841269841,-2.3015873015873014,-166.26984126984127
4.682539682539682,62.93650793650793,214.52380952380952,325.0,-110.71428571428571,172.3015873015873,-162.61904761904762,-60.873015873015866,-155.3174603174603,-94.2063492063492,4.365079365079365,-91.98412698412697,325.0,-63.25396825396825,-171.5079365079365,-65.63492063492063,-172.3015873015873,93.25396825396825,325.0,-103.4126984126984,275.95238095238096,4.841269841269841,-2.3015873015873014,-166.26984126984127
5.634920634920634,61.666666666666664,210.7142857142857,325.0,-108.80952380952381,169.44444444444443,-160.07936507936506,-71.03174603174602,-152.77777777777777,-99.28571428571428,5.476190476190476,-90.55555555555556,325.0,-78.33333333333333,-168.8095238095238,-76.58730158730158,-169.60317460317458,91.66666666666666,325.0,-101.66666666666666,271.3492063492063,-5.634920634920634,1.1904761904761905,-166.26984126984127
5.634920634920634,61.666666666666664,210.7142857142857,325.0,-108.80952380952381,169.44444444444443,-160.07936507936506,-71.03174603174602,-152.77777777777777,-99.28571428571428,5.476190476190476,-90.55555555555556,325.0,-78.33333333333333,-168.8095238095238,-76.58730158730158,-169.60317460317458,91.66666666666666,325.0,-101.66666666666666,271.3492063492063,-5.634920634920634,1.1904761904761905,-166.26984126984127
5.317460317460317,60.55555555555555,207.2222222222222,325.0,-107.06349206349206,166.74603174603175,-157.38095238095238,-66.42857142857143,-150.3968253968254,-104.2063492063492,5.317460317460317,-89.12698412698413,325.0,-68.80952380952381,-165.95238095238093,-71.34920634920634,-166.74603174603175,90.07936507936508,325.0,-100.23809523809523,266.74603174603175,5.7936507936507935,-3.4126984126984126,-321.8253968253968
5.317460317460317,60.55555555555555,207.2222222222222,325.0,-107.06349206349206,166.74603174603175,-157.38095238095238,-66.42857142857143,-150.3968253968254,-104.2063492063492,5.317460317460317,-89.12698412698413,325.0,-68.80952380952381,-165.95238095238093,-71.34920634920634,-166.74603174603175,90.07936507936508,325.0,-100.23809523809523,266.74603174603175,5.7936507936507935,-3.4126984126984126,-321.8253968253968
5.952380952380952,59.6031746031746,203.25396825396825,325.0,-105.47619047619047,163.88888888888889,-154.84126984126982,-70.23809523809524,-147.69841269841268,-108.96825396825396,5.476190476190476,-87.53968253968253,325.0,-76.74603174603175,-163.25396825396825,-75.0,-163.88888888888889,88.65079365079364,325.0,-98.33333333333333,261.984126984127,-5.476190476190476,2.46031746031746,-321.8253968253968
5.952380952380952,59.6031746031746,203.25396825396825,325.0,-105.47619047619047,163.88888888888889,-154.84126984126982,-70.23809523809524,-147.69841269841268,-108.96825396825396,5.476190476190476,-87.53968253968253,325.0,-76.74603174603175,-163.25396825396825,-75.0,-163.88888888888889,88.65079365079364,325.0,-98.33333333333333,261.984126984127,-5.476190476190476,2.46031746031746,-321.8253968253968
5.0,58.650793650793645,199.9206349206349,325.0,-103.57142857142857,161.19047619047618,-152.46031746031744,-61.19047619047619,-145.3174603174603,-113.4126984126984,5.0,-86.1111111111111,325.0,-63.25396825396825,-160.55555555555554,-65.79365079365078,-161.34920634920633,87.22222222222221,325.0,-96.74603174603175,257.6984126984127,4.2063492063492065,-1.8253968253968254,-321.8253968253968
5.0,58.650793650793645,199.9206349206349,325.0,-103.57142857142857,161.19047619047618,-152.46031746031744,-61.19047619047619,-145.3174603174603,-113.4126984126984,5.0,-86.1111111111111,325.0,-63.25396825396825,-160.55555555555554,-65.79365079365078,-161.34920634920633,87.22222222222221,325.0,-96.74603174603175,257.6984126984127,4.2063492063492065,-1.8253968253968254,-321.8253968253968
10.714285714285714,57.698412698412696,196.74603174603175,325.0,-102.14285714285714,158.4920634920635,-149.9206349206349,-72.46031746031746,-142.93650793650792,-117.53968253968253,10.238095238095237,-84.52380952380952,324.36507936507934,-78.80952380952381,-158.015873015873,-77.6984126984127,-158.33333333333331,85.79365079365078,325.0,-95.0,253.09523809523807,-5.634920634920634,1.507936507936508,-321.8253968253968
10.714285714285714,57.698412698412696,196.74603174603175,325.0,-102.14285714285714,158.4920634920635,-149.9206349206349,-72.46031746031746,-142.93650793650792,-117.53968253968253,10.238095238095237,-84.52380952380952,324.36507936507934,-78.80952380952381,-158.015873015873,-77.6984126984127,-158.33333333333331,85.79365079365078,325.0,-95.0,253.09523809523807,-5.634920634920634,1.507936507936508,-321.8253968253968
7.698412698412698,56.904761904761905,194.04761904761904,325.0,-100.87301587301587,156.42857142857142,-148.015873015873,-65.47619047619047,-141.19047619047618,-120.87301587301586,7.5396825396825395,-83.4126984126984,320.87301587301585,-69.12698412698413,-156.11111111111111,-69.28571428571428,-156.42857142857142,84.68253968253968,325.0,-93.73015873015872,249.76190476190476,-0.07936507936507936,0.07936507936507936,-321.8253968253968
7.698412698412698,56.904761904761905,194.04761904761904,325.0,-100.87301587301587,156.42857142857142,-148.015873015873,-65.47619047619047,-141.19047619047618,-120.87301587301586,7.5396825396825395,-83.4126984126984,320.87301587301585,-69.12698412698413,-156.11111111111111,-69.28571428571428,-156.42857142857142,84.68253968253968,325.0,-93.73015873015872,249.76190476190476,-0.07936507936507936,0.07936507936507936,-321.8253968253968
2.619047619047619,55.63492063492063,178.65079365079364,325.0,-98.65079365079364,152.93650793650792,-144.68253968253967,-61.507936507936506,-138.4920634920635,-125.63492063492063,2.142857142857143,-81.98412698412697,314.5238095238095,-67.06349206349206,-152.93650793650792,-66.11111111111111,-152.93650793650792,82.93650793650794,325.0,-91.82539682539682,244.36507936507934,-5.634920634920634,1.507936507936508,-166.26984126984127
2.619047619047619,55.63492063492063,178.65079365079364,325.0,-98.65079365079364,152.93650793650792,-144.68253968253967,-61.507936507936506,-138.4920634920635,-125.63492063492063,2.142857142857143,-81.98412698412697,314.5238095238095,-67.06349206349206,-152.93650793650792,-66.11111111111111,-152.93650793650792,82.93650793650794,325.0,-91.82539682539682,244.36507936507934,-5.634920634920634,1.507936507936508,-166.26984126984127
2.46031746031746,55.476190476190474,166.42857142857142,325.0,-98.33333333333333,152.3015873015873,-144.04761904761904,-61.19047619047619,-137.69841269841268,-126.74603174603173,1.8253968253968254,-81.5079365079365,313.25396825396825,-65.15873015873015,-152.3015873015873,-63.73015873015873,-152.3015873015873,82.46031746031746,325.0,-91.34920634920634,243.25396825396825,-6.428571428571428,3.095238095238095,-166.26984126984127
2.46031746031746,55.476190476190474,166.42857142857142,325.0,-98.33333333333333,152.3015873015873,-144.04761904761904,-61.19047619047619,-137.69841269841268,-126.74603174603173,1.8253968253968254,-81.5079365079365,313.25396825396825,-65.15873015873015,-152.3015873015873,-63.73015873015873,-152.3015873015873,82.46031746031746,325.0,-91.34920634920634,243.25396825396825,-6.428571428571428,3.095238095238095,-166.26984126984127
8.174603174603174,53.888888888888886,139.76190476190476,325.0,-95.79365079365078,148.17460317460316,-139.9206349206349,-45.63492063492063,-133.73015873015873,-132.93650793650792,6.904761904761904,-79.12698412698413,304.04761904761904,-51.34920634920635,-148.17460317460316,-50.55555555555555,-147.85714285714286,80.07936507936508,325.0,-88.65079365079364,236.1111111111111,-5.317460317460317,2.142857142857143,-166.26984126984127
8.174603174603174,53.888888888888886,139.76190476190476,325.0,-95.79365079365078,148.17460317460316,-139.9206349206349,-45.63492063492063,-133.73015873015873,-132.93650793650792,6.904761904761904,-79.12698412698413,304.04761904761904,-51.34920634920635,-148.17460317460316,-50.55555555555555,-147.85714285714286,80.07936507936508,325.0,-88.65079365079364,236.1111111111111,-5.317460317460317,2.142857142857143,-166.26984126984127
9.126984126984127,53.095238095238095,143.57142857142856,325.0,-94.52380952380952,146.11111111111111,-138.015873015873,-51.666666666666664,-131.984126984127,-135.15873015873015,8.015873015873016,-77.85714285714285,300.07936507936506,-53.888888888888886,-146.11111111111111,-56.904761904761905,-145.95238095238093,79.12698412698413,325.0,-87.53968253968253,233.09523809523807,3.253968253968254,-1.0317460317460316,-166.26984126984127
9.126984126984127,53.095238095238095,143.57142857142856,325.0,-94.52380952380952,146.11111111111111,-138.015873015873,-51.666666666666664,-131.984126984127,-135.15873015873015,8.015873015873016,-77.85714285714285,300.07936507936506,-53.888888888888886,-146.11111111111111,-56.904761904761905,-145.95238095238093,79.12698412698413,325.0,-87.53968253968253,233.09523809523807,3.253968253968254,-1.0317460317460316,-166.26984126984127
9.126984126984127,53.095238095238095,143.57142857142856,325.0,-94.52380952380952,146.11111111111111,-138.015873015873,-51.666666666666664,-131.984126984127,-135.15873015873015,8.015873015873016,-77.85714285714285,300.07936507936506,-53.888888888888886,-146.11111111111111,-56.904761904761905,-145.95238095238093,79.12698412698413,325.0,-87.53968253968253,233.09523809523807,3.253968253968254,-1.0317460317460316,-166.26984126984127
9.126984126984127,53.095238095238095,143.57142857142856,325.0,-94.52380952380952,146.11111111111111,-138.015873015873,-51.666666666666664,-131.984126984127,-135.15873015873015,8.015873015873016,-77.85714285714285,300.07936507936506,-53.888888888888886,-146.11111111111111,-56.904761904761905,-145.95238095238093,79.12698412698413,325.0,-87.53968253968253,233.09523809523807,3.253968253968254,-1.0317460317460316,-166.26984126984127
9.920634920634921,49.92063492063492,180.87301587301587,325.0,-89.44444444444444,137.85714285714286,-130.3968253968254,-55.15873015873016,-124.52380952380952,-145.79365079365078,8.174603174603174,-73.57142857142857,282.6190476190476,-61.34920634920635,-138.015873015873,-60.238095238095234,-137.69841269841268,74.52380952380952,325.0,-82.61904761904762,219.44444444444443,-4.365079365079365,3.4126984126984126,-321.8253968253968
9.920634920634921,49.92063492063492,180.87301587301587,325.0,-89.44444444444444,137.85714285714286,-130.3968253968254,-55.15873015873016,-124.52380952380952,-145.79365079365078,8.174603174603174,-73.57142857142857,282.6190476190476,-61.34920634920635,-138.015873015873,-60.238095238095234,-137.69841269841268,74.52380952380952,325.0,-82.61904761904762,219.44444444444443,-4.365079365079365,3.4126984126984126,-321.8253968253968
11.349206349206348,48.96825396825397,171.66666666666666,325.0,-87.38095238095238,134.84126984126982,-127.6984126984127,-41.666666666666664,-122.14285714285714,-148.96825396825395,9.126984126984127,-72.14285714285714,277.22222222222223,-45.0,-135.3174603174603,-45.79365079365079,-134.68253968253967,72.93650793650794,325.0,-80.55555555555556,214.52380952380952,0.5555555555555556,-2.619047619047619,-321.8253968253968
11.349206349206348,48.96825396825397,171.66666666666666,325.0,-87.38095238095238,134.84126984126982,-127.6984126984127,-41.666666666666664,-122.14285714285714,-148.96825396825395,9.126984126984127,-72.14285714285714,277.22222222222223,-45.0,-135.3174603174603,-45.79365079365079,-134.68253968253967,72.93650793650794,325.0,-80.55555555555556,214.52380952380952,0.5555555555555556,-2.619047619047619,-321.8253968253968
12.936507936507935,48.17460317460317,168.65079365079364,325.0,-85.95238095238095,132.46031746031744,-125.63492063492063,-52.460317460317455,-120.07936507936508,-151.5079365079365,10.873015873015872,-70.87301587301587,272.6190476190476,-55.63492063492063,-133.0952380952381,-56.42857142857142,-132.46031746031744,71.82539682539682,325.0,-79.12698412698413,210.87301587301587,-0.873015873015873,0.873015873015873,-321.8253968253968
12.936507936507935,48.17460317460317,168.65079365079364,325.0,-85.95238095238095,132.46031746031744,-125.63492063492063,-52.460317460317455,-120.07936507936508,-151.5079365079365,10.873015873015872,-70.87301587301587,272.6190476190476,-55.63492063492063,-133.0952380952381,-56.42857142857142,-132.46031746031744,71.82539682539682,325.0,-79.12698412698413,210.87301587301587,-0.873015873015873,0.873015873015873,-321.8253968253968
9.920634920634921,47.38095238095238,165.79365079365078,325.0,-84.84126984126983,130.3968253968254,-123.57142857142857,-39.6031746031746,-118.33333333333333,-154.04761904761904,7.5396825396825395,-69.76190476190476,268.015873015873,-42.77777777777778,-131.03174603174602,-43.57142857142857,-130.23809523809524,70.55555555555556,325.0,-77.85714285714285,207.2222222222222,0.7142857142857142,-1.8253968253968254,-321.8253968253968
9.920634920634921,47.38095238095238,165.79365079365078,325.0,-84.84126984126983,130.3968253968254,-123.57142857142857,-39.6031746031746,-118.33333333333333,-154.04761904761904,7.5396825396825395,-69.76190476190476,268.015873015873,-42.77777777777778,-131.03174603174602,-43.57142857142857,-130.23809523809524,70.55555555555556,325.0,-77.85714285714285,207.2222222222222,0.7142857142857142,-1.8253968253968254,-321.8253968253968
-1.6666666666666665,46.42857142857142,151.03174603174602,325.0,-83.57142857142857,128.17460317460316,-121.34920634920634,-16.746031746031743,-116.1111111111111,-156.74603174603175,-3.888888888888889,-68.17460317460318,263.4126984126984,-19.126984126984127,-128.65079365079364,-19.6031746031746,-128.015873015873,69.28571428571428,325.0,-76.58730158730158,203.57142857142856,-0.23809523809523808,0.873015873015873,-321.8253968253968
-1.6666666666666665,46.42857142857142,151.03174603174602,325.0,-83.57142857142857,128.17460317460316,-121.34920634920634,-16.746031746031743,-116.1111111111111,-156.74603174603175,-3.888888888888889,-68.17460317460318,263.4126984126984,-19.126984126984127,-128.65079365079364,-19.6031746031746,-128.015873015873,69.28571428571428,325.0,-76.58730158730158,203.57142857142856,-0.23809523809523808,0.873015873015873,-321.8253968253968
-1.1904761904761905,45.95238095238095,153.09523809523807,325.0,-82.46031746031746,126.74603174603173,-119.92063492063491,-18.174603174603174,-114.68253968253967,-158.17460317460316,-3.095238095238095,-67.38095238095238,260.07936507936506,-22.3015873015873,-127.22222222222221,-23.41269841269841,-126.42857142857142,68.33333333333333,325.0,-75.79365079365078,201.03174603174602,-0.3968253968253968,-0.5555555555555556,-166.26984126984127
-1.1904761904761905,45.95238095238095,153.09523809523807,325.0,-82.46031746031746,126.74603174603173,-119.92063492063491,-18.174603174603174,-114.68253968253967,-158.17460317460316,-3.095238095238095,-67.38095238095238,260.07936507936506,-22.3015873015873,-127.22222222222221,-23.41269841269841,-126.42857142857142,68.33333333333333,325.0,-75.79365079365078,201.03174603174602,-0.3968253968253968,-0.5555555555555556,-166.26984126984127
6.26984126984127,45.0,149.9206349206349,325.0,-80.71428571428571,123.88888888888889,-117.38095238095238,-13.412698412698411,-112.30158730158729,-160.3968253968254,4.2063492063492065,-66.11111111111111,254.68253968253967,-15.476190476190474,-124.68253968253967,-15.793650793650793,-123.73015873015872,30.71428571428571,325.0,-74.04761904761904,196.58730158730157,-1.349206349206349,1.349206349206349,-166.26984126984127
6.26984126984127,45.0,149.9206349206349,325.0,-80.71428571428571,123.88888888888889,-117.38095238095238,-13.412698412698411,-112.30158730158729,-160.3968253968254,4.2063492063492065,-66.11111111111111,254.68253968253967,-15.476190476190474,-124.68253968253967,-15.793650793650793,-123.73015873015872,30.71428571428571,325.0,-74.04761904761904,196.58730158730157,-1.349206349206349,1.349206349206349,-166.26984126984127
5.476190476190476,44.36507936507936,152.3015873015873,325.0,-79.6031746031746,122.46031746031746,-115.79365079365078,-5.317460317460317,-111.03174603174602,-161.66666666666666,3.571428571428571,-65.47619047619047,251.66666666666666,-8.492063492063492,-123.25396825396825,-9.603174603174603,-122.14285714285714,21.666666666666664,325.0,-73.09523809523809,194.04761904761904,-0.5555555555555556,-0.3968253968253968,-166.26984126984127
5.476190476190476,44.36507936507936,152.3015873015873,325.0,-79.6031746031746,122.46031746031746,-115.79365079365078,-5.317460317460317,-111.03174603174602,-161.66666666666666,3.571428571428571,-65.47619047619047,251.66666666666666,-8.492063492063492,-123.25396825396825,-9.603174603174603,-122.14285714285714,21.666666666666664,325.0,-73.09523809523809,194.04761904761904,-0.5555555555555556,-0.3968253968253968,-166.26984126984127
2.142857142857143,43.41269841269841,152.14285714285714,325.0,-78.01587301587301,119.76190476190476,-113.4126984126984,-6.26984126984127,-108.65079365079364,-164.04761904761904,0.5555555555555556,-63.888888888888886,246.1111111111111,-9.444444444444445,-120.55555555555554,-9.126984126984127,-119.6031746031746,-52.3015873015873,325.0,-71.5079365079365,189.9206349206349,-0.873015873015873,0.873015873015873,-166.26984126984127
2.142857142857143,43.41269841269841,152.14285714285714,325.0,-78.01587301587301,119.76190476190476,-113.4126984126984,-6.26984126984127,-108.65079365079364,-164.04761904761904,0.5555555555555556,-63.888888888888886,246.1111111111111,-9.444444444444445,-120.55555555555554,-9.126984126984127,-119.6031746031746,-52.3015873015873,325.0,-71.5079365079365,189.9206349206349,-0.873015873015873,0.873015873015873,-166.26984126984127
5.158730158730158,43.25396825396825,151.5079365079365,325.0,-77.53968253968253,119.28571428571428,-112.93650793650794,-7.063492063492063,-108.01587301587301,-164.52380952380952,3.4126984126984126,-63.73015873015873,245.15873015873015,-8.492063492063492,-120.07936507936508,-9.603174603174603,-118.96825396825396,-169.28571428571428,325.0,-71.03174603174602,189.12698412698413,4.2063492063492065,-1.349206349206349,-166.26984126984127
5.158730158730158,43.25396825396825,151.5079365079365,325.0,-77.53968253968253,119.28571428571428,-112.93650793650794,-7.063492063492063,-108.01587301587301,-164.52380952380952,3.4126984126984126,-63.73015873015873,245.15873015873015,-8.492063492063492,-120.07936507936508,-9.603174603174603,-118.96825396825396,-169.28571428571428,325.0,-71.03174603174602,189.12698412698413,4.2063492063492065,-1.349206349206349,-166.26984126984127
5.158730158730158,43.25396825396825,151.5079365079365,325.0,-77.53968253968253,119.28571428571428,-112.93650793650794,-7.063492063492063,-108.01587301587301,-164.52380952380952,3.4126984126984126,-63.73015873015873,245.15873015873015,-8.492063492063492,-120.07936507936508,-9.603174603174603,-118.96825396825396,-169.28571428571428,325.0,-71.03174603174602,189.12698412698413,4.2063492063492065,-1.349206349206349,-321.8253968253968
5.158730158730158,43.25396825396825,151.5079365079365,325.0,-77.53968253968253,119.28571428571428,-112.93650793650794,-7.063492063492063,-108.01587301587301,-164.52380952380952,3.4126984126984126,-63.73015873015873,245.15873015873015,-8.492063492063492,-120.07936507936508,-9.603174603174603,-118.96825396825396,-169.28571428571428,325.0,-71.03174603174602,189.12698412698413,4.2063492063492065,-1.349206349206349,-321.8253968253968
11.19047619047619,23.41269841269841,154.2063492063492,325.0,-60.71428571428571,91.98412698412697,-87.38095238095238,-69.76190476190476,-83.73015873015872,-169.28571428571428,10.873015873015872,-49.285714285714285,188.8095238095238,-71.03174603174602,-93.57142857142857,-71.66666666666666,-91.98412698412697,77.85714285714285,325.0,-49.92063492063492,144.84126984126982,4.0476190476190474,-1.6666666666666665,-321.8253968253968
11.19047619047619,23.41269841269841,154.2063492063492,325.0,-60.71428571428571,91.98412698412697,-87.38095238095238,-69.76190476190476,-83.73015873015872,-169.28571428571428,10.873015873015872,-49.285714285714285,188.8095238095238,-71.03174603174602,-93.57142857142857,-71.66666666666666,-91.98412698412697,77.85714285714285,325.0,-49.92063492063492,144.84126984126982,4.0476190476190474,-1.6666666666666665,-321.8253968253968
10.238095238095237,-34.047619047619044,143.09523809523807,300.55555555555554,-40.87301587301587,60.079365079365076,-57.38095238095238,-108.96825396825396,-55.317460317460316,-170.87301587301587,11.349206349206348,-32.3015873015873,122.6190476190476,-106.42857142857142,-62.14285714285714,-107.6984126984127,-59.92063492063492,305.3174603174603,325.0,269.1269841269841,92.77777777777777,1.6666666666666665,-1.984126984126984,-321.8253968253968
10.238095238095237,-34.047619047619044,143.09523809523807,300.55555555555554,-40.87301587301587,60.079365079365076,-57.38095238095238,-108.96825396825396,-55.317460317460316,-170.87301587301587,11.349206349206348,-32.3015873015873,122.6190476190476,-106.42857142857142,-62.14285714285714,-107.6984126984127,-59.92063492063492,305.3174603174603,325.0,269.1269841269841,92.77777777777777,1.6666666666666665,-1.984126984126984,-321.8253968253968
5.476190476190476,-66.9047619047619,131.34920634920636,278.968253968254,-38.33333333333333,55.79365079365079,-53.25396825396825,-87.6984126984127,-51.34920634920635,-167.85714285714286,5.952380952380952,-30.07936507936508,113.88888888888889,-82.93650793650794,-58.01587301587301,-85.63492063492063,-55.476190476190474,312.6190476190476,325.0,325.0,85.79365079365078,-4.365079365079365,-0.3968253968253968,-321.8253968253968
5.476190476190476,-66.9047619047619,131.34920634920636,278.968253968254,-38.33333333333333,55.79365079365079,-53.25396825396825,-87.6984126984127,-51.34920634920635,-167.85714285714286,5.952380952380952,-30.07936507936508,113.88888888888889,-82.93650793650794,-58.01587301587301,-85.63492063492063,-55.476190476190474,312.6190476190476,325.0,325.0,85.79365079365078,-4.365079365079365,-0.3968253968253968,-321.8253968253968
5.476190476190476,-66.9047619047619,131.34920634920636,278.968253968254,-38.33333333333333,55.79365079365079,-53.25396825396825,-87.6984126984127,-51.34920634920635,-167.85714285714286,5.952380952380952,-30.07936507936508,113.88888888888889,-82.93650793650794,-58.01587301587301,-85.63492063492063,-55.476190476190474,312.6190476190476,325.0,325.0,85.79365079365078,-4.365079365079365,-0.3968253968253968,-321.8253968253968
5.476190476190476,-66.9047619047619,131.34920634920636,278.968253968254,-38.33333333333333,55.79365079365079,-53.25396825396825,-87.6984126984127,-51.34920634920635,-167.85714285714286,5.952380952380952,-30.07936507936508,113.88888888888889,-82.93650793650794,-58.01587301587301,-85.63492063492063,-55.476190476190474,312.6190476190476,325.0,325.0,85.79365079365078,-4.365079365079365,-0.3968253968253968,-321.8253968253968
6.428571428571428,-180.3968253968254,78.65079365079364,127.85714285714285,-19.126984126984127,26.26984126984127,-25.634920634920633,-36.42857142857142,-24.68253968253968,-202.77777777777777,7.698412698412698,325.0,52.3015873015873,-33.41269841269841,-28.49206349206349,-32.93650793650794,-26.26984126984127,325.0,236.9047619047619,279.76190476190476,38.80952380952381,3.888888888888889,-1.349206349206349,-166.26984126984127
6.428571428571428,-180.3968253968254,78.65079365079364,127.85714285714285,-19.126984126984127,26.26984126984127,-25.634920634920633,-36.42857142857142,-24.68253968253968,-202.77777777777777,7.698412698412698,325.0,52.3015873015873,-33.41269841269841,-28.49206349206349,-32.93650793650794,-26.26984126984127,325.0,236.9047619047619,279.76190476190476,38.80952380952381,3.888888888888889,-1.349206349206349,-166.26984126984127
-0.07936507936507936,-180.87301587301587,62.93650793650793,125.63492063492063,-18.96825396825397,25.952380952380953,-25.158730158730158,-32.77777777777778,-24.365079365079364,-325.0,1.0317460317460316,325.0,51.19047619047619,-29.920634920634917,-27.857142857142854,-28.96825396825397,-26.11111111111111,325.0,233.09523809523807,325.0,38.17460317460317,-4.841269841269841,1.8253968253968254,-166.26984126984127
-0.07936507936507936,-180.87301587301587,62.93650793650793,125.63492063492063,-18.96825396825397,25.952380952380953,-25.158730158730158,-32.77777777777778,-24.365079365079364,-325.0,1.0317460317460316,325.0,51.19047619047619,-29.920634920634917,-27.857142857142854,-28.96825396825397,-26.11111111111111,325.0,233.09523809523807,325.0,38.17460317460317,-4.841269841269841,1.8253968253968254,-166.26984126984127
-0.07936507936507936,-181.03174603174602,48.49206349206349,125.0,-18.80952380952381,26.11111111111111,-25.317460317460316,-34.52380952380952,-24.206349206349206,-325.0,1.1904761904761905,325.0,51.19047619047619,-31.825396825396822,-27.698412698412696,-29.76190476190476,-26.11111111111111,325.0,232.14285714285714,325.0,38.17460317460317,-7.857142857142857,4.2063492063492065,-166.26984126984127
-0.07936507936507936,-181.03174603174602,48.49206349206349,125.0,-18.80952380952381,26.11111111111111,-25.317460317460316,-34.52380952380952,-24.206349206349206,-325.0,1.1904761904761905,325.0,51.19047619047619,-31.825396825396822,-27.698412698412696,-29.76190476190476,-26.11111111111111,325.0,232.14285714285714,325.0,38.17460317460317,-7.857142857142857,4.2063492063492065,-166.26984126984127
-2.9365079365079363,-181.03174603174602,-75.79365079365078,122.30158730158729,-18.49206349206349,25.317460317460316,-24.68253968253968,30.07936507936508,-23.730158730158728,-211.66666666666666,-1.1904761904761905,325.0,50.079365079365076,31.507936507936506,-27.063492063492063,34.682539682539684,-25.476190476190474,4.523809523809524,227.38095238095238,300.39682539682536,37.22222222222222,-2.619047619047619,1.8253968253968254,-166.26984126984127
-2.9365079365079363,-181.03174603174602,-75.79365079365078,122.30158730158729,-18.49206349206349,25.317460317460316,-24.68253968253968,30.07936507936508,-23.730158730158728,-211.66666666666666,-1.1904761904761905,325.0,50.079365079365076,31.507936507936506,-27.063492063492063,34.682539682539684,-25.476190476190474,4.523809523809524,227.38095238095238,300.39682539682536,37.22222222222222,-2.619047619047619,1.8253968253968254,-166.26984126984127
-5.634920634920634,-180.87301587301587,-199.9206349206349,119.76190476190476,-18.174603174603174,24.68253968253968,-23.88888888888889,94.68253968253968,-23.095238095238095,-98.17460317460316,-3.571428571428571,325.0,48.96825396825397,95.0,-26.428571428571427,99.28571428571428,-24.68253968253968,-315.7936507936508,222.77777777777777,275.7936507936508,36.42857142857142,2.7777777777777777,-0.3968253968253968,-166.26984126984127
-5.634920634920634,-180.87301587301587,-199.9206349206349,119.76190476190476,-18.174603174603174,24.68253968253968,-23.88888888888889,94.68253968253968,-23.095238095238095,-98.17460317460316,-3.571428571428571,325.0,48.96825396825397,95.0,-26.428571428571427,99.28571428571428,-24.68253968253968,-315.7936507936508,222.77777777777777,275.7936507936508,36.42857142857142,2.7777777777777777,-0.3968253968253968,-166.26984126984127
-5.634920634920634,-180.87301587301587,-199.9206349206349,119.76190476190476,-18.174603174603174,24.68253968253968,-23.88888888888889,94.68253968253968,-23.095238095238095,-98.17460317460316,-3.571428571428571,325.0,48.96825396825397,95.0,-26.428571428571427,99.28571428571428,-24.68253968253968,-315.7936507936508,222.77777777777777,275.7936507936508,36.42857142857142,2.7777777777777777,-0.3968253968253968,-321.8253968253968
-5.634920634920634,-180.87301587301587,-199.9206349206349,119.76190476190476,-18.174603174603174,24.68253968253968,-23.88888888888889,94.68253968253968,-23.095238095238095,-98.17460317460316,-3.571428571428571,325.0,48.96825396825397,95.0,-26.428571428571427,99.28571428571428,-24.68253968253968,-315.7936507936508,222.77777777777777,275.7936507936508,36.42857142857142,2.7777777777777777,-0.3968253968253968,-321.8253968253968
-5.634920634920634,-180.87301587301587,-199.9206349206349,119.76190476190476,-18.174603174603174,24.68253968253968,-23.88888888888889,94.68253968253968,-23.095238095238095,-98.17460317460316,-3.571428571428571,325.0,48.96825396825397,95.0,-26.428571428571427,99.28571428571428,-24.68253968253968,-315.7936507936508,222.77777777777777,275.7936507936508,36.42857142857142,2.7777777777777777,-0.3968253968253968,-321.8253968253968
-5.634920634920634,-180.87301587301587,-199.9206349206349,119.76190476190476,-18.174603174603174,24.68253968253968,-23.88888888888889,94.68253968253968,-23.095238095238095,-98.17460317460316,-3.571428571428571,325.0,48.96825396825397,95.0,-26.428571428571427,99.28571428571428,-24.68253968253968,-315.7936507936508,222.77777777777777,275.7936507936508,36.42857142857142,2.7777777777777777,-0.3968253968253968,-321.8253968253968
-5.634920634920634,-180.87301587301587,-199.9206349206349,119.76190476190476,-18.174603174603174,24.68253968253968,-23.88888888888889,94.68253968253968,-23.095238095238095,-98.17460317460316,-3.571428571428571,325.0,48.96825396825397,95.0,-26.428571428571427,99.28571428571428,-24.68253968253968,-315.7936507936508,222.77777777777777,275.7936507936508,36.42857142857142,2.7777777777777777,-0.3968253968253968,-321.8253968253968
-5.634920634920634,-180.87301587301587,-199.9206349206349,119.76190476190476,-18.174603174603174,24.68253968253968,-23.88888888888889,94.68253968253968,-23.095238095238095,-98.17460317460316,-3.571428571428571,325.0,48.96825396825397,95.0,-26.428571428571427,99.28571428571428,-24.68253968253968,-315.7936507936508,222.77777777777777,275.7936507936508,36.42857142857142,2.7777777777777777,-0.3968253968253968,-321.8253968253968
-5.634920634920634,-180.87301587301587,-199.9206349206349,119.76190476190476,-18.174603174603174,24.68253968253968,-23.88888888888889,94.68253968253968,-23.095238095238095,-98.17460317460316,-3.571428571428571,325.0,48.96825396825397,95.0,-26.428571428571427,99.28571428571428,-24.68253968253968,-315.7936507936508,222.77777777777777,275.7936507936508,36.42857142857142,2.7777777777777777,-0.3968253968253968,-321.8253968253968
-5.634920634920634,-180.87301587301587,-199.9206349206349,119.76190476190476,-18.174603174603174,24.68253968253968,-23.88888888888889,94.68253968253968,-23.095238095238095,-98.17460317460316,-3.571428571428571,325.0,48.96825396825397,95.0,-26.428571428571427,99.28571428571428,-24.68253968253968,-315.7936507936508,222.77777777777777,275.7936507936508,36.42857142857142,2.7777777777777777,-0.3968253968253968,-321.8253968253968
-5.634920634920634,-180.87301587301587,-199.9206349206349,119.76190476190476,-18.174603174603174,24.68253968253968,-23.88888888888889,94.68253968253968,-23.095238095238095,-98.17460317460316,-3.571428571428571,325.0,48.96825396825397,95.0,-26.428571428571427,99.28571428571428,-24.68253968253968,-315.7936507936508,222.77777777777777,275.7936507936508,36.42857142857142,2.7777777777777777,-0.3968253968253968,-321.8253968253968
-5.634920634920634,-180.87301587301587,-199.9206349206349,119.76190476190476,-18.174603174603174,24.68253968253968,-23.88888888888889,94.68253968253968,-23.095238095238095,-98.17460317460316,-3.571428571428571,325.0,48.96825396825397,95.0,-26.428571428571427,99.28571428571428,-24.68253968253968,-315.7936507936508,222.77777777777777,275.7936507936508,36.42857142857142,2.7777777777777777,-0.3968253968253968,-321.8253968253968
-5.634920634920634,-180.87301587301587,-199.9206349206349,119.76190476190476,-18.174603174603174,24.68253968253968,-23.88888888888889,94.68253968253968,-23.095238095238095,-98.17460317460316,-3.571428571428571,325.0,48.96825396825397,95.0,-26.428571428571427,99.28571428571428,-24.68253968253968,-315.7936507936508,222.77777777777777,275.7936507936508,36.42857142857142,2.7777777777777777,-0.3968253968253968,-166.26984126984127
-5.634920634920634,-180.87301587301587,-199.9206349206349,119.76190476190476,-18.174603174603174,24.68253968253968,-23.88888888888889,94.68253968253968,-23.095238095238095,-98.17460317460316,-3.571428571428571,325.0,48.96825396825397,95.0,-26.428571428571427,99.28571428571428,-24.68253968253968,-315.7936507936508,222.77777777777777,275.7936507936508,36.42857142857142,2.7777777777777777,-0.3968253968253968,-166.26984126984127
-5.634920634920634,-180.87301587301587,-199.9206349206349,119.76190476190476,-18.174603174603174,24.68253968253968,-23.88888888888889,94.68253968253968,-23.095238095238095,-98.17460317460316,-3.571428571428571,325.0,48.96825396825397,95.0,-26.428571428571427,99.28571428571428,-24.68253968253968,-315.7936507936508,222.77777777777777,275.7936507936508,36.42857142857142,2.7777777777777777,-0.3968253968253968,-166.26984126984127
-5.634920634920634,-180.87301587301587,-199.9206349206349,119.76190476190476,-18.174603174603174,24.68253968253968,-23.88888888888889,94.68253968253968,-23.095238095238095,-98.17460317460316,-3.571428571428571,325.0,48.96825396825397,95.0,-26.428571428571427,99.28571428571428,-24.68253968253968,-315.7936507936508,222.77777777777777,275.7936507936508,36.42857142857142,2.7777777777777777,-0.3968253968253968,-166.26984126984127
-5.634920634920634,-180.87301587301587,-199.9206349206349,119.76190476190476,-18.174603174603174,24.68253968253968,-23.88888888888889,94.68253968253968,-23.095238095238095,-98.17460317460316,-3.571428571428571,325.0,48.96825396825397,95.0,-26.428571428571427,99.28571428571428,-24.68253968253968,-315.7936507936508,222.77777777777777,275.7936507936508,36.42857142857142,2.7777777777777777,-0.3968253968253968,-166.26984126984127
-5.634920634920634,-180.87301587301587,-199.9206349206349,119.76190476190476,-18.174603174603174,24.68253968253968,-23.88888888888889,94.68253968253968,-23.095238095238095,-98.17460317460316,-3.571428571428571,325.0,48.96825396825397,95.0,-26.428571428571427,99.28571428571428,-24.68253968253968,-315.7936507936508,222.77777777777777,275.7936507936508,36.42857142857142,2.7777777777777777,-0.3968253968253968,-166.26984126984127
-5.634920634920634,-180.87301587301587,-199.9206349206349,119.76190476190476,-18.174603174603174,24.68253968253968,-23.88888888888889,94.68253968253968,-23.095238095238095,-98.17460317460316,-3.571428571428571,325.0,48.96825396825397,95.0,-26.428571428571427,99.28571428571428,-24.68253968253968,-315.7936507936508,222.77777777777777,275.7936507936508,36.42857142857142,2.7777777777777777,-0.3968253968253968,-166.26984126984127
-5.634920634920634,-180.87301587301587,-199.9206349206349,119.76190476190476,-18.174603174603174,24.68253968253968,-23.88888888888889,94.68253968253968,-23.095238095238095,-98.17460317460316,-3.571428571428571,325.0,48.96825396825397,95.0,-26.428571428571427,99.28571428571428,-24.68253968253968,-315.7936507936508,222.77777777777777,275.7936507936508,36.42857142857142,2.7777777777777777,-0.3968253968253968,-166.26984126984127
-6.746031746031746,-252.93650793650792,-71.03174603174602,109.44444444444444,-16.904761904761905,22.46031746031746,-22.142857142857142,99.28571428571428,-21.349206349206348,-211.66666666666666,-4.523809523809524,94.2063492063492,44.84126984126984,99.92063492063491,-24.523809523809522,103.4126984126984,-22.619047619047617,-96.74603174603175,203.88888888888889,300.39682539682536,33.095238095238095,-0.07936507936507936,-1.1904761904761905,-166.26984126984127
-6.746031746031746,-252.93650793650792,-71.03174603174602,109.44444444444444,-16.904761904761905,22.46031746031746,-22.142857142857142,99.28571428571428,-21.349206349206348,-211.66666666666666,-4.523809523809524,94.2063492063492,44.84126984126984,99.92063492063491,-24.523809523809522,103.4126984126984,-22.619047619047617,-96.74603174603175,203.88888888888889,300.39682539682536,33.095238095238095,-0.07936507936507936,-1.1904761904761905,-166.26984126984127
-7.698412698412698,-325.0,58.01587301587301,99.12698412698413,-15.476190476190474,20.396825396825395,-20.238095238095237,103.88888888888889,-19.444444444444443,-325.0,-5.317460317460317,-136.58730158730157,40.714285714285715,105.0,-22.46031746031746,107.53968253968253,-20.396825396825395,122.30158730158729,185.0,325.0,29.76190476190476,-2.9365079365079363,-1.8253968253968254,-321.8253968253968
-7.698412698412698,-325.0,58.01587301587301,99.12698412698413,-15.476190476190474,20.396825396825395,-20.238095238095237,103.88888888888889,-19.444444444444443,-325.0,-5.317460317460317,-136.58730158730157,40.714285714285715,105.0,-22.46031746031746,107.53968253968253,-20.396825396825395,122.30158730158729,185.0,325.0,29.76190476190476,-2.9365079365079363,-1.8253968253968254,-321.8253968253968
-7.3809523809523805,-325.0,-1.1904761904761905,97.38095238095238,-15.158730158730158,20.238095238095237,-19.92063492063492,149.6031746031746,-19.126984126984127,-325.0,-5.158730158730158,-155.47619047619048,40.079365079365076,151.03174603174602,-22.3015873015873,152.3015873015873,-20.07936507936508,79.76190476190476,181.8253968253968,325.0,29.444444444444443,-3.4126984126984126,-1.507936507936508,-321.8253968253968
-7.3809523809523805,-325.0,-1.1904761904761905,97.38095238095238,-15.158730158730158,20.238095238095237,-19.92063492063492,149.6031746031746,-19.126984126984127,-325.0,-5.158730158730158,-155.47619047619048,40.079365079365076,151.03174603174602,-22.3015873015873,152.3015873015873,-20.07936507936508,79.76190476190476,181.8253968253968,325.0,29.444444444444443,-3.4126984126984126,-1.507936507936508,-321.8253968253968
-4.682539682539682,-325.0,13.095238095238095,92.77777777777777,-14.365079365079364,13.571428571428571,-19.126984126984127,165.63492063492063,-18.174603174603174,-325.0,-2.3015873015873014,-168.33333333333331,38.17460317460317,170.87301587301587,-21.03174603174603,170.87301587301587,-19.285714285714285,-325.0,173.4126984126984,325.0,28.174603174603174,2.142857142857143,-2.46031746031746,-321.8253968253968
-4.682539682539682,-325.0,13.095238095238095,92.77777777777777,-14.365079365079364,13.571428571428571,-19.126984126984127,165.63492063492063,-18.174603174603174,-325.0,-2.3015873015873014,-168.33333333333331,38.17460317460317,170.87301587301587,-21.03174603174603,170.87301587301587,-19.285714285714285,-325.0,173.4126984126984,325.0,28.174603174603174,2.142857142857143,-2.46031746031746,-321.8253968253968
-9.444444444444445,-325.0,-248.33333333333331,91.03174603174602,-14.206349206349206,-20.555555555555554,-18.96825396825397,185.95238095238093,-18.015873015873016,-325.0,-7.063492063492063,-164.84126984126982,37.53968253968254,181.8253968253968,-20.71428571428571,188.17460317460316,-18.96825396825397,-106.58730158730158,170.7142857142857,325.0,26.746031746031743,-2.7777777777777777,2.3015873015873014,-321.8253968253968
-9.444444444444445,-325.0,-248.33333333333331,91.03174603174602,-14.206349206349206,-20.555555555555554,-18.96825396825397,185.95238095238093,-18.015873015873016,-325.0,-7.063492063492063,-164.84126984126982,37.53968253968254,181.8253968253968,-20.71428571428571,188.17460317460316,-18.96825396825397,-106.58730158730158,170.7142857142857,325.0,26.746031746031743,-2.7777777777777777,2.3015873015873014,-321.8253968253968
-8.333333333333332,-325.0,-150.3968253968254,89.92063492063491,-14.047619047619047,-0.5555555555555556,-18.49206349206349,131.34920634920636,-17.857142857142858,-325.0,-5.952380952380952,-162.77777777777777,37.22222222222222,137.22222222222223,-20.555555555555554,135.3174603174603,-18.65079365079365,325.0,168.4920634920635,325.0,26.587301587301585,7.222222222222221,-5.317460317460317,-321.8253968253968
-8.333333333333332,-325.0,-150.3968253968254,89.92063492063491,-14.047619047619047,-0.5555555555555556,-18.49206349206349,131.34920634920636,-17.857142857142858,-325.0,-5.952380952380952,-162.77777777777777,37.22222222222222,137.22222222222223,-20.555555555555554,135.3174603174603,-18.65079365079365,325.0,168.4920634920635,325.0,26.587301587301585,7.222222222222221,-5.317460317460317,-321.8253968253968
0.5555555555555556,-325.0,-325.0,87.85714285714285,-13.888888888888888,-37.698412698412696,-18.174603174603174,103.88888888888889,-17.539682539682538,-325.0,3.253968253968254,-158.65079365079364,36.42857142857142,102.30158730158729,-20.238095238095237,109.12698412698413,-18.333333333333332,23.88888888888889,164.84126984126982,325.0,19.92063492063492,-1.349206349206349,2.7777777777777777,-166.26984126984127
0.5555555555555556,-325.0,-325.0,87.85714285714285,-13.888888888888888,-37.698412698412696,-18.174603174603174,103.88888888888889,-17.539682539682538,-325.0,3.253968253968254,-158.65079365079364,36.42857142857142,102.30158730158729,-20.238095238095237,109.12698412698413,-18.333333333333332,23.88888888888889,164.84126984126982,325.0,19.92063492063492,-1.349206349206349,2.7777777777777777,-166.26984126984127
-9.285714285714285,-325.0,-29.285714285714285,86.42857142857143,-13.571428571428571,7.698412698412698,-17.857142857142858,204.52380952380952,-17.22222222222222,-325.0,-6.746031746031746,-155.47619047619048,35.79365079365079,207.85714285714283,-19.92063492063492,208.96825396825395,-18.015873015873016,-325.0,161.984126984127,325.0,24.68253968253968,1.0317460317460316,-3.253968253968254,-166.26984126984127
-9.285714285714285,-325.0,-29.285714285714285,86.42857142857143,-13.571428571428571,7.698412698412698,-17.857142857142858,204.52380952380952,-17.22222222222222,-325.0,-6.746031746031746,-155.47619047619048,35.79365079365079,207.85714285714283,-19.92063492063492,208.96825396825395,-18.015873015873016,-325.0,161.984126984127,325.0,24.68253968253968,1.0317460317460316,-3.253968253968254,-166.26984126984127
-6.428571428571428,-325.0,74.04761904761904,85.31746031746032,-13.412698412698411,-14.84126984126984,-17.857142857142858,139.76190476190476,-17.063492063492063,-325.0,-3.571428571428571,-153.4126984126984,35.476190476190474,138.015873015873,-19.76190476190476,141.19047619047618,-18.015873015873016,-325.0,159.9206349206349,325.0,11.031746031746032,-0.873015873015873,-0.3968253968253968,-166.26984126984127
-6.428571428571428,-325.0,74.04761904761904,85.31746031746032,-13.412698412698411,-14.84126984126984,-17.857142857142858,139.76190476190476,-17.063492063492063,-325.0,-3.571428571428571,-153.4126984126984,35.476190476190474,138.015873015873,-19.76190476190476,141.19047619047618,-18.015873015873016,-325.0,159.9206349206349,325.0,11.031746031746032,-0.873015873015873,-0.3968253968253968,-166.26984126984127
1.0317460317460316,-325.0,71.5079365079365,84.52380952380952,-13.253968253968253,-51.666666666666664,-17.698412698412696,59.92063492063492,-16.904761904761905,-325.0,4.365079365079365,-151.984126984127,35.15873015873016,58.33333333333333,-19.6031746031746,61.507936507936506,-18.015873015873016,-325.0,158.8095238095238,325.0,-4.365079365079365,2.142857142857143,1.0317460317460316,-166.26984126984127
1.0317460317460316,-325.0,71.5079365079365,84.52380952380952,-13.253968253968253,-51.666666666666664,-17.698412698412696,59.92063492063492,-16.904761904761905,-325.0,4.365079365079365,-151.984126984127,35.15873015873016,58.33333333333333,-19.6031746031746,61.507936507936506,-18.015873015873016,-325.0,158.8095238095238,325.0,-4.365079365079365,2.142857142857143,1.0317460317460316,-166.26984126984127
1.0317460317460316,-325.0,71.5079365079365,84.52380952380952,-13.253968253968253,-51.666666666666664,-17.698412698412696,59.92063492063492,-16.904761904761905,-325.0,4.365079365079365,-151.984126984127,35.15873015873016,58.33333333333333,-19.6031746031746,61.507936507936506,-18.015873015873016,-325.0,158.8095238095238,325.0,-4.365079365079365,2.142857142857143,1.0317460317460316,-166.26984126984127
1.0317460317460316,-325.0,71.5079365079365,84.52380952380952,-13.253968253968253,-51.666666666666664,-17.698412698412696,59.92063492063492,-16.904761904761905,-325.0,4.365079365079365,-151.984126984127,35.15873015873016,58.33333333333333,-19.6031746031746,61.507936507936506,-18.015873015873016,-325.0,158.8095238095238,325.0,-4.365079365079365,2.142857142857143,1.0317460317460316,-166.26984126984127
1.0317460317460316,-325.0,71.5079365079365,84.52380952380952,-13.253968253968253,-51.666666666666664,-17.698412698412696,59.92063492063492,-16.904761904761905,-325.0,4.365079365079365,-151.984126984127,35.15873015873016,58.33333333333333,-19.6031746031746,61.507936507936506,-18.015873015873016,-325.0,158.8095238095238,325.0,-4.365079365079365,2.142857142857143,1.0317460317460316,-321.8253968253968
1.0317460317460316,-325.0,71.5079365079365,84.52380952380952,-13.253968253968253,-51.666666666666664,-17.698412698412696,59.92063492063492,-16.904761904761905,-325.0,4.365079365079365,-151.984126984127,35.15873015873016,58.33333333333333,-19.6031746031746,61.507936507936506,-18.015873015873016,-325.0,158.8095238095238,325.0,-4.365079365079365,2.142857142857143,1.0317460317460316,-321.8253968253968
1.0317460317460316,-325.0,71.5079365079365,84.52380952380952,-13.253968253968253,-51.666666666666664,-17.698412698412696,59.92063492063492,-16.904761904761905,-325.0,4.365079365079365,-151.984126984127,35.15873015873016,58.33333333333333,-19.6031746031746,61.507936507936506,-18.015873015873016,-325.0,158.8095238095238,325.0,-4.365079365079365,2.142857142857143,1.0317460317460316,-321.8253968253968
1.0317460317460316,-325.0,71.5079365079365,84.52380952380952,-13.253968253968253,-51.666666666666664,-17.698412698412696,59.92063492063492,-16.904761904761905,-325.0,4.365079365079365,-151.984126984127,35.15873015873016,58.33333333333333,-19.6031746031746,61.507936507936506,-18.015873015873016,-325.0,158.8095238095238,325.0,-4.365079365079365,2.142857142857143,1.0317460317460316,-321.8253968253968
1.0317460317460316,-325.0,71.5079365079365,84.52380952380952,-13.253968253968253,-51.666666666666664,-17.698412698412696,59.92063492063492,-16.904761904761905,-325.0,4.365079365079365,-151.984126984127,35.15873015873016,58.33333333333333,-19.6031746031746,61.507936507936506,-18.015873015873016,-325.0,158.8095238095238,325.0,-4.365079365079365,2.142857142857143,1.0317460317460316,-321.8253968253968
1.0317460317460316,-325.0,71.5079365079365,84.52380952380952,-13.253968253968253,-51.666666666666664,-17.698412698412696,59.92063492063492,-16.904761904761905,-325.0,4.365079365079365,-151.984126984127,35.15873015873016,58.33333333333333,-19.6031746031746,61.507936507936506,-18.015873015873016,-325.0,158.8095238095238,325.0,-4.365079365079365,2.142857142857143,1.0317460317460316,-321.8253968253968
1.0317460317460316,-325.0,71.5079365079365,84.52380952380952,-13.253968253968253,-51.666666666666664,-17.698412698412696,59.92063492063492,-16.904761904761905,-325.0,4.365079365079365,-151.984126984127,35.15873015873016,58.33333333333333,-19.6031746031746,61.507936507936506,-18.015873015873016,-325.0,158.8095238095238,325.0,-4.365079365079365,2.142857142857143,1.0317460317460316,-321.8253968253968
1.0317460317460316,-325.0,71.5079365079365,84.52380952380952,-13.253968253968253,-51.666666666666664,-17.698412698412696,59.92063492063492,-16.904761904761905,-325.0,4.365079365079365,-151.984126984127,35.15873015873016,58.33333333333333,-19.6031746031746,61.507936507936506,-18.015873015873016,-325.0,158.8095238095238,325.0,-4.365079365079365,2.142857142857143,1.0317460317460316,-321.8253968253968
-1.507936507936508,-325.0,-325.0,68.96825396825396,-11.349206349206348,-167.53968253968253,-14.682539682539682,108.01587301587301,-14.047619047619047,-325.0,1.1904761904761905,-120.55555555555554,28.809523809523807,101.19047619047619,-16.428571428571427,109.92063492063491,-14.84126984126984,-325.0,130.07936507936506,320.39682539682536,-81.19047619047619,-1.6666666666666665,1.6666666666666665,-321.8253968253968
-1.507936507936508,-325.0,-325.0,68.96825396825396,-11.349206349206348,-167.53968253968253,-14.682539682539682,108.01587301587301,-14.047619047619047,-325.0,1.1904761904761905,-120.55555555555554,28.809523809523807,101.19047619047619,-16.428571428571427,109.92063492063491,-14.84126984126984,-325.0,130.07936507936506,320.39682539682536,-81.19047619047619,-1.6666666666666665,1.6666666666666665,-321.8253968253968
43.41269841269841,-141.8253968253968,-110.23809523809523,-117.85714285714285,60.71428571428571,-174.04761904761904,-135.3174603174603,117.6984126984127,33.73015873015873,-228.65079365079364,65.0,-19.444444444444443,-33.888888888888886,-60.238095238095234,-68.80952380952381,67.6984126984127,-145.47619047619048,-203.09523809523807,-34.52380952380952,320.39682539682536,-91.82539682539682,-1.0317460317460316,-161.03174603174602,-166.26984126984127
43.41269841269841,-141.8253968253968,-110.23809523809523,-117.85714285714285,60.71428571428571,-174.04761904761904,-135.3174603174603,117.6984126984127,33.73015873015873,-228.65079365079364,65.0,-19.444444444444443,-33.888888888888886,-60.238095238095234,-68.80952380952381,67.6984126984127,-145.47619047619048,-203.09523809523807,-34.52380952380952,320.39682539682536,-91.82539682539682,-1.0317460317460316,-161.03174603174602,-166.26984126984127
-1.349206349206349,-325.0,-298.6507936507936,66.11111111111111,-11.031746031746032,-167.69841269841268,-14.047619047619047,112.77777777777777,-13.571428571428571,-325.0,1.1904761904761905,-114.84126984126983,27.698412698412696,116.58730158730158,-15.634920634920634,119.76190476190476,-14.047619047619047,-244.52380952380952,124.52380952380952,310.87301587301585,-135.63492063492063,7.063492063492063,-1.349206349206349,-166.26984126984127
-1.349206349206349,-325.0,-298.6507936507936,66.11111111111111,-11.031746031746032,-167.69841269841268,-14.047619047619047,112.77777777777777,-13.571428571428571,-325.0,1.1904761904761905,-114.84126984126983,27.698412698412696,116.58730158730158,-15.634920634920634,119.76190476190476,-14.047619047619047,-244.52380952380952,124.52380952380952,310.87301587301585,-135.63492063492063,7.063492063492063,-1.349206349206349,-166.26984126984127
-1.507936507936508,-325.0,-161.8253968253968,64.84126984126983,-11.19047619047619,-88.17460317460316,-14.047619047619047,58.01587301587301,-13.73015873015873,-325.0,0.873015873015873,-112.93650793650794,27.22222222222222,52.93650793650794,-15.793650793650793,57.22222222222222,-14.047619047619047,-260.07936507936506,122.46031746031746,321.66666666666663,10.079365079365079,-6.587301587301587,0.5555555555555556,-166.26984126984127
-1.507936507936508,-325.0,-161.8253968253968,64.84126984126983,-11.19047619047619,-88.17460317460316,-14.047619047619047,58.01587301587301,-13.73015873015873,-325.0,0.873015873015873,-112.93650793650794,27.22222222222222,52.93650793650794,-15.793650793650793,57.22222222222222,-14.047619047619047,-260.07936507936506,122.46031746031746,321.66666666666663,10.079365079365079,-6.587301587301587,0.5555555555555556,-166.26984126984127
-5.158730158730158,-325.0,-126.74603174603173,63.888888888888886,-10.714285714285714,-155.0,-13.888888888888888,75.47619047619047,-13.253968253968253,-325.0,-2.619047619047619,-111.03174603174602,26.9047619047619,74.84126984126983,-15.476190476190474,79.28571428571428,-13.73015873015873,-325.0,-101.66666666666666,316.90476190476187,-63.888888888888886,0.3968253968253968,-0.3968253968253968,-166.26984126984127
-5.158730158730158,-325.0,-126.74603174603173,63.888888888888886,-10.714285714285714,-155.0,-13.888888888888888,75.47619047619047,-13.253968253968253,-325.0,-2.619047619047619,-111.03174603174602,26.9047619047619,74.84126984126983,-15.476190476190474,79.28571428571428,-13.73015873015873,-325.0,-101.66666666666666,316.90476190476187,-63.888888888888886,0.3968253968253968,-0.3968253968253968,-166.26984126984127
-1.8253968253968254,-325.0,112.30158730158729,62.77777777777777,-10.714285714285714,-145.79365079365078,-13.412698412698411,139.76190476190476,-12.777777777777777,-325.0,0.23809523809523808,-108.17460317460316,26.11111111111111,136.26984126984127,-15.158730158730158,142.14285714285714,-13.412698412698411,-206.9047619047619,-325.0,320.07936507936506,-8.174603174603174,-5.952380952380952,1.507936507936508,-166.26984126984127
-1.8253968253968254,-325.0,112.30158730158729,62.77777777777777,-10.714285714285714,-145.79365079365078,-13.412698412698411,139.76190476190476,-12.777777777777777,-325.0,0.23809523809523808,-108.17460317460316,26.11111111111111,136.26984126984127,-15.158730158730158,142.14285714285714,-13.412698412698411,-206.9047619047619,-325.0,320.07936507936506,-8.174603174603174,-5.952380952380952,1.507936507936508,-166.26984126984127
5.952380952380952,-325.0,95.15873015873015,61.666666666666664,-10.238095238095237,-238.49206349206347,-13.253968253968253,81.66666666666666,-12.619047619047619,-325.0,8.65079365079365,-106.26984126984127,25.634920634920633,82.77777777777777,-14.84126984126984,86.1111111111111,-13.412698412698411,-147.06349206349205,-325.0,300.07936507936506,-227.2222222222222,6.587301587301587,-2.619047619047619,-321.8253968253968
5.952380952380952,-325.0,95.15873015873015,61.666666666666664,-10.238095238095237,-238.49206349206347,-13.253968253968253,81.66666666666666,-12.619047619047619,-325.0,8.65079365079365,-106.26984126984127,25.634920634920633,82.77777777777777,-14.84126984126984,86.1111111111111,-13.412698412698411,-147.06349206349205,-325.0,300.07936507936506,-227.2222222222222,6.587301587301587,-2.619047619047619,-321.8253968253968
3.571428571428571,-325.0,162.46031746031744,60.238095238095234,1.6666666666666665,-238.49206349206347,-13.095238095238095,100.55555555555554,-12.3015873015873,-325.0,5.952380952380952,-104.04761904761904,25.317460317460316,102.46031746031746,-14.523809523809524,105.47619047619047,-12.936507936507935,-239.60317460317458,-325.0,300.39682539682536,-248.015873015873,5.952380952380952,-2.46031746031746,-321.8253968253968
3.571428571428571,-325.0,162.46031746031744,60.238095238095234,1.6666666666666665,-238.49206349206347,-13.095238095238095,100.55555555555554,-12.3015873015873,-325.0,5.952380952380952,-104.04761904761904,25.317460317460316,102.46031746031746,-14.523809523809524,105.47619047619047,-12.936507936507935,-239.60317460317458,-325.0,300.39682539682536,-248.015873015873,5.952380952380952,-2.46031746031746,-321.8253968253968
-5.317460317460317,-325.0,179.76190476190476,58.96825396825397,60.238095238095234,-325.0,-12.936507936507935,171.03174603174602,-12.3015873015873,-325.0,-3.571428571428571,-101.03174603174602,24.84126984126984,175.47619047619045,-14.206349206349206,177.2222222222222,-12.619047619047619,-325.0,-325.0,303.73015873015873,-199.12698412698413,1.1904761904761905,-1.507936507936508,-321.8253968253968
-5.317460317460317,-325.0,179.76190476190476,58.96825396825397,60.238095238095234,-325.0,-12.936507936507935,171.03174603174602,-12.3015873015873,-325.0,-3.571428571428571,-101.03174603174602,24.84126984126984,175.47619047619045,-14.206349206349206,177.2222222222222,-12.619047619047619,-325.0,-325.0,303.73015873015873,-199.12698412698413,1.1904761904761905,-1.507936507936508,-321.8253968253968
-0.7142857142857142,-325.0,175.79365079365078,58.17460317460317,117.6984126984127,-325.0,-12.777777777777777,99.6031746031746,-12.142857142857142,-309.9206349206349,1.1904761904761905,-99.12698412698413,24.365079365079364,93.09523809523809,-14.206349206349206,99.92063492063491,-12.619047619047619,-325.0,-325.0,296.1111111111111,-259.9206349206349,-1.507936507936508,1.349206349206349,-321.8253968253968
-0.7142857142857142,-325.0,175.79365079365078,58.17460317460317,117.6984126984127,-325.0,-12.777777777777777,99.6031746031746,-12.142857142857142,-309.9206349206349,1.1904761904761905,-99.12698412698413,24.365079365079364,93.09523809523809,-14.206349206349206,99.92063492063491,-12.619047619047619,-325.0,-325.0,296.1111111111111,-259.9206349206349,-1.507936507936508,1.349206349206349,-321.8253968253968
-2.619047619047619,-325.0,173.57142857142856,57.53968253968254,153.73015873015873,-325.0,-12.46031746031746,92.14285714285714,-11.984126984126984,-311.8253968253968,-1.1904761904761905,-97.85714285714285,24.206349206349206,91.34920634920634,-14.047619047619047,95.15873015873015,-12.3015873015873,-325.0,-325.0,292.46031746031747,-224.2063492063492,-0.7142857142857142,-0.3968253968253968,-321.8253968253968
-2.619047619047619,-325.0,173.57142857142856,57.53968253968254,153.73015873015873,-325.0,-12.46031746031746,92.14285714285714,-11.984126984126984,-311.8253968253968,-1.1904761904761905,-97.85714285714285,24.206349206349206,91.34920634920634,-14.047619047619047,95.15873015873015,-12.3015873015873,-325.0,-325.0,292.46031746031747,-224.2063492063492,-0.7142857142857142,-0.3968253968253968,-321.8253968253968
-3.253968253968254,-325.0,170.07936507936506,55.95238095238095,230.2380952380952,-325.0,-12.46031746031746,78.96825396825396,-11.825396825396824,-315.3174603174603,-1.507936507936508,-95.63492063492063,23.57142857142857,73.88888888888889,-13.888888888888888,81.03174603174602,-12.142857142857142,-325.0,-325.0,289.6031746031746,-307.69841269841265,-0.7142857142857142,1.8253968253968254,-166.26984126984127
-3.253968253968254,-325.0,170.07936507936506,55.95238095238095,230.2380952380952,-325.0,-12.46031746031746,78.96825396825396,-11.825396825396824,-315.3174603174603,-1.507936507936508,-95.63492063492063,23.57142857142857,73.88888888888889,-13.888888888888888,81.03174603174602,-12.142857142857142,-325.0,-325.0,289.6031746031746,-307.69841269841265,-0.7142857142857142,1.8253968253968254,-166.26984126984127
-3.73015873015873,-325.0,166.74603174603175,55.15873015873016,203.57142857142856,-325.0,-11.984126984126984,87.85714285714285,-11.349206349206348,-325.0,-2.619047619047619,-93.57142857142857,23.095238095238095,90.55555555555556,-13.412698412698411,93.25396825396825,-11.984126984126984,-325.0,-325.0,286.4285714285714,-245.15873015873015,2.46031746031746,-1.0317460317460316,-166.26984126984127
-3.73015873015873,-325.0,166.74603174603175,55.15873015873016,203.57142857142856,-325.0,-11.984126984126984,87.85714285714285,-11.349206349206348,-325.0,-2.619047619047619,-93.57142857142857,23.095238095238095,90.55555555555556,-13.412698412698411,93.25396825396825,-11.984126984126984,-325.0,-325.0,286.4285714285714,-245.15873015873015,2.46031746031746,-1.0317460317460316,-166.26984126984127
-8.174603174603174,-325.0,151.5079365079365,54.047619047619044,190.07936507936506,-325.0,-11.984126984126984,89.12698412698413,-11.349206349206348,-282.77777777777777,-6.746031746031746,-91.82539682539682,22.619047619047617,85.47619047619047,-13.412698412698411,92.46031746031746,-11.666666666666666,-325.0,-325.0,277.38095238095235,-312.3015873015873,-0.873015873015873,1.349206349206349,-166.26984126984127
-8.174603174603174,-325.0,151.5079365079365,54.047619047619044,190.07936507936506,-325.0,-11.984126984126984,89.12698412698413,-11.349206349206348,-282.77777777777777,-6.746031746031746,-91.82539682539682,22.619047619047617,85.47619047619047,-13.412698412698411,92.46031746031746,-11.666666666666666,-325.0,-325.0,277.38095238095235,-312.3015873015873,-0.873015873015873,1.349206349206349,-166.26984126984127
-8.492063492063492,-325.0,129.76190476190476,53.25396825396825,187.69841269841268,-325.0,-11.825396825396824,109.12698412698413,-11.19047619047619,-325.0,-7.857142857142857,-83.25396825396825,22.46031746031746,111.66666666666666,-12.936507936507935,114.36507936507935,-11.507936507936508,-325.0,-325.0,276.4285714285714,-227.85714285714283,1.507936507936508,-1.507936507936508,-166.26984126984127
-8.492063492063492,-325.0,129.76190476190476,53.25396825396825,187.69841269841268,-325.0,-11.825396825396824,109.12698412698413,-11.19047619047619,-325.0,-7.857142857142857,-83.25396825396825,22.46031746031746,111.66666666666666,-12.936507936507935,114.36507936507935,-11.507936507936508,-325.0,-325.0,276.4285714285714,-227.85714285714283,1.507936507936508,-1.507936507936508,-166.26984126984127
-8.968253968253968,-325.0,-265.4761904761905,52.3015873015873,220.2380952380952,-325.0,-11.507936507936508,130.87301587301587,-11.031746031746032,-266.74603174603175,-7.857142857142857,-6.587301587301587,22.3015873015873,126.74603174603173,-13.095238095238095,135.0,-11.349206349206348,-325.0,-325.0,268.3333333333333,-313.57142857142856,0.3968253968253968,1.349206349206349,-166.26984126984127
-8.968253968253968,-325.0,-265.4761904761905,52.3015873015873,220.2380952380952,-325.0,-11.507936507936508,130.87301587301587,-11.031746031746032,-266.74603174603175,-7.857142857142857,-6.587301587301587,22.3015873015873,126.74603174603173,-13.095238095238095,135.0,-11.349206349206348,-325.0,-325.0,268.3333333333333,-313.57142857142856,0.3968253968253968,1.349206349206349,-166.26984126984127
-7.5396825396825395,-325.0,-93.57142857142857,51.34920634920635,215.79365079365078,-325.0,-11.349206349206348,128.015873015873,-10.873015873015872,-320.23809523809524,-6.587301587301587,89.92063492063491,21.825396825396822,129.76190476190476,-12.936507936507935,131.5079365079365,-11.031746031746032,-325.0,-325.0,267.22222222222223,-244.68253968253967,0.5555555555555556,-1.8253968253968254,-321.8253968253968
-7.5396825396825395,-325.0,-93.57142857142857,51.34920634920635,215.79365079365078,-325.0,-11.349206349206348,128.015873015873,-10.873015873015872,-320.23809523809524,-6.587301587301587,89.92063492063491,21.825396825396822,129.76190476190476,-12.936507936507935,131.5079365079365,-11.031746031746032,-325.0,-325.0,267.22222222222223,-244.68253968253967,0.5555555555555556,-1.8253968253968254,-321.8253968253968
-3.73015873015873,-325.0,-325.0,50.55555555555555,227.2222222222222,-325.0,-11.19047619047619,78.80952380952381,-10.714285714285714,-172.61904761904762,-2.7777777777777777,165.63492063492063,21.19047619047619,73.25396825396825,-12.619047619047619,81.66666666666666,-11.031746031746032,-325.0,-325.0,258.968253968254,-317.38095238095235,-0.23809523809523808,2.142857142857143,-321.8253968253968
-3.73015873015873,-325.0,-325.0,50.55555555555555,227.2222222222222,-325.0,-11.19047619047619,78.80952380952381,-10.714285714285714,-172.61904761904762,-2.7777777777777777,165.63492063492063,21.19047619047619,73.25396825396825,-12.619047619047619,81.66666666666666,-11.031746031746032,-325.0,-325.0,258.968253968254,-317.38095238095235,-0.23809523809523808,2.142857142857143,-321.8253968253968
-5.634920634920634,-325.0,51.19047619047619,48.96825396825397,243.25396825396825,-299.2857142857143,-11.031746031746032,-43.57142857142857,-10.396825396825395,-311.984126984127,-4.682539682539682,223.88888888888889,20.71428571428571,-38.01587301587301,-12.3015873015873,-40.39682539682539,-10.873015873015872,50.55555555555555,-325.0,254.52380952380952,-226.74603174603175,-0.873015873015873,-2.7777777777777777,-321.8253968253968
-5.634920634920634,-325.0,51.19047619047619,48.96825396825397,243.25396825396825,-299.2857142857143,-11.031746031746032,-43.57142857142857,-10.396825396825395,-311.984126984127,-4.682539682539682,223.88888888888889,20.71428571428571,-38.01587301587301,-12.3015873015873,-40.39682539682539,-10.873015873015872,50.55555555555555,-325.0,254.52380952380952,-226.74603174603175,-0.873015873015873,-2.7777777777777777,-321.8253968253968
