Fp1[1],Fp2[2],F3[3],F4[4],C3[5],C4[6],P3[7],P4[8],O1[9],O2[10],F7[11],F8[12],T3[13],T4[14],T5[15],T6[16],Fz[17],Pz[18],Cz[19],Pg1[20],Pg2[21],EOGR[22],EOOGL[23],EMG[24]
325.0,325.0,325.0,325.0,325.0,325.0,325.0,325.0,325.0,325.0,325.0,-325.0,325.0,325.0,325.0,-325.0,325.0,325.0,325.0,-325.0,-325.0,-8.333333333333332,-1.6666666666666665,-166.26984126984127
325.0,325.0,325.0,325.0,325.0,325.0,325.0,325.0,325.0,325.0,325.0,-325.0,325.0,325.0,325.0,-325.0,325.0,325.0,325.0,-325.0,-325.0,-8.333333333333332,-1.6666666666666665,-166.26984126984127
325.0,325.0,325.0,325.0,325.0,325.0,325.0,325.0,325.0,325.0,325.0,-325.0,325.0,230.2380952380952,325.0,-325.0,325.0,325.0,325.0,-325.0,-325.0,4.682539682539682,-0.23809523809523808,-166.26984126984127
325.0,325.0,325.0,325.0,325.0,325.0,325.0,325.0,325.0,325.0,325.0,-325.0,325.0,230.2380952380952,325.0,-325.0,325.0,325.0,325.0,-325.0,-325.0,4.682539682539682,-0.23809523809523808,-166.26984126984127
325.0,325.0,325.0,325.0,325.0,325.0,325.0,325.0,325.0,325.0,325.0,-325.0,325.0,77.85714285714285,325.0,-325.0,325.0,325.0,278.6507936507936,-325.0,-325.0,7.698412698412698,-0.873015873015873,-166.26984126984127
325.0,325.0,325.0,325.0,325.0,325.0,325.0,325.0,325.0,325.0,325.0,-325.0,325.0,77.85714285714285,325.0,-325.0,325.0,325.0,278.6507936507936,-325.0,-325.0,7.698412698412698,-0.873015873015873,-166.26984126984127
114.84126984126983,325.0,325.0,325.0,325.0,325.0,325.0,325.0,325.0,325.0,325.0,-325.0,325.0,8.65079365079365,325.0,-325.0,325.0,325.0,70.87301587301587,-325.0,-325.0,-7.698412698412698,-0.873015873015873,-166.26984126984127
114.84126984126983,325.0,325.0,325.0,325.0,325.0,325.0,325.0,325.0,325.0,325.0,-325.0,325.0,8.65079365079365,325.0,-325.0,325.0,325.0,70.87301587301587,-325.0,-325.0,-7.698412698412698,-0.873015873015873,-166.26984126984127
-325.0,324.36507936507934,325.0,325.0,325.0,325.0,325.0,325.0,325.0,325.0,325.0,-325.0,325.0,-209.60317460317458,325.0,-325.0,325.0,325.0,-325.0,-325.0,-325.0,7.698412698412698,-1.1904761904761905,-166.26984126984127
-325.0,324.36507936507934,325.0,325.0,325.0,325.0,325.0,325.0,325.0,325.0,325.0,-325.0,325.0,-209.60317460317458,325.0,-325.0,325.0,325.0,-325.0,-325.0,-325.0,7.698412698412698,-1.1904761904761905,-166.26984126984127
-325.0,319.9206349206349,325.0,325.0,325.0,325.0,325.0,325.0,325.0,325.0,325.0,-325.0,325.0,-256.74603174603175,325.0,-325.0,325.0,325.0,-325.0,-325.0,-325.0,-8.809523809523808,-0.3968253968253968,-321.8253968253968
-325.0,319.9206349206349,325.0,325.0,325.0,325.0,325.0,325.0,325.0,325.0,325.0,-325.0,325.0,-256.74603174603175,325.0,-325.0,325.0,325.0,-325.0,-325.0,-325.0,-8.809523809523808,-0.3968253968253968,-321.8253968253968
-325.0,314.5238095238095,325.0,325.0,325.0,325.0,325.0,325.0,325.0,325.0,325.0,-325.0,325.0,-307.53968253968253,325.0,-325.0,325.0,325.0,-325.0,-325.0,-325.0,7.063492063492063,-0.23809523809523808,-321.8253968253968
-325.0,314.5238095238095,325.0,325.0,325.0,325.0,325.0,325.0,325.0,325.0,325.0,-325.0,325.0,-307.53968253968253,325.0,-325.0,325.0,325.0,-325.0,-325.0,-325.0,7.063492063492063,-0.23809523809523808,-321.8253968253968
-325.0,309.1269841269841,325.0,325.0,325.0,325.0,325.0,325.0,325.0,325.0,325.0,-325.0,325.0,-325.0,325.0,-301.5079365079365,325.0,325.0,-325.0,-325.0,-325.0,-8.174603174603174,-0.23809523809523808,-321.8253968253968
-325.0,309.1269841269841,325.0,325.0,325.0,325.0,325.0,325.0,325.0,325.0,325.0,-325.0,325.0,-325.0,325.0,-301.5079365079365,325.0,325.0,-325.0,-325.0,-325.0,-8.174603174603174,-0.23809523809523808,-321.8253968253968
-325.0,304.04761904761904,325.0,320.7142857142857,325.0,325.0,325.0,325.0,325.0,325.0,325.0,-325.0,325.0,-325.0,325.0,-139.6031746031746,325.0,325.0,-325.0,-325.0,-325.0,7.222222222222221,-0.7142857142857142,-321.8253968253968
-325.0,304.04761904761904,325.0,320.7142857142857,325.0,325.0,325.0,325.0,325.0,325.0,325.0,-325.0,325.0,-325.0,325.0,-139.6031746031746,325.0,325.0,-325.0,-325.0,-325.0,7.222222222222221,-0.7142857142857142,-321.8253968253968
-325.0,298.968253968254,325.0,315.3174603174603,325.0,325.0,325.0,325.0,325.0,323.73015873015873,325.0,-325.0,325.0,-325.0,325.0,-86.58730158730158,325.0,325.0,-325.0,-325.0,-325.0,-8.174603174603174,-1.0317460317460316,-321.8253968253968
-325.0,298.968253968254,325.0,315.3174603174603,325.0,325.0,325.0,325.0,325.0,323.73015873015873,325.0,-325.0,325.0,-325.0,325.0,-86.58730158730158,325.0,325.0,-325.0,-325.0,-325.0,-8.174603174603174,-1.0317460317460316,-321.8253968253968
-325.0,293.88888888888886,325.0,310.07936507936506,325.0,325.0,325.0,325.0,325.0,318.17460317460313,325.0,-325.0,325.0,-325.0,325.0,146.9047619047619,325.0,325.0,-325.0,-325.0,-325.0,7.698412698412698,-0.873015873015873,-166.26984126984127
-325.0,293.88888888888886,325.0,310.07936507936506,325.0,325.0,325.0,325.0,325.0,318.17460317460313,325.0,-325.0,325.0,-325.0,325.0,146.9047619047619,325.0,325.0,-325.0,-325.0,-325.0,7.698412698412698,-0.873015873015873,-166.26984126984127
-325.0,287.6984126984127,325.0,303.25396825396825,325.0,275.6349206349206,325.0,321.3492063492063,325.0,311.3492063492063,325.0,-325.0,325.0,-325.0,325.0,65.79365079365078,325.0,325.0,-325.0,-325.0,-325.0,-0.23809523809523808,-0.3968253968253968,-166.26984126984127
-325.0,287.6984126984127,325.0,303.25396825396825,325.0,275.6349206349206,325.0,321.3492063492063,325.0,311.3492063492063,325.0,-325.0,325.0,-325.0,325.0,65.79365079365078,325.0,325.0,-325.0,-325.0,-325.0,-0.23809523809523808,-0.3968253968253968,-166.26984126984127
-325.0,-30.396825396825395,36.58730158730159,235.3174603174603,-19.92063492063492,-325.0,272.3015873015873,251.8253968253968,276.90476190476187,7.3809523809523805,-0.07936507936507936,-65.15873015873015,272.9365079365079,-325.0,-0.07936507936507936,325.0,267.06349206349205,-149.12698412698413,-325.0,-284.04761904761904,-279.9206349206349,-0.7142857142857142,-0.23809523809523808,-166.26984126984127
-325.0,-30.396825396825395,36.58730158730159,235.3174603174603,-19.92063492063492,-325.0,272.3015873015873,251.8253968253968,276.90476190476187,7.3809523809523805,-0.07936507936507936,-65.15873015873015,272.9365079365079,-325.0,-0.07936507936507936,325.0,267.06349206349205,-149.12698412698413,-325.0,-284.04761904761904,-279.9206349206349,-0.7142857142857142,-0.23809523809523808,-166.26984126984127
-325.0,-325.0,-244.36507936507934,192.3015873015873,-325.0,-325.0,222.61904761904762,208.17460317460316,228.8095238095238,-270.55555555555554,-325.0,194.84126984126982,223.25396825396825,-325.0,-325.0,325.0,218.015873015873,-325.0,-325.0,-243.09523809523807,-234.68253968253967,-3.888888888888889,-0.23809523809523808,-166.26984126984127
-325.0,-325.0,-244.36507936507934,192.3015873015873,-325.0,-325.0,222.61904761904762,208.17460317460316,228.8095238095238,-270.55555555555554,-325.0,194.84126984126982,223.25396825396825,-325.0,-325.0,325.0,218.015873015873,-325.0,-325.0,-243.09523809523807,-234.68253968253967,-3.888888888888889,-0.23809523809523808,-166.26984126984127
-325.0,-325.0,-244.36507936507934,192.3015873015873,-325.0,-325.0,222.61904761904762,208.17460317460316,228.8095238095238,-270.55555555555554,-325.0,194.84126984126982,223.25396825396825,-325.0,-325.0,325.0,218.015873015873,-325.0,-325.0,-243.09523809523807,-234.68253968253967,-3.888888888888889,-0.23809523809523808,-166.26984126984127
-325.0,-325.0,-244.36507936507934,192.3015873015873,-325.0,-325.0,222.61904761904762,208.17460317460316,228.8095238095238,-270.55555555555554,-325.0,194.84126984126982,223.25396825396825,-325.0,-325.0,325.0,218.015873015873,-325.0,-325.0,-243.09523809523807,-234.68253968253967,-3.888888888888889,-0.23809523809523808,-166.26984126984127
-325.0,-325.0,-244.36507936507934,192.3015873015873,-325.0,-325.0,222.61904761904762,208.17460317460316,228.8095238095238,-270.55555555555554,-325.0,194.84126984126982,223.25396825396825,-325.0,-325.0,325.0,218.015873015873,-325.0,-325.0,-243.09523809523807,-234.68253968253967,-3.888888888888889,-0.23809523809523808,-321.8253968253968
-325.0,-325.0,-244.36507936507934,192.3015873015873,-325.0,-325.0,222.61904761904762,208.17460317460316,228.8095238095238,-270.55555555555554,-325.0,194.84126984126982,223.25396825396825,-325.0,-325.0,325.0,218.015873015873,-325.0,-325.0,-243.09523809523807,-234.68253968253967,-3.888888888888889,-0.23809523809523808,-321.8253968253968
-325.0,-325.0,-244.36507936507934,192.3015873015873,-325.0,-325.0,222.61904761904762,208.17460317460316,228.8095238095238,-270.55555555555554,-325.0,194.84126984126982,223.25396825396825,-325.0,-325.0,325.0,218.015873015873,-325.0,-325.0,-243.09523809523807,-234.68253968253967,-3.888888888888889,-0.23809523809523808,-321.8253968253968
-325.0,-325.0,-244.36507936507934,192.3015873015873,-325.0,-325.0,222.61904761904762,208.17460317460316,228.8095238095238,-270.55555555555554,-325.0,194.84126984126982,223.25396825396825,-325.0,-325.0,325.0,218.015873015873,-325.0,-325.0,-243.09523809523807,-234.68253968253967,-3.888888888888889,-0.23809523809523808,-321.8253968253968
-325.0,-325.0,-244.36507936507934,192.3015873015873,-325.0,-325.0,222.61904761904762,208.17460317460316,228.8095238095238,-270.55555555555554,-325.0,194.84126984126982,223.25396825396825,-325.0,-325.0,325.0,218.015873015873,-325.0,-325.0,-243.09523809523807,-234.68253968253967,-3.888888888888889,-0.23809523809523808,-321.8253968253968
-325.0,-325.0,-244.36507936507934,192.3015873015873,-325.0,-325.0,222.61904761904762,208.17460317460316,228.8095238095238,-270.55555555555554,-325.0,194.84126984126982,223.25396825396825,-325.0,-325.0,325.0,218.015873015873,-325.0,-325.0,-243.09523809523807,-234.68253968253967,-3.888888888888889,-0.23809523809523808,-321.8253968253968
-167.85714285714286,-322.3015873015873,-325.0,-325.0,-273.0952380952381,-249.60317460317458,-325.0,-325.0,-325.0,-325.0,-325.0,325.0,-325.0,27.063492063492063,-325.0,145.15873015873015,-325.0,-273.57142857142856,148.17460317460316,-106.58730158730158,-99.76190476190476,-0.3968253968253968,-0.7142857142857142,-321.8253968253968
-167.85714285714286,-322.3015873015873,-325.0,-325.0,-273.0952380952381,-249.60317460317458,-325.0,-325.0,-325.0,-325.0,-325.0,325.0,-325.0,27.063492063492063,-325.0,145.15873015873015,-325.0,-273.57142857142856,148.17460317460316,-106.58730158730158,-99.76190476190476,-0.3968253968253968,-0.7142857142857142,-321.8253968253968
-162.14285714285714,-311.8253968253968,-325.0,-325.0,-264.36507936507934,-241.66666666666666,-325.0,-325.0,-325.0,-325.0,-325.0,325.0,-325.0,41.19047619047619,-325.0,212.93650793650792,-325.0,-265.1587301587301,167.2222222222222,-103.09523809523809,-96.26984126984127,-0.07936507936507936,-0.873015873015873,-321.8253968253968
-162.14285714285714,-311.8253968253968,-325.0,-325.0,-264.36507936507934,-241.66666666666666,-325.0,-325.0,-325.0,-325.0,-325.0,325.0,-325.0,41.19047619047619,-325.0,212.93650793650792,-325.0,-265.1587301587301,167.2222222222222,-103.09523809523809,-96.26984126984127,-0.07936507936507936,-0.873015873015873,-321.8253968253968
-159.28571428571428,-306.74603174603175,-325.0,-325.0,-260.23809523809524,-237.69841269841268,-325.0,-325.0,-325.0,-325.0,-325.0,325.0,-325.0,61.98412698412698,-325.0,208.8095238095238,-325.0,-260.87301587301585,183.4126984126984,-101.5079365079365,-94.52380952380952,-0.873015873015873,-0.873015873015873,-166.26984126984127
-159.28571428571428,-306.74603174603175,-325.0,-325.0,-260.23809523809524,-237.69841269841268,-325.0,-325.0,-325.0,-325.0,-325.0,325.0,-325.0,61.98412698412698,-325.0,208.8095238095238,-325.0,-260.87301587301585,183.4126984126984,-101.5079365079365,-94.52380952380952,-0.873015873015873,-0.873015873015873,-166.26984126984127
-155.95238095238093,-300.39682539682536,-325.0,-325.0,-255.0,-232.93650793650792,-325.0,-325.0,-325.0,-325.0,-325.0,325.0,-325.0,61.507936507936506,-321.984126984127,204.52380952380952,-325.0,-255.47619047619045,189.28571428571428,-99.12698412698413,-92.46031746031746,-9.285714285714285,-1.1904761904761905,-166.26984126984127
-155.95238095238093,-300.39682539682536,-325.0,-325.0,-255.0,-232.93650793650792,-325.0,-325.0,-325.0,-325.0,-325.0,325.0,-325.0,61.507936507936506,-321.984126984127,204.52380952380952,-325.0,-255.47619047619045,189.28571428571428,-99.12698412698413,-92.46031746031746,-9.285714285714285,-1.1904761904761905,-166.26984126984127
-153.88888888888889,-296.74603174603175,-325.0,-325.0,-251.8253968253968,-229.9206349206349,-325.0,-325.0,-325.0,-325.0,-325.0,325.0,-325.0,65.0,-318.015873015873,201.98412698412696,-325.0,-252.3015873015873,192.3015873015873,-97.85714285714285,-91.03174603174602,11.984126984126984,-0.873015873015873,-166.26984126984127
-153.88888888888889,-296.74603174603175,-325.0,-325.0,-251.8253968253968,-229.9206349206349,-325.0,-325.0,-325.0,-325.0,-325.0,325.0,-325.0,65.0,-318.015873015873,201.98412698412696,-325.0,-252.3015873015873,192.3015873015873,-97.85714285714285,-91.03174603174602,11.984126984126984,-0.873015873015873,-166.26984126984127
-150.7142857142857,-290.55555555555554,-325.0,-325.0,-246.9047619047619,-225.15873015873015,-325.0,-325.0,-325.0,-325.0,-325.0,325.0,-325.0,64.84126984126983,-311.66666666666663,197.53968253968253,-325.0,-247.2222222222222,204.2063492063492,-95.79365079365078,-89.28571428571428,-9.285714285714285,-1.0317460317460316,-166.26984126984127
-150.7142857142857,-290.55555555555554,-325.0,-325.0,-246.9047619047619,-225.15873015873015,-325.0,-325.0,-325.0,-325.0,-325.0,325.0,-325.0,64.84126984126983,-311.66666666666663,197.53968253968253,-325.0,-247.2222222222222,204.2063492063492,-95.79365079365078,-89.28571428571428,-9.285714285714285,-1.0317460317460316,-166.26984126984127
-148.015873015873,-285.95238095238096,-325.0,-325.0,-242.77777777777777,-221.5079365079365,-325.0,-325.0,-325.0,-325.0,-325.0,325.0,-325.0,64.2063492063492,-306.58730158730157,194.04761904761904,-325.0,-243.25396825396825,212.46031746031744,-94.36507936507935,-87.6984126984127,7.5396825396825395,-0.5555555555555556,-166.26984126984127
-148.015873015873,-285.95238095238096,-325.0,-325.0,-242.77777777777777,-221.5079365079365,-325.0,-325.0,-325.0,-325.0,-325.0,325.0,-325.0,64.2063492063492,-306.58730158730157,194.04761904761904,-325.0,-243.25396825396825,212.46031746031744,-94.36507936507935,-87.6984126984127,7.5396825396825395,-0.5555555555555556,-166.26984126984127
-145.47619047619048,-281.3492063492063,-325.0,-325.0,-238.96825396825395,-217.85714285714283,-325.0,-325.0,-325.0,-325.0,-324.2063492063492,325.0,-325.0,83.73015873015872,-301.66666666666663,190.87301587301587,-325.0,-239.28571428571428,222.14285714285714,-92.46031746031746,-86.1111111111111,-9.126984126984127,-0.7142857142857142,-321.8253968253968
-145.47619047619048,-281.3492063492063,-325.0,-325.0,-238.96825396825395,-217.85714285714283,-325.0,-325.0,-325.0,-325.0,-324.2063492063492,325.0,-325.0,83.73015873015872,-301.66666666666663,190.87301587301587,-325.0,-239.28571428571428,222.14285714285714,-92.46031746031746,-86.1111111111111,-9.126984126984127,-0.7142857142857142,-321.8253968253968
-143.57142857142856,-278.015873015873,-325.0,-325.0,-235.95238095238093,-215.0,-325.0,-325.0,-325.0,-325.0,-320.87301587301585,325.0,-325.0,75.15873015873015,-298.015873015873,188.4920634920635,-325.0,-236.42857142857142,220.87301587301587,-91.34920634920634,-84.68253968253968,11.349206349206348,0.23809523809523808,-321.8253968253968
-143.57142857142856,-278.015873015873,-325.0,-325.0,-235.95238095238093,-215.0,-325.0,-325.0,-325.0,-325.0,-320.87301587301585,325.0,-325.0,75.15873015873015,-298.015873015873,188.4920634920635,-325.0,-236.42857142857142,220.87301587301587,-91.34920634920634,-84.68253968253968,11.349206349206348,0.23809523809523808,-321.8253968253968
-140.3968253968254,-272.1428571428571,-321.984126984127,-325.0,-231.19047619047618,-210.87301587301587,-325.0,-325.0,-325.0,-325.0,-314.5238095238095,325.0,-325.0,77.22222222222221,-291.8253968253968,184.36507936507937,-325.0,-231.8253968253968,237.53968253968253,-89.44444444444444,-83.09523809523809,-9.126984126984127,-1.349206349206349,-321.8253968253968
-140.3968253968254,-272.1428571428571,-321.984126984127,-325.0,-231.19047619047618,-210.87301587301587,-325.0,-325.0,-325.0,-325.0,-314.5238095238095,325.0,-325.0,77.22222222222221,-291.8253968253968,184.36507936507937,-325.0,-231.8253968253968,237.53968253968253,-89.44444444444444,-83.09523809523809,-9.126984126984127,-1.349206349206349,-321.8253968253968
-137.38095238095238,-266.58730158730157,-315.3174603174603,-325.0,-226.58730158730157,-206.58730158730157,-325.0,-325.0,-325.0,-320.87301587301585,-308.015873015873,319.9206349206349,-325.0,87.22222222222221,-286.26984126984127,180.55555555555554,-325.0,-227.06349206349205,248.65079365079364,-87.53968253968253,-81.19047619047619,-1.0317460317460316,-0.873015873015873,-321.8253968253968
-137.38095238095238,-266.58730158730157,-315.3174603174603,-325.0,-226.58730158730157,-206.58730158730157,-325.0,-325.0,-325.0,-320.87301587301585,-308.015873015873,319.9206349206349,-325.0,87.22222222222221,-286.26984126984127,180.55555555555554,-325.0,-227.06349206349205,248.65079365079364,-87.53968253968253,-81.19047619047619,-1.0317460317460316,-0.873015873015873,-321.8253968253968
-134.52380952380952,-261.1904761904762,-308.6507936507936,-325.0,-222.14285714285714,-202.46031746031744,-325.0,-325.0,-325.0,-314.36507936507934,-301.984126984127,313.4126984126984,-325.0,113.4126984126984,-280.39682539682536,176.58730158730157,-325.0,-222.61904761904762,271.19047619047615,-85.63492063492063,-79.6031746031746,3.4126984126984126,-0.873015873015873,-321.8253968253968
-134.52380952380952,-261.1904761904762,-308.6507936507936,-325.0,-222.14285714285714,-202.46031746031744,-325.0,-325.0,-325.0,-314.36507936507934,-301.984126984127,313.4126984126984,-325.0,113.4126984126984,-280.39682539682536,176.58730158730157,-325.0,-222.61904761904762,271.19047619047615,-85.63492063492063,-79.6031746031746,3.4126984126984126,-0.873015873015873,-321.8253968253968
-123.88888888888889,-256.90476190476187,-303.57142857142856,-325.0,-218.4920634920635,-199.12698412698413,-325.0,-325.0,-325.0,-308.968253968254,-297.06349206349205,308.17460317460313,-325.0,118.8095238095238,-275.7936507936508,173.73015873015873,-325.0,-218.96825396825395,285.6349206349206,-84.36507936507937,-78.17460317460316,3.73015873015873,-0.3968253968253968,-166.26984126984127
-123.88888888888889,-256.90476190476187,-303.57142857142856,-325.0,-218.4920634920635,-199.12698412698413,-325.0,-325.0,-325.0,-308.968253968254,-297.06349206349205,308.17460317460313,-325.0,118.8095238095238,-275.7936507936508,173.73015873015873,-325.0,-218.96825396825395,285.6349206349206,-84.36507936507937,-78.17460317460316,3.73015873015873,-0.3968253968253968,-166.26984126984127
-45.15873015873016,-251.5079365079365,-297.22222222222223,-325.0,-213.88888888888889,-195.0,-325.0,-325.0,-325.0,-302.3015873015873,-291.19047619047615,301.66666666666663,-325.0,116.42857142857142,-270.07936507936506,170.07936507936506,-325.0,-214.68253968253967,290.7142857142857,-82.46031746031746,-76.42857142857143,-0.23809523809523808,-0.873015873015873,-166.26984126984127
-45.15873015873016,-251.5079365079365,-297.22222222222223,-325.0,-213.88888888888889,-195.0,-325.0,-325.0,-325.0,-302.3015873015873,-291.19047619047615,301.66666666666663,-325.0,116.42857142857142,-270.07936507936506,170.07936507936506,-325.0,-214.68253968253967,290.7142857142857,-82.46031746031746,-76.42857142857143,-0.23809523809523808,-0.873015873015873,-166.26984126984127
35.476190476190474,-246.42857142857142,-291.031746031746,-325.0,-209.76190476190476,-190.87301587301587,-325.0,-325.0,-325.0,-296.26984126984127,-285.3174603174603,295.1587301587301,-325.0,121.19047619047619,-264.68253968253964,166.42857142857142,-325.0,-210.3968253968254,298.3333333333333,-80.71428571428571,-74.68253968253968,-8.809523809523808,-0.5555555555555556,-166.26984126984127
35.476190476190474,-246.42857142857142,-291.031746031746,-325.0,-209.76190476190476,-190.87301587301587,-325.0,-325.0,-325.0,-296.26984126984127,-285.3174603174603,295.1587301587301,-325.0,121.19047619047619,-264.68253968253964,166.42857142857142,-325.0,-210.3968253968254,298.3333333333333,-80.71428571428571,-74.68253968253968,-8.809523809523808,-0.5555555555555556,-166.26984126984127
89.28571428571428,-242.46031746031744,-286.26984126984127,-325.0,-206.42857142857142,-187.85714285714283,-325.0,-325.0,-325.0,-291.19047619047615,-280.7142857142857,290.07936507936506,-325.0,103.09523809523809,-260.39682539682536,163.57142857142856,-325.0,-206.9047619047619,298.3333333333333,-79.28571428571428,-73.4126984126984,7.063492063492063,-0.7142857142857142,-166.26984126984127
89.28571428571428,-242.46031746031744,-286.26984126984127,-325.0,-206.42857142857142,-187.85714285714283,-325.0,-325.0,-325.0,-291.19047619047615,-280.7142857142857,290.07936507936506,-325.0,103.09523809523809,-260.39682539682536,163.57142857142856,-325.0,-206.9047619047619,298.3333333333333,-79.28571428571428,-73.4126984126984,7.063492063492063,-0.7142857142857142,-166.26984126984127
89.44444444444444,-238.49206349206347,-281.3492063492063,-325.0,-202.93650793650792,-184.84126984126982,-325.0,-325.0,-325.0,-286.26984126984127,-276.1111111111111,285.1587301587301,-325.0,122.93650793650794,-256.1111111111111,160.87301587301587,-325.0,-203.57142857142856,305.1587301587301,-77.85714285714285,-72.14285714285714,-9.603174603174603,-0.873015873015873,-166.26984126984127
89.44444444444444,-238.49206349206347,-281.3492063492063,-325.0,-202.93650793650792,-184.84126984126982,-325.0,-325.0,-325.0,-286.26984126984127,-276.1111111111111,285.1587301587301,-325.0,122.93650793650794,-256.1111111111111,160.87301587301587,-325.0,-203.57142857142856,305.1587301587301,-77.85714285714285,-72.14285714285714,-9.603174603174603,-0.873015873015873,-166.26984126984127
114.04761904761904,-235.47619047619045,-277.85714285714283,-325.0,-200.55555555555554,-182.61904761904762,-325.0,-325.0,-325.0,-282.6190476190476,-272.77777777777777,281.66666666666663,-325.0,126.74603174603173,-252.93650793650792,158.65079365079364,-325.0,-201.19047619047618,300.55555555555554,-77.06349206349206,-71.19047619047619,-0.873015873015873,-0.23809523809523808,-321.8253968253968
114.04761904761904,-235.47619047619045,-277.85714285714283,-325.0,-200.55555555555554,-182.61904761904762,-325.0,-325.0,-325.0,-282.6190476190476,-272.77777777777777,281.66666666666663,-325.0,126.74603174603173,-252.93650793650792,158.65079365079364,-325.0,-201.19047619047618,300.55555555555554,-77.06349206349206,-71.19047619047619,-0.873015873015873,-0.23809523809523808,-321.8253968253968
145.3174603174603,-233.57142857142856,-275.4761904761905,-325.0,-198.96825396825395,-181.03174603174602,-325.0,-325.0,-325.0,-280.23809523809524,-270.55555555555554,279.2857142857143,-325.0,116.74603174603173,-250.87301587301585,157.2222222222222,-325.0,-199.44444444444443,291.3492063492063,-76.42857142857143,-70.55555555555556,3.888888888888889,-0.23809523809523808,-321.8253968253968
145.3174603174603,-233.57142857142856,-275.4761904761905,-325.0,-198.96825396825395,-181.03174603174602,-325.0,-325.0,-325.0,-280.23809523809524,-270.55555555555554,279.2857142857143,-325.0,116.74603174603173,-250.87301587301585,157.2222222222222,-325.0,-199.44444444444443,291.3492063492063,-76.42857142857143,-70.55555555555556,3.888888888888889,-0.23809523809523808,-321.8253968253968
101.82539682539682,-226.74603174603175,-267.38095238095235,-325.0,-193.4126984126984,-175.79365079365078,-325.0,-325.0,-325.0,-272.1428571428571,-262.9365079365079,270.87301587301585,-325.0,115.15873015873015,-243.88888888888889,152.61904761904762,-324.2063492063492,-194.04761904761904,280.55555555555554,-74.04761904761904,-68.17460317460318,8.015873015873016,-0.873015873015873,-321.8253968253968
101.82539682539682,-226.74603174603175,-267.38095238095235,-325.0,-193.4126984126984,-175.79365079365078,-325.0,-325.0,-325.0,-272.1428571428571,-262.9365079365079,270.87301587301585,-325.0,115.15873015873015,-243.88888888888889,152.61904761904762,-324.2063492063492,-194.04761904761904,280.55555555555554,-74.04761904761904,-68.17460317460318,8.015873015873016,-0.873015873015873,-321.8253968253968
64.36507936507937,-223.09523809523807,-263.0952380952381,-325.0,-190.23809523809524,-172.77777777777777,-325.0,-325.0,-325.0,-267.53968253968253,-258.8095238095238,266.26984126984127,-325.0,121.19047619047619,-239.9206349206349,150.23809523809524,-319.2857142857143,-190.87301587301587,280.39682539682536,-72.61904761904762,-67.06349206349206,-8.492063492063492,-0.7142857142857142,-321.8253968253968
64.36507936507937,-223.09523809523807,-263.0952380952381,-325.0,-190.23809523809524,-172.77777777777777,-325.0,-325.0,-325.0,-267.53968253968253,-258.8095238095238,266.26984126984127,-325.0,121.19047619047619,-239.9206349206349,150.23809523809524,-319.2857142857143,-190.87301587301587,280.39682539682536,-72.61904761904762,-67.06349206349206,-8.492063492063492,-0.7142857142857142,-321.8253968253968
64.36507936507937,-220.2380952380952,-259.9206349206349,-325.0,-187.85714285714283,-170.3968253968254,-325.0,-325.0,-325.0,-264.04761904761904,-255.47619047619045,262.9365079365079,-325.0,104.36507936507935,-236.9047619047619,148.33333333333331,-315.3174603174603,-188.65079365079364,274.8412698412698,-71.82539682539682,-66.11111111111111,11.984126984126984,-0.7142857142857142,-321.8253968253968
64.36507936507937,-220.2380952380952,-259.9206349206349,-325.0,-187.85714285714283,-170.3968253968254,-325.0,-325.0,-325.0,-264.04761904761904,-255.47619047619045,262.9365079365079,-325.0,104.36507936507935,-236.9047619047619,148.33333333333331,-315.3174603174603,-188.65079365079364,274.8412698412698,-71.82539682539682,-66.11111111111111,11.984126984126984,-0.7142857142857142,-321.8253968253968
48.01587301587301,-215.63492063492063,-254.36507936507934,-325.0,-184.04761904761904,-161.03174603174602,-325.0,-325.0,-319.9206349206349,-258.6507936507936,-250.3968253968254,257.22222222222223,-325.0,113.4126984126984,-232.14285714285714,145.3174603174603,-308.968253968254,-184.84126984126982,262.3015873015873,-70.23809523809524,-64.68253968253968,-8.968253968253968,-0.873015873015873,-166.26984126984127
48.01587301587301,-215.63492063492063,-254.36507936507934,-325.0,-184.04761904761904,-161.03174603174602,-325.0,-325.0,-319.9206349206349,-258.6507936507936,-250.3968253968254,257.22222222222223,-325.0,113.4126984126984,-232.14285714285714,145.3174603174603,-308.968253968254,-184.84126984126982,262.3015873015873,-70.23809523809524,-64.68253968253968,-8.968253968253968,-0.873015873015873,-166.26984126984127
75.31746031746032,-212.3015873015873,-250.07936507936506,-325.0,-181.19047619047618,-159.9206349206349,-325.0,-325.0,-314.68253968253964,-254.2063492063492,-246.26984126984127,252.77777777777777,-321.984126984127,89.76190476190476,-228.33333333333331,142.61904761904762,-303.73015873015873,-181.66666666666666,255.15873015873015,-68.96825396825396,-63.57142857142857,7.857142857142857,-0.3968253968253968,-166.26984126984127
75.31746031746032,-212.3015873015873,-250.07936507936506,-325.0,-181.19047619047618,-159.9206349206349,-325.0,-325.0,-314.68253968253964,-254.2063492063492,-246.26984126984127,252.77777777777777,-321.984126984127,89.76190476190476,-228.33333333333331,142.61904761904762,-303.73015873015873,-181.66666666666666,255.15873015873015,-68.96825396825396,-63.57142857142857,7.857142857142857,-0.3968253968253968,-166.26984126984127
55.95238095238095,-208.8095238095238,-245.79365079365078,-325.0,-178.17460317460316,-144.36507936507937,-323.57142857142856,-323.88888888888886,-309.4444444444444,-249.9206349206349,-242.3015873015873,248.33333333333331,-316.58730158730157,111.19047619047619,-224.68253968253967,140.07936507936506,-298.4920634920635,-178.96825396825395,263.73015873015873,-67.85714285714285,-62.460317460317455,-9.761904761904761,-0.07936507936507936,-166.26984126984127
55.95238095238095,-208.8095238095238,-245.79365079365078,-325.0,-178.17460317460316,-144.36507936507937,-323.57142857142856,-323.88888888888886,-309.4444444444444,-249.9206349206349,-242.3015873015873,248.33333333333331,-316.58730158730157,111.19047619047619,-224.68253968253967,140.07936507936506,-298.4920634920635,-178.96825396825395,263.73015873015873,-67.85714285714285,-62.460317460317455,-9.761904761904761,-0.07936507936507936,-166.26984126984127
68.33333333333333,-205.95238095238093,-242.77777777777777,-323.88888888888886,-175.95238095238093,-132.3015873015873,-319.4444444444444,-320.23809523809524,-305.4761904761905,-246.74603174603172,-239.44444444444443,245.47619047619045,-312.6190476190476,126.9047619047619,-221.66666666666666,138.17460317460316,-294.5238095238095,-176.74603174603175,271.19047619047615,-67.06349206349206,-61.82539682539682,11.666666666666666,0.5555555555555556,-166.26984126984127
68.33333333333333,-205.95238095238093,-242.77777777777777,-323.88888888888886,-175.95238095238093,-132.3015873015873,-319.4444444444444,-320.23809523809524,-305.4761904761905,-246.74603174603172,-239.44444444444443,245.47619047619045,-312.6190476190476,126.9047619047619,-221.66666666666666,138.17460317460316,-294.5238095238095,-176.74603174603175,271.19047619047615,-67.06349206349206,-61.82539682539682,11.666666666666666,0.5555555555555556,-166.26984126984127
79.28571428571428,-202.61904761904762,-238.65079365079364,-318.3333333333333,-173.09523809523807,-119.76190476190476,-314.04761904761904,-315.1587301587301,-300.55555555555554,-242.6190476190476,-235.79365079365078,241.19047619047618,-307.22222222222223,112.30158730158729,-218.17460317460316,136.11111111111111,-289.76190476190476,-173.73015873015873,266.4285714285714,-65.63492063492063,-60.55555555555555,-14.047619047619047,-0.873015873015873,-166.26984126984127
79.28571428571428,-202.61904761904762,-238.65079365079364,-318.3333333333333,-173.09523809523807,-119.76190476190476,-314.04761904761904,-315.1587301587301,-300.55555555555554,-242.6190476190476,-235.79365079365078,241.19047619047618,-307.22222222222223,112.30158730158729,-218.17460317460316,136.11111111111111,-289.76190476190476,-173.73015873015873,266.4285714285714,-65.63492063492063,-60.55555555555555,-14.047619047619047,-0.873015873015873,-166.26984126984127
77.06349206349206,-200.23809523809524,-235.63492063492063,-314.36507936507934,-171.19047619047618,-108.17460317460316,-310.23809523809524,-311.3492063492063,-296.90476190476187,-239.60317460317458,-232.77777777777777,238.015873015873,-303.57142857142856,112.46031746031746,-215.63492063492063,106.1111111111111,-286.1111111111111,-166.42857142857142,272.1428571428571,-65.0,-59.76190476190476,-5.476190476190476,-0.873015873015873,-321.8253968253968
77.06349206349206,-200.23809523809524,-235.63492063492063,-314.36507936507934,-171.19047619047618,-108.17460317460316,-310.23809523809524,-311.3492063492063,-296.90476190476187,-239.60317460317458,-232.77777777777777,238.015873015873,-303.57142857142856,112.46031746031746,-215.63492063492063,106.1111111111111,-286.1111111111111,-166.42857142857142,272.1428571428571,-65.0,-59.76190476190476,-5.476190476190476,-0.873015873015873,-321.8253968253968
62.14285714285714,-195.95238095238093,-230.55555555555554,-307.85714285714283,-167.38095238095238,-88.17460317460316,-303.73015873015873,-305.1587301587301,-290.87301587301585,-234.36507936507934,-228.015873015873,233.09523809523807,-297.22222222222223,110.87301587301587,-211.03174603174602,-4.2063492063492065,-280.23809523809524,-160.23809523809524,271.66666666666663,-63.73015873015873,-58.49206349206349,-12.619047619047619,-1.0317460317460316,-321.8253968253968
62.14285714285714,-195.95238095238093,-230.55555555555554,-307.85714285714283,-167.38095238095238,-88.17460317460316,-303.73015873015873,-305.1587301587301,-290.87301587301585,-234.36507936507934,-228.015873015873,233.09523809523807,-297.22222222222223,110.87301587301587,-211.03174603174602,-4.2063492063492065,-280.23809523809524,-160.23809523809524,271.66666666666663,-63.73015873015873,-58.49206349206349,-12.619047619047619,-1.0317460317460316,-321.8253968253968
108.33333333333333,-192.77777777777777,-226.74603174603175,-302.6190476190476,-164.68253968253967,-89.12698412698413,-298.8095238095238,-300.23809523809524,-286.1111111111111,-230.2380952380952,-224.2063492063492,228.96825396825395,-292.1428571428571,104.04761904761904,-207.69841269841268,-147.06349206349205,-275.4761904761905,-164.68253968253967,243.09523809523807,-62.460317460317455,-57.38095238095238,11.031746031746032,0.7142857142857142,-321.8253968253968
108.33333333333333,-192.77777777777777,-226.74603174603175,-302.6190476190476,-164.68253968253967,-89.12698412698413,-298.8095238095238,-300.23809523809524,-286.1111111111111,-230.2380952380952,-224.2063492063492,228.96825396825395,-292.1428571428571,104.04761904761904,-207.69841269841268,-147.06349206349205,-275.4761904761905,-164.68253968253967,243.09523809523807,-62.460317460317455,-57.38095238095238,11.031746031746032,0.7142857142857142,-321.8253968253968
108.96825396825396,-190.3968253968254,-223.88888888888889,-298.8095238095238,-162.77777777777777,-69.92063492063491,-295.1587301587301,-296.74603174603175,-282.46031746031747,-227.53968253968253,-221.5079365079365,226.1111111111111,-288.6507936507936,117.6984126984127,-205.15873015873015,-236.1111111111111,-272.1428571428571,-150.87301587301587,252.46031746031744,-61.82539682539682,-56.58730158730158,3.4126984126984126,-0.07936507936507936,-321.8253968253968
108.96825396825396,-190.3968253968254,-223.88888888888889,-298.8095238095238,-162.77777777777777,-69.92063492063491,-295.1587301587301,-296.74603174603175,-282.46031746031747,-227.53968253968253,-221.5079365079365,226.1111111111111,-288.6507936507936,117.6984126984127,-205.15873015873015,-236.1111111111111,-272.1428571428571,-150.87301587301587,252.46031746031744,-61.82539682539682,-56.58730158730158,3.4126984126984126,-0.07936507936507936,-321.8253968253968
155.0,-185.63492063492063,-218.17460317460316,-291.3492063492063,-158.8095238095238,-50.39682539682539,-287.6984126984127,-289.6031746031746,-275.4761904761905,-221.8253968253968,-216.1111111111111,220.2380952380952,-281.19047619047615,113.57142857142857,-200.07936507936506,-325.0,-265.1587301587301,-115.47619047619047,257.38095238095235,-60.238095238095234,-55.0,8.65079365079365,-0.3968253968253968,-321.8253968253968
155.0,-185.63492063492063,-218.17460317460316,-291.3492063492063,-158.8095238095238,-50.39682539682539,-287.6984126984127,-289.6031746031746,-275.4761904761905,-221.8253968253968,-216.1111111111111,220.2380952380952,-281.19047619047615,113.57142857142857,-200.07936507936506,-325.0,-265.1587301587301,-115.47619047619047,257.38095238095235,-60.238095238095234,-55.0,8.65079365079365,-0.3968253968253968,-321.8253968253968
172.14285714285714,-184.84126984126982,-217.2222222222222,-289.9206349206349,-158.17460317460316,-52.77777777777777,-286.58730158730157,-288.6507936507936,-274.36507936507934,-220.87301587301587,-215.15873015873015,219.28571428571428,-279.9206349206349,108.49206349206348,-199.28571428571428,-325.0,-264.04761904761904,-110.07936507936508,253.25396825396825,-59.92063492063492,-54.841269841269835,4.682539682539682,-1.0317460317460316,-166.26984126984127
172.14285714285714,-184.84126984126982,-217.2222222222222,-289.9206349206349,-158.17460317460316,-52.77777777777777,-286.58730158730157,-288.6507936507936,-274.36507936507934,-220.87301587301587,-215.15873015873015,219.28571428571428,-279.9206349206349,108.49206349206348,-199.28571428571428,-325.0,-264.04761904761904,-110.07936507936508,253.25396825396825,-59.92063492063492,-54.841269841269835,4.682539682539682,-1.0317460317460316,-166.26984126984127
159.12698412698413,-180.3968253968254,-211.8253968253968,-282.9365079365079,-154.2063492063492,-6.746031746031746,-279.2857142857143,-281.3492063492063,-267.6984126984127,-215.15873015873015,-209.9206349206349,213.88888888888889,-272.9365079365079,133.73015873015873,-194.36507936507937,-325.0,-257.22222222222223,-72.93650793650794,264.68253968253964,-58.33333333333333,-53.41269841269841,12.142857142857142,-0.3968253968253968,-166.26984126984127
159.12698412698413,-180.3968253968254,-211.8253968253968,-282.9365079365079,-154.2063492063492,-6.746031746031746,-279.2857142857143,-281.3492063492063,-267.6984126984127,-215.15873015873015,-209.9206349206349,213.88888888888889,-272.9365079365079,133.73015873015873,-194.36507936507937,-325.0,-257.22222222222223,-72.93650793650794,264.68253968253964,-58.33333333333333,-53.41269841269841,12.142857142857142,-0.3968253968253968,-166.26984126984127
159.12698412698413,-180.3968253968254,-211.8253968253968,-282.9365079365079,-154.2063492063492,-6.746031746031746,-279.2857142857143,-281.3492063492063,-267.6984126984127,-215.15873015873015,-209.9206349206349,213.88888888888889,-272.9365079365079,133.73015873015873,-194.36507936507937,-325.0,-257.22222222222223,-72.93650793650794,264.68253968253964,-58.33333333333333,-53.41269841269841,12.142857142857142,-0.3968253968253968,-166.26984126984127
159.12698412698413,-180.3968253968254,-211.8253968253968,-282.9365079365079,-154.2063492063492,-6.746031746031746,-279.2857142857143,-281.3492063492063,-267.6984126984127,-215.15873015873015,-209.9206349206349,213.88888888888889,-272.9365079365079,133.73015873015873,-194.36507936507937,-325.0,-257.22222222222223,-72.93650793650794,264.68253968253964,-58.33333333333333,-53.41269841269841,12.142857142857142,-0.3968253968253968,-166.26984126984127
201.34920634920633,-174.36507936507937,-204.68253968253967,-273.57142857142856,-149.28571428571428,16.904761904761905,-270.23809523809524,-272.6190476190476,-259.2857142857143,-208.015873015873,-203.25396825396825,206.26984126984127,-263.73015873015873,141.66666666666666,-188.17460317460316,-325.0,-248.8095238095238,-33.57142857142857,272.6190476190476,-56.42857142857142,-51.507936507936506,12.142857142857142,0.23809523809523808,-166.26984126984127
201.34920634920633,-174.36507936507937,-204.68253968253967,-273.57142857142856,-149.28571428571428,16.904761904761905,-270.23809523809524,-272.6190476190476,-259.2857142857143,-208.015873015873,-203.25396825396825,206.26984126984127,-263.73015873015873,141.66666666666666,-188.17460317460316,-325.0,-248.8095238095238,-33.57142857142857,272.6190476190476,-56.42857142857142,-51.507936507936506,12.142857142857142,0.23809523809523808,-166.26984126984127
201.34920634920633,-174.36507936507937,-204.68253968253967,-273.57142857142856,-149.28571428571428,16.904761904761905,-270.23809523809524,-272.6190476190476,-259.2857142857143,-208.015873015873,-203.25396825396825,206.26984126984127,-263.73015873015873,141.66666666666666,-188.17460317460316,-325.0,-248.8095238095238,-33.57142857142857,272.6190476190476,-56.42857142857142,-51.507936507936506,12.142857142857142,0.23809523809523808,-166.26984126984127
201.34920634920633,-174.36507936507937,-204.68253968253967,-273.57142857142856,-149.28571428571428,16.904761904761905,-270.23809523809524,-272.6190476190476,-259.2857142857143,-208.015873015873,-203.25396825396825,206.26984126984127,-263.73015873015873,141.66666666666666,-188.17460317460316,-325.0,-248.8095238095238,-33.57142857142857,272.6190476190476,-56.42857142857142,-51.507936507936506,12.142857142857142,0.23809523809523808,-166.26984126984127
238.015873015873,-168.65079365079364,-197.69841269841268,-264.2063492063492,-144.36507936507937,43.095238095238095,-261.5079365079365,-263.88888888888886,-250.55555555555554,-201.03174603174602,-196.58730158730157,199.44444444444443,-255.15873015873015,125.47619047619047,-181.984126984127,-325.0,-240.55555555555554,-18.174603174603174,263.57142857142856,-54.68253968253968,-49.6031746031746,11.825396825396824,0.7142857142857142,-321.8253968253968
238.015873015873,-168.65079365079364,-197.69841269841268,-264.2063492063492,-144.36507936507937,43.095238095238095,-261.5079365079365,-263.88888888888886,-250.55555555555554,-201.03174603174602,-196.58730158730157,199.44444444444443,-255.15873015873015,125.47619047619047,-181.984126984127,-325.0,-240.55555555555554,-18.174603174603174,263.57142857142856,-54.68253968253968,-49.6031746031746,11.825396825396824,0.7142857142857142,-321.8253968253968
269.44444444444446,-164.52380952380952,-192.93650793650792,-257.6984126984127,-140.87301587301587,59.44444444444444,-255.0,-257.6984126984127,-244.52380952380952,-196.11111111111111,-191.98412698412696,194.04761904761904,-248.8095238095238,144.52380952380952,-177.53968253968253,-325.0,-234.52380952380952,-1.1904761904761905,270.39682539682536,-53.25396825396825,-48.49206349206349,-0.5555555555555556,0.5555555555555556,-321.8253968253968
269.44444444444446,-164.52380952380952,-192.93650793650792,-257.6984126984127,-140.87301587301587,59.44444444444444,-255.0,-257.6984126984127,-244.52380952380952,-196.11111111111111,-191.98412698412696,194.04761904761904,-248.8095238095238,144.52380952380952,-177.53968253968253,-325.0,-234.52380952380952,-1.1904761904761905,270.39682539682536,-53.25396825396825,-48.49206349206349,-0.5555555555555556,0.5555555555555556,-321.8253968253968
273.73015873015873,-162.93650793650792,-191.19047619047618,-255.47619047619045,-139.6031746031746,67.38095238095238,-252.93650793650792,-255.47619047619045,-242.46031746031744,-194.36507936507937,-190.3968253968254,192.46031746031744,-246.74603174603172,151.5079365079365,-176.11111111111111,-325.0,-232.46031746031744,4.2063492063492065,274.2063492063492,-52.61904761904761,-48.01587301587301,12.142857142857142,1.349206349206349,-321.8253968253968
273.73015873015873,-162.93650793650792,-191.19047619047618,-255.47619047619045,-139.6031746031746,67.38095238095238,-252.93650793650792,-255.47619047619045,-242.46031746031744,-194.36507936507937,-190.3968253968254,192.46031746031744,-246.74603174603172,151.5079365079365,-176.11111111111111,-325.0,-232.46031746031744,4.2063492063492065,274.2063492063492,-52.61904761904761,-48.01587301587301,12.142857142857142,1.349206349206349,-321.8253968253968
273.73015873015873,-162.93650793650792,-191.19047619047618,-255.47619047619045,-139.6031746031746,67.38095238095238,-252.93650793650792,-255.47619047619045,-242.46031746031744,-194.36507936507937,-190.3968253968254,192.46031746031744,-246.74603174603172,151.5079365079365,-176.11111111111111,-325.0,-232.46031746031744,4.2063492063492065,274.2063492063492,-52.61904761904761,-48.01587301587301,12.142857142857142,1.349206349206349,-321.8253968253968
273.73015873015873,-162.93650793650792,-191.19047619047618,-255.47619047619045,-139.6031746031746,67.38095238095238,-252.93650793650792,-255.47619047619045,-242.46031746031744,-194.36507936507937,-190.3968253968254,192.46031746031744,-246.74603174603172,151.5079365079365,-176.11111111111111,-325.0,-232.46031746031744,4.2063492063492065,274.2063492063492,-52.61904761904761,-48.01587301587301,12.142857142857142,1.349206349206349,-321.8253968253968
325.0,-156.26984126984127,-183.4126984126984,-244.84126984126982,-134.04761904761904,71.82539682539682,-242.3015873015873,-245.47619047619045,-232.6190476190476,-186.11111111111111,-182.77777777777777,173.73015873015873,-236.42857142857142,126.26984126984127,-168.96825396825395,-325.0,-222.77777777777777,16.746031746031743,250.3968253968254,-50.55555555555555,-46.269841269841265,4.841269841269841,-0.7142857142857142,-321.8253968253968
325.0,-156.26984126984127,-183.4126984126984,-244.84126984126982,-134.04761904761904,71.82539682539682,-242.3015873015873,-245.47619047619045,-232.6190476190476,-186.11111111111111,-182.77777777777777,173.73015873015873,-236.42857142857142,126.26984126984127,-168.96825396825395,-325.0,-222.77777777777777,16.746031746031743,250.3968253968254,-50.55555555555555,-46.269841269841265,4.841269841269841,-0.7142857142857142,-321.8253968253968
314.04761904761904,-153.09523809523807,-179.60317460317458,-239.76190476190476,-131.34920634920636,109.12698412698413,-237.2222222222222,-240.55555555555554,-227.69841269841268,-182.3015873015873,-179.12698412698413,180.3968253968254,-231.5079365079365,148.33333333333331,-165.63492063492063,-325.0,-218.015873015873,40.39682539682539,269.9206349206349,-49.44444444444444,-45.0,3.571428571428571,-1.0317460317460316,-166.26984126984127
314.04761904761904,-153.09523809523807,-179.60317460317458,-239.76190476190476,-131.34920634920636,109.12698412698413,-237.2222222222222,-240.55555555555554,-227.69841269841268,-182.3015873015873,-179.12698412698413,180.3968253968254,-231.5079365079365,148.33333333333331,-165.63492063492063,-325.0,-218.015873015873,40.39682539682539,269.9206349206349,-49.44444444444444,-45.0,3.571428571428571,-1.0317460317460316,-166.26984126984127
325.0,-150.7142857142857,-176.58730158730157,-235.63492063492063,-129.44444444444443,99.44444444444444,-233.25396825396825,-236.74603174603175,-224.04761904761904,-179.44444444444443,-176.26984126984127,173.88888888888889,-227.53968253968253,138.4920634920635,-162.77777777777777,-325.0,-214.36507936507937,48.33333333333333,259.9206349206349,-48.650793650793645,-44.2063492063492,-3.73015873015873,0.07936507936507936,-166.26984126984127
325.0,-150.7142857142857,-176.58730158730157,-235.63492063492063,-129.44444444444443,99.44444444444444,-233.25396825396825,-236.74603174603175,-224.04761904761904,-179.44444444444443,-176.26984126984127,173.88888888888889,-227.53968253968253,138.4920634920635,-162.77777777777777,-325.0,-214.36507936507937,48.33333333333333,259.9206349206349,-48.650793650793645,-44.2063492063492,-3.73015873015873,0.07936507936507936,-166.26984126984127
325.0,-148.17460317460316,-173.57142857142856,-231.66666666666666,-127.22222222222221,118.33333333333333,-229.44444444444443,-232.93650793650792,-220.2380952380952,-176.26984126984127,-173.25396825396825,174.52380952380952,-223.7301587301587,142.3015873015873,-160.07936507936506,-325.0,-210.7142857142857,55.63492063492063,263.57142857142856,-47.698412698412696,-43.41269841269841,3.095238095238095,-0.3968253968253968,-166.26984126984127
325.0,-148.17460317460316,-173.57142857142856,-231.66666666666666,-127.22222222222221,118.33333333333333,-229.44444444444443,-232.93650793650792,-220.2380952380952,-176.26984126984127,-173.25396825396825,174.52380952380952,-223.7301587301587,142.3015873015873,-160.07936507936506,-325.0,-210.7142857142857,55.63492063492063,263.57142857142856,-47.698412698412696,-43.41269841269841,3.095238095238095,-0.3968253968253968,-166.26984126984127
325.0,-145.63492063492063,-170.7142857142857,-227.53968253968253,-125.15873015873015,103.73015873015872,-225.47619047619045,-229.12698412698413,-216.58730158730157,-173.25396825396825,-170.3968253968254,155.47619047619048,-220.07936507936506,124.68253968253967,-157.53968253968253,-325.0,-207.2222222222222,54.68253968253968,247.06349206349205,-46.904761904761905,-42.61904761904761,-4.841269841269841,-0.873015873015873,-166.26984126984127
325.0,-145.63492063492063,-170.7142857142857,-227.53968253968253,-125.15873015873015,103.73015873015872,-225.47619047619045,-229.12698412698413,-216.58730158730157,-173.25396825396825,-170.3968253968254,155.47619047619048,-220.07936507936506,124.68253968253967,-157.53968253968253,-325.0,-207.2222222222222,54.68253968253968,247.06349206349205,-46.904761904761905,-42.61904761904761,-4.841269841269841,-0.873015873015873,-166.26984126984127
325.0,-143.25396825396825,-167.85714285714286,-223.7301587301587,-123.09523809523809,122.46031746031746,-221.8253968253968,-225.47619047619045,-213.09523809523807,-170.23809523809524,-167.69841269841268,165.63492063492063,-216.26984126984127,142.61904761904762,-155.0,-325.0,-203.7301587301587,70.23809523809524,252.14285714285714,-46.11111111111111,-41.98412698412698,3.4126984126984126,-0.873015873015873,-166.26984126984127
325.0,-143.25396825396825,-167.85714285714286,-223.7301587301587,-123.09523809523809,122.46031746031746,-221.8253968253968,-225.47619047619045,-213.09523809523807,-170.23809523809524,-167.69841269841268,165.63492063492063,-216.26984126984127,142.61904761904762,-155.0,-325.0,-203.7301587301587,70.23809523809524,252.14285714285714,-46.11111111111111,-41.98412698412698,3.4126984126984126,-0.873015873015873,-166.26984126984127
325.0,-141.34920634920636,-165.63492063492063,-221.34920634920633,-121.34920634920634,113.25396825396825,-218.96825396825395,-222.46031746031744,-210.3968253968254,-168.015873015873,-165.63492063492063,142.61904761904762,-213.7301587301587,124.2063492063492,-153.09523809523807,-325.0,-201.19047619047618,86.1111111111111,247.69841269841268,-45.476190476190474,-41.34920634920635,4.0476190476190474,-1.1904761904761905,-321.8253968253968
325.0,-141.34920634920636,-165.63492063492063,-221.34920634920633,-121.34920634920634,113.25396825396825,-218.96825396825395,-222.46031746031744,-210.3968253968254,-168.015873015873,-165.63492063492063,142.61904761904762,-213.7301587301587,124.2063492063492,-153.09523809523807,-325.0,-201.19047619047618,86.1111111111111,247.69841269841268,-45.476190476190474,-41.34920634920635,4.0476190476190474,-1.1904761904761905,-321.8253968253968
325.0,-138.4920634920635,-162.14285714285714,-216.42857142857142,-119.12698412698413,142.3015873015873,-214.52380952380952,-218.4920634920635,-206.1111111111111,-164.52380952380952,-162.3015873015873,158.17460317460316,-209.12698412698413,146.11111111111111,-149.9206349206349,-325.0,-196.9047619047619,103.4126984126984,257.06349206349205,-44.84126984126984,-40.39682539682539,2.619047619047619,-0.07936507936507936,-321.8253968253968
325.0,-138.4920634920635,-162.14285714285714,-216.42857142857142,-119.12698412698413,142.3015873015873,-214.52380952380952,-218.4920634920635,-206.1111111111111,-164.52380952380952,-162.3015873015873,158.17460317460316,-209.12698412698413,146.11111111111111,-149.9206349206349,-325.0,-196.9047619047619,103.4126984126984,257.06349206349205,-44.84126984126984,-40.39682539682539,2.619047619047619,-0.07936507936507936,-321.8253968253968
325.0,-136.26984126984127,-159.44444444444443,-212.77777777777777,-117.22222222222221,132.3015873015873,-210.87301587301587,-215.0,-202.77777777777777,-161.66666666666666,-159.6031746031746,125.95238095238095,-205.63492063492063,122.93650793650794,-147.38095238095238,-325.0,-193.7301587301587,101.03174603174602,241.66666666666666,-44.047619047619044,-39.76190476190476,-3.888888888888889,-1.1904761904761905,-321.8253968253968
325.0,-136.26984126984127,-159.44444444444443,-212.77777777777777,-117.22222222222221,132.3015873015873,-210.87301587301587,-215.0,-202.77777777777777,-161.66666666666666,-159.6031746031746,125.95238095238095,-205.63492063492063,122.93650793650794,-147.38095238095238,-325.0,-193.7301587301587,101.03174603174602,241.66666666666666,-44.047619047619044,-39.76190476190476,-3.888888888888889,-1.1904761904761905,-321.8253968253968
325.0,-134.52380952380952,-157.2222222222222,-210.07936507936506,-114.52380952380952,148.65079365079364,-208.17460317460316,-212.14285714285714,-200.3968253968254,-159.6031746031746,-157.53968253968253,149.76190476190476,-202.93650793650792,140.7142857142857,-145.47619047619048,-325.0,-191.03174603174602,101.5079365079365,247.53968253968253,-43.25396825396825,-39.12698412698413,-4.2063492063492065,-0.23809523809523808,-321.8253968253968
325.0,-134.52380952380952,-157.2222222222222,-210.07936507936506,-114.52380952380952,148.65079365079364,-208.17460317460316,-212.14285714285714,-200.3968253968254,-159.6031746031746,-157.53968253968253,149.76190476190476,-202.93650793650792,140.7142857142857,-145.47619047619048,-325.0,-191.03174603174602,101.5079365079365,247.53968253968253,-43.25396825396825,-39.12698412698413,-4.2063492063492065,-0.23809523809523808,-321.8253968253968
325.0,-132.93650793650792,-155.47619047619048,-207.38095238095238,-108.80952380952381,151.03174603174602,-205.47619047619045,-209.76190476190476,-197.85714285714283,-157.69841269841268,-155.79365079365078,125.95238095238095,-200.55555555555554,130.87301587301587,-143.88888888888889,-0.07936507936507936,-188.8095238095238,103.57142857142857,242.77777777777777,-42.93650793650794,-38.80952380952381,-8.492063492063492,-0.5555555555555556,-321.8253968253968
325.0,-132.93650793650792,-155.47619047619048,-207.38095238095238,-108.80952380952381,151.03174603174602,-205.47619047619045,-209.76190476190476,-197.85714285714283,-157.69841269841268,-155.79365079365078,125.95238095238095,-200.55555555555554,130.87301587301587,-143.88888888888889,-0.07936507936507936,-188.8095238095238,103.57142857142857,242.77777777777777,-42.93650793650794,-38.80952380952381,-8.492063492063492,-0.5555555555555556,-321.8253968253968
325.0,-130.23809523809524,-152.46031746031744,-203.09523809523807,-90.07936507936508,164.36507936507937,-201.19047619047618,-205.79365079365078,-193.7301587301587,-154.52380952380952,-152.61904761904762,118.8095238095238,-196.58730158730157,127.38095238095238,-141.03174603174602,325.0,-185.0,113.25396825396825,240.2380952380952,-42.14285714285714,-38.01587301587301,-0.3968253968253968,-0.7142857142857142,-166.26984126984127
325.0,-130.23809523809524,-152.46031746031744,-203.09523809523807,-90.07936507936508,164.36507936507937,-201.19047619047618,-205.79365079365078,-193.7301587301587,-154.52380952380952,-152.61904761904762,118.8095238095238,-196.58730158730157,127.38095238095238,-141.03174603174602,325.0,-185.0,113.25396825396825,240.2380952380952,-42.14285714285714,-38.01587301587301,-0.3968253968253968,-0.7142857142857142,-166.26984126984127
325.0,-127.53968253968253,-149.12698412698413,-198.8095238095238,-84.68253968253968,161.19047619047618,-197.38095238095238,-201.5079365079365,-189.9206349206349,-151.03174603174602,-149.44444444444443,84.36507936507937,-192.3015873015873,104.2063492063492,-138.17460317460316,325.0,-181.03174603174602,113.73015873015872,223.7301587301587,-41.19047619047619,-37.22222222222222,-3.888888888888889,-0.873015873015873,-166.26984126984127
325.0,-127.53968253968253,-149.12698412698413,-198.8095238095238,-84.68253968253968,161.19047619047618,-197.38095238095238,-201.5079365079365,-189.9206349206349,-151.03174603174602,-149.44444444444443,84.36507936507937,-192.3015873015873,104.2063492063492,-138.17460317460316,325.0,-181.03174603174602,113.73015873015872,223.7301587301587,-41.19047619047619,-37.22222222222222,-3.888888888888889,-0.873015873015873,-166.26984126984127
325.0,-125.79365079365078,-146.9047619047619,-196.26984126984127,-67.53968253968253,181.8253968253968,-195.0,-198.96825396825395,-187.38095238095238,-149.12698412698413,-147.69841269841268,111.03174603174602,-189.76190476190476,124.68253968253967,-136.26984126984127,325.0,-178.65079365079364,116.42857142857142,228.17460317460316,-40.714285714285715,-36.58730158730159,-5.7936507936507935,0.5555555555555556,-166.26984126984127
325.0,-125.79365079365078,-146.9047619047619,-196.26984126984127,-67.53968253968253,181.8253968253968,-195.0,-198.96825396825395,-187.38095238095238,-149.12698412698413,-147.69841269841268,111.03174603174602,-189.76190476190476,124.68253968253967,-136.26984126984127,325.0,-178.65079365079364,116.42857142857142,228.17460317460316,-40.714285714285715,-36.58730158730159,-5.7936507936507935,0.5555555555555556,-166.26984126984127
325.0,-125.79365079365078,-146.9047619047619,-196.26984126984127,-67.53968253968253,181.8253968253968,-195.0,-198.96825396825395,-187.38095238095238,-149.12698412698413,-147.69841269841268,111.03174603174602,-189.76190476190476,124.68253968253967,-136.26984126984127,325.0,-178.65079365079364,116.42857142857142,228.17460317460316,-40.714285714285715,-36.58730158730159,-5.7936507936507935,0.5555555555555556,-166.26984126984127
325.0,-125.79365079365078,-146.9047619047619,-196.26984126984127,-67.53968253968253,181.8253968253968,-195.0,-198.96825396825395,-187.38095238095238,-149.12698412698413,-147.69841269841268,111.03174603174602,-189.76190476190476,124.68253968253967,-136.26984126984127,325.0,-178.65079365079364,116.42857142857142,228.17460317460316,-40.714285714285715,-36.58730158730159,-5.7936507936507935,0.5555555555555556,-166.26984126984127
325.0,-121.19047619047619,-141.66666666666666,-188.96825396825395,-46.11111111111111,191.98412698412696,-187.53968253968253,-191.98412698412696,-180.55555555555554,-143.57142857142856,-142.3015873015873,96.74603174603175,-182.61904761904762,134.36507936507937,-131.34920634920636,325.0,-171.8253968253968,138.17460317460316,231.34920634920633,-39.12698412698413,-35.317460317460316,3.73015873015873,-0.07936507936507936,-166.26984126984127
325.0,-121.19047619047619,-141.66666666666666,-188.96825396825395,-46.11111111111111,191.98412698412696,-187.53968253968253,-191.98412698412696,-180.55555555555554,-143.57142857142856,-142.3015873015873,96.74603174603175,-182.61904761904762,134.36507936507937,-131.34920634920636,325.0,-171.8253968253968,138.17460317460316,231.34920634920633,-39.12698412698413,-35.317460317460316,3.73015873015873,-0.07936507936507936,-166.26984126984127
325.0,-119.12698412698413,-139.28571428571428,-185.79365079365078,-48.01587301587301,184.36507936507937,-184.36507936507937,-188.96825396825395,-177.69841269841268,-141.19047619047618,-139.9206349206349,60.55555555555555,-179.60317460317458,111.19047619047619,-129.28571428571428,325.0,-169.12698412698413,143.09523809523807,222.61904761904762,-38.65079365079365,-34.84126984126984,-4.2063492063492065,-0.5555555555555556,-321.8253968253968
325.0,-119.12698412698413,-139.28571428571428,-185.79365079365078,-48.01587301587301,184.36507936507937,-184.36507936507937,-188.96825396825395,-177.69841269841268,-141.19047619047618,-139.9206349206349,60.55555555555555,-179.60317460317458,111.19047619047619,-129.28571428571428,325.0,-169.12698412698413,143.09523809523807,222.61904761904762,-38.65079365079365,-34.84126984126984,-4.2063492063492065,-0.5555555555555556,-321.8253968253968
325.0,-117.22222222222221,-136.74603174603175,-182.61904761904762,-33.095238095238095,207.85714285714283,-181.34920634920633,-185.95238095238093,-174.68253968253967,-138.65079365079364,-137.69841269841268,93.57142857142857,-176.58730158730157,136.74603174603175,-127.06349206349206,325.0,-166.26984126984127,155.0,229.76190476190476,-37.857142857142854,-34.2063492063492,2.9365079365079363,1.1904761904761905,-321.8253968253968
325.0,-117.22222222222221,-136.74603174603175,-182.61904761904762,-33.095238095238095,207.85714285714283,-181.34920634920633,-185.95238095238093,-174.68253968253967,-138.65079365079364,-137.69841269841268,93.57142857142857,-176.58730158730157,136.74603174603175,-127.06349206349206,325.0,-166.26984126984127,155.0,229.76190476190476,-37.857142857142854,-34.2063492063492,2.9365079365079363,1.1904761904761905,-321.8253968253968
325.0,-116.42857142857142,-136.26984126984127,-181.8253968253968,-31.98412698412698,204.68253968253967,-180.55555555555554,-185.15873015873015,-174.04761904761904,-138.015873015873,-137.22222222222223,90.07936507936508,-175.79365079365078,132.61904761904762,-126.58730158730158,325.0,-165.3174603174603,157.38095238095238,226.26984126984127,-37.53968253968254,-34.2063492063492,11.666666666666666,1.1904761904761905,-321.8253968253968
325.0,-116.42857142857142,-136.26984126984127,-181.8253968253968,-31.98412698412698,204.68253968253967,-180.55555555555554,-185.15873015873015,-174.04761904761904,-138.015873015873,-137.22222222222223,90.07936507936508,-175.79365079365078,132.61904761904762,-126.58730158730158,325.0,-165.3174603174603,157.38095238095238,226.26984126984127,-37.53968253968254,-34.2063492063492,11.666666666666666,1.1904761904761905,-321.8253968253968
325.0,-113.57142857142857,-132.3015873015873,-176.42857142857142,-4.365079365079365,210.55555555555554,-175.3174603174603,-179.9206349206349,-168.96825396825395,-134.2063492063492,-133.25396825396825,77.22222222222221,-170.7142857142857,137.06349206349205,-122.93650793650794,325.0,-160.55555555555554,170.3968253968254,220.55555555555554,-36.58730158730159,-32.93650793650794,3.4126984126984126,0.3968253968253968,-321.8253968253968
325.0,-113.57142857142857,-132.3015873015873,-176.42857142857142,-4.365079365079365,210.55555555555554,-175.3174603174603,-179.9206349206349,-168.96825396825395,-134.2063492063492,-133.25396825396825,77.22222222222221,-170.7142857142857,137.06349206349205,-122.93650793650794,325.0,-160.55555555555554,170.3968253968254,220.55555555555554,-36.58730158730159,-32.93650793650794,3.4126984126984126,0.3968253968253968,-321.8253968253968
325.0,-111.5079365079365,-130.07936507936506,-173.4126984126984,-5.317460317460317,197.38095238095238,-172.3015873015873,-177.06349206349205,-166.11111111111111,-131.66666666666666,-131.19047619047618,33.41269841269841,-167.85714285714286,135.15873015873015,-121.19047619047619,318.4920634920635,-157.85714285714286,171.66666666666666,205.95238095238093,-35.95238095238095,-32.3015873015873,-4.0476190476190474,-1.0317460317460316,-321.8253968253968
325.0,-111.5079365079365,-130.07936507936506,-173.4126984126984,-5.317460317460317,197.38095238095238,-172.3015873015873,-177.06349206349205,-166.11111111111111,-131.66666666666666,-131.19047619047618,33.41269841269841,-167.85714285714286,135.15873015873015,-121.19047619047619,318.4920634920635,-157.85714285714286,171.66666666666666,205.95238095238093,-35.95238095238095,-32.3015873015873,-4.0476190476190474,-1.0317460317460316,-321.8253968253968
325.0,-109.6031746031746,-127.85714285714285,-170.55555555555554,17.857142857142858,224.04761904761904,-169.60317460317458,-174.04761904761904,-163.25396825396825,-129.44444444444443,-128.8095238095238,61.98412698412698,-165.0,152.3015873015873,-118.96825396825396,321.19047619047615,-155.3174603174603,192.14285714285714,221.03174603174602,-35.63492063492063,-31.825396825396822,3.888888888888889,-0.5555555555555556,-166.26984126984127
325.0,-109.6031746031746,-127.85714285714285,-170.55555555555554,17.857142857142858,224.04761904761904,-169.60317460317458,-174.04761904761904,-163.25396825396825,-129.44444444444443,-128.8095238095238,61.98412698412698,-165.0,152.3015873015873,-118.96825396825396,321.19047619047615,-155.3174603174603,192.14285714285714,221.03174603174602,-35.63492063492063,-31.825396825396822,3.888888888888889,-0.5555555555555556,-166.26984126984127
325.0,-109.12698412698413,-127.22222222222221,-169.76190476190476,20.71428571428571,225.0,-168.8095238095238,-173.4126984126984,-162.61904761904762,-128.8095238095238,-128.33333333333331,78.17460317460316,-164.36507936507937,151.19047619047618,-118.33333333333333,317.53968253968253,-154.52380952380952,198.17460317460316,222.61904761904762,-35.317460317460316,-31.666666666666664,12.619047619047619,0.07936507936507936,-166.26984126984127
325.0,-109.12698412698413,-127.22222222222221,-169.76190476190476,20.71428571428571,225.0,-168.8095238095238,-173.4126984126984,-162.61904761904762,-128.8095238095238,-128.33333333333331,78.17460317460316,-164.36507936507937,151.19047619047618,-118.33333333333333,317.53968253968253,-154.52380952380952,198.17460317460316,222.61904761904762,-35.317460317460316,-31.666666666666664,12.619047619047619,0.07936507936507936,-166.26984126984127
325.0,-107.38095238095238,-125.15873015873015,-166.9047619047619,28.49206349206349,234.36507936507934,-165.95238095238093,-170.7142857142857,-159.9206349206349,-126.74603174603173,-126.26984126984127,62.77777777777777,-161.66666666666666,143.88888888888889,-116.42857142857142,244.36507936507934,-151.8253968253968,215.95238095238093,219.9206349206349,-5.7936507936507935,-31.19047619047619,12.142857142857142,0.23809523809523808,-166.26984126984127
325.0,-107.38095238095238,-125.15873015873015,-166.9047619047619,28.49206349206349,234.36507936507934,-165.95238095238093,-170.7142857142857,-159.9206349206349,-126.74603174603173,-126.26984126984127,62.77777777777777,-161.66666666666666,143.88888888888889,-116.42857142857142,244.36507936507934,-151.8253968253968,215.95238095238093,219.9206349206349,-5.7936507936507935,-31.19047619047619,12.142857142857142,0.23809523809523808,-166.26984126984127
325.0,-104.68253968253968,-121.98412698412697,-162.77777777777777,36.904761904761905,242.77777777777777,-161.8253968253968,-166.42857142857142,-155.95238095238093,-123.4126984126984,-123.25396825396825,46.904761904761905,-157.38095238095238,135.79365079365078,-113.73015873015872,89.12698412698413,-147.85714285714286,234.04761904761904,216.58730158730157,-0.7142857142857142,-30.396825396825395,-0.3968253968253968,-0.23809523809523808,-166.26984126984127
325.0,-104.68253968253968,-121.98412698412697,-162.77777777777777,36.904761904761905,242.77777777777777,-161.8253968253968,-166.42857142857142,-155.95238095238093,-123.4126984126984,-123.25396825396825,46.904761904761905,-157.38095238095238,135.79365079365078,-113.73015873015872,89.12698412698413,-147.85714285714286,234.04761904761904,216.58730158730157,-0.7142857142857142,-30.396825396825395,-0.3968253968253968,-0.23809523809523808,-166.26984126984127
325.0,-102.46031746031746,-119.28571428571428,-159.12698412698413,54.841269841269835,255.15873015873015,-158.33333333333331,-163.25396825396825,-152.77777777777777,-120.87301587301586,-120.71428571428571,46.42857142857142,-153.88888888888889,150.7142857142857,-111.34920634920634,5.952380952380952,-144.84126984126982,242.77777777777777,224.36507936507934,64.68253968253968,-29.6031746031746,3.095238095238095,-0.23809523809523808,-166.26984126984127
325.0,-102.46031746031746,-119.28571428571428,-159.12698412698413,54.841269841269835,255.15873015873015,-158.33333333333331,-163.25396825396825,-152.77777777777777,-120.87301587301586,-120.71428571428571,46.42857142857142,-153.88888888888889,150.7142857142857,-111.34920634920634,5.952380952380952,-144.84126984126982,242.77777777777777,224.36507936507934,64.68253968253968,-29.6031746031746,3.095238095238095,-0.23809523809523808,-166.26984126984127
325.0,-101.98412698412697,-118.8095238095238,-158.8095238095238,57.857142857142854,250.3968253968254,-157.69841269841268,-162.3015873015873,-152.3015873015873,-120.23809523809523,-120.23809523809523,43.73015873015873,-153.09523809523807,140.7142857142857,-110.87301587301587,-28.96825396825397,-144.2063492063492,243.57142857142856,220.3968253968254,166.58730158730157,-29.444444444444443,12.3015873015873,0.23809523809523808,-321.8253968253968
325.0,-101.98412698412697,-118.8095238095238,-158.8095238095238,57.857142857142854,250.3968253968254,-157.69841269841268,-162.3015873015873,-152.3015873015873,-120.23809523809523,-120.23809523809523,43.73015873015873,-153.09523809523807,140.7142857142857,-110.87301587301587,-28.96825396825397,-144.2063492063492,243.57142857142856,220.3968253968254,166.58730158730157,-29.444444444444443,12.3015873015873,0.23809523809523808,-321.8253968253968
325.0,-98.96825396825396,-115.31746031746032,-153.73015873015873,73.4126984126984,253.25396825396825,-153.09523809523807,-158.015873015873,-147.69841269841268,-116.74603174603173,-116.74603174603173,39.6031746031746,-148.8095238095238,165.3174603174603,-107.6984126984127,-173.25396825396825,-139.9206349206349,248.015873015873,217.06349206349205,168.96825396825395,-28.65079365079365,4.365079365079365,-0.23809523809523808,-321.8253968253968
325.0,-98.96825396825396,-115.31746031746032,-153.73015873015873,73.4126984126984,253.25396825396825,-153.09523809523807,-158.015873015873,-147.69841269841268,-116.74603174603173,-116.74603174603173,39.6031746031746,-148.8095238095238,165.3174603174603,-107.6984126984127,-173.25396825396825,-139.9206349206349,248.015873015873,217.06349206349205,168.96825396825395,-28.65079365079365,4.365079365079365,-0.23809523809523808,-321.8253968253968
325.0,-97.6984126984127,-113.73015873015872,-151.8253968253968,76.74603174603175,247.38095238095238,-151.19047619047618,-155.95238095238093,-145.95238095238093,-115.15873015873015,-115.31746031746032,32.61904761904762,-146.74603174603175,142.77777777777777,-106.26984126984127,-255.3174603174603,-138.015873015873,252.46031746031744,213.09523809523807,321.66666666666663,-28.174603174603174,-0.23809523809523808,0.07936507936507936,-321.8253968253968
325.0,-97.6984126984127,-113.73015873015872,-151.8253968253968,76.74603174603175,247.38095238095238,-151.19047619047618,-155.95238095238093,-145.95238095238093,-115.15873015873015,-115.31746031746032,32.61904761904762,-146.74603174603175,142.77777777777777,-106.26984126984127,-255.3174603174603,-138.015873015873,252.46031746031744,213.09523809523807,321.66666666666663,-28.174603174603174,-0.23809523809523808,0.07936507936507936,-321.8253968253968
325.0,-96.1111111111111,-112.14285714285714,-149.12698412698413,96.26984126984127,257.85714285714283,-148.17460317460316,-153.57142857142856,-143.25396825396825,-113.4126984126984,-113.4126984126984,34.2063492063492,-144.52380952380952,147.85714285714286,-104.52380952380952,-294.68253968253964,-135.63492063492063,253.57142857142856,215.47619047619045,188.33333333333331,-27.698412698412696,-5.0,-0.07936507936507936,-321.8253968253968
325.0,-96.1111111111111,-112.14285714285714,-149.12698412698413,96.26984126984127,257.85714285714283,-148.17460317460316,-153.57142857142856,-143.25396825396825,-113.4126984126984,-113.4126984126984,34.2063492063492,-144.52380952380952,147.85714285714286,-104.52380952380952,-294.68253968253964,-135.63492063492063,253.57142857142856,215.47619047619045,188.33333333333331,-27.698412698412696,-5.0,-0.07936507936507936,-321.8253968253968
325.0,-95.0,-110.55555555555554,-147.2222222222222,94.68253968253968,253.88888888888889,-146.58730158730157,-151.66666666666666,-141.5079365079365,-111.98412698412697,-111.98412698412697,28.333333333333332,-142.61904761904762,145.47619047619048,-103.25396825396825,-309.9206349206349,-134.04761904761904,252.77777777777777,208.17460317460316,256.58730158730157,-27.22222222222222,-9.285714285714285,-0.873015873015873,-321.8253968253968
325.0,-95.0,-110.55555555555554,-147.2222222222222,94.68253968253968,253.88888888888889,-146.58730158730157,-151.66666666666666,-141.5079365079365,-111.98412698412697,-111.98412698412697,28.333333333333332,-142.61904761904762,145.47619047619048,-103.25396825396825,-309.9206349206349,-134.04761904761904,252.77777777777777,208.17460317460316,256.58730158730157,-27.22222222222222,-9.285714285714285,-0.873015873015873,-321.8253968253968
325.0,-92.61904761904762,-108.17460317460316,-144.04761904761904,105.95238095238095,268.3333333333333,-143.4126984126984,-148.4920634920635,-138.65079365079364,-109.44444444444444,-109.6031746031746,23.730158730158728,-139.44444444444443,151.03174603174602,-101.19047619047619,-325.0,-130.87301587301587,259.1269841269841,211.5079365079365,325.0,-26.9047619047619,-5.158730158730158,0.07936507936507936,-166.26984126984127
325.0,-92.61904761904762,-108.17460317460316,-144.04761904761904,105.95238095238095,268.3333333333333,-143.4126984126984,-148.4920634920635,-138.65079365079364,-109.44444444444444,-109.6031746031746,23.730158730158728,-139.44444444444443,151.03174603174602,-101.19047619047619,-325.0,-130.87301587301587,259.1269841269841,211.5079365079365,325.0,-26.9047619047619,-5.158730158730158,0.07936507936507936,-166.26984126984127
325.0,-85.31746031746032,-106.74603174603175,-142.14285714285714,105.31746031746032,264.2063492063492,-141.66666666666666,-146.74603174603175,-136.9047619047619,-108.01587301587301,-108.33333333333333,17.22222222222222,-137.69841269841268,152.3015873015873,-100.07936507936508,-325.0,-129.44444444444443,260.55555555555554,204.84126984126982,325.0,-18.015873015873016,-9.126984126984127,-0.23809523809523808,-166.26984126984127
325.0,-85.31746031746032,-106.74603174603175,-142.14285714285714,105.31746031746032,264.2063492063492,-141.66666666666666,-146.74603174603175,-136.9047619047619,-108.01587301587301,-108.33333333333333,17.22222222222222,-137.69841269841268,152.3015873015873,-100.07936507936508,-325.0,-129.44444444444443,260.55555555555554,204.84126984126982,325.0,-18.015873015873016,-9.126984126984127,-0.23809523809523808,-166.26984126984127
325.0,-59.12698412698413,-103.57142857142857,-138.015873015873,128.8095238095238,274.8412698412698,-137.53968253968253,-142.46031746031744,-132.77777777777777,-104.84126984126983,-105.15873015873015,7.698412698412698,-133.73015873015873,137.06349206349205,-97.22222222222221,-325.0,-125.79365079365078,268.4920634920635,199.28571428571428,325.0,191.5079365079365,12.142857142857142,-1.349206349206349,-166.26984126984127
325.0,-59.12698412698413,-103.57142857142857,-138.015873015873,128.8095238095238,274.8412698412698,-137.53968253968253,-142.46031746031744,-132.77777777777777,-104.84126984126983,-105.15873015873015,7.698412698412698,-133.73015873015873,137.06349206349205,-97.22222222222221,-325.0,-125.79365079365078,268.4920634920635,199.28571428571428,325.0,191.5079365079365,12.142857142857142,-1.349206349206349,-166.26984126984127
325.0,-59.12698412698413,-103.57142857142857,-138.015873015873,128.8095238095238,274.8412698412698,-137.53968253968253,-142.46031746031744,-132.77777777777777,-104.84126984126983,-105.15873015873015,7.698412698412698,-133.73015873015873,137.06349206349205,-97.22222222222221,-325.0,-125.79365079365078,268.4920634920635,199.28571428571428,325.0,191.5079365079365,12.142857142857142,-1.349206349206349,-166.26984126984127
325.0,-59.12698412698413,-103.57142857142857,-138.015873015873,128.8095238095238,274.8412698412698,-137.53968253968253,-142.46031746031744,-132.77777777777777,-104.84126984126983,-105.15873015873015,7.698412698412698,-133.73015873015873,137.06349206349205,-97.22222222222221,-325.0,-125.79365079365078,268.4920634920635,199.28571428571428,325.0,191.5079365079365,12.142857142857142,-1.349206349206349,-166.26984126984127
325.0,-59.12698412698413,-103.57142857142857,-138.015873015873,128.8095238095238,274.8412698412698,-137.53968253968253,-142.46031746031744,-132.77777777777777,-104.84126984126983,-105.15873015873015,7.698412698412698,-133.73015873015873,137.06349206349205,-97.22222222222221,-325.0,-125.79365079365078,268.4920634920635,199.28571428571428,325.0,191.5079365079365,12.142857142857142,-1.349206349206349,-166.26984126984127
325.0,-59.12698412698413,-103.57142857142857,-138.015873015873,128.8095238095238,274.8412698412698,-137.53968253968253,-142.46031746031744,-132.77777777777777,-104.84126984126983,-105.15873015873015,7.698412698412698,-133.73015873015873,137.06349206349205,-97.22222222222221,-325.0,-125.79365079365078,268.4920634920635,199.28571428571428,325.0,191.5079365079365,12.142857142857142,-1.349206349206349,-166.26984126984127
325.0,-59.12698412698413,-103.57142857142857,-138.015873015873,128.8095238095238,274.8412698412698,-137.53968253968253,-142.46031746031744,-132.77777777777777,-104.84126984126983,-105.15873015873015,7.698412698412698,-133.73015873015873,137.06349206349205,-97.22222222222221,-325.0,-125.79365079365078,268.4920634920635,199.28571428571428,325.0,191.5079365079365,12.142857142857142,-1.349206349206349,-321.8253968253968
325.0,-59.12698412698413,-103.57142857142857,-138.015873015873,128.8095238095238,274.8412698412698,-137.53968253968253,-142.46031746031744,-132.77777777777777,-104.84126984126983,-105.15873015873015,7.698412698412698,-133.73015873015873,137.06349206349205,-97.22222222222221,-325.0,-125.79365079365078,268.4920634920635,199.28571428571428,325.0,191.5079365079365,12.142857142857142,-1.349206349206349,-321.8253968253968
325.0,4.523809523809524,-90.39682539682539,-120.39682539682539,201.66666666666666,283.73015873015873,-120.07936507936508,-125.15873015873015,-116.1111111111111,-91.34920634920634,-92.14285714285714,-30.238095238095237,-116.74603174603173,139.9206349206349,-30.555555555555554,-325.0,-109.6031746031746,293.25396825396825,175.15873015873015,325.0,325.0,11.666666666666666,0.3968253968253968,-321.8253968253968
325.0,4.523809523809524,-90.39682539682539,-120.39682539682539,201.66666666666666,283.73015873015873,-120.07936507936508,-125.15873015873015,-116.1111111111111,-91.34920634920634,-92.14285714285714,-30.238095238095237,-116.74603174603173,139.9206349206349,-30.555555555555554,-325.0,-109.6031746031746,293.25396825396825,175.15873015873015,325.0,325.0,11.666666666666666,0.3968253968253968,-321.8253968253968
325.0,14.047619047619047,-88.65079365079364,-117.85714285714285,202.93650793650792,286.26984126984127,-117.6984126984127,-122.6190476190476,-113.88888888888889,-89.44444444444444,-90.55555555555556,-38.49206349206349,-114.04761904761904,134.04761904761904,-21.349206349206348,-325.0,-107.38095238095238,294.36507936507934,169.9206349206349,325.0,325.0,-9.444444444444445,0.23809523809523808,-321.8253968253968
325.0,14.047619047619047,-88.65079365079364,-117.85714285714285,202.93650793650792,286.26984126984127,-117.6984126984127,-122.6190476190476,-113.88888888888889,-89.44444444444444,-90.55555555555556,-38.49206349206349,-114.04761904761904,134.04761904761904,-21.349206349206348,-325.0,-107.38095238095238,294.36507936507934,169.9206349206349,325.0,325.0,-9.444444444444445,0.23809523809523808,-321.8253968253968
325.0,30.555555555555554,-87.38095238095238,-116.26984126984127,212.93650793650792,288.8095238095238,-116.1111111111111,-121.19047619047619,-112.46031746031746,-88.17460317460316,-89.44444444444444,-36.904761904761905,-112.6190476190476,133.25396825396825,-9.285714285714285,-325.0,-105.95238095238095,319.1269841269841,170.23809523809524,325.0,325.0,10.714285714285714,-0.3968253968253968,-321.8253968253968
325.0,30.555555555555554,-87.38095238095238,-116.26984126984127,212.93650793650792,288.8095238095238,-116.1111111111111,-121.19047619047619,-112.46031746031746,-88.17460317460316,-89.44444444444444,-36.904761904761905,-112.6190476190476,133.25396825396825,-9.285714285714285,-325.0,-105.95238095238095,319.1269841269841,170.23809523809524,325.0,325.0,10.714285714285714,-0.3968253968253968,-321.8253968253968
325.0,28.49206349206349,-85.63492063492063,-113.88888888888889,205.79365079365078,290.07936507936506,-113.73015873015872,-118.8095238095238,-110.23809523809523,-85.47619047619047,-87.53968253968253,-58.49206349206349,-110.39682539682539,128.8095238095238,-7.857142857142857,-325.0,-103.73015873015872,325.0,160.07936507936506,325.0,325.0,-9.444444444444445,-0.07936507936507936,-321.8253968253968
325.0,28.49206349206349,-85.63492063492063,-113.88888888888889,205.79365079365078,290.07936507936506,-113.73015873015872,-118.8095238095238,-110.23809523809523,-85.47619047619047,-87.53968253968253,-58.49206349206349,-110.39682539682539,128.8095238095238,-7.857142857142857,-325.0,-103.73015873015872,325.0,160.07936507936506,325.0,325.0,-9.444444444444445,-0.07936507936507936,-321.8253968253968
325.0,43.73015873015873,-84.2063492063492,-111.82539682539682,200.55555555555554,287.85714285714283,-111.82539682539682,-116.9047619047619,-108.33333333333333,-84.68253968253968,-86.1111111111111,-58.96825396825397,-108.49206349206348,143.25396825396825,-15.634920634920634,-325.0,-101.98412698412697,325.0,152.93650793650792,325.0,325.0,8.65079365079365,-1.1904761904761905,-166.26984126984127
325.0,43.73015873015873,-84.2063492063492,-111.82539682539682,200.55555555555554,287.85714285714283,-111.82539682539682,-116.9047619047619,-108.33333333333333,-84.68253968253968,-86.1111111111111,-58.96825396825397,-108.49206349206348,143.25396825396825,-15.634920634920634,-325.0,-101.98412698412697,325.0,152.93650793650792,325.0,325.0,8.65079365079365,-1.1904761904761905,-166.26984126984127
325.0,40.87301587301587,-82.61904761904762,-109.92063492063491,196.9047619047619,293.25396825396825,-109.92063492063491,-115.0,-106.58730158730158,-77.38095238095238,-84.68253968253968,-59.6031746031746,-106.42857142857142,158.8095238095238,-8.015873015873016,-325.0,-100.23809523809523,325.0,151.34920634920633,325.0,325.0,-8.174603174603174,-0.873015873015873,-166.26984126984127
325.0,40.87301587301587,-82.61904761904762,-109.92063492063491,196.9047619047619,293.25396825396825,-109.92063492063491,-115.0,-106.58730158730158,-77.38095238095238,-84.68253968253968,-59.6031746031746,-106.42857142857142,158.8095238095238,-8.015873015873016,-325.0,-100.23809523809523,325.0,151.34920634920633,325.0,325.0,-8.174603174603174,-0.873015873015873,-166.26984126984127
325.0,53.41269841269841,-81.34920634920634,-108.17460317460316,203.09523809523807,287.38095238095235,-108.17460317460316,-113.09523809523809,-104.68253968253968,-79.76190476190476,-83.25396825396825,-71.34920634920634,-104.68253968253968,136.26984126984127,-2.7777777777777777,-325.0,-98.49206349206348,325.0,143.25396825396825,325.0,325.0,8.65079365079365,-0.7142857142857142,-166.26984126984127
325.0,53.41269841269841,-81.34920634920634,-108.17460317460316,203.09523809523807,287.38095238095235,-108.17460317460316,-113.09523809523809,-104.68253968253968,-79.76190476190476,-83.25396825396825,-71.34920634920634,-104.68253968253968,136.26984126984127,-2.7777777777777777,-325.0,-98.49206349206348,325.0,143.25396825396825,325.0,325.0,8.65079365079365,-0.7142857142857142,-166.26984126984127
325.0,61.82539682539682,-80.07936507936508,-107.06349206349206,198.33333333333331,287.85714285714283,-106.74603174603175,-111.5079365079365,-103.4126984126984,-72.93650793650794,-82.14285714285714,-79.6031746031746,-103.4126984126984,146.42857142857142,0.07936507936507936,-325.0,-97.22222222222221,325.0,137.38095238095238,325.0,325.0,-12.46031746031746,-1.1904761904761905,-166.26984126984127
325.0,61.82539682539682,-80.07936507936508,-107.06349206349206,198.33333333333331,287.85714285714283,-106.74603174603175,-111.5079365079365,-103.4126984126984,-72.93650793650794,-82.14285714285714,-79.6031746031746,-103.4126984126984,146.42857142857142,0.07936507936507936,-325.0,-97.22222222222221,325.0,137.38095238095238,325.0,325.0,-12.46031746031746,-1.1904761904761905,-166.26984126984127
325.0,70.87301587301587,-78.65079365079364,-104.52380952380952,200.3968253968254,285.0,-104.36507936507935,-109.44444444444444,-101.34920634920634,-70.39682539682539,-80.55555555555556,-72.46031746031746,-101.34920634920634,127.38095238095238,5.7936507936507935,-325.0,-95.31746031746032,325.0,132.61904761904762,325.0,325.0,7.5396825396825395,-0.7142857142857142,-166.26984126984127
325.0,70.87301587301587,-78.65079365079364,-104.52380952380952,200.3968253968254,285.0,-104.36507936507935,-109.44444444444444,-101.34920634920634,-70.39682539682539,-80.55555555555556,-72.46031746031746,-101.34920634920634,127.38095238095238,5.7936507936507935,-325.0,-95.31746031746032,325.0,132.61904761904762,325.0,325.0,7.5396825396825395,-0.7142857142857142,-166.26984126984127
325.0,71.03174603174602,-77.38095238095238,-102.77777777777777,209.9206349206349,289.6031746031746,-102.77777777777777,-107.6984126984127,-99.76190476190476,-41.507936507936506,-79.28571428571428,-77.53968253968253,-99.6031746031746,128.65079365079364,23.095238095238095,-325.0,-93.57142857142857,325.0,139.12698412698413,325.0,325.0,-9.920634920634921,-0.23809523809523808,-321.8253968253968
325.0,71.03174603174602,-77.38095238095238,-102.77777777777777,209.9206349206349,289.6031746031746,-102.77777777777777,-107.6984126984127,-99.76190476190476,-41.507936507936506,-79.28571428571428,-77.53968253968253,-99.6031746031746,128.65079365079364,23.095238095238095,-325.0,-93.57142857142857,325.0,139.12698412698413,325.0,325.0,-9.920634920634921,-0.23809523809523808,-321.8253968253968
325.0,72.3015873015873,-77.22222222222221,-102.30158730158729,218.4920634920635,297.6984126984127,-102.14285714285714,-107.22222222222221,-99.12698412698413,-26.587301587301585,-78.80952380952381,-66.42857142857143,-99.28571428571428,137.69841269841268,33.095238095238095,-325.0,-93.25396825396825,325.0,145.15873015873015,325.0,325.0,-6.111111111111111,0.23809523809523808,-321.8253968253968
325.0,72.3015873015873,-77.22222222222221,-102.30158730158729,218.4920634920635,297.6984126984127,-102.14285714285714,-107.22222222222221,-99.12698412698413,-26.587301587301585,-78.80952380952381,-66.42857142857143,-99.28571428571428,137.69841269841268,33.095238095238095,-325.0,-93.25396825396825,325.0,145.15873015873015,325.0,325.0,-6.111111111111111,0.23809523809523808,-321.8253968253968
325.0,72.3015873015873,-77.22222222222221,-102.30158730158729,218.4920634920635,297.6984126984127,-102.14285714285714,-107.22222222222221,-99.12698412698413,-26.587301587301585,-78.80952380952381,-66.42857142857143,-99.28571428571428,137.69841269841268,33.095238095238095,-325.0,-93.25396825396825,325.0,145.15873015873015,325.0,325.0,-6.111111111111111,0.23809523809523808,-321.8253968253968
325.0,72.3015873015873,-77.22222222222221,-102.30158730158729,218.4920634920635,297.6984126984127,-102.14285714285714,-107.22222222222221,-99.12698412698413,-26.587301587301585,-78.80952380952381,-66.42857142857143,-99.28571428571428,137.69841269841268,33.095238095238095,-325.0,-93.25396825396825,325.0,145.15873015873015,325.0,325.0,-6.111111111111111,0.23809523809523808,-321.8253968253968
325.0,72.3015873015873,-77.22222222222221,-102.30158730158729,218.4920634920635,297.6984126984127,-102.14285714285714,-107.22222222222221,-99.12698412698413,-26.587301587301585,-78.80952380952381,-66.42857142857143,-99.28571428571428,137.69841269841268,33.095238095238095,-325.0,-93.25396825396825,325.0,145.15873015873015,325.0,325.0,-6.111111111111111,0.23809523809523808,-321.8253968253968
325.0,72.3015873015873,-77.22222222222221,-102.30158730158729,218.4920634920635,297.6984126984127,-102.14285714285714,-107.22222222222221,-99.12698412698413,-26.587301587301585,-78.80952380952381,-66.42857142857143,-99.28571428571428,137.69841269841268,33.095238095238095,-325.0,-93.25396825396825,325.0,145.15873015873015,325.0,325.0,-6.111111111111111,0.23809523809523808,-321.8253968253968
325.0,94.36507936507935,-74.52380952380952,-98.80952380952381,228.49206349206347,310.07936507936506,-98.80952380952381,-103.88888888888889,-95.95238095238095,-10.396825396825395,-76.42857142857143,-62.93650793650793,-95.95238095238095,142.3015873015873,47.06349206349206,-325.0,-90.07936507936508,325.0,146.11111111111111,325.0,325.0,-5.476190476190476,-0.7142857142857142,-321.8253968253968
325.0,94.36507936507935,-74.52380952380952,-98.80952380952381,228.49206349206347,310.07936507936506,-98.80952380952381,-103.88888888888889,-95.95238095238095,-10.396825396825395,-76.42857142857143,-62.93650793650793,-95.95238095238095,142.3015873015873,47.06349206349206,-325.0,-90.07936507936508,325.0,146.11111111111111,325.0,325.0,-5.476190476190476,-0.7142857142857142,-321.8253968253968
325.0,135.0,-70.87301587301587,-94.52380952380952,227.53968253968253,314.5238095238095,-94.52380952380952,-99.28571428571428,-91.5079365079365,-16.904761904761905,-73.09523809523809,-68.01587301587301,-91.5079365079365,149.6031746031746,44.2063492063492,-325.0,-85.95238095238095,325.0,139.9206349206349,325.0,325.0,8.333333333333332,-0.7142857142857142,-166.26984126984127
325.0,135.0,-70.87301587301587,-94.52380952380952,227.53968253968253,314.5238095238095,-94.52380952380952,-99.28571428571428,-91.5079365079365,-16.904761904761905,-73.09523809523809,-68.01587301587301,-91.5079365079365,149.6031746031746,44.2063492063492,-325.0,-85.95238095238095,325.0,139.9206349206349,325.0,325.0,8.333333333333332,-0.7142857142857142,-166.26984126984127
325.0,141.34920634920636,-70.07936507936508,-93.25396825396825,216.26984126984127,316.74603174603175,-93.09523809523809,-98.17460317460316,-90.39682539682539,5.158730158730158,-72.3015873015873,-65.95238095238095,-90.39682539682539,150.23809523809524,41.34920634920635,-325.0,-84.84126984126983,325.0,146.26984126984127,325.0,325.0,0.3968253968253968,-1.1904761904761905,-166.26984126984127
325.0,141.34920634920636,-70.07936507936508,-93.25396825396825,216.26984126984127,316.74603174603175,-93.09523809523809,-98.17460317460316,-90.39682539682539,5.158730158730158,-72.3015873015873,-65.95238095238095,-90.39682539682539,150.23809523809524,41.34920634920635,-325.0,-84.84126984126983,325.0,146.26984126984127,325.0,325.0,0.3968253968253968,-1.1904761904761905,-166.26984126984127
325.0,153.88888888888889,-68.80952380952381,-91.34920634920634,203.88888888888889,323.25396825396825,-91.66666666666666,-96.42857142857142,-88.96825396825396,29.285714285714285,-70.87301587301587,-52.3015873015873,-88.4920634920635,148.4920634920635,38.65079365079365,-325.0,-83.25396825396825,325.0,154.84126984126982,325.0,325.0,12.142857142857142,0.5555555555555556,-166.26984126984127
325.0,153.88888888888889,-68.80952380952381,-91.34920634920634,203.88888888888889,323.25396825396825,-91.66666666666666,-96.42857142857142,-88.96825396825396,29.285714285714285,-70.87301587301587,-52.3015873015873,-88.4920634920635,148.4920634920635,38.65079365079365,-325.0,-83.25396825396825,325.0,154.84126984126982,325.0,325.0,12.142857142857142,0.5555555555555556,-166.26984126984127
325.0,153.88888888888889,-68.80952380952381,-91.34920634920634,203.88888888888889,323.25396825396825,-91.66666666666666,-96.42857142857142,-88.96825396825396,29.285714285714285,-70.87301587301587,-52.3015873015873,-88.4920634920635,148.4920634920635,38.65079365079365,-325.0,-83.25396825396825,325.0,154.84126984126982,325.0,325.0,12.142857142857142,0.5555555555555556,-166.26984126984127
325.0,153.88888888888889,-68.80952380952381,-91.34920634920634,203.88888888888889,323.25396825396825,-91.66666666666666,-96.42857142857142,-88.96825396825396,29.285714285714285,-70.87301587301587,-52.3015873015873,-88.4920634920635,148.4920634920635,38.65079365079365,-325.0,-83.25396825396825,325.0,154.84126984126982,325.0,325.0,12.142857142857142,0.5555555555555556,-166.26984126984127
325.0,153.88888888888889,-68.80952380952381,-91.34920634920634,203.88888888888889,323.25396825396825,-91.66666666666666,-96.42857142857142,-88.96825396825396,29.285714285714285,-70.87301587301587,-52.3015873015873,-88.4920634920635,148.4920634920635,38.65079365079365,-325.0,-83.25396825396825,325.0,154.84126984126982,325.0,325.0,12.142857142857142,0.5555555555555556,-166.26984126984127
325.0,153.88888888888889,-68.80952380952381,-91.34920634920634,203.88888888888889,323.25396825396825,-91.66666666666666,-96.42857142857142,-88.96825396825396,29.285714285714285,-70.87301587301587,-52.3015873015873,-88.4920634920635,148.4920634920635,38.65079365079365,-325.0,-83.25396825396825,325.0,154.84126984126982,325.0,325.0,12.142857142857142,0.5555555555555556,-166.26984126984127
325.0,150.07936507936506,-66.9047619047619,-88.80952380952381,203.7301587301587,311.031746031746,-88.96825396825396,-93.73015873015872,-86.58730158730158,32.14285714285714,-68.96825396825396,-61.507936507936506,-85.95238095238095,133.25396825396825,50.71428571428571,-325.0,-80.87301587301587,325.0,133.4126984126984,325.0,325.0,3.4126984126984126,0.23809523809523808,-321.8253968253968
325.0,150.07936507936506,-66.9047619047619,-88.80952380952381,203.7301587301587,311.031746031746,-88.96825396825396,-93.73015873015872,-86.58730158730158,32.14285714285714,-68.96825396825396,-61.507936507936506,-85.95238095238095,133.25396825396825,50.71428571428571,-325.0,-80.87301587301587,325.0,133.4126984126984,325.0,325.0,3.4126984126984126,0.23809523809523808,-321.8253968253968
325.0,146.42857142857142,-64.84126984126983,-86.26984126984127,203.57142857142856,298.968253968254,-86.26984126984127,-90.87301587301587,-84.04761904761904,35.15873015873016,-67.06349206349206,-70.71428571428571,-83.4126984126984,118.01587301587301,62.77777777777777,-325.0,-78.4920634920635,325.0,112.14285714285714,325.0,325.0,-5.317460317460317,-0.07936507936507936,-321.8253968253968
325.0,146.42857142857142,-64.84126984126983,-86.26984126984127,203.57142857142856,298.968253968254,-86.26984126984127,-90.87301587301587,-84.04761904761904,35.15873015873016,-67.06349206349206,-70.71428571428571,-83.4126984126984,118.01587301587301,62.77777777777777,-325.0,-78.4920634920635,325.0,112.14285714285714,325.0,325.0,-5.317460317460317,-0.07936507936507936,-321.8253968253968
325.0,157.69841269841268,-60.39682539682539,-83.57142857142857,199.60317460317458,287.85714285714283,-83.88888888888889,-88.4920634920635,-81.34920634920634,34.047619047619044,-65.15873015873015,-83.57142857142857,-81.03174603174602,147.85714285714286,67.22222222222221,-325.0,-76.1111111111111,325.0,103.09523809523809,325.0,325.0,-9.920634920634921,-1.0317460317460316,-321.8253968253968
325.0,157.69841269841268,-60.39682539682539,-83.57142857142857,199.60317460317458,287.85714285714283,-83.88888888888889,-88.4920634920635,-81.34920634920634,34.047619047619044,-65.15873015873015,-83.57142857142857,-81.03174603174602,147.85714285714286,67.22222222222221,-325.0,-76.1111111111111,325.0,103.09523809523809,325.0,325.0,-9.920634920634921,-1.0317460317460316,-321.8253968253968
325.0,171.34920634920633,-41.34920634920635,-82.14285714285714,220.07936507936506,285.6349206349206,-82.46031746031746,-87.22222222222221,-80.07936507936508,28.333333333333332,-64.04761904761905,-84.84126984126983,-79.76190476190476,127.53968253968253,81.5079365079365,-325.0,-74.68253968253968,325.0,103.25396825396825,325.0,325.0,7.222222222222221,-0.7142857142857142,-321.8253968253968
325.0,171.34920634920633,-41.34920634920635,-82.14285714285714,220.07936507936506,285.6349206349206,-82.46031746031746,-87.22222222222221,-80.07936507936508,28.333333333333332,-64.04761904761905,-84.84126984126983,-79.76190476190476,127.53968253968253,81.5079365079365,-325.0,-74.68253968253968,325.0,103.25396825396825,325.0,325.0,7.222222222222221,-0.7142857142857142,-321.8253968253968
325.0,170.23809523809524,-49.76190476190476,-80.55555555555556,217.53968253968253,290.07936507936506,-81.03174603174602,-85.79365079365078,-78.65079365079364,53.25396825396825,-63.095238095238095,-85.0,-78.33333333333333,124.52380952380952,85.31746031746032,-325.0,-73.57142857142857,325.0,108.33333333333333,325.0,325.0,-9.603174603174603,-0.873015873015873,-321.8253968253968
325.0,170.23809523809524,-49.76190476190476,-80.55555555555556,217.53968253968253,290.07936507936506,-81.03174603174602,-85.79365079365078,-78.65079365079364,53.25396825396825,-63.095238095238095,-85.0,-78.33333333333333,124.52380952380952,85.31746031746032,-325.0,-73.57142857142857,325.0,108.33333333333333,325.0,325.0,-9.603174603174603,-0.873015873015873,-321.8253968253968
325.0,173.25396825396825,-42.77777777777778,-79.28571428571428,200.55555555555554,275.1587301587301,-79.76190476190476,-84.2063492063492,-77.38095238095238,34.682539682539684,-61.98412698412698,-93.73015873015872,-77.06349206349206,106.1111111111111,61.03174603174603,-325.0,-72.46031746031746,325.0,97.38095238095238,325.0,325.0,8.333333333333332,-1.1904761904761905,-166.26984126984127
325.0,173.25396825396825,-42.77777777777778,-79.28571428571428,200.55555555555554,275.1587301587301,-79.76190476190476,-84.2063492063492,-77.38095238095238,34.682539682539684,-61.98412698412698,-93.73015873015872,-77.06349206349206,106.1111111111111,61.03174603174603,-325.0,-72.46031746031746,325.0,97.38095238095238,325.0,325.0,8.333333333333332,-1.1904761904761905,-166.26984126984127
325.0,168.4920634920635,-43.57142857142857,-78.33333333333333,198.65079365079364,272.77777777777777,-78.80952380952381,-83.25396825396825,-76.58730158730158,44.36507936507936,-61.19047619047619,-98.80952380952381,-75.95238095238095,111.66666666666666,61.03174603174603,-325.0,-71.66666666666666,325.0,93.09523809523809,325.0,325.0,0.23809523809523808,-0.7142857142857142,-166.26984126984127
325.0,168.4920634920635,-43.57142857142857,-78.33333333333333,198.65079365079364,272.77777777777777,-78.80952380952381,-83.25396825396825,-76.58730158730158,44.36507936507936,-61.19047619047619,-98.80952380952381,-75.95238095238095,111.66666666666666,61.03174603174603,-325.0,-71.66666666666666,325.0,93.09523809523809,325.0,325.0,0.23809523809523808,-0.7142857142857142,-166.26984126984127
325.0,174.84126984126982,-54.841269841269835,-76.9047619047619,203.4126984126984,280.39682539682536,-77.22222222222221,-81.98412698412697,-75.0,58.49206349206349,-60.39682539682539,-84.04761904761904,-74.84126984126983,104.52380952380952,69.6031746031746,-325.0,-70.07936507936508,325.0,94.84126984126983,325.0,325.0,11.666666666666666,0.3968253968253968,-166.26984126984127
325.0,174.84126984126982,-54.841269841269835,-76.9047619047619,203.4126984126984,280.39682539682536,-77.22222222222221,-81.98412698412697,-75.0,58.49206349206349,-60.39682539682539,-84.04761904761904,-74.84126984126983,104.52380952380952,69.6031746031746,-325.0,-70.07936507936508,325.0,94.84126984126983,325.0,325.0,11.666666666666666,0.3968253968253968,-166.26984126984127
325.0,171.34920634920633,-55.79365079365079,-75.95238095238095,211.19047619047618,276.90476190476187,-76.42857142857143,-80.87301587301587,-74.2063492063492,65.31746031746032,-59.6031746031746,-89.92063492063491,-73.73015873015872,114.52380952380952,77.22222222222221,-325.0,-69.28571428571428,325.0,88.65079365079364,325.0,325.0,2.9365079365079363,-0.23809523809523808,-166.26984126984127
325.0,171.34920634920633,-55.79365079365079,-75.95238095238095,211.19047619047618,276.90476190476187,-76.42857142857143,-80.87301587301587,-74.2063492063492,65.31746031746032,-59.6031746031746,-89.92063492063491,-73.73015873015872,114.52380952380952,77.22222222222221,-325.0,-69.28571428571428,325.0,88.65079365079364,325.0,325.0,2.9365079365079363,-0.23809523809523808,-166.26984126984127
325.0,173.57142857142856,-52.14285714285714,-74.52380952380952,213.88888888888889,259.6031746031746,-74.68253968253968,-79.12698412698413,-72.46031746031746,61.03174603174603,-58.33333333333333,-103.73015873015872,-72.14285714285714,114.52380952380952,74.84126984126983,-325.0,-67.6984126984127,325.0,78.33333333333333,325.0,325.0,12.142857142857142,0.07936507936507936,-166.26984126984127
325.0,173.57142857142856,-52.14285714285714,-74.52380952380952,213.88888888888889,259.6031746031746,-74.68253968253968,-79.12698412698413,-72.46031746031746,61.03174603174603,-58.33333333333333,-103.73015873015872,-72.14285714285714,114.52380952380952,74.84126984126983,-325.0,-67.6984126984127,325.0,78.33333333333333,325.0,325.0,12.142857142857142,0.07936507936507936,-166.26984126984127
325.0,163.4126984126984,-41.82539682539682,-73.4126984126984,205.95238095238093,247.38095238095238,-73.57142857142857,-77.6984126984127,-71.66666666666666,48.80952380952381,-57.22222222222222,-138.65079365079364,-70.71428571428571,78.96825396825396,64.2063492063492,-325.0,-66.58730158730158,301.66666666666663,64.36507936507937,325.0,325.0,-13.253968253968253,-0.07936507936507936,-321.8253968253968
325.0,163.4126984126984,-41.82539682539682,-73.4126984126984,205.95238095238093,247.38095238095238,-73.57142857142857,-77.6984126984127,-71.66666666666666,48.80952380952381,-57.22222222222222,-138.65079365079364,-70.71428571428571,78.96825396825396,64.2063492063492,-325.0,-66.58730158730158,301.66666666666663,64.36507936507937,325.0,325.0,-13.253968253968253,-0.07936507936507936,-321.8253968253968
325.0,163.4126984126984,-41.82539682539682,-73.4126984126984,205.95238095238093,247.38095238095238,-73.57142857142857,-77.6984126984127,-71.66666666666666,48.80952380952381,-57.22222222222222,-138.65079365079364,-70.71428571428571,78.96825396825396,64.2063492063492,-325.0,-66.58730158730158,301.66666666666663,64.36507936507937,325.0,325.0,-13.253968253968253,-0.07936507936507936,-321.8253968253968
325.0,163.4126984126984,-41.82539682539682,-73.4126984126984,205.95238095238093,247.38095238095238,-73.57142857142857,-77.6984126984127,-71.66666666666666,48.80952380952381,-57.22222222222222,-138.65079365079364,-70.71428571428571,78.96825396825396,64.2063492063492,-325.0,-66.58730158730158,301.66666666666663,64.36507936507937,325.0,325.0,-13.253968253968253,-0.07936507936507936,-321.8253968253968
310.7142857142857,142.61904761904762,-45.79365079365079,-70.39682539682539,187.69841269841268,244.2063492063492,-70.87301587301587,-75.15873015873015,-68.80952380952381,51.507936507936506,-55.317460317460316,-142.61904761904762,-68.17460317460318,86.1111111111111,71.66666666666666,-325.0,-64.04761904761905,282.3015873015873,43.73015873015873,325.0,325.0,-9.126984126984127,-0.5555555555555556,-321.8253968253968
310.7142857142857,142.61904761904762,-45.79365079365079,-70.39682539682539,187.69841269841268,244.2063492063492,-70.87301587301587,-75.15873015873015,-68.80952380952381,51.507936507936506,-55.317460317460316,-142.61904761904762,-68.17460317460318,86.1111111111111,71.66666666666666,-325.0,-64.04761904761905,282.3015873015873,43.73015873015873,325.0,325.0,-9.126984126984127,-0.5555555555555556,-321.8253968253968
310.87301587301585,144.84126984126982,-50.87301587301587,-69.28571428571428,185.0,241.66666666666666,-70.07936507936508,-74.36507936507937,-67.85714285714285,44.68253968253968,-54.52380952380952,-141.34920634920636,-67.38095238095238,78.65079365079364,77.06349206349206,-325.0,-63.25396825396825,279.1269841269841,33.41269841269841,325.0,325.0,11.984126984126984,-0.5555555555555556,-321.8253968253968
310.87301587301585,144.84126984126982,-50.87301587301587,-69.28571428571428,185.0,241.66666666666666,-70.07936507936508,-74.36507936507937,-67.85714285714285,44.68253968253968,-54.52380952380952,-141.34920634920636,-67.38095238095238,78.65079365079364,77.06349206349206,-325.0,-63.25396825396825,279.1269841269841,33.41269841269841,325.0,325.0,11.984126984126984,-0.5555555555555556,-321.8253968253968
308.968253968254,134.68253968253967,-38.80952380952381,-68.17460317460318,171.66666666666666,228.015873015873,-68.65079365079364,-72.93650793650794,-66.9047619047619,28.809523809523807,-53.57142857142857,-169.12698412698413,-65.95238095238095,78.33333333333333,69.28571428571428,-325.0,-62.3015873015873,247.2222222222222,16.11111111111111,325.0,325.0,-11.507936507936508,-0.873015873015873,-321.8253968253968
308.968253968254,134.68253968253967,-38.80952380952381,-68.17460317460318,171.66666666666666,228.015873015873,-68.65079365079364,-72.93650793650794,-66.9047619047619,28.809523809523807,-53.57142857142857,-169.12698412698413,-65.95238095238095,78.33333333333333,69.28571428571428,-325.0,-62.3015873015873,247.2222222222222,16.11111111111111,325.0,325.0,-11.507936507936508,-0.873015873015873,-321.8253968253968
308.968253968254,134.68253968253967,-38.80952380952381,-68.17460317460318,171.66666666666666,228.015873015873,-68.65079365079364,-72.93650793650794,-66.9047619047619,28.809523809523807,-53.57142857142857,-169.12698412698413,-65.95238095238095,78.33333333333333,69.28571428571428,-325.0,-62.3015873015873,247.2222222222222,16.11111111111111,325.0,325.0,-11.507936507936508,-0.873015873015873,-166.26984126984127
308.968253968254,134.68253968253967,-38.80952380952381,-68.17460317460318,171.66666666666666,228.015873015873,-68.65079365079364,-72.93650793650794,-66.9047619047619,28.809523809523807,-53.57142857142857,-169.12698412698413,-65.95238095238095,78.33333333333333,69.28571428571428,-325.0,-62.3015873015873,247.2222222222222,16.11111111111111,325.0,325.0,-11.507936507936508,-0.873015873015873,-166.26984126984127
290.87301587301585,130.23809523809524,-44.52380952380952,-65.47619047619047,187.2222222222222,223.88888888888889,-65.95238095238095,-70.39682539682539,-64.36507936507937,60.238095238095234,-51.666666666666664,-157.69841269841268,-63.57142857142857,70.23809523809524,85.0,-324.04761904761904,-59.92063492063492,226.1111111111111,26.746031746031743,325.0,325.0,-9.285714285714285,-1.507936507936508,-166.26984126984127
290.87301587301585,130.23809523809524,-44.52380952380952,-65.47619047619047,187.2222222222222,223.88888888888889,-65.95238095238095,-70.39682539682539,-64.36507936507937,60.238095238095234,-51.666666666666664,-157.69841269841268,-63.57142857142857,70.23809523809524,85.0,-324.04761904761904,-59.92063492063492,226.1111111111111,26.746031746031743,325.0,325.0,-9.285714285714285,-1.507936507936508,-166.26984126984127
289.9206349206349,139.28571428571428,-14.682539682539682,-64.68253968253968,192.3015873015873,214.52380952380952,-65.0,-69.44444444444444,-63.25396825396825,48.17460317460317,-51.03174603174603,-161.19047619047618,-62.77777777777777,50.87301587301587,78.65079365079364,-319.1269841269841,-58.96825396825397,217.69841269841268,25.476190476190474,325.0,325.0,8.015873015873016,-1.349206349206349,-166.26984126984127
289.9206349206349,139.28571428571428,-14.682539682539682,-64.68253968253968,192.3015873015873,214.52380952380952,-65.0,-69.44444444444444,-63.25396825396825,48.17460317460317,-51.03174603174603,-161.19047619047618,-62.77777777777777,50.87301587301587,78.65079365079364,-319.1269841269841,-58.96825396825397,217.69841269841268,25.476190476190474,325.0,325.0,8.015873015873016,-1.349206349206349,-166.26984126984127
293.0952380952381,142.61904761904762,1.349206349206349,-64.36507936507937,187.06349206349205,206.26984126984127,-64.68253968253968,-69.12698412698413,-62.93650793650793,35.95238095238095,-50.87301587301587,-176.58730158730157,-62.460317460317455,39.44444444444444,68.4920634920635,-317.85714285714283,-58.49206349206349,213.4126984126984,20.873015873015873,325.0,325.0,4.2063492063492065,-1.8253968253968254,-166.26984126984127
293.0952380952381,142.61904761904762,1.349206349206349,-64.36507936507937,187.06349206349205,206.26984126984127,-64.68253968253968,-69.12698412698413,-62.93650793650793,35.95238095238095,-50.87301587301587,-176.58730158730157,-62.460317460317455,39.44444444444444,68.4920634920635,-317.85714285714283,-58.49206349206349,213.4126984126984,20.873015873015873,325.0,325.0,4.2063492063492065,-1.8253968253968254,-166.26984126984127
289.6031746031746,148.17460317460316,12.777777777777777,-63.25396825396825,190.55555555555554,197.38095238095238,-63.73015873015873,-68.01587301587301,-61.98412698412698,39.76190476190476,-50.079365079365076,-176.42857142857142,-61.34920634920635,37.53968253968254,73.4126984126984,-312.6190476190476,-57.53968253968254,202.3015873015873,19.444444444444443,325.0,325.0,4.2063492063492065,-1.349206349206349,-166.26984126984127
289.6031746031746,148.17460317460316,12.777777777777777,-63.25396825396825,190.55555555555554,197.38095238095238,-63.73015873015873,-68.01587301587301,-61.98412698412698,39.76190476190476,-50.079365079365076,-176.42857142857142,-61.34920634920635,37.53968253968254,73.4126984126984,-312.6190476190476,-57.53968253968254,202.3015873015873,19.444444444444443,325.0,325.0,4.2063492063492065,-1.349206349206349,-166.26984126984127
277.22222222222223,156.74603174603175,3.888888888888889,-61.666666666666664,202.14285714285714,200.7142857142857,-62.14285714285714,-66.42857142857143,-60.39682539682539,67.6984126984127,-48.80952380952381,-154.36507936507937,-59.76190476190476,52.14285714285714,93.57142857142857,-304.8412698412698,-56.11111111111111,188.96825396825395,26.9047619047619,325.0,325.0,-0.5555555555555556,-0.07936507936507936,-321.8253968253968
277.22222222222223,156.74603174603175,3.888888888888889,-61.666666666666664,202.14285714285714,200.7142857142857,-62.14285714285714,-66.42857142857143,-60.39682539682539,67.6984126984127,-48.80952380952381,-154.36507936507937,-59.76190476190476,52.14285714285714,93.57142857142857,-304.8412698412698,-56.11111111111111,188.96825396825395,26.9047619047619,325.0,325.0,-0.5555555555555556,-0.07936507936507936,-321.8253968253968
268.4920634920635,147.06349206349205,9.285714285714285,-60.39682539682539,207.69841269841268,205.63492063492063,-61.03174603174603,-65.15873015873015,-59.6031746031746,79.76190476190476,-47.857142857142854,-134.52380952380952,-58.650793650793645,59.92063492063492,105.31746031746032,-299.4444444444444,-55.15873015873016,185.0,33.25396825396825,325.0,325.0,11.19047619047619,1.1904761904761905,-321.8253968253968
268.4920634920635,147.06349206349205,9.285714285714285,-60.39682539682539,207.69841269841268,205.63492063492063,-61.03174603174603,-65.15873015873015,-59.6031746031746,79.76190476190476,-47.857142857142854,-134.52380952380952,-58.650793650793645,59.92063492063492,105.31746031746032,-299.4444444444444,-55.15873015873016,185.0,33.25396825396825,325.0,325.0,11.19047619047619,1.1904761904761905,-321.8253968253968
264.04761904761904,182.3015873015873,8.174603174603174,-59.44444444444444,192.93650793650792,198.4920634920635,-59.76190476190476,-64.04761904761905,-58.17460317460317,91.34920634920634,-47.06349206349206,-140.3968253968254,-57.53968253968254,55.63492063492063,101.82539682539682,-293.57142857142856,-54.047619047619044,167.06349206349205,31.825396825396822,325.0,325.0,-8.65079365079365,-0.5555555555555556,-321.8253968253968
264.04761904761904,182.3015873015873,8.174603174603174,-59.44444444444444,192.93650793650792,198.4920634920635,-59.76190476190476,-64.04761904761905,-58.17460317460317,91.34920634920634,-47.06349206349206,-140.3968253968254,-57.53968253968254,55.63492063492063,101.82539682539682,-293.57142857142856,-54.047619047619044,167.06349206349205,31.825396825396822,325.0,325.0,-8.65079365079365,-0.5555555555555556,-321.8253968253968
268.015873015873,210.55555555555554,36.74603174603175,-58.650793650793645,209.12698412698413,204.04761904761904,-59.12698412698413,-62.93650793650793,-57.38095238095238,88.33333333333333,-46.269841269841265,-112.14285714285714,-56.74603174603174,40.079365079365076,115.0,-289.76190476190476,-53.41269841269841,164.2063492063492,33.25396825396825,325.0,325.0,11.825396825396824,0.873015873015873,-321.8253968253968
268.015873015873,210.55555555555554,36.74603174603175,-58.650793650793645,209.12698412698413,204.04761904761904,-59.12698412698413,-62.93650793650793,-57.38095238095238,88.33333333333333,-46.269841269841265,-112.14285714285714,-56.74603174603174,40.079365079365076,115.0,-289.76190476190476,-53.41269841269841,164.2063492063492,33.25396825396825,325.0,325.0,11.825396825396824,0.873015873015873,-321.8253968253968
266.1111111111111,206.26984126984127,47.857142857142854,-57.857142857142854,228.96825396825395,206.74603174603175,-58.49206349206349,-62.3015873015873,-56.74603174603174,99.6031746031746,-27.857142857142854,-110.55555555555554,-56.11111111111111,58.01587301587301,140.55555555555554,-286.26984126984127,-52.77777777777777,156.74603174603175,34.52380952380952,325.0,325.0,3.253968253968254,0.23809523809523808,-321.8253968253968
266.1111111111111,206.26984126984127,47.857142857142854,-57.857142857142854,228.96825396825395,206.74603174603175,-58.49206349206349,-62.3015873015873,-56.74603174603174,99.6031746031746,-27.857142857142854,-110.55555555555554,-56.11111111111111,58.01587301587301,140.55555555555554,-286.26984126984127,-52.77777777777777,156.74603174603175,34.52380952380952,325.0,325.0,3.253968253968254,0.23809523809523808,-321.8253968253968
260.87301587301585,207.38095238095238,104.2063492063492,-56.58730158730158,240.2380952380952,190.07936507936506,-56.904761904761905,-60.873015873015866,-55.317460317460316,81.66666666666666,-14.84126984126984,-125.79365079365078,-54.68253968253968,56.58730158730158,152.77777777777777,-279.1269841269841,-51.507936507936506,140.3968253968254,25.634920634920633,325.0,325.0,8.492063492063492,-1.0317460317460316,-166.26984126984127
260.87301587301585,207.38095238095238,104.2063492063492,-56.58730158730158,240.2380952380952,190.07936507936506,-56.904761904761905,-60.873015873015866,-55.317460317460316,81.66666666666666,-14.84126984126984,-125.79365079365078,-54.68253968253968,56.58730158730158,152.77777777777777,-279.1269841269841,-51.507936507936506,140.3968253968254,25.634920634920633,325.0,325.0,8.492063492063492,-1.0317460317460316,-166.26984126984127
259.76190476190476,206.9047619047619,120.87301587301586,-56.42857142857142,233.09523809523807,180.7142857142857,-56.58730158730158,-60.39682539682539,-55.15873015873016,69.6031746031746,-20.873015873015873,-144.36507936507937,-54.52380952380952,45.317460317460316,143.57142857142856,-277.85714285714283,-51.19047619047619,137.38095238095238,20.71428571428571,325.0,325.0,4.682539682539682,-1.349206349206349,-166.26984126984127
259.76190476190476,206.9047619047619,120.87301587301586,-56.42857142857142,233.09523809523807,180.7142857142857,-56.58730158730158,-60.39682539682539,-55.15873015873016,69.6031746031746,-20.873015873015873,-144.36507936507937,-54.52380952380952,45.317460317460316,143.57142857142856,-277.85714285714283,-51.19047619047619,137.38095238095238,20.71428571428571,325.0,325.0,4.682539682539682,-1.349206349206349,-166.26984126984127
250.87301587301585,203.57142857142856,83.09523809523809,-54.2063492063492,210.55555555555554,192.14285714285714,-54.68253968253968,-58.96825396825397,-53.095238095238095,104.36507936507935,-15.793650793650793,-122.6190476190476,-52.77777777777777,45.79365079365079,134.36507936507937,-268.8095238095238,-49.44444444444444,126.74603174603173,22.936507936507937,325.0,325.0,-0.07936507936507936,-0.873015873015873,-166.26984126984127
250.87301587301585,203.57142857142856,83.09523809523809,-54.2063492063492,210.55555555555554,192.14285714285714,-54.68253968253968,-58.96825396825397,-53.095238095238095,104.36507936507935,-15.793650793650793,-122.6190476190476,-52.77777777777777,45.79365079365079,134.36507936507937,-268.8095238095238,-49.44444444444444,126.74603174603173,22.936507936507937,325.0,325.0,-0.07936507936507936,-0.873015873015873,-166.26984126984127
243.09523809523807,216.42857142857142,117.53968253968253,-52.77777777777777,224.52380952380952,191.5079365079365,-53.25396825396825,-57.22222222222222,-51.82539682539682,111.5079365079365,8.492063492063492,-112.14285714285714,-51.03174603174603,71.66666666666666,145.3174603174603,-261.1904761904762,-48.01587301587301,133.73015873015873,27.857142857142854,325.0,325.0,8.015873015873016,-0.23809523809523808,-166.26984126984127
243.09523809523807,216.42857142857142,117.53968253968253,-52.77777777777777,224.52380952380952,191.5079365079365,-53.25396825396825,-57.22222222222222,-51.82539682539682,111.5079365079365,8.492063492063492,-112.14285714285714,-51.03174603174603,71.66666666666666,145.3174603174603,-261.1904761904762,-48.01587301587301,133.73015873015873,27.857142857142854,325.0,325.0,8.015873015873016,-0.23809523809523808,-166.26984126984127
238.49206349206347,220.87301587301587,108.33333333333333,-52.14285714285714,222.46031746031744,203.09523809523807,-52.77777777777777,-56.42857142857142,-51.19047619047619,127.6984126984127,14.047619047619047,-103.57142857142857,-50.39682539682539,77.38095238095238,147.38095238095238,-257.85714285714283,-47.38095238095238,138.96825396825395,32.77777777777778,325.0,325.0,-0.5555555555555556,0.23809523809523808,-166.26984126984127
238.49206349206347,220.87301587301587,108.33333333333333,-52.14285714285714,222.46031746031744,203.09523809523807,-52.77777777777777,-56.42857142857142,-51.19047619047619,127.6984126984127,14.047619047619047,-103.57142857142857,-50.39682539682539,77.38095238095238,147.38095238095238,-257.85714285714283,-47.38095238095238,138.96825396825395,32.77777777777778,325.0,325.0,-0.5555555555555556,0.23809523809523808,-166.26984126984127
234.68253968253967,230.87301587301587,96.1111111111111,-51.03174603174603,216.1111111111111,219.60317460317458,-51.666666666666664,-55.476190476190474,-50.238095238095234,146.42857142857142,18.96825396825397,-74.2063492063492,-49.76190476190476,88.01587301587301,144.2063492063492,-253.88888888888889,-46.58730158730158,150.23809523809524,41.19047619047619,323.88888888888886,325.0,10.555555555555555,0.7142857142857142,-321.8253968253968
234.68253968253967,230.87301587301587,96.1111111111111,-51.03174603174603,216.1111111111111,219.60317460317458,-51.666666666666664,-55.476190476190474,-50.238095238095234,146.42857142857142,18.96825396825397,-74.2063492063492,-49.76190476190476,88.01587301587301,144.2063492063492,-253.88888888888889,-46.58730158730158,150.23809523809524,41.19047619047619,323.88888888888886,325.0,10.555555555555555,0.7142857142857142,-321.8253968253968
231.5079365079365,222.77777777777777,86.1111111111111,-50.55555555555555,221.34920634920633,215.3174603174603,-51.03174603174603,-54.841269841269835,-49.76190476190476,152.77777777777777,28.174603174603174,-85.31746031746032,-48.96825396825397,84.68253968253968,154.84126984126982,-250.55555555555554,-46.11111111111111,142.61904761904762,36.269841269841265,320.07936507936506,325.0,2.142857142857143,0.23809523809523808,-321.8253968253968
231.5079365079365,222.77777777777777,86.1111111111111,-50.55555555555555,221.34920634920633,215.3174603174603,-51.03174603174603,-54.841269841269835,-49.76190476190476,152.77777777777777,28.174603174603174,-85.31746031746032,-48.96825396825397,84.68253968253968,154.84126984126982,-250.55555555555554,-46.11111111111111,142.61904761904762,36.269841269841265,320.07936507936506,325.0,2.142857142857143,0.23809523809523808,-321.8253968253968
227.53968253968253,221.98412698412696,108.65079365079364,-49.285714285714285,232.46031746031744,211.98412698412696,-49.92063492063492,-53.73015873015873,-48.650793650793645,152.93650793650792,42.460317460317455,-77.38095238095238,-47.698412698412696,78.96825396825396,165.95238095238093,-245.15873015873015,-44.84126984126984,148.4920634920635,37.698412698412696,313.73015873015873,325.0,11.507936507936508,0.3968253968253968,-321.8253968253968
227.53968253968253,221.98412698412696,108.65079365079364,-49.285714285714285,232.46031746031744,211.98412698412696,-49.92063492063492,-53.73015873015873,-48.650793650793645,152.93650793650792,42.460317460317455,-77.38095238095238,-47.698412698412696,78.96825396825396,165.95238095238093,-245.15873015873015,-44.84126984126984,148.4920634920635,37.698412698412696,313.73015873015873,325.0,11.507936507936508,0.3968253968253968,-321.8253968253968
217.38095238095238,225.47619047619045,84.68253968253968,-48.33333333333333,205.79365079365078,216.26984126984127,-48.96825396825397,-52.77777777777777,-47.698412698412696,171.03174603174602,30.238095238095237,-100.07936507936508,-46.904761904761905,87.53968253968253,141.66666666666666,-240.07936507936506,-44.047619047619044,157.85714285714286,45.15873015873016,306.90476190476187,325.0,-8.492063492063492,-0.07936507936507936,-321.8253968253968
217.38095238095238,225.47619047619045,84.68253968253968,-48.33333333333333,205.79365079365078,216.26984126984127,-48.96825396825397,-52.77777777777777,-47.698412698412696,171.03174603174602,30.238095238095237,-100.07936507936508,-46.904761904761905,87.53968253968253,141.66666666666666,-240.07936507936506,-44.047619047619044,157.85714285714286,45.15873015873016,306.90476190476187,325.0,-8.492063492063492,-0.07936507936507936,-321.8253968253968
214.36507936507937,231.98412698412696,93.4126984126984,-47.698412698412696,198.33333333333331,205.15873015873015,-48.49206349206349,-51.98412698412698,-47.06349206349206,166.26984126984127,34.2063492063492,-91.34920634920634,-46.269841269841265,93.25396825396825,134.04761904761904,-237.06349206349205,-43.57142857142857,160.07936507936506,45.63492063492063,303.0952380952381,325.0,-0.23809523809523808,-0.3968253968253968,-321.8253968253968
214.36507936507937,231.98412698412696,93.4126984126984,-47.698412698412696,198.33333333333331,205.15873015873015,-48.49206349206349,-51.98412698412698,-47.06349206349206,166.26984126984127,34.2063492063492,-91.34920634920634,-46.269841269841265,93.25396825396825,134.04761904761904,-237.06349206349205,-43.57142857142857,160.07936507936506,45.63492063492063,303.0952380952381,325.0,-0.23809523809523808,-0.3968253968253968,-321.8253968253968
206.42857142857142,228.49206349206347,85.63492063492063,-46.74603174603175,200.7142857142857,205.95238095238093,-47.38095238095238,-51.03174603174603,-46.11111111111111,169.9206349206349,51.03174603174603,-90.71428571428571,-45.317460317460316,108.33333333333333,137.85714285714286,-232.3015873015873,-42.77777777777778,151.19047619047618,43.25396825396825,296.74603174603175,325.0,-8.968253968253968,-0.7142857142857142,-166.26984126984127
206.42857142857142,228.49206349206347,85.63492063492063,-46.74603174603175,200.7142857142857,205.95238095238093,-47.38095238095238,-51.03174603174603,-46.11111111111111,169.9206349206349,51.03174603174603,-90.71428571428571,-45.317460317460316,108.33333333333333,137.85714285714286,-232.3015873015873,-42.77777777777778,151.19047619047618,43.25396825396825,296.74603174603175,325.0,-8.968253968253968,-0.7142857142857142,-166.26984126984127
