Fp1[1],Fp2[2],F3[3],F4[4],C3[5],C4[6],P3[7],P4[8],O1[9],O2[10],F7[11],F8[12],T3[13],T4[14],T5[15],T6[16],Fz[17],Pz[18],Cz[19],Pg1[20],Pg2[21],EOGR[22],EOOGL[23],EMG[24]
-325.0,325.0,-246.1111111111111,-165.15873015873015,-273.0952380952381,163.4126984126984,-162.3015873015873,160.7142857142857,-325.0,-13.095238095238095,-325.0,-9.444444444444445,-325.0,325.0,-325.0,-180.87301587301587,-325.0,325.0,-138.17460317460316,-325.0,-180.07936507936506,0.5555555555555556,5.0,-166.26984126984127
-325.0,325.0,-246.1111111111111,-165.15873015873015,-273.0952380952381,163.4126984126984,-162.3015873015873,160.7142857142857,-325.0,-13.095238095238095,-325.0,-9.444444444444445,-325.0,325.0,-325.0,-180.87301587301587,-325.0,325.0,-138.17460317460316,-325.0,-180.07936507936506,0.5555555555555556,5.0,-166.26984126984127
-317.53968253968253,325.0,-316.58730158730157,-10.238095238095237,-318.8095238095238,325.0,-322.46031746031747,325.0,-318.6507936507936,-15.158730158730158,-324.2063492063492,-15.634920634920634,-323.0952380952381,325.0,-322.77777777777777,-170.55555555555554,-319.9206349206349,325.0,-107.53968253968253,-325.0,-135.3174603174603,0.3968253968253968,-5.7936507936507935,-166.26984126984127
-317.53968253968253,325.0,-316.58730158730157,-10.238095238095237,-318.8095238095238,325.0,-322.46031746031747,325.0,-318.6507936507936,-15.158730158730158,-324.2063492063492,-15.634920634920634,-323.0952380952381,325.0,-322.77777777777777,-170.55555555555554,-319.9206349206349,325.0,-107.53968253968253,-325.0,-135.3174603174603,0.3968253968253968,-5.7936507936507935,-166.26984126984127
-314.68253968253964,325.0,-314.68253968253964,-3.888888888888889,-317.06349206349205,325.0,-321.5079365079365,325.0,-317.38095238095235,-6.746031746031746,-322.3015873015873,-8.492063492063492,-321.984126984127,325.0,-321.66666666666663,-167.53968253968253,-318.17460317460313,325.0,-91.82539682539682,-325.0,-116.1111111111111,-0.873015873015873,5.0,-166.26984126984127
-314.68253968253964,325.0,-314.68253968253964,-3.888888888888889,-317.06349206349205,325.0,-321.5079365079365,325.0,-317.38095238095235,-6.746031746031746,-322.3015873015873,-8.492063492063492,-321.984126984127,325.0,-321.66666666666663,-167.53968253968253,-318.17460317460313,325.0,-91.82539682539682,-325.0,-116.1111111111111,-0.873015873015873,5.0,-166.26984126984127
-316.74603174603175,325.0,-317.69841269841265,-0.873015873015873,-319.76190476190476,325.0,-324.36507936507934,325.0,-320.07936507936506,-2.9365079365079363,-324.5238095238095,-5.317460317460317,-324.68253968253964,325.0,-324.36507936507934,-165.47619047619045,-319.76190476190476,325.0,-82.46031746031746,-325.0,-104.84126984126983,-0.7142857142857142,-0.5555555555555556,-166.26984126984127
-316.74603174603175,325.0,-317.69841269841265,-0.873015873015873,-319.76190476190476,325.0,-324.36507936507934,325.0,-320.07936507936506,-2.9365079365079363,-324.5238095238095,-5.317460317460317,-324.68253968253964,325.0,-324.36507936507934,-165.47619047619045,-319.76190476190476,325.0,-82.46031746031746,-325.0,-104.84126984126983,-0.7142857142857142,-0.5555555555555556,-166.26984126984127
-315.3174603174603,325.0,-317.06349206349205,1.1904761904761905,-318.968253968254,325.0,-323.88888888888886,325.0,-319.1269841269841,-0.07936507936507936,-324.04761904761904,-2.7777777777777777,-324.36507936507934,325.0,-323.88888888888886,-164.04761904761904,-318.17460317460313,325.0,-76.1111111111111,-325.0,-96.9047619047619,-1.349206349206349,-10.873015873015872,-166.26984126984127
-315.3174603174603,325.0,-317.06349206349205,1.1904761904761905,-318.968253968254,325.0,-323.88888888888886,325.0,-319.1269841269841,-0.07936507936507936,-324.04761904761904,-2.7777777777777777,-324.36507936507934,325.0,-323.88888888888886,-164.04761904761904,-318.17460317460313,325.0,-76.1111111111111,-325.0,-96.9047619047619,-1.349206349206349,-10.873015873015872,-166.26984126984127
-254.2063492063492,325.0,-259.1269841269841,5.7936507936507935,-261.66666666666663,325.0,-265.6349206349206,325.0,-260.87301587301585,11.349206349206348,-262.3015873015873,4.0476190476190474,-267.85714285714283,325.0,-265.6349206349206,-144.2063492063492,-255.95238095238093,325.0,-17.698412698412696,-325.0,-22.46031746031746,0.5555555555555556,-5.7936507936507935,-321.8253968253968
-254.2063492063492,325.0,-259.1269841269841,5.7936507936507935,-261.66666666666663,325.0,-265.6349206349206,325.0,-260.87301587301585,11.349206349206348,-262.3015873015873,4.0476190476190474,-267.85714285714283,325.0,-265.6349206349206,-144.2063492063492,-255.95238095238093,325.0,-17.698412698412696,-325.0,-22.46031746031746,0.5555555555555556,-5.7936507936507935,-321.8253968253968
-245.15873015873015,325.0,-247.69841269841268,8.809523809523808,-249.76190476190476,325.0,-254.68253968253967,325.0,-249.60317460317458,15.158730158730158,-251.19047619047618,6.904761904761904,-254.04761904761904,325.0,-255.3174603174603,-141.66666666666666,-243.25396825396825,325.0,-8.968253968253968,-325.0,-13.73015873015873,-1.349206349206349,6.428571428571428,-321.8253968253968
-245.15873015873015,325.0,-247.69841269841268,8.809523809523808,-249.76190476190476,325.0,-254.68253968253967,325.0,-249.60317460317458,15.158730158730158,-251.19047619047618,6.904761904761904,-254.04761904761904,325.0,-255.3174603174603,-141.66666666666666,-243.25396825396825,325.0,-8.968253968253968,-325.0,-13.73015873015873,-1.349206349206349,6.428571428571428,-321.8253968253968
-248.33333333333331,325.0,-248.49206349206347,8.65079365079365,-251.03174603174602,325.0,-254.84126984126982,325.0,-250.2380952380952,15.476190476190474,-252.46031746031744,7.222222222222221,-256.90476190476187,325.0,-255.0,-139.44444444444443,-246.42857142857142,325.0,-3.571428571428571,-325.0,-9.126984126984127,1.1904761904761905,-6.26984126984127,-321.8253968253968
-248.33333333333331,325.0,-248.49206349206347,8.65079365079365,-251.03174603174602,325.0,-254.84126984126982,325.0,-250.2380952380952,15.476190476190474,-252.46031746031744,7.222222222222221,-256.90476190476187,325.0,-255.0,-139.44444444444443,-246.42857142857142,325.0,-3.571428571428571,-325.0,-9.126984126984127,1.1904761904761905,-6.26984126984127,-321.8253968253968
-234.36507936507934,325.0,-232.46031746031744,4.841269841269841,-234.68253968253967,325.0,-239.44444444444443,325.0,-234.36507936507934,12.777777777777777,-236.9047619047619,3.571428571428571,-238.8095238095238,325.0,-239.76190476190476,-137.06349206349205,-228.8095238095238,325.0,-2.619047619047619,-325.0,-7.5396825396825395,-1.507936507936508,6.428571428571428,-321.8253968253968
-234.36507936507934,325.0,-232.46031746031744,4.841269841269841,-234.68253968253967,325.0,-239.44444444444443,325.0,-234.36507936507934,12.777777777777777,-236.9047619047619,3.571428571428571,-238.8095238095238,325.0,-239.76190476190476,-137.06349206349205,-228.8095238095238,325.0,-2.619047619047619,-325.0,-7.5396825396825395,-1.507936507936508,6.428571428571428,-321.8253968253968
-225.79365079365078,325.0,-221.03174603174602,0.7142857142857142,-223.57142857142856,325.0,-226.9047619047619,325.0,-222.61904761904762,8.809523809523808,-225.95238095238093,-0.23809523809523808,-228.96825396825395,325.0,-227.38095238095238,-134.84126984126982,-219.60317460317458,325.0,-1.6666666666666665,-325.0,-6.904761904761904,1.349206349206349,-5.952380952380952,-321.8253968253968
-225.79365079365078,325.0,-221.03174603174602,0.7142857142857142,-223.57142857142856,325.0,-226.9047619047619,325.0,-222.61904761904762,8.809523809523808,-225.95238095238093,-0.23809523809523808,-228.96825396825395,325.0,-227.38095238095238,-134.84126984126982,-219.60317460317458,325.0,-1.6666666666666665,-325.0,-6.904761904761904,1.349206349206349,-5.952380952380952,-321.8253968253968
-214.68253968253967,325.0,-208.96825396825395,1.349206349206349,-210.87301587301587,325.0,-215.63492063492063,325.0,-210.3968253968254,9.920634920634921,-213.57142857142856,1.349206349206349,-214.52380952380952,325.0,-216.42857142857142,-133.25396825396825,-205.3174603174603,325.0,2.619047619047619,-325.0,-2.46031746031746,-2.3015873015873014,1.984126984126984,-166.26984126984127
-214.68253968253967,325.0,-208.96825396825395,1.349206349206349,-210.87301587301587,325.0,-215.63492063492063,325.0,-210.3968253968254,9.920634920634921,-213.57142857142856,1.349206349206349,-214.52380952380952,325.0,-216.42857142857142,-133.25396825396825,-205.3174603174603,325.0,2.619047619047619,-325.0,-2.46031746031746,-2.3015873015873014,1.984126984126984,-166.26984126984127
-217.69841269841268,325.0,-193.88888888888889,15.634920634920634,-196.9047619047619,325.0,-200.7142857142857,325.0,-197.06349206349205,27.698412698412696,-203.88888888888889,16.746031746031743,-202.14285714285714,325.0,-201.8253968253968,-123.25396825396825,-198.015873015873,325.0,35.317460317460316,-321.031746031746,27.539682539682538,1.1904761904761905,3.571428571428571,-166.26984126984127
-217.69841269841268,325.0,-193.88888888888889,15.634920634920634,-196.9047619047619,325.0,-200.7142857142857,325.0,-197.06349206349205,27.698412698412696,-203.88888888888889,16.746031746031743,-202.14285714285714,325.0,-201.8253968253968,-123.25396825396825,-198.015873015873,325.0,35.317460317460316,-321.031746031746,27.539682539682538,1.1904761904761905,3.571428571428571,-166.26984126984127
-217.2222222222222,325.0,-193.09523809523807,15.317460317460316,-196.26984126984127,325.0,-199.60317460317458,325.0,-196.26984126984127,27.857142857142854,-203.25396825396825,16.26984126984127,-202.61904761904762,325.0,-200.87301587301587,-122.46031746031746,-198.4920634920635,325.0,35.95238095238095,-319.76190476190476,28.333333333333332,1.984126984126984,-2.619047619047619,-166.26984126984127
-217.2222222222222,325.0,-193.09523809523807,15.317460317460316,-196.26984126984127,325.0,-199.60317460317458,325.0,-196.26984126984127,27.857142857142854,-203.25396825396825,16.26984126984127,-202.61904761904762,325.0,-200.87301587301587,-122.46031746031746,-198.4920634920635,325.0,35.95238095238095,-319.76190476190476,28.333333333333332,1.984126984126984,-2.619047619047619,-166.26984126984127
-125.63492063492063,290.07936507936506,-105.95238095238095,5.634920634920634,-107.22222222222221,297.06349206349205,-111.03174603174602,300.87301587301585,-106.42857142857142,20.07936507936508,-110.55555555555554,7.063492063492063,-108.17460317460316,308.8095238095238,-110.71428571428571,-105.63492063492063,-100.55555555555554,306.4285714285714,45.15873015873016,-274.2063492063492,44.84126984126984,-1.6666666666666665,4.682539682539682,-166.26984126984127
-125.63492063492063,290.07936507936506,-105.95238095238095,5.634920634920634,-107.22222222222221,297.06349206349205,-111.03174603174602,300.87301587301585,-106.42857142857142,20.07936507936508,-110.55555555555554,7.063492063492063,-108.17460317460316,308.8095238095238,-110.71428571428571,-105.63492063492063,-100.55555555555554,306.4285714285714,45.15873015873016,-274.2063492063492,44.84126984126984,-1.6666666666666665,4.682539682539682,-166.26984126984127
-125.63492063492063,290.07936507936506,-105.95238095238095,5.634920634920634,-107.22222222222221,297.06349206349205,-111.03174603174602,300.87301587301585,-106.42857142857142,20.07936507936508,-110.55555555555554,7.063492063492063,-108.17460317460316,308.8095238095238,-110.71428571428571,-105.63492063492063,-100.55555555555554,306.4285714285714,45.15873015873016,-274.2063492063492,44.84126984126984,-1.6666666666666665,4.682539682539682,-166.26984126984127
-125.63492063492063,290.07936507936506,-105.95238095238095,5.634920634920634,-107.22222222222221,297.06349206349205,-111.03174603174602,300.87301587301585,-106.42857142857142,20.07936507936508,-110.55555555555554,7.063492063492063,-108.17460317460316,308.8095238095238,-110.71428571428571,-105.63492063492063,-100.55555555555554,306.4285714285714,45.15873015873016,-274.2063492063492,44.84126984126984,-1.6666666666666665,4.682539682539682,-166.26984126984127
-125.63492063492063,290.07936507936506,-105.95238095238095,5.634920634920634,-107.22222222222221,297.06349206349205,-111.03174603174602,300.87301587301585,-106.42857142857142,20.07936507936508,-110.55555555555554,7.063492063492063,-108.17460317460316,308.8095238095238,-110.71428571428571,-105.63492063492063,-100.55555555555554,306.4285714285714,45.15873015873016,-274.2063492063492,44.84126984126984,-1.6666666666666665,4.682539682539682,-321.8253968253968
-125.63492063492063,290.07936507936506,-105.95238095238095,5.634920634920634,-107.22222222222221,297.06349206349205,-111.03174603174602,300.87301587301585,-106.42857142857142,20.07936507936508,-110.55555555555554,7.063492063492063,-108.17460317460316,308.8095238095238,-110.71428571428571,-105.63492063492063,-100.55555555555554,306.4285714285714,45.15873015873016,-274.2063492063492,44.84126984126984,-1.6666666666666665,4.682539682539682,-321.8253968253968
-49.76190476190476,241.66666666666666,-33.25396825396825,14.84126984126984,-35.0,247.69841269841268,-37.22222222222222,251.34920634920633,-34.52380952380952,21.984126984126984,-36.74603174603175,10.873015873015872,-34.84126984126984,255.3174603174603,-36.74603174603175,109.6031746031746,-28.809523809523807,256.58730158730157,52.77777777777777,-228.17460317460316,61.666666666666664,-1.1904761904761905,5.317460317460317,-321.8253968253968
-49.76190476190476,241.66666666666666,-33.25396825396825,14.84126984126984,-35.0,247.69841269841268,-37.22222222222222,251.34920634920633,-34.52380952380952,21.984126984126984,-36.74603174603175,10.873015873015872,-34.84126984126984,255.3174603174603,-36.74603174603175,109.6031746031746,-28.809523809523807,256.58730158730157,52.77777777777777,-228.17460317460316,61.666666666666664,-1.1904761904761905,5.317460317460317,-321.8253968253968
0.5555555555555556,191.5079365079365,14.206349206349206,27.063492063492063,11.349206349206348,196.74603174603175,9.761904761904761,200.55555555555554,10.079365079365079,26.746031746031743,9.761904761904761,16.746031746031743,11.031746031746032,200.07936507936506,9.603174603174603,325.0,14.206349206349206,205.0,62.61904761904761,-180.7142857142857,82.46031746031746,-0.23809523809523808,7.698412698412698,-321.8253968253968
0.5555555555555556,191.5079365079365,14.206349206349206,27.063492063492063,11.349206349206348,196.74603174603175,9.761904761904761,200.55555555555554,10.079365079365079,26.746031746031743,9.761904761904761,16.746031746031743,11.031746031746032,200.07936507936506,9.603174603174603,325.0,14.206349206349206,205.0,62.61904761904761,-180.7142857142857,82.46031746031746,-0.23809523809523808,7.698412698412698,-321.8253968253968
325.0,-325.0,243.7301587301587,2.9365079365079363,242.77777777777777,83.73015873015872,250.07936507936506,86.9047619047619,244.84126984126982,8.174603174603174,253.88888888888889,-1.349206349206349,251.19047619047618,-325.0,249.28571428571428,265.7936507936508,246.26984126984127,-325.0,11.19047619047619,-76.58730158730158,31.19047619047619,2.46031746031746,2.142857142857143,-321.8253968253968
325.0,-325.0,243.7301587301587,2.9365079365079363,242.77777777777777,83.73015873015872,250.07936507936506,86.9047619047619,244.84126984126982,8.174603174603174,253.88888888888889,-1.349206349206349,251.19047619047618,-325.0,249.28571428571428,265.7936507936508,246.26984126984127,-325.0,11.19047619047619,-76.58730158730158,31.19047619047619,2.46031746031746,2.142857142857143,-321.8253968253968
325.0,-325.0,243.7301587301587,2.9365079365079363,242.77777777777777,83.73015873015872,250.07936507936506,86.9047619047619,244.84126984126982,8.174603174603174,253.88888888888889,-1.349206349206349,251.19047619047618,-325.0,249.28571428571428,265.7936507936508,246.26984126984127,-325.0,11.19047619047619,-76.58730158730158,31.19047619047619,2.46031746031746,2.142857142857143,-321.8253968253968
325.0,-325.0,243.7301587301587,2.9365079365079363,242.77777777777777,83.73015873015872,250.07936507936506,86.9047619047619,244.84126984126982,8.174603174603174,253.88888888888889,-1.349206349206349,251.19047619047618,-325.0,249.28571428571428,265.7936507936508,246.26984126984127,-325.0,11.19047619047619,-76.58730158730158,31.19047619047619,2.46031746031746,2.142857142857143,-321.8253968253968
224.84126984126982,-325.0,180.07936507936506,-13.253968253968253,180.7142857142857,-325.0,187.38095238095238,-325.0,183.4126984126984,-2.142857142857143,188.4920634920635,-7.857142857142857,189.12698412698413,-282.9365079365079,187.2222222222222,166.42857142857142,176.11111111111111,-325.0,-9.126984126984127,-47.698412698412696,-3.73015873015873,0.3968253968253968,3.888888888888889,-166.26984126984127
224.84126984126982,-325.0,180.07936507936506,-13.253968253968253,180.7142857142857,-325.0,187.38095238095238,-325.0,183.4126984126984,-2.142857142857143,188.4920634920635,-7.857142857142857,189.12698412698413,-282.9365079365079,187.2222222222222,166.42857142857142,176.11111111111111,-325.0,-9.126984126984127,-47.698412698412696,-3.73015873015873,0.3968253968253968,3.888888888888889,-166.26984126984127
222.14285714285714,-325.0,178.65079365079364,-15.634920634920634,180.07936507936506,-325.0,187.06349206349205,-325.0,183.25396825396825,-5.0,187.53968253968253,-8.968253968253968,188.17460317460316,-279.1269841269841,186.58730158730157,164.36507936507937,175.63492063492063,-325.0,-9.761904761904761,-46.74603174603175,-6.111111111111111,-1.507936507936508,-11.349206349206348,-166.26984126984127
222.14285714285714,-325.0,178.65079365079364,-15.634920634920634,180.07936507936506,-325.0,187.06349206349205,-325.0,183.25396825396825,-5.0,187.53968253968253,-8.968253968253968,188.17460317460316,-279.1269841269841,186.58730158730157,164.36507936507937,175.63492063492063,-325.0,-9.761904761904761,-46.74603174603175,-6.111111111111111,-1.507936507936508,-11.349206349206348,-166.26984126984127
207.38095238095238,-311.8253968253968,153.4126984126984,-13.253968253968253,155.0,-325.0,161.5079365079365,-325.0,158.4920634920635,-1.507936507936508,161.8253968253968,-5.317460317460317,163.09523809523807,-261.1904761904762,161.984126984127,153.88888888888889,149.9206349206349,-325.0,-8.015873015873016,-43.888888888888886,-6.26984126984127,-0.3968253968253968,-10.555555555555555,-166.26984126984127
207.38095238095238,-311.8253968253968,153.4126984126984,-13.253968253968253,155.0,-325.0,161.5079365079365,-325.0,158.4920634920635,-1.507936507936508,161.8253968253968,-5.317460317460317,163.09523809523807,-261.1904761904762,161.984126984127,153.88888888888889,149.9206349206349,-325.0,-8.015873015873016,-43.888888888888886,-6.26984126984127,-0.3968253968253968,-10.555555555555555,-166.26984126984127
192.77777777777777,-298.4920634920635,128.17460317460316,-10.714285714285714,130.07936507936506,-325.0,135.95238095238093,-325.0,133.73015873015873,1.984126984126984,136.26984126984127,-1.6666666666666665,138.015873015873,-243.09523809523807,137.53968253968253,143.57142857142856,124.36507936507935,-325.0,-6.111111111111111,-40.87301587301587,-6.26984126984127,0.873015873015873,-9.603174603174603,-166.26984126984127
192.77777777777777,-298.4920634920635,128.17460317460316,-10.714285714285714,130.07936507936506,-325.0,135.95238095238093,-325.0,133.73015873015873,1.984126984126984,136.26984126984127,-1.6666666666666665,138.015873015873,-243.09523809523807,137.53968253968253,143.57142857142856,124.36507936507935,-325.0,-6.111111111111111,-40.87301587301587,-6.26984126984127,0.873015873015873,-9.603174603174603,-166.26984126984127
38.80952380952381,-67.38095238095238,-78.4920634920635,-4.682539682539682,-76.1111111111111,-142.14285714285714,-79.76190476190476,-134.04761904761904,-73.73015873015872,10.396825396825395,-79.28571428571428,-0.07936507936507936,-78.80952380952381,-51.507936507936506,-79.92063492063491,-233.25396825396825,-71.34920634920634,-149.28571428571428,-2.619047619047619,325.0,-12.777777777777777,-1.349206349206349,-4.365079365079365,-166.26984126984127
38.80952380952381,-67.38095238095238,-78.4920634920635,-4.682539682539682,-76.1111111111111,-142.14285714285714,-79.76190476190476,-134.04761904761904,-73.73015873015872,10.396825396825395,-79.28571428571428,-0.07936507936507936,-78.80952380952381,-51.507936507936506,-79.92063492063491,-233.25396825396825,-71.34920634920634,-149.28571428571428,-2.619047619047619,325.0,-12.777777777777777,-1.349206349206349,-4.365079365079365,-166.26984126984127
34.36507936507936,-60.238095238095234,-103.09523809523809,-5.0,-100.71428571428571,-127.53968253968253,-106.9047619047619,-120.23809523809523,-102.14285714285714,8.809523809523808,-105.63492063492063,-1.349206349206349,-105.79365079365078,-46.269841269841265,-106.9047619047619,-208.4920634920635,-99.44444444444444,-131.984126984127,-4.841269841269841,325.0,-11.666666666666666,-0.07936507936507936,6.111111111111111,-321.8253968253968
34.36507936507936,-60.238095238095234,-103.09523809523809,-5.0,-100.71428571428571,-127.53968253968253,-106.9047619047619,-120.23809523809523,-102.14285714285714,8.809523809523808,-105.63492063492063,-1.349206349206349,-105.79365079365078,-46.269841269841265,-106.9047619047619,-208.4920634920635,-99.44444444444444,-131.984126984127,-4.841269841269841,325.0,-11.666666666666666,-0.07936507936507936,6.111111111111111,-321.8253968253968
33.73015873015873,-59.12698412698413,-97.85714285714285,-8.65079365079365,-94.52380952380952,-125.31746031746032,-99.28571428571428,-118.33333333333333,-94.2063492063492,5.476190476190476,-98.33333333333333,-4.365079365079365,-100.39682539682539,-45.15873015873016,-99.12698412698413,-205.0,-92.61904761904762,-129.6031746031746,-6.587301587301587,325.0,-15.317460317460316,0.873015873015873,-6.587301587301587,-321.8253968253968
33.73015873015873,-59.12698412698413,-97.85714285714285,-8.65079365079365,-94.52380952380952,-125.31746031746032,-99.28571428571428,-118.33333333333333,-94.2063492063492,5.476190476190476,-98.33333333333333,-4.365079365079365,-100.39682539682539,-45.15873015873016,-99.12698412698413,-205.0,-92.61904761904762,-129.6031746031746,-6.587301587301587,325.0,-15.317460317460316,0.873015873015873,-6.587301587301587,-321.8253968253968
33.25396825396825,-58.49206349206349,-104.52380952380952,-6.904761904761904,-101.66666666666666,-123.88888888888889,-107.53968253968253,-116.9047619047619,-102.77777777777777,6.587301587301587,-106.42857142857142,-3.095238095238095,-107.6984126984127,-44.68253968253968,-107.6984126984127,-202.61904761904762,-100.55555555555554,-31.825396825396822,-5.476190476190476,325.0,-13.412698412698411,0.3968253968253968,-0.3968253968253968,-321.8253968253968
33.25396825396825,-58.49206349206349,-104.52380952380952,-6.904761904761904,-101.66666666666666,-123.88888888888889,-107.53968253968253,-116.9047619047619,-102.77777777777777,6.587301587301587,-106.42857142857142,-3.095238095238095,-107.6984126984127,-44.68253968253968,-107.6984126984127,-202.61904761904762,-100.55555555555554,-31.825396825396822,-5.476190476190476,325.0,-13.412698412698411,0.3968253968253968,-0.3968253968253968,-321.8253968253968
32.460317460317455,-57.38095238095238,-112.6190476190476,-3.253968253968254,-108.96825396825396,-121.19047619047619,-114.2063492063492,-114.36507936507935,-108.96825396825396,10.555555555555555,-112.77777777777777,0.5555555555555556,-114.52380952380952,-43.888888888888886,-113.4126984126984,-198.33333333333331,-106.1111111111111,-77.53968253968253,-1.8253968253968254,325.0,-10.079365079365079,-0.07936507936507936,-6.428571428571428,-321.8253968253968
32.460317460317455,-57.38095238095238,-112.6190476190476,-3.253968253968254,-108.96825396825396,-121.19047619047619,-114.2063492063492,-114.36507936507935,-108.96825396825396,10.555555555555555,-112.77777777777777,0.5555555555555556,-114.52380952380952,-43.888888888888886,-113.4126984126984,-198.33333333333331,-106.1111111111111,-77.53968253968253,-1.8253968253968254,325.0,-10.079365079365079,-0.07936507936507936,-6.428571428571428,-321.8253968253968
31.98412698412698,-56.42857142857142,-108.80952380952381,-1.984126984126984,-106.26984126984127,-119.44444444444444,-112.93650793650794,-112.77777777777777,-108.33333333333333,10.714285714285714,-111.5079365079365,1.507936507936508,-112.46031746031746,-43.095238095238095,-113.4126984126984,-195.15873015873015,-105.95238095238095,-120.71428571428571,-1.507936507936508,325.0,-8.492063492063492,-0.5555555555555556,5.317460317460317,-321.8253968253968
31.98412698412698,-56.42857142857142,-108.80952380952381,-1.984126984126984,-106.26984126984127,-119.44444444444444,-112.93650793650794,-112.77777777777777,-108.33333333333333,10.714285714285714,-111.5079365079365,1.507936507936508,-112.46031746031746,-43.095238095238095,-113.4126984126984,-195.15873015873015,-105.95238095238095,-120.71428571428571,-1.507936507936508,325.0,-8.492063492063492,-0.5555555555555556,5.317460317460317,-321.8253968253968
31.349206349206348,-55.476190476190474,-106.42857142857142,-2.619047619047619,-102.77777777777777,-117.53968253968253,-108.17460317460316,-111.03174603174602,-103.4126984126984,11.031746031746032,-106.58730158730158,1.0317460317460316,-108.80952380952381,-42.460317460317455,-107.85714285714285,-191.8253968253968,-100.55555555555554,-120.71428571428571,-1.0317460317460316,325.0,-9.444444444444445,-0.07936507936507936,-6.587301587301587,-166.26984126984127
31.349206349206348,-55.476190476190474,-106.42857142857142,-2.619047619047619,-102.77777777777777,-117.53968253968253,-108.17460317460316,-111.03174603174602,-103.4126984126984,11.031746031746032,-106.58730158730158,1.0317460317460316,-108.80952380952381,-42.460317460317455,-107.85714285714285,-191.8253968253968,-100.55555555555554,-120.71428571428571,-1.0317460317460316,325.0,-9.444444444444445,-0.07936507936507936,-6.587301587301587,-166.26984126984127
30.87301587301587,-54.841269841269835,-105.0,-3.73015873015873,-101.82539682539682,-116.1111111111111,-107.6984126984127,-109.6031746031746,-103.09523809523809,9.285714285714285,-106.26984126984127,-0.3968253968253968,-107.85714285714285,-41.98412698412698,-107.6984126984127,-189.60317460317458,-100.23809523809523,-121.66666666666666,-3.095238095238095,325.0,-10.555555555555555,-0.3968253968253968,-0.3968253968253968,-166.26984126984127
30.87301587301587,-54.841269841269835,-105.0,-3.73015873015873,-101.82539682539682,-116.1111111111111,-107.6984126984127,-109.6031746031746,-103.09523809523809,9.285714285714285,-106.26984126984127,-0.3968253968253968,-107.85714285714285,-41.98412698412698,-107.6984126984127,-189.60317460317458,-100.23809523809523,-121.66666666666666,-3.095238095238095,325.0,-10.555555555555555,-0.3968253968253968,-0.3968253968253968,-166.26984126984127
29.444444444444443,-52.460317460317455,-94.84126984126983,-3.888888888888889,-91.03174603174602,-110.87301587301587,-97.6984126984127,-104.84126984126983,-92.30158730158729,8.015873015873016,-94.52380952380952,-0.5555555555555556,-95.15873015873015,-39.92063492063492,-96.74603174603175,-181.03174603174602,-86.42857142857143,-95.0,-2.7777777777777777,325.0,-10.873015873015872,-2.142857142857143,3.888888888888889,-166.26984126984127
29.444444444444443,-52.460317460317455,-94.84126984126983,-3.888888888888889,-91.03174603174602,-110.87301587301587,-97.6984126984127,-104.84126984126983,-92.30158730158729,8.015873015873016,-94.52380952380952,-0.5555555555555556,-95.15873015873015,-39.92063492063492,-96.74603174603175,-181.03174603174602,-86.42857142857143,-95.0,-2.7777777777777777,325.0,-10.873015873015872,-2.142857142857143,3.888888888888889,-166.26984126984127
28.49206349206349,-50.39682539682539,-80.07936507936508,-2.46031746031746,-77.06349206349206,-106.74603174603175,-81.03174603174602,-101.03174603174602,-77.85714285714285,9.444444444444445,-81.19047619047619,0.07936507936507936,-84.52380952380952,-38.49206349206349,-82.46031746031746,-173.88888888888889,-76.58730158730158,-95.47619047619047,-1.1904761904761905,325.0,-7.698412698412698,0.07936507936507936,-10.238095238095237,-166.26984126984127
28.49206349206349,-50.39682539682539,-80.07936507936508,-2.46031746031746,-77.06349206349206,-106.74603174603175,-81.03174603174602,-101.03174603174602,-77.85714285714285,9.444444444444445,-81.19047619047619,0.07936507936507936,-84.52380952380952,-38.49206349206349,-82.46031746031746,-173.88888888888889,-76.58730158730158,-95.47619047619047,-1.1904761904761905,325.0,-7.698412698412698,0.07936507936507936,-10.238095238095237,-166.26984126984127
27.857142857142854,-49.76190476190476,-84.36507936507937,-5.317460317460317,-80.87301587301587,-105.15873015873015,-85.79365079365078,-99.44444444444444,-82.14285714285714,6.26984126984127,-85.0,-2.3015873015873014,-88.65079365079364,-38.01587301587301,-86.74603174603175,-171.34920634920633,-80.71428571428571,114.68253968253967,-3.888888888888889,325.0,-10.714285714285714,0.23809523809523808,-10.555555555555555,-166.26984126984127
27.857142857142854,-49.76190476190476,-84.36507936507937,-5.317460317460317,-80.87301587301587,-105.15873015873015,-85.79365079365078,-99.44444444444444,-82.14285714285714,6.26984126984127,-85.0,-2.3015873015873014,-88.65079365079364,-38.01587301587301,-86.74603174603175,-171.34920634920633,-80.71428571428571,114.68253968253967,-3.888888888888889,325.0,-10.714285714285714,0.23809523809523808,-10.555555555555555,-166.26984126984127
24.523809523809522,-43.888888888888886,-60.873015873015866,-9.285714285714285,-57.22222222222222,-92.77777777777777,-63.41269841269841,-88.33333333333333,-59.44444444444444,-2.3015873015873014,-59.6031746031746,-6.26984126984127,-61.19047619047619,-33.41269841269841,-63.888888888888886,-151.5079365079365,-52.460317460317455,325.0,-7.222222222222221,299.9206349206349,-16.587301587301585,-1.6666666666666665,-1.6666666666666665,-321.8253968253968
24.523809523809522,-43.888888888888886,-60.873015873015866,-9.285714285714285,-57.22222222222222,-92.77777777777777,-63.41269841269841,-88.33333333333333,-59.44444444444444,-2.3015873015873014,-59.6031746031746,-6.26984126984127,-61.19047619047619,-33.41269841269841,-63.888888888888886,-151.5079365079365,-52.460317460317455,325.0,-7.222222222222221,299.9206349206349,-16.587301587301585,-1.6666666666666665,-1.6666666666666665,-321.8253968253968
-175.63492063492063,-14.206349206349206,22.142857142857142,-4.682539682539682,20.873015873015873,-28.809523809523807,23.095238095238095,-28.49206349206349,17.698412698412696,-5.7936507936507935,21.825396825396822,-5.317460317460317,24.523809523809522,0.3968253968253968,22.619047619047617,-45.15873015873016,300.55555555555554,-197.06349206349205,-4.682539682539682,89.28571428571428,-171.984126984127,-0.3968253968253968,7.222222222222221,-321.8253968253968
-175.63492063492063,-14.206349206349206,22.142857142857142,-4.682539682539682,20.873015873015873,-28.809523809523807,23.095238095238095,-28.49206349206349,17.698412698412696,-5.7936507936507935,21.825396825396822,-5.317460317460317,24.523809523809522,0.3968253968253968,22.619047619047617,-45.15873015873016,300.55555555555554,-197.06349206349205,-4.682539682539682,89.28571428571428,-171.984126984127,-0.3968253968253968,7.222222222222221,-321.8253968253968
-175.63492063492063,-14.206349206349206,22.142857142857142,-4.682539682539682,20.873015873015873,-28.809523809523807,23.095238095238095,-28.49206349206349,17.698412698412696,-5.7936507936507935,21.825396825396822,-5.317460317460317,24.523809523809522,0.3968253968253968,22.619047619047617,-45.15873015873016,300.55555555555554,-197.06349206349205,-4.682539682539682,89.28571428571428,-171.984126984127,-0.3968253968253968,7.222222222222221,-321.8253968253968
-175.63492063492063,-14.206349206349206,22.142857142857142,-4.682539682539682,20.873015873015873,-28.809523809523807,23.095238095238095,-28.49206349206349,17.698412698412696,-5.7936507936507935,21.825396825396822,-5.317460317460317,24.523809523809522,0.3968253968253968,22.619047619047617,-45.15873015873016,300.55555555555554,-197.06349206349205,-4.682539682539682,89.28571428571428,-171.984126984127,-0.3968253968253968,7.222222222222221,-321.8253968253968
-175.63492063492063,-14.206349206349206,22.142857142857142,-4.682539682539682,20.873015873015873,-28.809523809523807,23.095238095238095,-28.49206349206349,17.698412698412696,-5.7936507936507935,21.825396825396822,-5.317460317460317,24.523809523809522,0.3968253968253968,22.619047619047617,-45.15873015873016,300.55555555555554,-197.06349206349205,-4.682539682539682,89.28571428571428,-171.984126984127,-0.3968253968253968,7.222222222222221,-321.8253968253968
-175.63492063492063,-14.206349206349206,22.142857142857142,-4.682539682539682,20.873015873015873,-28.809523809523807,23.095238095238095,-28.49206349206349,17.698412698412696,-5.7936507936507935,21.825396825396822,-5.317460317460317,24.523809523809522,0.3968253968253968,22.619047619047617,-45.15873015873016,300.55555555555554,-197.06349206349205,-4.682539682539682,89.28571428571428,-171.984126984127,-0.3968253968253968,7.222222222222221,-321.8253968253968
-170.7142857142857,-12.777777777777777,8.65079365079365,-3.095238095238095,5.952380952380952,-25.476190476190474,8.174603174603174,-25.476190476190474,3.888888888888889,-6.746031746031746,173.4126984126984,-3.4126984126984126,8.809523809523808,133.57142857142856,7.698412698412698,-39.92063492063492,261.984126984127,-69.28571428571428,-2.9365079365079363,77.85714285714285,-149.6031746031746,0.07936507936507936,-1.507936507936508,-321.8253968253968
-170.7142857142857,-12.777777777777777,8.65079365079365,-3.095238095238095,5.952380952380952,-25.476190476190474,8.174603174603174,-25.476190476190474,3.888888888888889,-6.746031746031746,173.4126984126984,-3.4126984126984126,8.809523809523808,133.57142857142856,7.698412698412698,-39.92063492063492,261.984126984127,-69.28571428571428,-2.9365079365079363,77.85714285714285,-149.6031746031746,0.07936507936507936,-1.507936507936508,-321.8253968253968
-165.0,-11.19047619047619,-20.71428571428571,5.476190476190476,-23.253968253968253,-21.825396825396822,-21.03174603174603,-21.666666666666664,-22.619047619047617,0.07936507936507936,308.015873015873,5.317460317460317,-20.238095238095237,192.93650793650792,-20.555555555555554,-33.888888888888886,220.55555555555554,102.93650793650794,6.111111111111111,66.11111111111111,-125.31746031746032,-1.1904761904761905,0.5555555555555556,-166.26984126984127
-165.0,-11.19047619047619,-20.71428571428571,5.476190476190476,-23.253968253968253,-21.825396825396822,-21.03174603174603,-21.666666666666664,-22.619047619047617,0.07936507936507936,308.015873015873,5.317460317460317,-20.238095238095237,192.93650793650792,-20.555555555555554,-33.888888888888886,220.55555555555554,102.93650793650794,6.111111111111111,66.11111111111111,-125.31746031746032,-1.1904761904761905,0.5555555555555556,-166.26984126984127
-163.88888888888889,-10.873015873015872,-44.84126984126984,8.809523809523808,-48.49206349206349,-21.666666666666664,-47.06349206349206,-21.507936507936506,-49.12698412698413,5.158730158730158,325.0,8.968253968253968,-46.42857142857142,317.53968253968253,-47.698412698412696,-33.25396825396825,215.79365079365078,158.33333333333331,8.65079365079365,64.68253968253968,-122.77777777777777,-1.507936507936508,-0.3968253968253968,-166.26984126984127
-163.88888888888889,-10.873015873015872,-44.84126984126984,8.809523809523808,-48.49206349206349,-21.666666666666664,-47.06349206349206,-21.507936507936506,-49.12698412698413,5.158730158730158,325.0,8.968253968253968,-46.42857142857142,317.53968253968253,-47.698412698412696,-33.25396825396825,215.79365079365078,158.33333333333331,8.65079365079365,64.68253968253968,-122.77777777777777,-1.507936507936508,-0.3968253968253968,-166.26984126984127
-161.03174603174602,-10.238095238095237,-18.96825396825397,3.095238095238095,-23.095238095238095,-20.555555555555554,-19.76190476190476,-20.07936507936508,-22.142857142857142,4.365079365079365,325.0,3.888888888888889,-19.444444444444443,325.0,-20.555555555555554,-31.349206349206348,203.09523809523807,-37.06349206349206,2.142857142857143,61.03174603174603,-115.31746031746032,1.349206349206349,4.841269841269841,-166.26984126984127
-161.03174603174602,-10.238095238095237,-18.96825396825397,3.095238095238095,-23.095238095238095,-20.555555555555554,-19.76190476190476,-20.07936507936508,-22.142857142857142,4.365079365079365,325.0,3.888888888888889,-19.444444444444443,325.0,-20.555555555555554,-31.349206349206348,203.09523809523807,-37.06349206349206,2.142857142857143,61.03174603174603,-115.31746031746032,1.349206349206349,4.841269841269841,-166.26984126984127
-139.9206349206349,15.793650793650793,-5.317460317460317,5.158730158730158,-8.65079365079365,-14.84126984126984,-6.26984126984127,-15.158730158730158,-3.73015873015873,4.0476190476190474,325.0,4.523809523809524,-5.317460317460317,-171.03174603174602,-5.634920634920634,-22.777777777777775,140.7142857142857,-291.3492063492063,5.952380952380952,42.77777777777778,-79.6031746031746,-1.0317460317460316,-3.571428571428571,-166.26984126984127
-139.9206349206349,15.793650793650793,-5.317460317460317,5.158730158730158,-8.65079365079365,-14.84126984126984,-6.26984126984127,-15.158730158730158,-3.73015873015873,4.0476190476190474,325.0,4.523809523809524,-5.317460317460317,-171.03174603174602,-5.634920634920634,-22.777777777777775,140.7142857142857,-291.3492063492063,5.952380952380952,42.77777777777778,-79.6031746031746,-1.0317460317460316,-3.571428571428571,-166.26984126984127
-130.07936507936506,29.285714285714285,23.88888888888889,3.095238095238095,19.6031746031746,-12.936507936507935,23.253968253968253,-13.253968253968253,25.0,1.0317460317460316,305.95238095238096,2.7777777777777777,22.936507936507937,-126.9047619047619,22.777777777777775,-19.6031746031746,119.12698412698413,-248.33333333333331,3.73015873015873,36.42857142857142,-67.22222222222221,0.5555555555555556,-11.031746031746032,-166.26984126984127
-130.07936507936506,29.285714285714285,23.88888888888889,3.095238095238095,19.6031746031746,-12.936507936507935,23.253968253968253,-13.253968253968253,25.0,1.0317460317460316,305.95238095238096,2.7777777777777777,22.936507936507937,-126.9047619047619,22.777777777777775,-19.6031746031746,119.12698412698413,-248.33333333333331,3.73015873015873,36.42857142857142,-67.22222222222221,0.5555555555555556,-11.031746031746032,-166.26984126984127
-119.12698412698413,38.80952380952381,21.984126984126984,2.142857142857143,18.333333333333332,-11.349206349206348,20.873015873015873,-11.666666666666666,22.777777777777775,0.5555555555555556,260.7142857142857,1.8253968253968254,21.349206349206348,28.809523809523807,19.92063492063492,-16.904761904761905,100.55555555555554,-211.66666666666666,2.142857142857143,31.825396825396822,-56.58730158730158,-0.23809523809523808,-0.3968253968253968,-321.8253968253968
-119.12698412698413,38.80952380952381,21.984126984126984,2.142857142857143,18.333333333333332,-11.349206349206348,20.873015873015873,-11.666666666666666,22.777777777777775,0.5555555555555556,260.7142857142857,1.8253968253968254,21.349206349206348,28.809523809523807,19.92063492063492,-16.904761904761905,100.55555555555554,-211.66666666666666,2.142857142857143,31.825396825396822,-56.58730158730158,-0.23809523809523808,-0.3968253968253968,-321.8253968253968
-216.58730158730157,117.53968253968253,46.58730158730158,-6.428571428571428,45.95238095238095,14.84126984126984,46.74603174603175,23.88888888888889,49.285714285714285,-8.015873015873016,161.984126984127,-6.746031746031746,50.39682539682539,145.63492063492063,46.42857142857142,-10.873015873015872,44.047619047619044,-21.825396825396822,-7.3809523809523805,-148.96825396825395,83.57142857142857,-0.23809523809523808,1.6666666666666665,-321.8253968253968
-216.58730158730157,117.53968253968253,46.58730158730158,-6.428571428571428,45.95238095238095,14.84126984126984,46.74603174603175,23.88888888888889,49.285714285714285,-8.015873015873016,161.984126984127,-6.746031746031746,50.39682539682539,145.63492063492063,46.42857142857142,-10.873015873015872,44.047619047619044,-21.825396825396822,-7.3809523809523805,-148.96825396825395,83.57142857142857,-0.23809523809523808,1.6666666666666665,-321.8253968253968
-325.0,186.74603174603175,73.25396825396825,-14.206349206349206,74.84126984126983,39.285714285714285,75.0,57.857142857142854,77.85714285714285,-15.95238095238095,108.49206349206348,-14.365079365079364,80.87301587301587,106.9047619047619,75.95238095238095,-7.698412698412698,6.111111111111111,131.34920634920636,-15.317460317460316,-325.0,213.25396825396825,0.5555555555555556,-6.904761904761904,-321.8253968253968
-325.0,186.74603174603175,73.25396825396825,-14.206349206349206,74.84126984126983,39.285714285714285,75.0,57.857142857142854,77.85714285714285,-15.95238095238095,108.49206349206348,-14.365079365079364,80.87301587301587,106.9047619047619,75.95238095238095,-7.698412698412698,6.111111111111111,131.34920634920636,-15.317460317460316,-325.0,213.25396825396825,0.5555555555555556,-6.904761904761904,-321.8253968253968
-325.0,186.74603174603175,73.25396825396825,-14.206349206349206,74.84126984126983,39.285714285714285,75.0,57.857142857142854,77.85714285714285,-15.95238095238095,108.49206349206348,-14.365079365079364,80.87301587301587,106.9047619047619,75.95238095238095,-7.698412698412698,6.111111111111111,131.34920634920636,-15.317460317460316,-325.0,213.25396825396825,0.5555555555555556,-6.904761904761904,-321.8253968253968
-325.0,186.74603174603175,73.25396825396825,-14.206349206349206,74.84126984126983,39.285714285714285,75.0,57.857142857142854,77.85714285714285,-15.95238095238095,108.49206349206348,-14.365079365079364,80.87301587301587,106.9047619047619,75.95238095238095,-7.698412698412698,6.111111111111111,131.34920634920636,-15.317460317460316,-325.0,213.25396825396825,0.5555555555555556,-6.904761904761904,-321.8253968253968
-325.0,112.30158730158729,49.6031746031746,-6.587301587301587,50.55555555555555,15.793650793650793,50.238095238095234,26.587301587301585,52.61904761904761,-8.015873015873016,102.77777777777777,-6.904761904761904,53.41269841269841,121.03174603174602,51.03174603174603,-7.3809523809523805,-44.047619047619044,19.6031746031746,-6.26984126984127,-325.0,269.1269841269841,-0.7142857142857142,-8.809523809523808,-321.8253968253968
-325.0,112.30158730158729,49.6031746031746,-6.587301587301587,50.55555555555555,15.793650793650793,50.238095238095234,26.587301587301585,52.61904761904761,-8.015873015873016,102.77777777777777,-6.904761904761904,53.41269841269841,121.03174603174602,51.03174603174603,-7.3809523809523805,-44.047619047619044,19.6031746031746,-6.26984126984127,-325.0,269.1269841269841,-0.7142857142857142,-8.809523809523808,-321.8253968253968
-325.0,97.85714285714285,27.38095238095238,0.23809523809523808,27.539682539682538,35.15873015873016,27.539682539682538,41.82539682539682,28.49206349206349,-1.8253968253968254,95.95238095238095,0.07936507936507936,26.428571428571427,308.17460317460313,26.428571428571427,-6.904761904761904,-68.01587301587301,-46.42857142857142,1.0317460317460316,-325.0,251.98412698412696,-0.3968253968253968,6.428571428571428,-166.26984126984127
-325.0,97.85714285714285,27.38095238095238,0.23809523809523808,27.539682539682538,35.15873015873016,27.539682539682538,41.82539682539682,28.49206349206349,-1.8253968253968254,95.95238095238095,0.07936507936507936,26.428571428571427,308.17460317460313,26.428571428571427,-6.904761904761904,-68.01587301587301,-46.42857142857142,1.0317460317460316,-325.0,251.98412698412696,-0.3968253968253968,6.428571428571428,-166.26984126984127
-325.0,150.55555555555554,41.82539682539682,-4.2063492063492065,41.98412698412698,86.1111111111111,42.93650793650794,98.65079365079364,43.095238095238095,-6.428571428571428,95.79365079365078,-4.2063492063492065,41.98412698412698,325.0,40.714285714285715,-6.904761904761904,-11.825396825396824,-5.952380952380952,-4.2063492063492065,-325.0,178.96825396825395,1.0317460317460316,7.3809523809523805,-166.26984126984127
-325.0,150.55555555555554,41.82539682539682,-4.2063492063492065,41.98412698412698,86.1111111111111,42.93650793650794,98.65079365079364,43.095238095238095,-6.428571428571428,95.79365079365078,-4.2063492063492065,41.98412698412698,325.0,40.714285714285715,-6.904761904761904,-11.825396825396824,-5.952380952380952,-4.2063492063492065,-325.0,178.96825396825395,1.0317460317460316,7.3809523809523805,-166.26984126984127
-325.0,91.19047619047619,30.71428571428571,-2.9365079365079363,30.555555555555554,43.095238095238095,29.6031746031746,51.03174603174603,30.555555555555554,-5.317460317460317,91.03174603174602,-2.7777777777777777,29.285714285714285,158.17460317460316,28.49206349206349,-6.746031746031746,-92.93650793650794,-51.34920634920635,-1.8253968253968254,-325.0,267.22222222222223,-1.0317460317460316,6.587301587301587,-166.26984126984127
-325.0,91.19047619047619,30.71428571428571,-2.9365079365079363,30.555555555555554,43.095238095238095,29.6031746031746,51.03174603174603,30.555555555555554,-5.317460317460317,91.03174603174602,-2.7777777777777777,29.285714285714285,158.17460317460316,28.49206349206349,-6.746031746031746,-92.93650793650794,-51.34920634920635,-1.8253968253968254,-325.0,267.22222222222223,-1.0317460317460316,6.587301587301587,-166.26984126984127
-325.0,23.88888888888889,17.063492063492063,1.984126984126984,17.857142857142858,-12.3015873015873,17.539682539682538,-9.761904761904761,19.92063492063492,0.07936507936507936,87.22222222222221,0.873015873015873,18.96825396825397,70.71428571428571,19.285714285714285,-6.428571428571428,-266.26984126984127,-42.3015873015873,3.253968253968254,-325.0,325.0,-0.7142857142857142,0.07936507936507936,-166.26984126984127
-325.0,23.88888888888889,17.063492063492063,1.984126984126984,17.857142857142858,-12.3015873015873,17.539682539682538,-9.761904761904761,19.92063492063492,0.07936507936507936,87.22222222222221,0.873015873015873,18.96825396825397,70.71428571428571,19.285714285714285,-6.428571428571428,-266.26984126984127,-42.3015873015873,3.253968253968254,-325.0,325.0,-0.7142857142857142,0.07936507936507936,-166.26984126984127
78.01587301587301,109.6031746031746,-247.38095238095238,-7.698412698412698,106.58730158730158,-24.84126984126984,78.4920634920635,304.68253968253964,-250.2380952380952,-26.587301587301585,-45.317460317460316,325.0,-3.571428571428571,-325.0,232.14285714285714,0.23809523809523808,-317.38095238095235,3.888888888888889,23.88888888888889,-28.809523809523807,325.0,-1.349206349206349,-297.22222222222223,-166.26984126984127
78.01587301587301,109.6031746031746,-247.38095238095238,-7.698412698412698,106.58730158730158,-24.84126984126984,78.4920634920635,304.68253968253964,-250.2380952380952,-26.587301587301585,-45.317460317460316,325.0,-3.571428571428571,-325.0,232.14285714285714,0.23809523809523808,-317.38095238095235,3.888888888888889,23.88888888888889,-28.809523809523807,325.0,-1.349206349206349,-297.22222222222223,-166.26984126984127
-325.0,81.66666666666666,29.6031746031746,-2.619047619047619,30.71428571428571,22.3015873015873,31.03174603174603,42.460317460317455,32.77777777777778,-8.809523809523808,83.25396825396825,-3.095238095238095,32.3015873015873,215.15873015873015,31.19047619047619,-6.26984126984127,-267.6984126984127,184.68253968253967,-0.873015873015873,-325.0,325.0,0.5555555555555556,-1.507936507936508,-321.8253968253968
-325.0,81.66666666666666,29.6031746031746,-2.619047619047619,30.71428571428571,22.3015873015873,31.03174603174603,42.460317460317455,32.77777777777778,-8.809523809523808,83.25396825396825,-3.095238095238095,32.3015873015873,215.15873015873015,31.19047619047619,-6.26984126984127,-267.6984126984127,184.68253968253967,-0.873015873015873,-325.0,325.0,0.5555555555555556,-1.507936507936508,-321.8253968253968
-325.0,138.015873015873,35.476190476190474,-3.4126984126984126,35.476190476190474,86.58730158730158,35.476190476190474,111.19047619047619,35.63492063492063,-10.555555555555555,81.5079365079365,-3.095238095238095,35.476190476190474,320.55555555555554,33.095238095238095,-6.111111111111111,-145.47619047619048,114.68253968253967,-1.507936507936508,-325.0,278.015873015873,0.7142857142857142,-2.142857142857143,-321.8253968253968
-325.0,138.015873015873,35.476190476190474,-3.4126984126984126,35.476190476190474,86.58730158730158,35.476190476190474,111.19047619047619,35.63492063492063,-10.555555555555555,81.5079365079365,-3.095238095238095,35.476190476190474,320.55555555555554,33.095238095238095,-6.111111111111111,-145.47619047619048,114.68253968253967,-1.507936507936508,-325.0,278.015873015873,0.7142857142857142,-2.142857142857143,-321.8253968253968
-85.79365079365078,139.6031746031746,5.952380952380952,-149.9206349206349,5.158730158730158,189.12698412698413,5.952380952380952,177.38095238095238,308.17460317460313,1.6666666666666665,-206.42857142857142,0.5555555555555556,9.603174603174603,6.904761904761904,2.3015873015873014,191.03174603174602,-291.19047619047615,48.80952380952381,-0.3968253968253968,-123.09523809523809,87.06349206349206,-0.07936507936507936,-6.587301587301587,-321.8253968253968
-85.79365079365078,139.6031746031746,5.952380952380952,-149.9206349206349,5.158730158730158,189.12698412698413,5.952380952380952,177.38095238095238,308.17460317460313,1.6666666666666665,-206.42857142857142,0.5555555555555556,9.603174603174603,6.904761904761904,2.3015873015873014,191.03174603174602,-291.19047619047615,48.80952380952381,-0.3968253968253968,-123.09523809523809,87.06349206349206,-0.07936507936507936,-6.587301587301587,-321.8253968253968
-77.53968253968253,145.79365079365078,133.73015873015873,-135.47619047619048,134.68253968253967,195.79365079365078,135.63492063492063,175.79365079365078,325.0,-5.317460317460317,-92.77777777777777,-4.2063492063492065,143.57142857142856,188.96825396825395,131.03174603174602,-241.03174603174602,-149.76190476190476,-70.07936507936508,-5.634920634920634,-111.98412698412697,-29.126984126984127,-0.7142857142857142,7.857142857142857,-321.8253968253968
-77.53968253968253,145.79365079365078,133.73015873015873,-135.47619047619048,134.68253968253967,195.79365079365078,135.63492063492063,175.79365079365078,325.0,-5.317460317460317,-92.77777777777777,-4.2063492063492065,143.57142857142856,188.96825396825395,131.03174603174602,-241.03174603174602,-149.76190476190476,-70.07936507936508,-5.634920634920634,-111.98412698412697,-29.126984126984127,-0.7142857142857142,7.857142857142857,-321.8253968253968
-76.26984126984127,141.66666666666666,108.17460317460316,-132.93650793650792,108.33333333333333,192.14285714285714,109.28571428571428,175.3174603174603,325.0,-5.317460317460317,-136.26984126984127,-4.523809523809524,113.88888888888889,173.57142857142856,105.15873015873015,-233.09523809523807,-168.33333333333331,99.28571428571428,-5.7936507936507935,-109.76190476190476,5.634920634920634,-0.7142857142857142,0.23809523809523808,-321.8253968253968
-76.26984126984127,141.66666666666666,108.17460317460316,-132.93650793650792,108.33333333333333,192.14285714285714,109.28571428571428,175.3174603174603,325.0,-5.317460317460317,-136.26984126984127,-4.523809523809524,113.88888888888889,173.57142857142856,105.15873015873015,-233.09523809523807,-168.33333333333331,99.28571428571428,-5.7936507936507935,-109.76190476190476,5.634920634920634,-0.7142857142857142,0.23809523809523808,-321.8253968253968
-69.28571428571428,141.8253968253968,29.444444444444443,-120.07936507936508,29.126984126984127,203.7301587301587,27.063492063492063,181.8253968253968,325.0,1.1904761904761905,-142.3015873015873,1.984126984126984,30.238095238095237,188.8095238095238,23.57142857142857,-206.58730158730157,-146.42857142857142,253.25396825396825,-0.23809523809523808,-98.65079365079364,-20.555555555555554,-1.1904761904761905,-0.873015873015873,-166.26984126984127
-69.28571428571428,141.8253968253968,29.444444444444443,-120.07936507936508,29.126984126984127,203.7301587301587,27.063492063492063,181.8253968253968,325.0,1.1904761904761905,-142.3015873015873,1.984126984126984,30.238095238095237,188.8095238095238,23.57142857142857,-206.58730158730157,-146.42857142857142,253.25396825396825,-0.23809523809523808,-98.65079365079364,-20.555555555555554,-1.1904761904761905,-0.873015873015873,-166.26984126984127
-50.39682539682539,136.42857142857142,-21.03174603174603,-86.74603174603175,-21.507936507936506,218.015873015873,-24.68253968253968,185.63492063492063,285.3174603174603,1.1904761904761905,-8.809523809523808,1.349206349206349,-19.6031746031746,76.58730158730158,-27.698412698412696,-145.47619047619048,-45.317460317460316,143.57142857142856,-1.1904761904761905,-69.28571428571428,-131.34920634920636,-0.873015873015873,4.523809523809524,-166.26984126984127
-50.39682539682539,136.42857142857142,-21.03174603174603,-86.74603174603175,-21.507936507936506,218.015873015873,-24.68253968253968,185.63492063492063,285.3174603174603,1.1904761904761905,-8.809523809523808,1.349206349206349,-19.6031746031746,76.58730158730158,-27.698412698412696,-145.47619047619048,-45.317460317460316,143.57142857142856,-1.1904761904761905,-69.28571428571428,-131.34920634920636,-0.873015873015873,4.523809523809524,-166.26984126984127
-37.06349206349206,126.74603174603173,-18.174603174603174,-63.41269841269841,-19.126984126984127,217.2222222222222,-20.71428571428571,182.46031746031744,245.79365079365078,-5.317460317460317,87.53968253968253,-5.7936507936507935,-15.317460317460316,-66.11111111111111,-23.095238095238095,-103.09523809523809,15.317460317460316,49.6031746031746,-7.857142857142857,-48.80952380952381,-181.03174603174602,-0.07936507936507936,3.4126984126984126,-166.26984126984127
-37.06349206349206,126.74603174603173,-18.174603174603174,-63.41269841269841,-19.126984126984127,217.2222222222222,-20.71428571428571,182.46031746031744,245.79365079365078,-5.317460317460317,87.53968253968253,-5.7936507936507935,-15.317460317460316,-66.11111111111111,-23.095238095238095,-103.09523809523809,15.317460317460316,49.6031746031746,-7.857142857142857,-48.80952380952381,-181.03174603174602,-0.07936507936507936,3.4126984126984126,-166.26984126984127
-37.06349206349206,126.74603174603173,-18.174603174603174,-63.41269841269841,-19.126984126984127,217.2222222222222,-20.71428571428571,182.46031746031744,245.79365079365078,-5.317460317460317,87.53968253968253,-5.7936507936507935,-15.317460317460316,-66.11111111111111,-23.095238095238095,-103.09523809523809,15.317460317460316,49.6031746031746,-7.857142857142857,-48.80952380952381,-181.03174603174602,-0.07936507936507936,3.4126984126984126,-166.26984126984127
-37.06349206349206,126.74603174603173,-18.174603174603174,-63.41269841269841,-19.126984126984127,217.2222222222222,-20.71428571428571,182.46031746031744,245.79365079365078,-5.317460317460317,87.53968253968253,-5.7936507936507935,-15.317460317460316,-66.11111111111111,-23.095238095238095,-103.09523809523809,15.317460317460316,49.6031746031746,-7.857142857142857,-48.80952380952381,-181.03174603174602,-0.07936507936507936,3.4126984126984126,-166.26984126984127
-37.06349206349206,126.74603174603173,-18.174603174603174,-63.41269841269841,-19.126984126984127,217.2222222222222,-20.71428571428571,182.46031746031744,245.79365079365078,-5.317460317460317,87.53968253968253,-5.7936507936507935,-15.317460317460316,-66.11111111111111,-23.095238095238095,-103.09523809523809,15.317460317460316,49.6031746031746,-7.857142857142857,-48.80952380952381,-181.03174603174602,-0.07936507936507936,3.4126984126984126,-166.26984126984127
-37.06349206349206,126.74603174603173,-18.174603174603174,-63.41269841269841,-19.126984126984127,217.2222222222222,-20.71428571428571,182.46031746031744,245.79365079365078,-5.317460317460317,87.53968253968253,-5.7936507936507935,-15.317460317460316,-66.11111111111111,-23.095238095238095,-103.09523809523809,15.317460317460316,49.6031746031746,-7.857142857142857,-48.80952380952381,-181.03174603174602,-0.07936507936507936,3.4126984126984126,-166.26984126984127
-27.857142857142854,99.28571428571428,-29.126984126984127,-39.6031746031746,-28.333333333333332,172.3015873015873,-32.460317460317455,145.15873015873015,181.34920634920633,-144.68253968253967,30.07936507936508,-5.158730158730158,-29.126984126984127,-85.31746031746032,-34.682539682539684,110.87301587301587,-33.57142857142857,187.2222222222222,-6.746031746031746,-33.41269841269841,-112.14285714285714,-0.5555555555555556,6.26984126984127,-321.8253968253968
-27.857142857142854,99.28571428571428,-29.126984126984127,-39.6031746031746,-28.333333333333332,172.3015873015873,-32.460317460317455,145.15873015873015,181.34920634920633,-144.68253968253967,30.07936507936508,-5.158730158730158,-29.126984126984127,-85.31746031746032,-34.682539682539684,110.87301587301587,-33.57142857142857,187.2222222222222,-6.746031746031746,-33.41269841269841,-112.14285714285714,-0.5555555555555556,6.26984126984127,-321.8253968253968
-18.49206349206349,71.82539682539682,-39.92063492063492,-15.634920634920634,-37.38095238095238,127.53968253968253,-44.047619047619044,107.85714285714285,116.9047619047619,-284.04761904761904,-27.38095238095238,-4.365079365079365,-42.93650793650794,-104.36507936507935,-46.269841269841265,325.0,-82.46031746031746,325.0,-5.476190476190476,-18.015873015873016,-43.25396825396825,-1.0317460317460316,9.285714285714285,-321.8253968253968
-18.49206349206349,71.82539682539682,-39.92063492063492,-15.634920634920634,-37.38095238095238,127.53968253968253,-44.047619047619044,107.85714285714285,116.9047619047619,-284.04761904761904,-27.38095238095238,-4.365079365079365,-42.93650793650794,-104.36507936507935,-46.269841269841265,325.0,-82.46031746031746,325.0,-5.476190476190476,-18.015873015873016,-43.25396825396825,-1.0317460317460316,9.285714285714285,-321.8253968253968
-18.49206349206349,71.82539682539682,-39.92063492063492,-15.634920634920634,-37.38095238095238,127.53968253968253,-44.047619047619044,107.85714285714285,116.9047619047619,-284.04761904761904,-27.38095238095238,-4.365079365079365,-42.93650793650794,-104.36507936507935,-46.269841269841265,325.0,-82.46031746031746,325.0,-5.476190476190476,-18.015873015873016,-43.25396825396825,-1.0317460317460316,9.285714285714285,-321.8253968253968
-18.49206349206349,71.82539682539682,-39.92063492063492,-15.634920634920634,-37.38095238095238,127.53968253968253,-44.047619047619044,107.85714285714285,116.9047619047619,-284.04761904761904,-27.38095238095238,-4.365079365079365,-42.93650793650794,-104.36507936507935,-46.269841269841265,325.0,-82.46031746031746,325.0,-5.476190476190476,-18.015873015873016,-43.25396825396825,-1.0317460317460316,9.285714285714285,-321.8253968253968
-18.49206349206349,71.82539682539682,-39.92063492063492,-15.634920634920634,-37.38095238095238,127.53968253968253,-44.047619047619044,107.85714285714285,116.9047619047619,-284.04761904761904,-27.38095238095238,-4.365079365079365,-42.93650793650794,-104.36507936507935,-46.269841269841265,325.0,-82.46031746031746,325.0,-5.476190476190476,-18.015873015873016,-43.25396825396825,-1.0317460317460316,9.285714285714285,-321.8253968253968
-18.49206349206349,71.82539682539682,-39.92063492063492,-15.634920634920634,-37.38095238095238,127.53968253968253,-44.047619047619044,107.85714285714285,116.9047619047619,-284.04761904761904,-27.38095238095238,-4.365079365079365,-42.93650793650794,-104.36507936507935,-46.269841269841265,325.0,-82.46031746031746,325.0,-5.476190476190476,-18.015873015873016,-43.25396825396825,-1.0317460317460316,9.285714285714285,-321.8253968253968
-18.49206349206349,71.82539682539682,-39.92063492063492,-15.634920634920634,-37.38095238095238,127.53968253968253,-44.047619047619044,107.85714285714285,116.9047619047619,-284.04761904761904,-27.38095238095238,-4.365079365079365,-42.93650793650794,-104.36507936507935,-46.269841269841265,325.0,-82.46031746031746,325.0,-5.476190476190476,-18.015873015873016,-43.25396825396825,-1.0317460317460316,9.285714285714285,-321.8253968253968
-18.49206349206349,71.82539682539682,-39.92063492063492,-15.634920634920634,-37.38095238095238,127.53968253968253,-44.047619047619044,107.85714285714285,116.9047619047619,-284.04761904761904,-27.38095238095238,-4.365079365079365,-42.93650793650794,-104.36507936507935,-46.269841269841265,325.0,-82.46031746031746,325.0,-5.476190476190476,-18.015873015873016,-43.25396825396825,-1.0317460317460316,9.285714285714285,-321.8253968253968
-18.49206349206349,71.82539682539682,-39.92063492063492,-15.634920634920634,-37.38095238095238,127.53968253968253,-44.047619047619044,107.85714285714285,116.9047619047619,-284.04761904761904,-27.38095238095238,-4.365079365079365,-42.93650793650794,-104.36507936507935,-46.269841269841265,325.0,-82.46031746031746,325.0,-5.476190476190476,-18.015873015873016,-43.25396825396825,-1.0317460317460316,9.285714285714285,-166.26984126984127
-18.49206349206349,71.82539682539682,-39.92063492063492,-15.634920634920634,-37.38095238095238,127.53968253968253,-44.047619047619044,107.85714285714285,116.9047619047619,-284.04761904761904,-27.38095238095238,-4.365079365079365,-42.93650793650794,-104.36507936507935,-46.269841269841265,325.0,-82.46031746031746,325.0,-5.476190476190476,-18.015873015873016,-43.25396825396825,-1.0317460317460316,9.285714285714285,-166.26984126984127
-11.666666666666666,98.96825396825396,10.079365079365079,-75.15873015873015,325.0,178.65079365079364,6.746031746031746,143.57142857142856,68.65079365079364,-183.88888888888889,-181.19047619047618,7.063492063492063,7.857142857142857,325.0,5.317460317460317,325.0,-40.714285714285715,-325.0,5.317460317460317,-16.587301587301585,-135.47619047619048,0.07936507936507936,7.698412698412698,-166.26984126984127
-11.666666666666666,98.96825396825396,10.079365079365079,-75.15873015873015,325.0,178.65079365079364,6.746031746031746,143.57142857142856,68.65079365079364,-183.88888888888889,-181.19047619047618,7.063492063492063,7.857142857142857,325.0,5.317460317460317,325.0,-40.714285714285715,-325.0,5.317460317460317,-16.587301587301585,-135.47619047619048,0.07936507936507936,7.698412698412698,-166.26984126984127
-11.349206349206348,101.5079365079365,15.634920634920634,-77.6984126984127,325.0,180.55555555555554,12.619047619047619,146.42857142857142,67.53968253968253,-180.7142857142857,-171.34920634920633,6.587301587301587,13.571428571428571,325.0,10.873015873015872,325.0,-24.206349206349206,-325.0,5.158730158730158,-17.857142857142858,-133.0952380952381,0.07936507936507936,8.174603174603174,-166.26984126984127
-11.349206349206348,101.5079365079365,15.634920634920634,-77.6984126984127,325.0,180.55555555555554,12.619047619047619,146.42857142857142,67.53968253968253,-180.7142857142857,-171.34920634920633,6.587301587301587,13.571428571428571,325.0,10.873015873015872,325.0,-24.206349206349206,-325.0,5.158730158730158,-17.857142857142858,-133.0952380952381,0.07936507936507936,8.174603174603174,-166.26984126984127
-9.444444444444445,118.49206349206348,4.365079365079365,-86.1111111111111,325.0,186.11111111111111,1.1904761904761905,146.9047619047619,52.93650793650794,-140.55555555555554,-33.73015873015873,1.6666666666666665,3.095238095238095,325.0,2.46031746031746,-106.9047619047619,146.9047619047619,119.12698412698413,-0.3968253968253968,1.349206349206349,-228.96825396825395,0.23809523809523808,6.26984126984127,-166.26984126984127
-9.444444444444445,118.49206349206348,4.365079365079365,-86.1111111111111,325.0,186.11111111111111,1.1904761904761905,146.9047619047619,52.93650793650794,-140.55555555555554,-33.73015873015873,1.6666666666666665,3.095238095238095,325.0,2.46031746031746,-106.9047619047619,146.9047619047619,119.12698412698413,-0.3968253968253968,1.349206349206349,-228.96825396825395,0.23809523809523808,6.26984126984127,-166.26984126984127
-9.444444444444445,118.49206349206348,4.365079365079365,-86.1111111111111,325.0,186.11111111111111,1.1904761904761905,146.9047619047619,52.93650793650794,-140.55555555555554,-33.73015873015873,1.6666666666666665,3.095238095238095,325.0,2.46031746031746,-106.9047619047619,146.9047619047619,119.12698412698413,-0.3968253968253968,1.349206349206349,-228.96825396825395,0.23809523809523808,6.26984126984127,-166.26984126984127
-9.444444444444445,118.49206349206348,4.365079365079365,-86.1111111111111,325.0,186.11111111111111,1.1904761904761905,146.9047619047619,52.93650793650794,-140.55555555555554,-33.73015873015873,1.6666666666666665,3.095238095238095,325.0,2.46031746031746,-106.9047619047619,146.9047619047619,119.12698412698413,-0.3968253968253968,1.349206349206349,-228.96825396825395,0.23809523809523808,6.26984126984127,-166.26984126984127
-8.333333333333332,21.507936507936506,14.206349206349206,119.44444444444444,223.7301587301587,42.61904761904761,16.428571428571427,40.39682539682539,-136.11111111111111,-220.7142857142857,-65.95238095238095,0.7142857142857142,15.95238095238095,68.33333333333333,17.698412698412696,108.96825396825396,33.888888888888886,113.25396825396825,0.07936507936507936,27.539682539682538,-28.809523809523807,1.1904761904761905,4.523809523809524,-321.8253968253968
-8.333333333333332,21.507936507936506,14.206349206349206,119.44444444444444,223.7301587301587,42.61904761904761,16.428571428571427,40.39682539682539,-136.11111111111111,-220.7142857142857,-65.95238095238095,0.7142857142857142,15.95238095238095,68.33333333333333,17.698412698412696,108.96825396825396,33.888888888888886,113.25396825396825,0.07936507936507936,27.539682539682538,-28.809523809523807,1.1904761904761905,4.523809523809524,-321.8253968253968
-7.063492063492063,-75.31746031746032,24.047619047619047,325.0,122.46031746031746,-100.71428571428571,31.825396825396822,-65.95238095238095,-325.0,-300.7142857142857,-98.17460317460316,-0.23809523809523808,28.96825396825397,-188.17460317460316,32.93650793650794,325.0,-78.96825396825396,107.38095238095238,0.5555555555555556,53.888888888888886,171.34920634920633,2.142857142857143,2.7777777777777777,-321.8253968253968
-7.063492063492063,-75.31746031746032,24.047619047619047,325.0,122.46031746031746,-100.71428571428571,31.825396825396822,-65.95238095238095,-325.0,-300.7142857142857,-98.17460317460316,-0.23809523809523808,28.96825396825397,-188.17460317460316,32.93650793650794,325.0,-78.96825396825396,107.38095238095238,0.5555555555555556,53.888888888888886,171.34920634920633,2.142857142857143,2.7777777777777777,-321.8253968253968
-7.063492063492063,-75.31746031746032,24.047619047619047,325.0,122.46031746031746,-100.71428571428571,31.825396825396822,-65.95238095238095,-325.0,-300.7142857142857,-98.17460317460316,-0.23809523809523808,28.96825396825397,-188.17460317460316,32.93650793650794,325.0,-78.96825396825396,107.38095238095238,0.5555555555555556,53.888888888888886,171.34920634920633,2.142857142857143,2.7777777777777777,-321.8253968253968
-7.063492063492063,-75.31746031746032,24.047619047619047,325.0,122.46031746031746,-100.71428571428571,31.825396825396822,-65.95238095238095,-325.0,-300.7142857142857,-98.17460317460316,-0.23809523809523808,28.96825396825397,-188.17460317460316,32.93650793650794,325.0,-78.96825396825396,107.38095238095238,0.5555555555555556,53.888888888888886,171.34920634920633,2.142857142857143,2.7777777777777777,-321.8253968253968
-7.063492063492063,-75.31746031746032,24.047619047619047,325.0,122.46031746031746,-100.71428571428571,31.825396825396822,-65.95238095238095,-325.0,-300.7142857142857,-98.17460317460316,-0.23809523809523808,28.96825396825397,-188.17460317460316,32.93650793650794,325.0,-78.96825396825396,107.38095238095238,0.5555555555555556,53.888888888888886,171.34920634920633,2.142857142857143,2.7777777777777777,-321.8253968253968
-7.063492063492063,-75.31746031746032,24.047619047619047,325.0,122.46031746031746,-100.71428571428571,31.825396825396822,-65.95238095238095,-325.0,-300.7142857142857,-98.17460317460316,-0.23809523809523808,28.96825396825397,-188.17460317460316,32.93650793650794,325.0,-78.96825396825396,107.38095238095238,0.5555555555555556,53.888888888888886,171.34920634920633,2.142857142857143,2.7777777777777777,-321.8253968253968
-7.063492063492063,-75.31746031746032,24.047619047619047,325.0,122.46031746031746,-100.71428571428571,31.825396825396822,-65.95238095238095,-325.0,-300.7142857142857,-98.17460317460316,-0.23809523809523808,28.96825396825397,-188.17460317460316,32.93650793650794,325.0,-78.96825396825396,107.38095238095238,0.5555555555555556,53.888888888888886,171.34920634920633,2.142857142857143,2.7777777777777777,-321.8253968253968
-7.063492063492063,-75.31746031746032,24.047619047619047,325.0,122.46031746031746,-100.71428571428571,31.825396825396822,-65.95238095238095,-325.0,-300.7142857142857,-98.17460317460316,-0.23809523809523808,28.96825396825397,-188.17460317460316,32.93650793650794,325.0,-78.96825396825396,107.38095238095238,0.5555555555555556,53.888888888888886,171.34920634920633,2.142857142857143,2.7777777777777777,-321.8253968253968
-7.063492063492063,-75.31746031746032,24.047619047619047,325.0,122.46031746031746,-100.71428571428571,31.825396825396822,-65.95238095238095,-325.0,-300.7142857142857,-98.17460317460316,-0.23809523809523808,28.96825396825397,-188.17460317460316,32.93650793650794,325.0,-78.96825396825396,107.38095238095238,0.5555555555555556,53.888888888888886,171.34920634920633,2.142857142857143,2.7777777777777777,-166.26984126984127
-7.063492063492063,-75.31746031746032,24.047619047619047,325.0,122.46031746031746,-100.71428571428571,31.825396825396822,-65.95238095238095,-325.0,-300.7142857142857,-98.17460317460316,-0.23809523809523808,28.96825396825397,-188.17460317460316,32.93650793650794,325.0,-78.96825396825396,107.38095238095238,0.5555555555555556,53.888888888888886,171.34920634920633,2.142857142857143,2.7777777777777777,-166.26984126984127
-19.285714285714285,-46.58730158730158,3.571428571428571,278.015873015873,-88.33333333333333,-63.888888888888886,6.111111111111111,-41.666666666666664,-325.0,12.142857142857142,-99.12698412698413,0.873015873015873,1.8253968253968254,-34.682539682539684,6.111111111111111,-0.07936507936507936,-75.63492063492063,216.1111111111111,1.507936507936508,-17.22222222222222,124.52380952380952,0.7142857142857142,-4.682539682539682,-166.26984126984127
-19.285714285714285,-46.58730158730158,3.571428571428571,278.015873015873,-88.33333333333333,-63.888888888888886,6.111111111111111,-41.666666666666664,-325.0,12.142857142857142,-99.12698412698413,0.873015873015873,1.8253968253968254,-34.682539682539684,6.111111111111111,-0.07936507936507936,-75.63492063492063,216.1111111111111,1.507936507936508,-17.22222222222222,124.52380952380952,0.7142857142857142,-4.682539682539682,-166.26984126984127
-31.507936507936506,-17.698412698412696,-16.746031746031743,231.19047619047618,-299.1269841269841,-27.063492063492063,-19.444444444444443,-17.38095238095238,-325.0,325.0,-99.92063492063491,2.142857142857143,-25.158730158730158,118.8095238095238,-20.71428571428571,-325.0,-72.14285714285714,325.0,2.619047619047619,-88.33333333333333,77.6984126984127,-0.5555555555555556,-11.984126984126984,-166.26984126984127
-31.507936507936506,-17.698412698412696,-16.746031746031743,231.19047619047618,-299.1269841269841,-27.063492063492063,-19.444444444444443,-17.38095238095238,-325.0,325.0,-99.92063492063491,2.142857142857143,-25.158730158730158,118.8095238095238,-20.71428571428571,-325.0,-72.14285714285714,325.0,2.619047619047619,-88.33333333333333,77.6984126984127,-0.5555555555555556,-11.984126984126984,-166.26984126984127
-31.507936507936506,-17.698412698412696,-16.746031746031743,231.19047619047618,-299.1269841269841,-27.063492063492063,-19.444444444444443,-17.38095238095238,-325.0,325.0,-99.92063492063491,2.142857142857143,-25.158730158730158,118.8095238095238,-20.71428571428571,-325.0,-72.14285714285714,325.0,2.619047619047619,-88.33333333333333,77.6984126984127,-0.5555555555555556,-11.984126984126984,-166.26984126984127
-31.507936507936506,-17.698412698412696,-16.746031746031743,231.19047619047618,-299.1269841269841,-27.063492063492063,-19.444444444444443,-17.38095238095238,-325.0,325.0,-99.92063492063491,2.142857142857143,-25.158730158730158,118.8095238095238,-20.71428571428571,-325.0,-72.14285714285714,325.0,2.619047619047619,-88.33333333333333,77.6984126984127,-0.5555555555555556,-11.984126984126984,-166.26984126984127
-31.507936507936506,-17.698412698412696,-16.746031746031743,231.19047619047618,-299.1269841269841,-27.063492063492063,-19.444444444444443,-17.38095238095238,-325.0,325.0,-99.92063492063491,2.142857142857143,-25.158730158730158,118.8095238095238,-20.71428571428571,-325.0,-72.14285714285714,325.0,2.619047619047619,-88.33333333333333,77.6984126984127,-0.5555555555555556,-11.984126984126984,-166.26984126984127
-31.507936507936506,-17.698412698412696,-16.746031746031743,231.19047619047618,-299.1269841269841,-27.063492063492063,-19.444444444444443,-17.38095238095238,-325.0,325.0,-99.92063492063491,2.142857142857143,-25.158730158730158,118.8095238095238,-20.71428571428571,-325.0,-72.14285714285714,325.0,2.619047619047619,-88.33333333333333,77.6984126984127,-0.5555555555555556,-11.984126984126984,-166.26984126984127
-31.507936507936506,-17.698412698412696,-16.746031746031743,231.19047619047618,-299.1269841269841,-27.063492063492063,-19.444444444444443,-17.38095238095238,-325.0,325.0,-99.92063492063491,2.142857142857143,-25.158730158730158,118.8095238095238,-20.71428571428571,-325.0,-72.14285714285714,325.0,2.619047619047619,-88.33333333333333,77.6984126984127,-0.5555555555555556,-11.984126984126984,-321.8253968253968
-31.507936507936506,-17.698412698412696,-16.746031746031743,231.19047619047618,-299.1269841269841,-27.063492063492063,-19.444444444444443,-17.38095238095238,-325.0,325.0,-99.92063492063491,2.142857142857143,-25.158730158730158,118.8095238095238,-20.71428571428571,-325.0,-72.14285714285714,325.0,2.619047619047619,-88.33333333333333,77.6984126984127,-0.5555555555555556,-11.984126984126984,-321.8253968253968
-31.507936507936506,-17.698412698412696,-16.746031746031743,231.19047619047618,-299.1269841269841,-27.063492063492063,-19.444444444444443,-17.38095238095238,-325.0,325.0,-99.92063492063491,2.142857142857143,-25.158730158730158,118.8095238095238,-20.71428571428571,-325.0,-72.14285714285714,325.0,2.619047619047619,-88.33333333333333,77.6984126984127,-0.5555555555555556,-11.984126984126984,-321.8253968253968
-31.507936507936506,-17.698412698412696,-16.746031746031743,231.19047619047618,-299.1269841269841,-27.063492063492063,-19.444444444444443,-17.38095238095238,-325.0,325.0,-99.92063492063491,2.142857142857143,-25.158730158730158,118.8095238095238,-20.71428571428571,-325.0,-72.14285714285714,325.0,2.619047619047619,-88.33333333333333,77.6984126984127,-0.5555555555555556,-11.984126984126984,-321.8253968253968
-31.507936507936506,-17.698412698412696,-16.746031746031743,231.19047619047618,-299.1269841269841,-27.063492063492063,-19.444444444444443,-17.38095238095238,-325.0,325.0,-99.92063492063491,2.142857142857143,-25.158730158730158,118.8095238095238,-20.71428571428571,-325.0,-72.14285714285714,325.0,2.619047619047619,-88.33333333333333,77.6984126984127,-0.5555555555555556,-11.984126984126984,-321.8253968253968
-31.507936507936506,-17.698412698412696,-16.746031746031743,231.19047619047618,-299.1269841269841,-27.063492063492063,-19.444444444444443,-17.38095238095238,-325.0,325.0,-99.92063492063491,2.142857142857143,-25.158730158730158,118.8095238095238,-20.71428571428571,-325.0,-72.14285714285714,325.0,2.619047619047619,-88.33333333333333,77.6984126984127,-0.5555555555555556,-11.984126984126984,-321.8253968253968
-31.507936507936506,-17.698412698412696,-16.746031746031743,231.19047619047618,-299.1269841269841,-27.063492063492063,-19.444444444444443,-17.38095238095238,-325.0,325.0,-99.92063492063491,2.142857142857143,-25.158730158730158,118.8095238095238,-20.71428571428571,-325.0,-72.14285714285714,325.0,2.619047619047619,-88.33333333333333,77.6984126984127,-0.5555555555555556,-11.984126984126984,-321.8253968253968
-31.507936507936506,-17.698412698412696,-16.746031746031743,231.19047619047618,-299.1269841269841,-27.063492063492063,-19.444444444444443,-17.38095238095238,-325.0,325.0,-99.92063492063491,2.142857142857143,-25.158730158730158,118.8095238095238,-20.71428571428571,-325.0,-72.14285714285714,325.0,2.619047619047619,-88.33333333333333,77.6984126984127,-0.5555555555555556,-11.984126984126984,-321.8253968253968
-31.507936507936506,-17.698412698412696,-16.746031746031743,231.19047619047618,-299.1269841269841,-27.063492063492063,-19.444444444444443,-17.38095238095238,-325.0,325.0,-99.92063492063491,2.142857142857143,-25.158730158730158,118.8095238095238,-20.71428571428571,-325.0,-72.14285714285714,325.0,2.619047619047619,-88.33333333333333,77.6984126984127,-0.5555555555555556,-11.984126984126984,-321.8253968253968
-31.507936507936506,-17.698412698412696,-16.746031746031743,231.19047619047618,-299.1269841269841,-27.063492063492063,-19.444444444444443,-17.38095238095238,-325.0,325.0,-99.92063492063491,2.142857142857143,-25.158730158730158,118.8095238095238,-20.71428571428571,-325.0,-72.14285714285714,325.0,2.619047619047619,-88.33333333333333,77.6984126984127,-0.5555555555555556,-11.984126984126984,-321.8253968253968
-31.507936507936506,-17.698412698412696,-16.746031746031743,231.19047619047618,-299.1269841269841,-27.063492063492063,-19.444444444444443,-17.38095238095238,-325.0,325.0,-99.92063492063491,2.142857142857143,-25.158730158730158,118.8095238095238,-20.71428571428571,-325.0,-72.14285714285714,325.0,2.619047619047619,-88.33333333333333,77.6984126984127,-0.5555555555555556,-11.984126984126984,-166.26984126984127
-31.507936507936506,-17.698412698412696,-16.746031746031743,231.19047619047618,-299.1269841269841,-27.063492063492063,-19.444444444444443,-17.38095238095238,-325.0,325.0,-99.92063492063491,2.142857142857143,-25.158730158730158,118.8095238095238,-20.71428571428571,-325.0,-72.14285714285714,325.0,2.619047619047619,-88.33333333333333,77.6984126984127,-0.5555555555555556,-11.984126984126984,-166.26984126984127
-31.507936507936506,-17.698412698412696,-16.746031746031743,231.19047619047618,-299.1269841269841,-27.063492063492063,-19.444444444444443,-17.38095238095238,-325.0,325.0,-99.92063492063491,2.142857142857143,-25.158730158730158,118.8095238095238,-20.71428571428571,-325.0,-72.14285714285714,325.0,2.619047619047619,-88.33333333333333,77.6984126984127,-0.5555555555555556,-11.984126984126984,-166.26984126984127
-31.507936507936506,-17.698412698412696,-16.746031746031743,231.19047619047618,-299.1269841269841,-27.063492063492063,-19.444444444444443,-17.38095238095238,-325.0,325.0,-99.92063492063491,2.142857142857143,-25.158730158730158,118.8095238095238,-20.71428571428571,-325.0,-72.14285714285714,325.0,2.619047619047619,-88.33333333333333,77.6984126984127,-0.5555555555555556,-11.984126984126984,-166.26984126984127
-31.507936507936506,-17.698412698412696,-16.746031746031743,231.19047619047618,-299.1269841269841,-27.063492063492063,-19.444444444444443,-17.38095238095238,-325.0,325.0,-99.92063492063491,2.142857142857143,-25.158730158730158,118.8095238095238,-20.71428571428571,-325.0,-72.14285714285714,325.0,2.619047619047619,-88.33333333333333,77.6984126984127,-0.5555555555555556,-11.984126984126984,-166.26984126984127
-31.507936507936506,-17.698412698412696,-16.746031746031743,231.19047619047618,-299.1269841269841,-27.063492063492063,-19.444444444444443,-17.38095238095238,-325.0,325.0,-99.92063492063491,2.142857142857143,-25.158730158730158,118.8095238095238,-20.71428571428571,-325.0,-72.14285714285714,325.0,2.619047619047619,-88.33333333333333,77.6984126984127,-0.5555555555555556,-11.984126984126984,-166.26984126984127
49.12698412698413,46.74603174603175,94.68253968253968,-65.95238095238095,-88.65079365079364,123.88888888888889,101.66666666666666,97.85714285714285,-70.55555555555556,69.76190476190476,120.55555555555554,-8.968253968253968,100.39682539682539,99.6031746031746,98.33333333333333,-325.0,52.77777777777777,-325.0,-9.761904761904761,-109.44444444444444,-171.66666666666666,2.619047619047619,-6.587301587301587,-166.26984126984127
49.12698412698413,46.74603174603175,94.68253968253968,-65.95238095238095,-88.65079365079364,123.88888888888889,101.66666666666666,97.85714285714285,-70.55555555555556,69.76190476190476,120.55555555555554,-8.968253968253968,100.39682539682539,99.6031746031746,98.33333333333333,-325.0,52.77777777777777,-325.0,-9.761904761904761,-109.44444444444444,-171.66666666666666,2.619047619047619,-6.587301587301587,-166.26984126984127
-71.34920634920634,-32.93650793650794,39.285714285714285,203.57142857142856,-325.0,-57.38095238095238,34.682539682539684,-38.96825396825397,-213.88888888888889,131.19047619047618,-154.04761904761904,-0.07936507936507936,33.41269841269841,-325.0,33.41269841269841,108.49206349206348,-121.34920634920634,-325.0,-0.07936507936507936,-74.04761904761904,139.28571428571428,-4.0476190476190474,-12.46031746031746,-166.26984126984127
-71.34920634920634,-32.93650793650794,39.285714285714285,203.57142857142856,-325.0,-57.38095238095238,34.682539682539684,-38.96825396825397,-213.88888888888889,131.19047619047618,-154.04761904761904,-0.07936507936507936,33.41269841269841,-325.0,33.41269841269841,108.49206349206348,-121.34920634920634,-325.0,-0.07936507936507936,-74.04761904761904,139.28571428571428,-4.0476190476190474,-12.46031746031746,-166.26984126984127
-71.34920634920634,-32.93650793650794,39.285714285714285,203.57142857142856,-325.0,-57.38095238095238,34.682539682539684,-38.96825396825397,-213.88888888888889,131.19047619047618,-154.04761904761904,-0.07936507936507936,33.41269841269841,-325.0,33.41269841269841,108.49206349206348,-121.34920634920634,-325.0,-0.07936507936507936,-74.04761904761904,139.28571428571428,-4.0476190476190474,-12.46031746031746,-321.8253968253968
-71.34920634920634,-32.93650793650794,39.285714285714285,203.57142857142856,-325.0,-57.38095238095238,34.682539682539684,-38.96825396825397,-213.88888888888889,131.19047619047618,-154.04761904761904,-0.07936507936507936,33.41269841269841,-325.0,33.41269841269841,108.49206349206348,-121.34920634920634,-325.0,-0.07936507936507936,-74.04761904761904,139.28571428571428,-4.0476190476190474,-12.46031746031746,-321.8253968253968
-71.34920634920634,-32.93650793650794,39.285714285714285,203.57142857142856,-325.0,-57.38095238095238,34.682539682539684,-38.96825396825397,-213.88888888888889,131.19047619047618,-154.04761904761904,-0.07936507936507936,33.41269841269841,-325.0,33.41269841269841,108.49206349206348,-121.34920634920634,-325.0,-0.07936507936507936,-74.04761904761904,139.28571428571428,-4.0476190476190474,-12.46031746031746,-321.8253968253968
-71.34920634920634,-32.93650793650794,39.285714285714285,203.57142857142856,-325.0,-57.38095238095238,34.682539682539684,-38.96825396825397,-213.88888888888889,131.19047619047618,-154.04761904761904,-0.07936507936507936,33.41269841269841,-325.0,33.41269841269841,108.49206349206348,-121.34920634920634,-325.0,-0.07936507936507936,-74.04761904761904,139.28571428571428,-4.0476190476190474,-12.46031746031746,-321.8253968253968
-71.34920634920634,-32.93650793650794,39.285714285714285,203.57142857142856,-325.0,-57.38095238095238,34.682539682539684,-38.96825396825397,-213.88888888888889,131.19047619047618,-154.04761904761904,-0.07936507936507936,33.41269841269841,-325.0,33.41269841269841,108.49206349206348,-121.34920634920634,-325.0,-0.07936507936507936,-74.04761904761904,139.28571428571428,-4.0476190476190474,-12.46031746031746,-321.8253968253968
-71.34920634920634,-32.93650793650794,39.285714285714285,203.57142857142856,-325.0,-57.38095238095238,34.682539682539684,-38.96825396825397,-213.88888888888889,131.19047619047618,-154.04761904761904,-0.07936507936507936,33.41269841269841,-325.0,33.41269841269841,108.49206349206348,-121.34920634920634,-325.0,-0.07936507936507936,-74.04761904761904,139.28571428571428,-4.0476190476190474,-12.46031746031746,-321.8253968253968
-71.34920634920634,-32.93650793650794,39.285714285714285,203.57142857142856,-325.0,-57.38095238095238,34.682539682539684,-38.96825396825397,-213.88888888888889,131.19047619047618,-154.04761904761904,-0.07936507936507936,33.41269841269841,-325.0,33.41269841269841,108.49206349206348,-121.34920634920634,-325.0,-0.07936507936507936,-74.04761904761904,139.28571428571428,-4.0476190476190474,-12.46031746031746,-321.8253968253968
-71.34920634920634,-32.93650793650794,39.285714285714285,203.57142857142856,-325.0,-57.38095238095238,34.682539682539684,-38.96825396825397,-213.88888888888889,131.19047619047618,-154.04761904761904,-0.07936507936507936,33.41269841269841,-325.0,33.41269841269841,108.49206349206348,-121.34920634920634,-325.0,-0.07936507936507936,-74.04761904761904,139.28571428571428,-4.0476190476190474,-12.46031746031746,-321.8253968253968
-71.34920634920634,-32.93650793650794,39.285714285714285,203.57142857142856,-325.0,-57.38095238095238,34.682539682539684,-38.96825396825397,-213.88888888888889,131.19047619047618,-154.04761904761904,-0.07936507936507936,33.41269841269841,-325.0,33.41269841269841,108.49206349206348,-121.34920634920634,-325.0,-0.07936507936507936,-74.04761904761904,139.28571428571428,-4.0476190476190474,-12.46031746031746,-321.8253968253968
-71.34920634920634,-32.93650793650794,39.285714285714285,203.57142857142856,-325.0,-57.38095238095238,34.682539682539684,-38.96825396825397,-213.88888888888889,131.19047619047618,-154.04761904761904,-0.07936507936507936,33.41269841269841,-325.0,33.41269841269841,108.49206349206348,-121.34920634920634,-325.0,-0.07936507936507936,-74.04761904761904,139.28571428571428,-4.0476190476190474,-12.46031746031746,-321.8253968253968
-71.34920634920634,-32.93650793650794,39.285714285714285,203.57142857142856,-325.0,-57.38095238095238,34.682539682539684,-38.96825396825397,-213.88888888888889,131.19047619047618,-154.04761904761904,-0.07936507936507936,33.41269841269841,-325.0,33.41269841269841,108.49206349206348,-121.34920634920634,-325.0,-0.07936507936507936,-74.04761904761904,139.28571428571428,-4.0476190476190474,-12.46031746031746,-166.26984126984127
-71.34920634920634,-32.93650793650794,39.285714285714285,203.57142857142856,-325.0,-57.38095238095238,34.682539682539684,-38.96825396825397,-213.88888888888889,131.19047619047618,-154.04761904761904,-0.07936507936507936,33.41269841269841,-325.0,33.41269841269841,108.49206349206348,-121.34920634920634,-325.0,-0.07936507936507936,-74.04761904761904,139.28571428571428,-4.0476190476190474,-12.46031746031746,-166.26984126984127
54.68253968253968,15.634920634920634,101.03174603174602,1.349206349206349,-103.25396825396825,41.34920634920635,101.98412698412697,36.42857142857142,-32.61904761904762,1.507936507936508,83.09523809523809,-4.0476190476190474,101.19047619047619,-233.09523809523807,100.39682539682539,-108.33333333333333,101.03174603174602,-319.6031746031746,-4.523809523809524,-72.14285714285714,-61.507936507936506,-0.07936507936507936,-8.809523809523808,-166.26984126984127
54.68253968253968,15.634920634920634,101.03174603174602,1.349206349206349,-103.25396825396825,41.34920634920635,101.98412698412697,36.42857142857142,-32.61904761904762,1.507936507936508,83.09523809523809,-4.0476190476190474,101.19047619047619,-233.09523809523807,100.39682539682539,-108.33333333333333,101.03174603174602,-319.6031746031746,-4.523809523809524,-72.14285714285714,-61.507936507936506,-0.07936507936507936,-8.809523809523808,-166.26984126984127
180.87301587301587,64.36507936507937,162.77777777777777,-200.7142857142857,118.65079365079364,140.07936507936506,169.44444444444443,111.98412698412697,148.65079365079364,-128.015873015873,320.23809523809524,-8.015873015873016,168.96825396825395,-141.19047619047618,167.53968253968253,-325.0,323.4126984126984,-314.04761904761904,-8.968253968253968,-70.23809523809524,-262.3015873015873,4.0476190476190474,-5.0,-166.26984126984127
180.87301587301587,64.36507936507937,162.77777777777777,-200.7142857142857,118.65079365079364,140.07936507936506,169.44444444444443,111.98412698412697,148.65079365079364,-128.015873015873,320.23809523809524,-8.015873015873016,168.96825396825395,-141.19047619047618,167.53968253968253,-325.0,323.4126984126984,-314.04761904761904,-8.968253968253968,-70.23809523809524,-262.3015873015873,4.0476190476190474,-5.0,-166.26984126984127
180.87301587301587,64.36507936507937,162.77777777777777,-200.7142857142857,118.65079365079364,140.07936507936506,169.44444444444443,111.98412698412697,148.65079365079364,-128.015873015873,320.23809523809524,-8.015873015873016,168.96825396825395,-141.19047619047618,167.53968253968253,-325.0,323.4126984126984,-314.04761904761904,-8.968253968253968,-70.23809523809524,-262.3015873015873,4.0476190476190474,-5.0,-166.26984126984127
180.87301587301587,64.36507936507937,162.77777777777777,-200.7142857142857,118.65079365079364,140.07936507936506,169.44444444444443,111.98412698412697,148.65079365079364,-128.015873015873,320.23809523809524,-8.015873015873016,168.96825396825395,-141.19047619047618,167.53968253968253,-325.0,323.4126984126984,-314.04761904761904,-8.968253968253968,-70.23809523809524,-262.3015873015873,4.0476190476190474,-5.0,-166.26984126984127
180.87301587301587,64.36507936507937,162.77777777777777,-200.7142857142857,118.65079365079364,140.07936507936506,169.44444444444443,111.98412698412697,148.65079365079364,-128.015873015873,320.23809523809524,-8.015873015873016,168.96825396825395,-141.19047619047618,167.53968253968253,-325.0,323.4126984126984,-314.04761904761904,-8.968253968253968,-70.23809523809524,-262.3015873015873,4.0476190476190474,-5.0,-166.26984126984127
180.87301587301587,64.36507936507937,162.77777777777777,-200.7142857142857,118.65079365079364,140.07936507936506,169.44444444444443,111.98412698412697,148.65079365079364,-128.015873015873,320.23809523809524,-8.015873015873016,168.96825396825395,-141.19047619047618,167.53968253968253,-325.0,323.4126984126984,-314.04761904761904,-8.968253968253968,-70.23809523809524,-262.3015873015873,4.0476190476190474,-5.0,-166.26984126984127
180.87301587301587,64.36507936507937,162.77777777777777,-200.7142857142857,118.65079365079364,140.07936507936506,169.44444444444443,111.98412698412697,148.65079365079364,-128.015873015873,320.23809523809524,-8.015873015873016,168.96825396825395,-141.19047619047618,167.53968253968253,-325.0,323.4126984126984,-314.04761904761904,-8.968253968253968,-70.23809523809524,-262.3015873015873,4.0476190476190474,-5.0,-321.8253968253968
180.87301587301587,64.36507936507937,162.77777777777777,-200.7142857142857,118.65079365079364,140.07936507936506,169.44444444444443,111.98412698412697,148.65079365079364,-128.015873015873,320.23809523809524,-8.015873015873016,168.96825396825395,-141.19047619047618,167.53968253968253,-325.0,323.4126984126984,-314.04761904761904,-8.968253968253968,-70.23809523809524,-262.3015873015873,4.0476190476190474,-5.0,-321.8253968253968
180.87301587301587,64.36507936507937,162.77777777777777,-200.7142857142857,118.65079365079364,140.07936507936506,169.44444444444443,111.98412698412697,148.65079365079364,-128.015873015873,320.23809523809524,-8.015873015873016,168.96825396825395,-141.19047619047618,167.53968253968253,-325.0,323.4126984126984,-314.04761904761904,-8.968253968253968,-70.23809523809524,-262.3015873015873,4.0476190476190474,-5.0,-321.8253968253968
180.87301587301587,64.36507936507937,162.77777777777777,-200.7142857142857,118.65079365079364,140.07936507936506,169.44444444444443,111.98412698412697,148.65079365079364,-128.015873015873,320.23809523809524,-8.015873015873016,168.96825396825395,-141.19047619047618,167.53968253968253,-325.0,323.4126984126984,-314.04761904761904,-8.968253968253968,-70.23809523809524,-262.3015873015873,4.0476190476190474,-5.0,-321.8253968253968
-133.4126984126984,-49.92063492063492,58.17460317460317,150.07936507936506,-257.38095238095235,-90.55555555555556,62.77777777777777,-64.36507936507937,-189.44444444444443,-82.61904761904762,-191.98412698412696,-1.507936507936508,62.93650793650793,-87.38095238095238,61.666666666666664,18.333333333333332,-98.33333333333333,105.79365079365078,-0.873015873015873,162.46031746031744,221.03174603174602,0.07936507936507936,6.587301587301587,-321.8253968253968
-133.4126984126984,-49.92063492063492,58.17460317460317,150.07936507936506,-257.38095238095235,-90.55555555555556,62.77777777777777,-64.36507936507937,-189.44444444444443,-82.61904761904762,-191.98412698412696,-1.507936507936508,62.93650793650793,-87.38095238095238,61.666666666666664,18.333333333333332,-98.33333333333333,105.79365079365078,-0.873015873015873,162.46031746031744,221.03174603174602,0.07936507936507936,6.587301587301587,-321.8253968253968
-10.873015873015872,12.46031746031746,40.238095238095234,12.777777777777777,-71.82539682539682,29.920634920634917,39.76190476190476,32.93650793650794,-52.460317460317455,-179.12698412698413,-91.98412698412697,1.0317460317460316,38.17460317460317,-23.253968253968253,38.65079365079365,251.98412698412696,89.28571428571428,-21.349206349206348,1.349206349206349,-106.74603174603175,-28.333333333333332,-0.07936507936507936,-7.3809523809523805,-321.8253968253968
-10.873015873015872,12.46031746031746,40.238095238095234,12.777777777777777,-71.82539682539682,29.920634920634917,39.76190476190476,32.93650793650794,-52.460317460317455,-179.12698412698413,-91.98412698412697,1.0317460317460316,38.17460317460317,-23.253968253968253,38.65079365079365,251.98412698412696,89.28571428571428,-21.349206349206348,1.349206349206349,-106.74603174603175,-28.333333333333332,-0.07936507936507936,-7.3809523809523805,-321.8253968253968
57.698412698412696,11.825396825396824,36.42857142857142,-92.77777777777777,11.19047619047619,15.317460317460316,35.15873015873016,15.793650793650793,48.650793650793645,-195.0,-16.587301587301585,6.587301587301587,35.63492063492063,-38.17460317460317,32.460317460317455,325.0,105.95238095238095,-86.26984126984127,6.746031746031746,149.28571428571428,-38.33333333333333,-1.6666666666666665,6.746031746031746,-321.8253968253968
57.698412698412696,11.825396825396824,36.42857142857142,-92.77777777777777,11.19047619047619,15.317460317460316,35.15873015873016,15.793650793650793,48.650793650793645,-195.0,-16.587301587301585,6.587301587301587,35.63492063492063,-38.17460317460317,32.460317460317455,325.0,105.95238095238095,-86.26984126984127,6.746031746031746,149.28571428571428,-38.33333333333333,-1.6666666666666665,6.746031746031746,-321.8253968253968
164.84126984126982,77.85714285714285,68.96825396825396,-206.26984126984127,161.03174603174602,134.68253968253967,75.31746031746032,107.22222222222221,143.88888888888889,-302.3015873015873,53.57142857142857,-5.634920634920634,75.47619047619047,81.82539682539682,73.57142857142857,325.0,309.1269841269841,-98.01587301587301,-5.634920634920634,-121.03174603174602,-266.26984126984127,3.4126984126984126,-5.7936507936507935,-166.26984126984127
164.84126984126982,77.85714285714285,68.96825396825396,-206.26984126984127,161.03174603174602,134.68253968253967,75.31746031746032,107.22222222222221,143.88888888888889,-302.3015873015873,53.57142857142857,-5.634920634920634,75.47619047619047,81.82539682539682,73.57142857142857,325.0,309.1269841269841,-98.01587301587301,-5.634920634920634,-121.03174603174602,-266.26984126984127,3.4126984126984126,-5.7936507936507935,-166.26984126984127
30.396825396825395,23.253968253968253,72.3015873015873,-45.317460317460316,-22.46031746031746,25.952380952380953,78.4920634920635,25.158730158730158,-3.571428571428571,-191.98412698412696,-41.666666666666664,-4.365079365079365,78.80952380952381,-18.333333333333332,77.22222222222221,325.0,90.71428571428571,-188.4920634920635,-4.0476190476190474,38.33333333333333,-35.95238095238095,1.984126984126984,0.3968253968253968,-166.26984126984127
30.396825396825395,23.253968253968253,72.3015873015873,-45.317460317460316,-22.46031746031746,25.952380952380953,78.4920634920635,25.158730158730158,-3.571428571428571,-191.98412698412696,-41.666666666666664,-4.365079365079365,78.80952380952381,-18.333333333333332,77.22222222222221,325.0,90.71428571428571,-188.4920634920635,-4.0476190476190474,38.33333333333333,-35.95238095238095,1.984126984126984,0.3968253968253968,-166.26984126984127
-104.04761904761904,-31.349206349206348,75.79365079365078,115.79365079365078,-205.95238095238093,-82.61904761904762,81.82539682539682,-56.74603174603174,-150.87301587301587,-81.66666666666666,-136.74603174603175,-3.095238095238095,82.3015873015873,-118.49206349206348,81.03174603174602,325.0,-127.53968253968253,-278.968253968254,-2.46031746031746,197.85714285714283,194.36507936507937,0.5555555555555556,6.746031746031746,-166.26984126984127
-104.04761904761904,-31.349206349206348,75.79365079365078,115.79365079365078,-205.95238095238093,-82.61904761904762,81.82539682539682,-56.74603174603174,-150.87301587301587,-81.66666666666666,-136.74603174603175,-3.095238095238095,82.3015873015873,-118.49206349206348,81.03174603174602,325.0,-127.53968253968253,-278.968253968254,-2.46031746031746,197.85714285714283,194.36507936507937,0.5555555555555556,6.746031746031746,-166.26984126984127
-72.14285714285714,-16.746031746031743,103.73015873015872,68.65079365079364,-164.68253968253967,-64.84126984126983,110.07936507936508,-52.77777777777777,-131.66666666666666,113.09523809523809,129.6031746031746,-9.285714285714285,109.28571428571428,-72.14285714285714,107.85714285714285,-325.0,-106.58730158730158,325.0,-8.809523809523808,203.57142857142856,170.23809523809524,-0.07936507936507936,9.444444444444445,-166.26984126984127
-72.14285714285714,-16.746031746031743,103.73015873015872,68.65079365079364,-164.68253968253967,-64.84126984126983,110.07936507936508,-52.77777777777777,-131.66666666666666,113.09523809523809,129.6031746031746,-9.285714285714285,109.28571428571428,-72.14285714285714,107.85714285714285,-325.0,-106.58730158730158,325.0,-8.809523809523808,203.57142857142856,170.23809523809524,-0.07936507936507936,9.444444444444445,-166.26984126984127
9.761904761904761,-6.26984126984127,115.47619047619047,10.555555555555555,-41.82539682539682,-35.476190476190474,118.8095238095238,-31.03174603174603,-3.253968253968254,84.04761904761904,152.77777777777777,-10.714285714285714,118.49206349206348,-27.539682539682538,115.15873015873015,-325.0,42.14285714285714,-325.0,-10.238095238095237,226.74603174603175,74.52380952380952,0.07936507936507936,9.126984126984127,-166.26984126984127
9.761904761904761,-6.26984126984127,115.47619047619047,10.555555555555555,-41.82539682539682,-35.476190476190474,118.8095238095238,-31.03174603174603,-3.253968253968254,84.04761904761904,152.77777777777777,-10.714285714285714,118.49206349206348,-27.539682539682538,115.15873015873015,-325.0,42.14285714285714,-325.0,-10.238095238095237,226.74603174603175,74.52380952380952,0.07936507936507936,9.126984126984127,-166.26984126984127
9.761904761904761,-6.26984126984127,115.47619047619047,10.555555555555555,-41.82539682539682,-35.476190476190474,118.8095238095238,-31.03174603174603,-3.253968253968254,84.04761904761904,152.77777777777777,-10.714285714285714,118.49206349206348,-27.539682539682538,115.15873015873015,-325.0,42.14285714285714,-325.0,-10.238095238095237,226.74603174603175,74.52380952380952,0.07936507936507936,9.126984126984127,-321.8253968253968
9.761904761904761,-6.26984126984127,115.47619047619047,10.555555555555555,-41.82539682539682,-35.476190476190474,118.8095238095238,-31.03174603174603,-3.253968253968254,84.04761904761904,152.77777777777777,-10.714285714285714,118.49206349206348,-27.539682539682538,115.15873015873015,-325.0,42.14285714285714,-325.0,-10.238095238095237,226.74603174603175,74.52380952380952,0.07936507936507936,9.126984126984127,-321.8253968253968
9.761904761904761,-6.26984126984127,115.47619047619047,10.555555555555555,-41.82539682539682,-35.476190476190474,118.8095238095238,-31.03174603174603,-3.253968253968254,84.04761904761904,152.77777777777777,-10.714285714285714,118.49206349206348,-27.539682539682538,115.15873015873015,-325.0,42.14285714285714,-325.0,-10.238095238095237,226.74603174603175,74.52380952380952,0.07936507936507936,9.126984126984127,-321.8253968253968
9.761904761904761,-6.26984126984127,115.47619047619047,10.555555555555555,-41.82539682539682,-35.476190476190474,118.8095238095238,-31.03174603174603,-3.253968253968254,84.04761904761904,152.77777777777777,-10.714285714285714,118.49206349206348,-27.539682539682538,115.15873015873015,-325.0,42.14285714285714,-325.0,-10.238095238095237,226.74603174603175,74.52380952380952,0.07936507936507936,9.126984126984127,-321.8253968253968
9.761904761904761,-6.26984126984127,115.47619047619047,10.555555555555555,-41.82539682539682,-35.476190476190474,118.8095238095238,-31.03174603174603,-3.253968253968254,84.04761904761904,152.77777777777777,-10.714285714285714,118.49206349206348,-27.539682539682538,115.15873015873015,-325.0,42.14285714285714,-325.0,-10.238095238095237,226.74603174603175,74.52380952380952,0.07936507936507936,9.126984126984127,-321.8253968253968
9.761904761904761,-6.26984126984127,115.47619047619047,10.555555555555555,-41.82539682539682,-35.476190476190474,118.8095238095238,-31.03174603174603,-3.253968253968254,84.04761904761904,152.77777777777777,-10.714285714285714,118.49206349206348,-27.539682539682538,115.15873015873015,-325.0,42.14285714285714,-325.0,-10.238095238095237,226.74603174603175,74.52380952380952,0.07936507936507936,9.126984126984127,-321.8253968253968
9.761904761904761,-6.26984126984127,115.47619047619047,10.555555555555555,-41.82539682539682,-35.476190476190474,118.8095238095238,-31.03174603174603,-3.253968253968254,84.04761904761904,152.77777777777777,-10.714285714285714,118.49206349206348,-27.539682539682538,115.15873015873015,-325.0,42.14285714285714,-325.0,-10.238095238095237,226.74603174603175,74.52380952380952,0.07936507936507936,9.126984126984127,-321.8253968253968
9.761904761904761,-6.26984126984127,115.47619047619047,10.555555555555555,-41.82539682539682,-35.476190476190474,118.8095238095238,-31.03174603174603,-3.253968253968254,84.04761904761904,152.77777777777777,-10.714285714285714,118.49206349206348,-27.539682539682538,115.15873015873015,-325.0,42.14285714285714,-325.0,-10.238095238095237,226.74603174603175,74.52380952380952,0.07936507936507936,9.126984126984127,-321.8253968253968
9.761904761904761,-6.26984126984127,115.47619047619047,10.555555555555555,-41.82539682539682,-35.476190476190474,118.8095238095238,-31.03174603174603,-3.253968253968254,84.04761904761904,152.77777777777777,-10.714285714285714,118.49206349206348,-27.539682539682538,115.15873015873015,-325.0,42.14285714285714,-325.0,-10.238095238095237,226.74603174603175,74.52380952380952,0.07936507936507936,9.126984126984127,-321.8253968253968
9.761904761904761,-6.26984126984127,115.47619047619047,10.555555555555555,-41.82539682539682,-35.476190476190474,118.8095238095238,-31.03174603174603,-3.253968253968254,84.04761904761904,152.77777777777777,-10.714285714285714,118.49206349206348,-27.539682539682538,115.15873015873015,-325.0,42.14285714285714,-325.0,-10.238095238095237,226.74603174603175,74.52380952380952,0.07936507936507936,9.126984126984127,-321.8253968253968
9.761904761904761,-6.26984126984127,115.47619047619047,10.555555555555555,-41.82539682539682,-35.476190476190474,118.8095238095238,-31.03174603174603,-3.253968253968254,84.04761904761904,152.77777777777777,-10.714285714285714,118.49206349206348,-27.539682539682538,115.15873015873015,-325.0,42.14285714285714,-325.0,-10.238095238095237,226.74603174603175,74.52380952380952,0.07936507936507936,9.126984126984127,-166.26984126984127
9.761904761904761,-6.26984126984127,115.47619047619047,10.555555555555555,-41.82539682539682,-35.476190476190474,118.8095238095238,-31.03174603174603,-3.253968253968254,84.04761904761904,152.77777777777777,-10.714285714285714,118.49206349206348,-27.539682539682538,115.15873015873015,-325.0,42.14285714285714,-325.0,-10.238095238095237,226.74603174603175,74.52380952380952,0.07936507936507936,9.126984126984127,-166.26984126984127
9.761904761904761,-6.26984126984127,115.47619047619047,10.555555555555555,-41.82539682539682,-35.476190476190474,118.8095238095238,-31.03174603174603,-3.253968253968254,84.04761904761904,152.77777777777777,-10.714285714285714,118.49206349206348,-27.539682539682538,115.15873015873015,-325.0,42.14285714285714,-325.0,-10.238095238095237,226.74603174603175,74.52380952380952,0.07936507936507936,9.126984126984127,-166.26984126984127
9.761904761904761,-6.26984126984127,115.47619047619047,10.555555555555555,-41.82539682539682,-35.476190476190474,118.8095238095238,-31.03174603174603,-3.253968253968254,84.04761904761904,152.77777777777777,-10.714285714285714,118.49206349206348,-27.539682539682538,115.15873015873015,-325.0,42.14285714285714,-325.0,-10.238095238095237,226.74603174603175,74.52380952380952,0.07936507936507936,9.126984126984127,-166.26984126984127
9.761904761904761,-6.26984126984127,115.47619047619047,10.555555555555555,-41.82539682539682,-35.476190476190474,118.8095238095238,-31.03174603174603,-3.253968253968254,84.04761904761904,152.77777777777777,-10.714285714285714,118.49206349206348,-27.539682539682538,115.15873015873015,-325.0,42.14285714285714,-325.0,-10.238095238095237,226.74603174603175,74.52380952380952,0.07936507936507936,9.126984126984127,-166.26984126984127
9.761904761904761,-6.26984126984127,115.47619047619047,10.555555555555555,-41.82539682539682,-35.476190476190474,118.8095238095238,-31.03174603174603,-3.253968253968254,84.04761904761904,152.77777777777777,-10.714285714285714,118.49206349206348,-27.539682539682538,115.15873015873015,-325.0,42.14285714285714,-325.0,-10.238095238095237,226.74603174603175,74.52380952380952,0.07936507936507936,9.126984126984127,-166.26984126984127
224.68253968253967,65.47619047619047,-106.42857142857142,-308.015873015873,301.3492063492063,151.66666666666666,-105.0,109.76190476190476,259.76190476190476,-142.77777777777777,325.0,0.7142857142857142,-94.84126984126983,325.0,-97.06349206349206,-325.0,296.58730158730157,226.26984126984127,-0.7142857142857142,-59.44444444444444,-325.0,2.142857142857143,1.984126984126984,-166.26984126984127
224.68253968253967,65.47619047619047,-106.42857142857142,-308.015873015873,301.3492063492063,151.66666666666666,-105.0,109.76190476190476,259.76190476190476,-142.77777777777777,325.0,0.7142857142857142,-94.84126984126983,325.0,-97.06349206349206,-325.0,296.58730158730157,226.26984126984127,-0.7142857142857142,-59.44444444444444,-325.0,2.142857142857143,1.984126984126984,-166.26984126984127
142.14285714285714,29.285714285714285,-67.38095238095238,-205.3174603174603,179.28571428571428,79.6031746031746,-67.38095238095238,54.36507936507936,161.19047619047618,-71.03174603174602,262.6190476190476,1.984126984126984,-63.095238095238095,325.0,-65.15873015873015,-325.0,169.76190476190476,173.88888888888889,1.507936507936508,63.57142857142857,-176.26984126984127,0.7142857142857142,6.26984126984127,-166.26984126984127
142.14285714285714,29.285714285714285,-67.38095238095238,-205.3174603174603,179.28571428571428,79.6031746031746,-67.38095238095238,54.36507936507936,161.19047619047618,-71.03174603174602,262.6190476190476,1.984126984126984,-63.095238095238095,325.0,-65.15873015873015,-325.0,169.76190476190476,173.88888888888889,1.507936507936508,63.57142857142857,-176.26984126984127,0.7142857142857142,6.26984126984127,-166.26984126984127
5.0,-10.079365079365079,-18.333333333333332,5.158730158730158,-21.825396825396822,2.9365079365079363,-20.396825396825395,1.6666666666666665,-25.317460317460316,25.476190476190474,113.25396825396825,0.3968253968253968,-23.88888888888889,104.2063492063492,-23.88888888888889,-325.0,-25.0,223.25396825396825,0.873015873015873,23.095238095238095,12.619047619047619,-0.7142857142857142,-0.3968253968253968,-321.8253968253968
5.0,-10.079365079365079,-18.333333333333332,5.158730158730158,-21.825396825396822,2.9365079365079363,-20.396825396825395,1.6666666666666665,-25.317460317460316,25.476190476190474,113.25396825396825,0.3968253968253968,-23.88888888888889,104.2063492063492,-23.88888888888889,-325.0,-25.0,223.25396825396825,0.873015873015873,23.095238095238095,12.619047619047619,-0.7142857142857142,-0.3968253968253968,-321.8253968253968
19.444444444444443,-3.253968253968254,13.412698412698411,1.0317460317460316,-6.904761904761904,4.2063492063492065,11.19047619047619,1.507936507936508,-12.142857142857142,16.587301587301585,117.22222222222221,-1.1904761904761905,7.698412698412698,-220.87301587301587,7.3809523809523805,-322.77777777777777,-13.571428571428571,325.0,-0.7142857142857142,31.507936507936506,2.46031746031746,-1.1904761904761905,-0.873015873015873,-321.8253968253968
19.444444444444443,-3.253968253968254,13.412698412698411,1.0317460317460316,-6.904761904761904,4.2063492063492065,11.19047619047619,1.507936507936508,-12.142857142857142,16.587301587301585,117.22222222222221,-1.1904761904761905,7.698412698412698,-220.87301587301587,7.3809523809523805,-322.77777777777777,-13.571428571428571,325.0,-0.7142857142857142,31.507936507936506,2.46031746031746,-1.1904761904761905,-0.873015873015873,-321.8253968253968
116.26984126984127,39.44444444444444,-6.111111111111111,-90.39682539682539,114.52380952380952,72.93650793650794,-5.158730158730158,51.507936507936506,91.03174603174602,-56.74603174603174,180.7142857142857,-4.682539682539682,-3.095238095238095,-325.0,-3.253968253968254,-316.4285714285714,113.73015873015872,325.0,-5.0,-98.49206349206348,-139.76190476190476,1.507936507936508,-5.476190476190476,-321.8253968253968
116.26984126984127,39.44444444444444,-6.111111111111111,-90.39682539682539,114.52380952380952,72.93650793650794,-5.158730158730158,51.507936507936506,91.03174603174602,-56.74603174603174,180.7142857142857,-4.682539682539682,-3.095238095238095,-325.0,-3.253968253968254,-316.4285714285714,113.73015873015872,325.0,-5.0,-98.49206349206348,-139.76190476190476,1.507936507936508,-5.476190476190476,-321.8253968253968
-50.39682539682539,-37.857142857142854,20.71428571428571,95.15873015873015,-104.04761904761904,-62.14285714285714,21.984126984126984,-49.6031746031746,-82.93650793650794,88.33333333333333,8.492063492063492,-7.3809523809523805,24.206349206349206,-272.1428571428571,22.777777777777775,-311.19047619047615,-117.06349206349206,308.015873015873,-7.3809523809523805,151.8253968253968,131.8253968253968,-0.7142857142857142,4.0476190476190474,-321.8253968253968
-50.39682539682539,-37.857142857142854,20.71428571428571,95.15873015873015,-104.04761904761904,-62.14285714285714,21.984126984126984,-49.6031746031746,-82.93650793650794,88.33333333333333,8.492063492063492,-7.3809523809523805,24.206349206349206,-272.1428571428571,22.777777777777775,-311.19047619047615,-117.06349206349206,308.015873015873,-7.3809523809523805,151.8253968253968,131.8253968253968,-0.7142857142857142,4.0476190476190474,-321.8253968253968
16.746031746031743,-6.587301587301587,11.825396825396824,7.698412698412698,-5.158730158730158,8.492063492063492,8.968253968253968,7.857142857142857,-12.46031746031746,28.015873015873016,101.82539682539682,-1.1904761904761905,5.476190476190476,-224.2063492063492,5.158730158730158,-307.38095238095235,-28.174603174603174,218.015873015873,-0.7142857142857142,33.25396825396825,11.825396825396824,-0.873015873015873,-1.8253968253968254,-321.8253968253968
16.746031746031743,-6.587301587301587,11.825396825396824,7.698412698412698,-5.158730158730158,8.492063492063492,8.968253968253968,7.857142857142857,-12.46031746031746,28.015873015873016,101.82539682539682,-1.1904761904761905,5.476190476190476,-224.2063492063492,5.158730158730158,-307.38095238095235,-28.174603174603174,218.015873015873,-0.7142857142857142,33.25396825396825,11.825396825396824,-0.873015873015873,-1.8253968253968254,-321.8253968253968
-58.01587301587301,-17.22222222222222,-26.746031746031743,130.7142857142857,-107.53968253968253,-1.984126984126984,-30.555555555555554,5.634920634920634,-117.85714285714285,67.06349206349206,-15.95238095238095,3.095238095238095,-35.95238095238095,-229.12698412698413,-33.41269841269841,-304.68253968253964,-121.19047619047619,111.19047619047619,4.365079365079365,-135.47619047619048,72.14285714285714,-0.23809523809523808,-11.984126984126984,-166.26984126984127
-58.01587301587301,-17.22222222222222,-26.746031746031743,130.7142857142857,-107.53968253968253,-1.984126984126984,-30.555555555555554,5.634920634920634,-117.85714285714285,67.06349206349206,-15.95238095238095,3.095238095238095,-35.95238095238095,-229.12698412698413,-33.41269841269841,-304.68253968253964,-121.19047619047619,111.19047619047619,4.365079365079365,-135.47619047619048,72.14285714285714,-0.23809523809523808,-11.984126984126984,-166.26984126984127
-58.01587301587301,-17.22222222222222,-26.746031746031743,130.7142857142857,-107.53968253968253,-1.984126984126984,-30.555555555555554,5.634920634920634,-117.85714285714285,67.06349206349206,-15.95238095238095,3.095238095238095,-35.95238095238095,-229.12698412698413,-33.41269841269841,-304.68253968253964,-121.19047619047619,111.19047619047619,4.365079365079365,-135.47619047619048,72.14285714285714,-0.23809523809523808,-11.984126984126984,-166.26984126984127
-58.01587301587301,-17.22222222222222,-26.746031746031743,130.7142857142857,-107.53968253968253,-1.984126984126984,-30.555555555555554,5.634920634920634,-117.85714285714285,67.06349206349206,-15.95238095238095,3.095238095238095,-35.95238095238095,-229.12698412698413,-33.41269841269841,-304.68253968253964,-121.19047619047619,111.19047619047619,4.365079365079365,-135.47619047619048,72.14285714285714,-0.23809523809523808,-11.984126984126984,-166.26984126984127
174.36507936507937,23.095238095238095,16.428571428571427,-210.55555555555554,208.4920634920635,99.12698412698413,17.539682539682538,75.79365079365078,193.4126984126984,-88.4920634920635,266.26984126984127,0.23809523809523808,22.619047619047617,-325.0,18.96825396825397,-271.5079365079365,114.84126984126983,-53.25396825396825,-0.5555555555555556,58.17460317460317,-194.2063492063492,0.07936507936507936,5.7936507936507935,-166.26984126984127
174.36507936507937,23.095238095238095,16.428571428571427,-210.55555555555554,208.4920634920635,99.12698412698413,17.539682539682538,75.79365079365078,193.4126984126984,-88.4920634920635,266.26984126984127,0.23809523809523808,22.619047619047617,-325.0,18.96825396825397,-271.5079365079365,114.84126984126983,-53.25396825396825,-0.5555555555555556,58.17460317460317,-194.2063492063492,0.07936507936507936,5.7936507936507935,-166.26984126984127
-123.4126984126984,-72.3015873015873,5.7936507936507935,216.58730158730157,-211.34920634920633,-71.19047619047619,6.26984126984127,-47.857142857142854,-178.65079365079364,122.46031746031746,-134.04761904761904,-6.428571428571428,5.0,-325.0,7.222222222222221,-91.98412698412697,-251.19047619047618,-212.77777777777777,-5.7936507936507935,-6.904761904761904,190.23809523809524,-0.5555555555555556,-5.952380952380952,-166.26984126984127
-123.4126984126984,-72.3015873015873,5.7936507936507935,216.58730158730157,-211.34920634920633,-71.19047619047619,6.26984126984127,-47.857142857142854,-178.65079365079364,122.46031746031746,-134.04761904761904,-6.428571428571428,5.0,-325.0,7.222222222222221,-91.98412698412697,-251.19047619047618,-212.77777777777777,-5.7936507936507935,-6.904761904761904,190.23809523809524,-0.5555555555555556,-5.952380952380952,-166.26984126984127
183.09523809523807,24.206349206349206,6.428571428571428,-217.06349206349205,218.015873015873,97.53968253968253,6.587301587301587,73.88888888888889,209.60317460317458,-91.82539682539682,265.3174603174603,-3.571428571428571,11.031746031746032,-253.57142857142856,7.222222222222221,-83.09523809523809,110.07936507936508,-102.77777777777777,-4.365079365079365,69.92063492063491,-199.60317460317458,0.07936507936507936,4.365079365079365,-166.26984126984127
183.09523809523807,24.206349206349206,6.428571428571428,-217.06349206349205,218.015873015873,97.53968253968253,6.587301587301587,73.88888888888889,209.60317460317458,-91.82539682539682,265.3174603174603,-3.571428571428571,11.031746031746032,-253.57142857142856,7.222222222222221,-83.09523809523809,110.07936507936508,-102.77777777777777,-4.365079365079365,69.92063492063491,-199.60317460317458,0.07936507936507936,4.365079365079365,-166.26984126984127
258.4920634920635,57.38095238095238,-19.76190476190476,-288.8095238095238,325.0,160.07936507936506,-15.634920634920634,123.73015873015872,291.5079365079365,-153.09523809523807,325.0,-5.476190476190476,-7.3809523809523805,-181.984126984127,-10.555555555555555,-166.11111111111111,228.49206349206347,-57.06349206349206,-7.063492063492063,-61.34920634920635,-325.0,2.9365079365079363,0.5555555555555556,-321.8253968253968
258.4920634920635,57.38095238095238,-19.76190476190476,-288.8095238095238,325.0,160.07936507936506,-15.634920634920634,123.73015873015872,291.5079365079365,-153.09523809523807,325.0,-5.476190476190476,-7.3809523809523805,-181.984126984127,-10.555555555555555,-166.11111111111111,228.49206349206347,-57.06349206349206,-7.063492063492063,-61.34920634920635,-325.0,2.9365079365079363,0.5555555555555556,-321.8253968253968
268.968253968254,63.25396825396825,-5.634920634920634,-280.07936507936506,325.0,163.09523809523807,-0.5555555555555556,126.58730158730158,301.3492063492063,-153.09523809523807,325.0,-7.698412698412698,8.174603174603174,-178.015873015873,4.523809523809524,-176.74603174603175,276.74603174603175,-38.80952380952381,-9.126984126984127,-69.92063492063491,-325.0,3.571428571428571,0.07936507936507936,-321.8253968253968
268.968253968254,63.25396825396825,-5.634920634920634,-280.07936507936506,325.0,163.09523809523807,-0.5555555555555556,126.58730158730158,301.3492063492063,-153.09523809523807,325.0,-7.698412698412698,8.174603174603174,-178.015873015873,4.523809523809524,-176.74603174603175,276.74603174603175,-38.80952380952381,-9.126984126984127,-69.92063492063491,-325.0,3.571428571428571,0.07936507936507936,-321.8253968253968
53.41269841269841,-6.26984126984127,-11.507936507936508,11.984126984126984,22.142857142857142,22.936507936507937,-5.634920634920634,25.317460317460316,46.269841269841265,12.619047619047619,52.93650793650794,-12.3015873015873,1.349206349206349,-249.44444444444443,0.07936507936507936,68.80952380952381,30.555555555555554,-17.698412698412696,-13.095238095238095,22.3015873015873,-17.063492063492063,2.9365079365079363,1.507936507936508,-321.8253968253968
53.41269841269841,-6.26984126984127,-11.507936507936508,11.984126984126984,22.142857142857142,22.936507936507937,-5.634920634920634,25.317460317460316,46.269841269841265,12.619047619047619,52.93650793650794,-12.3015873015873,1.349206349206349,-249.44444444444443,0.07936507936507936,68.80952380952381,30.555555555555554,-17.698412698412696,-13.095238095238095,22.3015873015873,-17.063492063492063,2.9365079365079363,1.507936507936508,-321.8253968253968
211.19047619047618,33.888888888888886,3.888888888888889,-207.53968253968253,238.8095238095238,108.80952380952381,5.317460317460317,85.0,241.34920634920633,-105.31746031746032,280.7142857142857,-14.206349206349206,10.396825396825395,-325.0,5.952380952380952,67.53968253968253,237.06349206349205,128.33333333333331,-14.523809523809524,49.44444444444444,-221.03174603174602,0.5555555555555556,5.0,-321.8253968253968
211.19047619047618,33.888888888888886,3.888888888888889,-207.53968253968253,238.8095238095238,108.80952380952381,5.317460317460317,85.0,241.34920634920633,-105.31746031746032,280.7142857142857,-14.206349206349206,10.396825396825395,-325.0,5.952380952380952,67.53968253968253,237.06349206349205,128.33333333333331,-14.523809523809524,49.44444444444444,-221.03174603174602,0.5555555555555556,5.0,-321.8253968253968
274.8412698412698,59.76190476190476,-4.523809523809524,-268.17460317460313,325.0,163.09523809523807,2.619047619047619,126.1111111111111,307.69841269841265,-161.66666666666666,325.0,-18.174603174603174,12.3015873015873,-325.0,8.492063492063492,21.666666666666664,325.0,183.09523809523807,-19.126984126984127,-81.34920634920634,-325.0,3.73015873015873,0.7142857142857142,-321.8253968253968
274.8412698412698,59.76190476190476,-4.523809523809524,-268.17460317460313,325.0,163.09523809523807,2.619047619047619,126.1111111111111,307.69841269841265,-161.66666666666666,325.0,-18.174603174603174,12.3015873015873,-325.0,8.492063492063492,21.666666666666664,325.0,183.09523809523807,-19.126984126984127,-81.34920634920634,-325.0,3.73015873015873,0.7142857142857142,-321.8253968253968
