Fp1[1],Fp2[2],F3[3],F4[4],C3[5],C4[6],P3[7],P4[8],O1[9],O2[10],F7[11],F8[12],T3[13],T4[14],T5[15],T6[16],Fz[17],Pz[18],Cz[19],Pg1[20],Pg2[21],EOGR[22],EOOGL[23],EMG[24]
325.0,325.0,-325.0,146.42857142857142,-325.0,242.6190476190476,-325.0,261.66666666666663,-325.0,11.349206349206348,-325.0,-4.365079365079365,-325.0,325.0,-325.0,-211.03174603174602,-325.0,325.0,-147.69841269841268,-325.0,-118.65079365079364,-1.984126984126984,5.952380952380952,-166.26984126984127
325.0,325.0,-325.0,146.42857142857142,-325.0,242.6190476190476,-325.0,261.66666666666663,-325.0,11.349206349206348,-325.0,-4.365079365079365,-325.0,325.0,-325.0,-211.03174603174602,-325.0,325.0,-147.69841269841268,-325.0,-118.65079365079364,-1.984126984126984,5.952380952380952,-166.26984126984127
325.0,325.0,-325.0,148.4920634920635,-325.0,227.2222222222222,-325.0,245.47619047619045,-325.0,12.46031746031746,-325.0,1.1904761904761905,-325.0,325.0,-325.0,-198.8095238095238,-325.0,325.0,-109.6031746031746,-325.0,-45.95238095238095,0.7142857142857142,7.222222222222221,-166.26984126984127
325.0,325.0,-325.0,148.4920634920635,-325.0,227.2222222222222,-325.0,245.47619047619045,-325.0,12.46031746031746,-325.0,1.1904761904761905,-325.0,325.0,-325.0,-198.8095238095238,-325.0,325.0,-109.6031746031746,-325.0,-45.95238095238095,0.7142857142857142,7.222222222222221,-166.26984126984127
325.0,325.0,-325.0,143.25396825396825,-325.0,219.76190476190476,-325.0,237.69841269841268,-325.0,12.936507936507935,-325.0,6.904761904761904,-325.0,325.0,-325.0,-193.09523809523807,-325.0,325.0,-92.77777777777777,-325.0,-20.71428571428571,1.0317460317460316,-8.015873015873016,-166.26984126984127
325.0,325.0,-325.0,143.25396825396825,-325.0,219.76190476190476,-325.0,237.69841269841268,-325.0,12.936507936507935,-325.0,6.904761904761904,-325.0,325.0,-325.0,-193.09523809523807,-325.0,325.0,-92.77777777777777,-325.0,-20.71428571428571,1.0317460317460316,-8.015873015873016,-166.26984126984127
325.0,325.0,-325.0,143.57142857142856,-325.0,215.79365079365078,-325.0,233.4126984126984,-325.0,15.0,-325.0,12.777777777777777,-325.0,325.0,-325.0,-189.60317460317458,-325.0,325.0,-81.98412698412697,-325.0,-5.476190476190476,0.07936507936507936,6.904761904761904,-166.26984126984127
325.0,325.0,-325.0,143.57142857142856,-325.0,215.79365079365078,-325.0,233.4126984126984,-325.0,15.0,-325.0,12.777777777777777,-325.0,325.0,-325.0,-189.60317460317458,-325.0,325.0,-81.98412698412697,-325.0,-5.476190476190476,0.07936507936507936,6.904761904761904,-166.26984126984127
325.0,325.0,-325.0,138.8095238095238,-325.0,211.66666666666666,-325.0,229.12698412698413,-325.0,13.888888888888888,-325.0,14.365079365079364,-325.0,325.0,-325.0,-186.42857142857142,-325.0,325.0,-74.2063492063492,-325.0,4.841269841269841,0.7142857142857142,-7.222222222222221,-166.26984126984127
325.0,325.0,-325.0,138.8095238095238,-325.0,211.66666666666666,-325.0,229.12698412698413,-325.0,13.888888888888888,-325.0,14.365079365079364,-325.0,325.0,-325.0,-186.42857142857142,-325.0,325.0,-74.2063492063492,-325.0,4.841269841269841,0.7142857142857142,-7.222222222222221,-166.26984126984127
325.0,325.0,-325.0,139.9206349206349,-325.0,207.85714285714283,-325.0,225.0,-325.0,18.65079365079365,-325.0,21.666666666666664,-325.0,325.0,-325.0,-183.25396825396825,-325.0,325.0,-62.460317460317455,-325.0,19.285714285714285,-0.07936507936507936,7.3809523809523805,-321.8253968253968
325.0,325.0,-325.0,139.9206349206349,-325.0,207.85714285714283,-325.0,225.0,-325.0,18.65079365079365,-325.0,21.666666666666664,-325.0,325.0,-325.0,-183.25396825396825,-325.0,325.0,-62.460317460317455,-325.0,19.285714285714285,-0.07936507936507936,7.3809523809523805,-321.8253968253968
325.0,325.0,-325.0,140.87301587301587,-325.0,204.04761904761904,-325.0,220.87301587301587,-325.0,23.730158730158728,-325.0,29.126984126984127,-325.0,325.0,-325.0,-180.23809523809524,-325.0,325.0,-49.44444444444444,-325.0,34.52380952380952,-0.7142857142857142,-8.333333333333332,-321.8253968253968
325.0,325.0,-325.0,140.87301587301587,-325.0,204.04761904761904,-325.0,220.87301587301587,-325.0,23.730158730158728,-325.0,29.126984126984127,-325.0,325.0,-325.0,-180.23809523809524,-325.0,325.0,-49.44444444444444,-325.0,34.52380952380952,-0.7142857142857142,-8.333333333333332,-321.8253968253968
325.0,325.0,-325.0,141.5079365079365,-325.0,200.23809523809524,-325.0,216.74603174603175,-325.0,26.9047619047619,-325.0,35.63492063492063,-325.0,325.0,-325.0,-177.2222222222222,-325.0,325.0,-39.12698412698413,-325.0,47.22222222222222,-0.07936507936507936,6.26984126984127,-321.8253968253968
325.0,325.0,-325.0,141.5079365079365,-325.0,200.23809523809524,-325.0,216.74603174603175,-325.0,26.9047619047619,-325.0,35.63492063492063,-325.0,325.0,-325.0,-177.2222222222222,-325.0,325.0,-39.12698412698413,-325.0,47.22222222222222,-0.07936507936507936,6.26984126984127,-321.8253968253968
325.0,325.0,-325.0,138.96825396825395,-325.0,196.58730158730157,-325.0,212.77777777777777,-325.0,28.015873015873016,-325.0,39.12698412698413,-325.0,325.0,-325.0,-174.2063492063492,-325.0,325.0,-31.03174603174603,-321.8253968253968,55.95238095238095,-0.3968253968253968,5.952380952380952,-321.8253968253968
325.0,325.0,-325.0,138.96825396825395,-325.0,196.58730158730157,-325.0,212.77777777777777,-325.0,28.015873015873016,-325.0,39.12698412698413,-325.0,325.0,-325.0,-174.2063492063492,-325.0,325.0,-31.03174603174603,-321.8253968253968,55.95238095238095,-0.3968253968253968,5.952380952380952,-321.8253968253968
325.0,321.8253968253968,-325.0,137.53968253968253,-325.0,191.19047619047618,-325.0,207.2222222222222,-325.0,33.41269841269841,-325.0,46.904761904761905,-325.0,325.0,-325.0,-169.76190476190476,-325.0,325.0,-17.063492063492063,-314.36507936507934,71.34920634920634,1.349206349206349,-1.0317460317460316,-321.8253968253968
325.0,321.8253968253968,-325.0,137.53968253968253,-325.0,191.19047619047618,-325.0,207.2222222222222,-325.0,33.41269841269841,-325.0,46.904761904761905,-325.0,325.0,-325.0,-169.76190476190476,-325.0,325.0,-17.063492063492063,-314.36507936507934,71.34920634920634,1.349206349206349,-1.0317460317460316,-321.8253968253968
325.0,316.1111111111111,-325.0,128.96825396825395,-325.0,187.69841269841268,-325.0,203.57142857142856,-325.0,30.07936507936508,-325.0,45.15873015873016,-325.0,325.0,-325.0,-166.9047619047619,-325.0,322.1428571428571,-13.888888888888888,-308.8095238095238,72.3015873015873,-1.507936507936508,0.23809523809523808,-166.26984126984127
325.0,316.1111111111111,-325.0,128.96825396825395,-325.0,187.69841269841268,-325.0,203.57142857142856,-325.0,30.07936507936508,-325.0,45.15873015873016,-325.0,325.0,-325.0,-166.9047619047619,-325.0,322.1428571428571,-13.888888888888888,-308.8095238095238,72.3015873015873,-1.507936507936508,0.23809523809523808,-166.26984126984127
325.0,310.7142857142857,-325.0,125.95238095238095,-325.0,184.2063492063492,-325.0,199.9206349206349,-325.0,29.920634920634917,-325.0,47.698412698412696,-325.0,325.0,-325.0,-163.88888888888889,-325.0,317.06349206349205,-8.809523809523808,-303.25396825396825,78.65079365079364,1.6666666666666665,-1.0317460317460316,-166.26984126984127
325.0,310.7142857142857,-325.0,125.95238095238095,-325.0,184.2063492063492,-325.0,199.9206349206349,-325.0,29.920634920634917,-325.0,47.698412698412696,-325.0,325.0,-325.0,-163.88888888888889,-325.0,317.06349206349205,-8.809523809523808,-303.25396825396825,78.65079365079364,1.6666666666666665,-1.0317460317460316,-166.26984126984127
325.0,309.4444444444444,-325.0,125.0,-325.0,183.4126984126984,-325.0,198.96825396825395,-325.0,30.07936507936508,-325.0,48.17460317460317,-325.0,325.0,-325.0,-163.09523809523807,-325.0,315.6349206349206,-6.746031746031746,-301.8253968253968,79.92063492063491,1.984126984126984,-8.015873015873016,-166.26984126984127
325.0,309.4444444444444,-325.0,125.0,-325.0,183.4126984126984,-325.0,198.96825396825395,-325.0,30.07936507936508,-325.0,48.17460317460317,-325.0,325.0,-325.0,-163.09523809523807,-325.0,315.6349206349206,-6.746031746031746,-301.8253968253968,79.92063492063491,1.984126984126984,-8.015873015873016,-166.26984126984127
229.60317460317458,209.12698412698413,-65.63492063492063,-111.66666666666666,-65.79365079365078,121.82539682539682,-65.95238095238095,132.93650793650792,-64.2063492063492,18.49206349206349,-60.079365079365076,35.79365079365079,-62.77777777777777,67.6984126984127,-60.873015873015866,86.74603174603175,-0.07936507936507936,195.0,28.809523809523807,-203.7301587301587,-72.46031746031746,-0.5555555555555556,-8.492063492063492,-166.26984126984127
229.60317460317458,209.12698412698413,-65.63492063492063,-111.66666666666666,-65.79365079365078,121.82539682539682,-65.95238095238095,132.93650793650792,-64.2063492063492,18.49206349206349,-60.079365079365076,35.79365079365079,-62.77777777777777,67.6984126984127,-60.873015873015866,86.74603174603175,-0.07936507936507936,195.0,28.809523809523807,-203.7301587301587,-72.46031746031746,-0.5555555555555556,-8.492063492063492,-166.26984126984127
143.09523809523807,132.14285714285714,193.4126984126984,-325.0,193.4126984126984,75.0,193.09523809523807,82.61904761904762,196.74603174603175,9.761904761904761,203.4126984126984,19.76190476190476,199.60317460317458,-189.60317460317458,202.61904761904762,325.0,325.0,96.74603174603175,45.79365079365079,-128.8095238095238,-235.79365079365078,0.07936507936507936,-10.079365079365079,-166.26984126984127
143.09523809523807,132.14285714285714,193.4126984126984,-325.0,193.4126984126984,75.0,193.09523809523807,82.61904761904762,196.74603174603175,9.761904761904761,203.4126984126984,19.76190476190476,199.60317460317458,-189.60317460317458,202.61904761904762,325.0,325.0,96.74603174603175,45.79365079365079,-128.8095238095238,-235.79365079365078,0.07936507936507936,-10.079365079365079,-166.26984126984127
92.30158730158729,-96.42857142857142,224.52380952380952,-232.77777777777777,225.47619047619045,-125.0,226.74603174603175,-121.19047619047619,228.17460317460316,0.3968253968253968,230.3968253968254,-5.634920634920634,230.87301587301587,-226.1111111111111,230.2380952380952,-0.07936507936507936,227.53968253968253,-114.2063492063492,21.349206349206348,98.01587301587301,-152.61904761904762,0.3968253968253968,-0.23809523809523808,-321.8253968253968
92.30158730158729,-96.42857142857142,224.52380952380952,-232.77777777777777,225.47619047619045,-125.0,226.74603174603175,-121.19047619047619,228.17460317460316,0.3968253968253968,230.3968253968254,-5.634920634920634,230.87301587301587,-226.1111111111111,230.2380952380952,-0.07936507936507936,227.53968253968253,-114.2063492063492,21.349206349206348,98.01587301587301,-152.61904761904762,0.3968253968253968,-0.23809523809523808,-321.8253968253968
41.507936507936506,-325.0,255.79365079365078,-140.3968253968254,257.6984126984127,-325.0,260.55555555555554,-325.0,259.76190476190476,-8.809523809523808,257.38095238095235,-31.03174603174603,262.1428571428571,-262.6190476190476,257.85714285714283,-325.0,130.07936507936506,-325.0,-2.9365079365079363,325.0,-69.44444444444444,0.7142857142857142,9.761904761904761,-321.8253968253968
41.507936507936506,-325.0,255.79365079365078,-140.3968253968254,257.6984126984127,-325.0,260.55555555555554,-325.0,259.76190476190476,-8.809523809523808,257.38095238095235,-31.03174603174603,262.1428571428571,-262.6190476190476,257.85714285714283,-325.0,130.07936507936506,-325.0,-2.9365079365079363,325.0,-69.44444444444444,0.7142857142857142,9.761904761904761,-321.8253968253968
41.507936507936506,-325.0,255.79365079365078,-140.3968253968254,257.6984126984127,-325.0,260.55555555555554,-325.0,259.76190476190476,-8.809523809523808,257.38095238095235,-31.03174603174603,262.1428571428571,-262.6190476190476,257.85714285714283,-325.0,130.07936507936506,-325.0,-2.9365079365079363,325.0,-69.44444444444444,0.7142857142857142,9.761904761904761,-321.8253968253968
41.507936507936506,-325.0,255.79365079365078,-140.3968253968254,257.6984126984127,-325.0,260.55555555555554,-325.0,259.76190476190476,-8.809523809523808,257.38095238095235,-31.03174603174603,262.1428571428571,-262.6190476190476,257.85714285714283,-325.0,130.07936507936506,-325.0,-2.9365079365079363,325.0,-69.44444444444444,0.7142857142857142,9.761904761904761,-321.8253968253968
39.285714285714285,-325.0,179.60317460317458,-133.88888888888889,181.8253968253968,-325.0,183.25396825396825,-325.0,183.25396825396825,-8.174603174603174,180.3968253968254,-31.98412698412698,182.77777777777777,-250.55555555555554,182.93650793650792,-325.0,123.88888888888889,-41.34920634920635,-3.571428571428571,325.0,-65.95238095238095,0.5555555555555556,-7.857142857142857,-321.8253968253968
39.285714285714285,-325.0,179.60317460317458,-133.88888888888889,181.8253968253968,-325.0,183.25396825396825,-325.0,183.25396825396825,-8.174603174603174,180.3968253968254,-31.98412698412698,182.77777777777777,-250.55555555555554,182.93650793650792,-325.0,123.88888888888889,-41.34920634920635,-3.571428571428571,325.0,-65.95238095238095,0.5555555555555556,-7.857142857142857,-321.8253968253968
39.12698412698413,-325.0,168.96825396825395,-133.25396825396825,171.34920634920633,-325.0,171.984126984127,-325.0,172.3015873015873,-5.952380952380952,169.12698412698413,-30.71428571428571,171.66666666666666,-249.44444444444443,171.34920634920633,-325.0,123.4126984126984,-257.6984126984127,-1.0317460317460316,325.0,-65.63492063492063,-0.7142857142857142,-10.714285714285714,-321.8253968253968
39.12698412698413,-325.0,168.96825396825395,-133.25396825396825,171.34920634920633,-325.0,171.984126984127,-325.0,172.3015873015873,-5.952380952380952,169.12698412698413,-30.71428571428571,171.66666666666666,-249.44444444444443,171.34920634920633,-325.0,123.4126984126984,-257.6984126984127,-1.0317460317460316,325.0,-65.63492063492063,-0.7142857142857142,-10.714285714285714,-321.8253968253968
38.01587301587301,-325.0,159.6031746031746,-129.44444444444443,161.19047619047618,-325.0,161.8253968253968,-325.0,160.7142857142857,-6.587301587301587,157.53968253968253,-31.507936507936506,159.9206349206349,-242.14285714285714,158.96825396825395,-325.0,119.44444444444444,325.0,-3.73015873015873,325.0,-63.57142857142857,-1.1904761904761905,-8.174603174603174,-166.26984126984127
38.01587301587301,-325.0,159.6031746031746,-129.44444444444443,161.19047619047618,-325.0,161.8253968253968,-325.0,160.7142857142857,-6.587301587301587,157.53968253968253,-31.507936507936506,159.9206349206349,-242.14285714285714,158.96825396825395,-325.0,119.44444444444444,325.0,-3.73015873015873,325.0,-63.57142857142857,-1.1904761904761905,-8.174603174603174,-166.26984126984127
37.857142857142854,-325.0,164.52380952380952,-128.8095238095238,167.2222222222222,-325.0,169.12698412698413,-325.0,168.4920634920635,-9.603174603174603,163.88888888888889,-36.269841269841265,166.9047619047619,-241.03174603174602,165.79365079365078,-325.0,119.12698412698413,325.0,-7.063492063492063,325.0,-63.25396825396825,-1.507936507936508,-10.238095238095237,-166.26984126984127
37.857142857142854,-325.0,164.52380952380952,-128.8095238095238,167.2222222222222,-325.0,169.12698412698413,-325.0,168.4920634920635,-9.603174603174603,163.88888888888889,-36.269841269841265,166.9047619047619,-241.03174603174602,165.79365079365078,-325.0,119.12698412698413,325.0,-7.063492063492063,325.0,-63.25396825396825,-1.507936507936508,-10.238095238095237,-166.26984126984127
37.06349206349206,-325.0,142.93650793650792,-126.74603174603173,145.63492063492063,-325.0,147.69841269841268,-325.0,147.38095238095238,-5.952380952380952,142.61904761904762,-32.93650793650794,146.11111111111111,-237.06349206349205,145.15873015873015,-325.0,117.06349206349206,325.0,-4.2063492063492065,325.0,-62.14285714285714,-0.7142857142857142,-9.285714285714285,-166.26984126984127
37.06349206349206,-325.0,142.93650793650792,-126.74603174603173,145.63492063492063,-325.0,147.69841269841268,-325.0,147.38095238095238,-5.952380952380952,142.61904761904762,-32.93650793650794,146.11111111111111,-237.06349206349205,145.15873015873015,-325.0,117.06349206349206,325.0,-4.2063492063492065,325.0,-62.14285714285714,-0.7142857142857142,-9.285714285714285,-166.26984126984127
35.79365079365079,-325.0,117.06349206349206,-122.77777777777777,119.12698412698413,-325.0,121.82539682539682,-325.0,121.03174603174602,0.23809523809523808,116.1111111111111,-26.587301587301585,119.92063492063491,-230.07936507936506,119.12698412698413,-325.0,113.4126984126984,325.0,1.0317460317460316,325.0,-60.238095238095234,0.3968253968253968,-6.428571428571428,-166.26984126984127
35.79365079365079,-325.0,117.06349206349206,-122.77777777777777,119.12698412698413,-325.0,121.82539682539682,-325.0,121.03174603174602,0.23809523809523808,116.1111111111111,-26.587301587301585,119.92063492063491,-230.07936507936506,119.12698412698413,-325.0,113.4126984126984,325.0,1.0317460317460316,325.0,-60.238095238095234,0.3968253968253968,-6.428571428571428,-166.26984126984127
34.52380952380952,-325.0,82.3015873015873,-117.85714285714285,83.09523809523809,-325.0,83.4126984126984,-325.0,82.77777777777777,11.19047619047619,78.33333333333333,-15.158730158730158,81.82539682539682,-221.34920634920633,80.23809523809523,-325.0,108.96825396825396,325.0,11.984126984126984,325.0,-57.857142857142854,-0.7142857142857142,8.492063492063492,-166.26984126984127
34.52380952380952,-325.0,82.3015873015873,-117.85714285714285,83.09523809523809,-325.0,83.4126984126984,-325.0,82.77777777777777,11.19047619047619,78.33333333333333,-15.158730158730158,81.82539682539682,-221.34920634920633,80.23809523809523,-325.0,108.96825396825396,325.0,11.984126984126984,325.0,-57.857142857142854,-0.7142857142857142,8.492063492063492,-166.26984126984127
19.6031746031746,-210.55555555555554,-57.857142857142854,-68.4920634920635,167.85714285714286,-325.0,-60.55555555555555,-324.2063492063492,168.33333333333331,17.698412698412696,-63.57142857142857,-8.015873015873016,-62.3015873015873,-130.3968253968254,-61.98412698412698,-320.23809523809524,62.93650793650793,-209.28571428571428,14.84126984126984,325.0,-33.095238095238095,-0.3968253968253968,-8.015873015873016,-321.8253968253968
19.6031746031746,-210.55555555555554,-57.857142857142854,-68.4920634920635,167.85714285714286,-325.0,-60.55555555555555,-324.2063492063492,168.33333333333331,17.698412698412696,-63.57142857142857,-8.015873015873016,-62.3015873015873,-130.3968253968254,-61.98412698412698,-320.23809523809524,62.93650793650793,-209.28571428571428,14.84126984126984,325.0,-33.095238095238095,-0.3968253968253968,-8.015873015873016,-321.8253968253968
15.95238095238095,-173.73015873015873,-125.47619047619047,-55.63492063492063,325.0,-325.0,-130.07936507936506,-323.4126984126984,325.0,21.19047619047619,-132.46031746031744,-0.3968253968253968,-132.3015873015873,-106.58730158730158,-131.8253968253968,-315.3174603174603,51.03174603174603,-325.0,17.22222222222222,325.0,-26.9047619047619,0.5555555555555556,-7.698412698412698,-321.8253968253968
15.95238095238095,-173.73015873015873,-125.47619047619047,-55.63492063492063,325.0,-325.0,-130.07936507936506,-323.4126984126984,325.0,21.19047619047619,-132.46031746031744,-0.3968253968253968,-132.3015873015873,-106.58730158730158,-131.8253968253968,-315.3174603174603,51.03174603174603,-325.0,17.22222222222222,325.0,-26.9047619047619,0.5555555555555556,-7.698412698412698,-321.8253968253968
-25.79365079365079,-144.68253968253967,-155.95238095238093,-7.5396825396825395,325.0,-290.07936507936506,-158.17460317460316,-271.66666666666663,325.0,16.26984126984127,-160.7142857142857,-146.42857142857142,-159.28571428571428,-88.17460317460316,-160.3968253968254,-263.0952380952381,41.98412698412698,-283.88888888888886,13.412698412698411,301.984126984127,-22.619047619047617,-2.9365079365079363,7.063492063492063,-321.8253968253968
-25.79365079365079,-144.68253968253967,-155.95238095238093,-7.5396825396825395,325.0,-290.07936507936506,-158.17460317460316,-271.66666666666663,325.0,16.26984126984127,-160.7142857142857,-146.42857142857142,-159.28571428571428,-88.17460317460316,-160.3968253968254,-263.0952380952381,41.98412698412698,-283.88888888888886,13.412698412698411,301.984126984127,-22.619047619047617,-2.9365079365079363,7.063492063492063,-321.8253968253968
-38.01587301587301,-141.03174603174602,-166.58730158730157,45.0,325.0,-283.25396825396825,-169.28571428571428,-265.3174603174603,325.0,12.46031746031746,-171.19047619047618,-13.253968253968253,-171.19047619047618,-85.79365079365078,-171.19047619047618,-256.4285714285714,40.55555555555555,-277.22222222222223,9.920634920634921,294.68253968253964,-21.984126984126984,-1.8253968253968254,-6.26984126984127,-321.8253968253968
-38.01587301587301,-141.03174603174602,-166.58730158730157,45.0,325.0,-283.25396825396825,-169.28571428571428,-265.3174603174603,325.0,12.46031746031746,-171.19047619047618,-13.253968253968253,-171.19047619047618,-85.79365079365078,-171.19047619047618,-256.4285714285714,40.55555555555555,-277.22222222222223,9.920634920634921,294.68253968253964,-21.984126984126984,-1.8253968253968254,-6.26984126984127,-321.8253968253968
-38.01587301587301,-141.03174603174602,-166.58730158730157,45.0,325.0,-283.25396825396825,-169.28571428571428,-265.3174603174603,325.0,12.46031746031746,-171.19047619047618,-13.253968253968253,-171.19047619047618,-85.79365079365078,-171.19047619047618,-256.4285714285714,40.55555555555555,-277.22222222222223,9.920634920634921,294.68253968253964,-21.984126984126984,-1.8253968253968254,-6.26984126984127,-321.8253968253968
-38.01587301587301,-141.03174603174602,-166.58730158730157,45.0,325.0,-283.25396825396825,-169.28571428571428,-265.3174603174603,325.0,12.46031746031746,-171.19047619047618,-13.253968253968253,-171.19047619047618,-85.79365079365078,-171.19047619047618,-256.4285714285714,40.55555555555555,-277.22222222222223,9.920634920634921,294.68253968253964,-21.984126984126984,-1.8253968253968254,-6.26984126984127,-321.8253968253968
-109.6031746031746,-100.39682539682539,-98.17460317460316,185.0,238.33333333333331,-202.3015873015873,-97.6984126984127,-190.23809523809524,237.06349206349205,12.142857142857142,-99.12698412698413,-135.0,-99.76190476190476,-60.71428571428571,-99.76190476190476,-181.66666666666666,-48.96825396825397,23.88888888888889,7.698412698412698,208.8095238095238,151.5079365079365,-2.3015873015873014,-3.888888888888889,-166.26984126984127
-109.6031746031746,-100.39682539682539,-98.17460317460316,185.0,238.33333333333331,-202.3015873015873,-97.6984126984127,-190.23809523809524,237.06349206349205,12.142857142857142,-99.12698412698413,-135.0,-99.76190476190476,-60.71428571428571,-99.76190476190476,-181.66666666666666,-48.96825396825397,23.88888888888889,7.698412698412698,208.8095238095238,151.5079365079365,-2.3015873015873014,-3.888888888888889,-166.26984126984127
-181.03174603174602,-58.8095238095238,-72.46031746031746,325.0,149.28571428571428,-119.12698412698413,-71.19047619047619,-113.4126984126984,146.58730158730157,18.65079365079365,-69.12698412698413,-252.3015873015873,-70.23809523809524,-35.15873015873016,-70.39682539682539,-105.15873015873015,-141.66666666666666,325.0,12.142857142857142,120.87301587301586,325.0,-0.23809523809523808,-0.873015873015873,-166.26984126984127
-181.03174603174602,-58.8095238095238,-72.46031746031746,325.0,149.28571428571428,-119.12698412698413,-71.19047619047619,-113.4126984126984,146.58730158730157,18.65079365079365,-69.12698412698413,-252.3015873015873,-70.23809523809524,-35.15873015873016,-70.39682539682539,-105.15873015873015,-141.66666666666666,325.0,12.142857142857142,120.87301587301586,325.0,-0.23809523809523808,-0.873015873015873,-166.26984126984127
-179.9206349206349,-55.476190476190474,-68.96825396825396,325.0,140.23809523809524,-112.30158730158729,-67.38095238095238,-107.06349206349206,138.17460317460316,20.396825396825395,-64.36507936507937,-237.06349206349205,-66.58730158730158,-33.095238095238095,-65.15873015873015,-99.28571428571428,-151.66666666666666,325.0,14.523809523809524,113.73015873015872,325.0,-1.349206349206349,10.079365079365079,-166.26984126984127
-179.9206349206349,-55.476190476190474,-68.96825396825396,325.0,140.23809523809524,-112.30158730158729,-67.38095238095238,-107.06349206349206,138.17460317460316,20.396825396825395,-64.36507936507937,-237.06349206349205,-66.58730158730158,-33.095238095238095,-65.15873015873015,-99.28571428571428,-151.66666666666666,325.0,14.523809523809524,113.73015873015872,325.0,-1.349206349206349,10.079365079365079,-166.26984126984127
-169.9206349206349,-41.82539682539682,5.317460317460317,325.0,104.36507936507935,-84.36507936507937,5.634920634920634,-81.19047619047619,102.30158730158729,12.46031746031746,9.285714285714285,-175.3174603174603,8.809523809523808,-25.0,8.015873015873016,-73.88888888888889,-178.17460317460316,-325.0,8.174603174603174,84.68253968253968,325.0,-0.3968253968253968,-0.873015873015873,-166.26984126984127
-169.9206349206349,-41.82539682539682,5.317460317460317,325.0,104.36507936507935,-84.36507936507937,5.634920634920634,-81.19047619047619,102.30158730158729,12.46031746031746,9.285714285714285,-175.3174603174603,8.809523809523808,-25.0,8.015873015873016,-73.88888888888889,-178.17460317460316,-325.0,8.174603174603174,84.68253968253968,325.0,-0.3968253968253968,-0.873015873015873,-166.26984126984127
-166.11111111111111,-38.65079365079365,-30.87301587301587,325.0,96.42857142857142,-78.17460317460316,-31.825396825396822,-75.47619047619047,94.52380952380952,19.444444444444443,-28.333333333333332,-161.5079365079365,-31.03174603174603,-23.253968253968253,-28.174603174603174,-68.4920634920635,-181.03174603174602,-325.0,15.793650793650793,78.01587301587301,325.0,0.07936507936507936,9.126984126984127,-166.26984126984127
-166.11111111111111,-38.65079365079365,-30.87301587301587,325.0,96.42857142857142,-78.17460317460316,-31.825396825396822,-75.47619047619047,94.52380952380952,19.444444444444443,-28.333333333333332,-161.5079365079365,-31.03174603174603,-23.253968253968253,-28.174603174603174,-68.4920634920635,-181.03174603174602,-325.0,15.793650793650793,78.01587301587301,325.0,0.07936507936507936,9.126984126984127,-166.26984126984127
-166.11111111111111,-38.65079365079365,-30.87301587301587,325.0,96.42857142857142,-78.17460317460316,-31.825396825396822,-75.47619047619047,94.52380952380952,19.444444444444443,-28.333333333333332,-161.5079365079365,-31.03174603174603,-23.253968253968253,-28.174603174603174,-68.4920634920635,-181.03174603174602,-325.0,15.793650793650793,78.01587301587301,325.0,0.07936507936507936,9.126984126984127,-321.8253968253968
-166.11111111111111,-38.65079365079365,-30.87301587301587,325.0,96.42857142857142,-78.17460317460316,-31.825396825396822,-75.47619047619047,94.52380952380952,19.444444444444443,-28.333333333333332,-161.5079365079365,-31.03174603174603,-23.253968253968253,-28.174603174603174,-68.4920634920635,-181.03174603174602,-325.0,15.793650793650793,78.01587301587301,325.0,0.07936507936507936,9.126984126984127,-321.8253968253968
-166.11111111111111,-38.65079365079365,-30.87301587301587,325.0,96.42857142857142,-78.17460317460316,-31.825396825396822,-75.47619047619047,94.52380952380952,19.444444444444443,-28.333333333333332,-161.5079365079365,-31.03174603174603,-23.253968253968253,-28.174603174603174,-68.4920634920635,-181.03174603174602,-325.0,15.793650793650793,78.01587301587301,325.0,0.07936507936507936,9.126984126984127,-321.8253968253968
-166.11111111111111,-38.65079365079365,-30.87301587301587,325.0,96.42857142857142,-78.17460317460316,-31.825396825396822,-75.47619047619047,94.52380952380952,19.444444444444443,-28.333333333333332,-161.5079365079365,-31.03174603174603,-23.253968253968253,-28.174603174603174,-68.4920634920635,-181.03174603174602,-325.0,15.793650793650793,78.01587301587301,325.0,0.07936507936507936,9.126984126984127,-321.8253968253968
-245.63492063492063,-24.365079365079364,-17.22222222222222,211.5079365079365,58.49206349206349,-48.650793650793645,-18.96825396825397,-47.38095238095238,48.96825396825397,4.365079365079365,-15.793650793650793,81.66666666666666,-17.22222222222222,-37.857142857142854,-16.11111111111111,-42.460317460317455,-132.14285714285714,-0.07936507936507936,1.507936507936508,-67.85714285714285,266.1111111111111,-0.873015873015873,1.349206349206349,-321.8253968253968
-245.63492063492063,-24.365079365079364,-17.22222222222222,211.5079365079365,58.49206349206349,-48.650793650793645,-18.96825396825397,-47.38095238095238,48.96825396825397,4.365079365079365,-15.793650793650793,81.66666666666666,-17.22222222222222,-37.857142857142854,-16.11111111111111,-42.460317460317455,-132.14285714285714,-0.07936507936507936,1.507936507936508,-67.85714285714285,266.1111111111111,-0.873015873015873,1.349206349206349,-321.8253968253968
-325.0,-9.920634920634921,19.285714285714285,97.53968253968253,28.49206349206349,-19.126984126984127,15.476190476190474,-19.126984126984127,35.0,-14.047619047619047,17.22222222222222,173.4126984126984,17.857142857142858,97.06349206349206,14.365079365079364,-16.11111111111111,-91.66666666666666,325.0,-15.158730158730158,-38.33333333333333,207.85714285714283,-3.095238095238095,7.698412698412698,-321.8253968253968
-325.0,-9.920634920634921,19.285714285714285,97.53968253968253,28.49206349206349,-19.126984126984127,15.476190476190474,-19.126984126984127,35.0,-14.047619047619047,17.22222222222222,173.4126984126984,17.857142857142858,97.06349206349206,14.365079365079364,-16.11111111111111,-91.66666666666666,325.0,-15.158730158730158,-38.33333333333333,207.85714285714283,-3.095238095238095,7.698412698412698,-321.8253968253968
-325.0,-9.603174603174603,26.587301587301585,93.09523809523809,-15.634920634920634,-18.80952380952381,28.809523809523807,-18.80952380952381,-74.36507936507937,-10.555555555555555,29.126984126984127,180.55555555555554,26.746031746031743,217.85714285714283,30.396825396825395,-16.11111111111111,-158.33333333333331,325.0,-11.984126984126984,-325.0,185.0,2.46031746031746,-8.015873015873016,-321.8253968253968
-325.0,-9.603174603174603,26.587301587301585,93.09523809523809,-15.634920634920634,-18.80952380952381,28.809523809523807,-18.80952380952381,-74.36507936507937,-10.555555555555555,29.126984126984127,180.55555555555554,26.746031746031743,217.85714285714283,30.396825396825395,-16.11111111111111,-158.33333333333331,325.0,-11.984126984126984,-325.0,185.0,2.46031746031746,-8.015873015873016,-321.8253968253968
-325.0,-9.603174603174603,26.587301587301585,93.09523809523809,-15.634920634920634,-18.80952380952381,28.809523809523807,-18.80952380952381,-74.36507936507937,-10.555555555555555,29.126984126984127,180.55555555555554,26.746031746031743,217.85714285714283,30.396825396825395,-16.11111111111111,-158.33333333333331,325.0,-11.984126984126984,-325.0,185.0,2.46031746031746,-8.015873015873016,-166.26984126984127
-325.0,-9.603174603174603,26.587301587301585,93.09523809523809,-15.634920634920634,-18.80952380952381,28.809523809523807,-18.80952380952381,-74.36507936507937,-10.555555555555555,29.126984126984127,180.55555555555554,26.746031746031743,217.85714285714283,30.396825396825395,-16.11111111111111,-158.33333333333331,325.0,-11.984126984126984,-325.0,185.0,2.46031746031746,-8.015873015873016,-166.26984126984127
-325.0,-9.603174603174603,26.587301587301585,93.09523809523809,-15.634920634920634,-18.80952380952381,28.809523809523807,-18.80952380952381,-74.36507936507937,-10.555555555555555,29.126984126984127,180.55555555555554,26.746031746031743,217.85714285714283,30.396825396825395,-16.11111111111111,-158.33333333333331,325.0,-11.984126984126984,-325.0,185.0,2.46031746031746,-8.015873015873016,-166.26984126984127
-325.0,-9.603174603174603,26.587301587301585,93.09523809523809,-15.634920634920634,-18.80952380952381,28.809523809523807,-18.80952380952381,-74.36507936507937,-10.555555555555555,29.126984126984127,180.55555555555554,26.746031746031743,217.85714285714283,30.396825396825395,-16.11111111111111,-158.33333333333331,325.0,-11.984126984126984,-325.0,185.0,2.46031746031746,-8.015873015873016,-166.26984126984127
-269.9206349206349,-6.26984126984127,40.87301587301587,87.22222222222221,7.5396825396825395,-18.333333333333332,40.238095238095234,-18.49206349206349,-16.904761904761905,-10.079365079365079,41.98412698412698,55.95238095238095,39.12698412698413,237.2222222222222,41.82539682539682,-15.793650793650793,-115.79365079365078,-0.07936507936507936,-10.873015873015872,-325.0,178.8095238095238,1.349206349206349,-2.3015873015873014,-166.26984126984127
-269.9206349206349,-6.26984126984127,40.87301587301587,87.22222222222221,7.5396825396825395,-18.333333333333332,40.238095238095234,-18.49206349206349,-16.904761904761905,-10.079365079365079,41.98412698412698,55.95238095238095,39.12698412698413,237.2222222222222,41.82539682539682,-15.793650793650793,-115.79365079365078,-0.07936507936507936,-10.873015873015872,-325.0,178.8095238095238,1.349206349206349,-2.3015873015873014,-166.26984126984127
-269.9206349206349,17.38095238095238,156.58730158730157,74.68253968253968,-60.55555555555555,-16.587301587301585,155.15873015873015,-16.904761904761905,-78.80952380952381,-13.73015873015873,156.42857142857142,-57.857142857142854,153.88888888888889,168.65079365079364,154.36507936507937,-14.206349206349206,-146.9047619047619,-325.0,-14.365079365079364,-325.0,169.76190476190476,0.07936507936507936,3.571428571428571,-166.26984126984127
-269.9206349206349,17.38095238095238,156.58730158730157,74.68253968253968,-60.55555555555555,-16.587301587301585,155.15873015873015,-16.904761904761905,-78.80952380952381,-13.73015873015873,156.42857142857142,-57.857142857142854,153.88888888888889,168.65079365079364,154.36507936507937,-14.206349206349206,-146.9047619047619,-325.0,-14.365079365079364,-325.0,169.76190476190476,0.07936507936507936,3.571428571428571,-166.26984126984127
-325.0,37.53968253968254,258.015873015873,68.17460317460318,-151.8253968253968,-15.476190476190474,258.6507936507936,-15.634920634920634,-198.17460317460316,-17.857142857142858,258.17460317460313,-47.06349206349206,256.26984126984127,80.71428571428571,255.63492063492063,-13.095238095238095,-220.7142857142857,-325.0,-19.126984126984127,-325.0,167.06349206349205,-0.07936507936507936,3.571428571428571,-166.26984126984127
-325.0,37.53968253968254,258.015873015873,68.17460317460318,-151.8253968253968,-15.476190476190474,258.6507936507936,-15.634920634920634,-198.17460317460316,-17.857142857142858,258.17460317460313,-47.06349206349206,256.26984126984127,80.71428571428571,255.63492063492063,-13.095238095238095,-220.7142857142857,-325.0,-19.126984126984127,-325.0,167.06349206349205,-0.07936507936507936,3.571428571428571,-166.26984126984127
-325.0,37.53968253968254,258.015873015873,68.17460317460318,-151.8253968253968,-15.476190476190474,258.6507936507936,-15.634920634920634,-198.17460317460316,-17.857142857142858,258.17460317460313,-47.06349206349206,256.26984126984127,80.71428571428571,255.63492063492063,-13.095238095238095,-220.7142857142857,-325.0,-19.126984126984127,-325.0,167.06349206349205,-0.07936507936507936,3.571428571428571,-321.8253968253968
-325.0,37.53968253968254,258.015873015873,68.17460317460318,-151.8253968253968,-15.476190476190474,258.6507936507936,-15.634920634920634,-198.17460317460316,-17.857142857142858,258.17460317460313,-47.06349206349206,256.26984126984127,80.71428571428571,255.63492063492063,-13.095238095238095,-220.7142857142857,-325.0,-19.126984126984127,-325.0,167.06349206349205,-0.07936507936507936,3.571428571428571,-321.8253968253968
-325.0,37.53968253968254,258.015873015873,68.17460317460318,-151.8253968253968,-15.476190476190474,258.6507936507936,-15.634920634920634,-198.17460317460316,-17.857142857142858,258.17460317460313,-47.06349206349206,256.26984126984127,80.71428571428571,255.63492063492063,-13.095238095238095,-220.7142857142857,-325.0,-19.126984126984127,-325.0,167.06349206349205,-0.07936507936507936,3.571428571428571,-321.8253968253968
-325.0,37.53968253968254,258.015873015873,68.17460317460318,-151.8253968253968,-15.476190476190474,258.6507936507936,-15.634920634920634,-198.17460317460316,-17.857142857142858,258.17460317460313,-47.06349206349206,256.26984126984127,80.71428571428571,255.63492063492063,-13.095238095238095,-220.7142857142857,-325.0,-19.126984126984127,-325.0,167.06349206349205,-0.07936507936507936,3.571428571428571,-321.8253968253968
-325.0,37.53968253968254,258.015873015873,68.17460317460318,-151.8253968253968,-15.476190476190474,258.6507936507936,-15.634920634920634,-198.17460317460316,-17.857142857142858,258.17460317460313,-47.06349206349206,256.26984126984127,80.71428571428571,255.63492063492063,-13.095238095238095,-220.7142857142857,-325.0,-19.126984126984127,-325.0,167.06349206349205,-0.07936507936507936,3.571428571428571,-321.8253968253968
-325.0,37.53968253968254,258.015873015873,68.17460317460318,-151.8253968253968,-15.476190476190474,258.6507936507936,-15.634920634920634,-198.17460317460316,-17.857142857142858,258.17460317460313,-47.06349206349206,256.26984126984127,80.71428571428571,255.63492063492063,-13.095238095238095,-220.7142857142857,-325.0,-19.126984126984127,-325.0,167.06349206349205,-0.07936507936507936,3.571428571428571,-321.8253968253968
-325.0,37.53968253968254,258.015873015873,68.17460317460318,-151.8253968253968,-15.476190476190474,258.6507936507936,-15.634920634920634,-198.17460317460316,-17.857142857142858,258.17460317460313,-47.06349206349206,256.26984126984127,80.71428571428571,255.63492063492063,-13.095238095238095,-220.7142857142857,-325.0,-19.126984126984127,-325.0,167.06349206349205,-0.07936507936507936,3.571428571428571,-321.8253968253968
-325.0,37.53968253968254,258.015873015873,68.17460317460318,-151.8253968253968,-15.476190476190474,258.6507936507936,-15.634920634920634,-198.17460317460316,-17.857142857142858,258.17460317460313,-47.06349206349206,256.26984126984127,80.71428571428571,255.63492063492063,-13.095238095238095,-220.7142857142857,-325.0,-19.126984126984127,-325.0,167.06349206349205,-0.07936507936507936,3.571428571428571,-321.8253968253968
-325.0,37.53968253968254,258.015873015873,68.17460317460318,-151.8253968253968,-15.476190476190474,258.6507936507936,-15.634920634920634,-198.17460317460316,-17.857142857142858,258.17460317460313,-47.06349206349206,256.26984126984127,80.71428571428571,255.63492063492063,-13.095238095238095,-220.7142857142857,-325.0,-19.126984126984127,-325.0,167.06349206349205,-0.07936507936507936,3.571428571428571,-321.8253968253968
-325.0,37.53968253968254,258.015873015873,68.17460317460318,-151.8253968253968,-15.476190476190474,258.6507936507936,-15.634920634920634,-198.17460317460316,-17.857142857142858,258.17460317460313,-47.06349206349206,256.26984126984127,80.71428571428571,255.63492063492063,-13.095238095238095,-220.7142857142857,-325.0,-19.126984126984127,-325.0,167.06349206349205,-0.07936507936507936,3.571428571428571,-321.8253968253968
-78.01587301587301,78.65079365079364,172.61904761904762,-16.904761904761905,-230.55555555555554,83.25396825396825,-67.53968253968253,98.49206349206348,-248.49206349206347,11.984126984126984,-67.06349206349206,136.42857142857142,-68.01587301587301,76.26984126984127,-68.65079365079364,205.63492063492063,-135.63492063492063,325.0,11.984126984126984,-121.03174603174602,25.634920634920633,-0.5555555555555556,-0.3968253968253968,-166.26984126984127
-78.01587301587301,78.65079365079364,172.61904761904762,-16.904761904761905,-230.55555555555554,83.25396825396825,-67.53968253968253,98.49206349206348,-248.49206349206347,11.984126984126984,-67.06349206349206,136.42857142857142,-68.01587301587301,76.26984126984127,-68.65079365079364,205.63492063492063,-135.63492063492063,325.0,11.984126984126984,-121.03174603174602,25.634920634920633,-0.5555555555555556,-0.3968253968253968,-166.26984126984127
-73.4126984126984,105.47619047619047,283.73015873015873,-15.476190476190474,-208.8095238095238,74.52380952380952,-19.285714285714285,86.74603174603175,-232.93650793650792,9.603174603174603,-20.07936507936508,126.26984126984127,-21.349206349206348,-2.142857142857143,-21.507936507936506,178.65079365079364,-127.06349206349206,92.46031746031746,9.761904761904761,-114.52380952380952,23.095238095238095,-1.349206349206349,6.904761904761904,-166.26984126984127
-73.4126984126984,105.47619047619047,283.73015873015873,-15.476190476190474,-208.8095238095238,74.52380952380952,-19.285714285714285,86.74603174603175,-232.93650793650792,9.603174603174603,-20.07936507936508,126.26984126984127,-21.349206349206348,-2.142857142857143,-21.507936507936506,178.65079365079364,-127.06349206349206,92.46031746031746,9.761904761904761,-114.52380952380952,23.095238095238095,-1.349206349206349,6.904761904761904,-166.26984126984127
-35.95238095238095,-20.396825396825395,283.57142857142856,56.42857142857142,-203.57142857142856,-52.460317460317455,24.365079365079364,-1.507936507936508,-164.36507936507937,-1.1904761904761905,23.41269841269841,297.38095238095235,25.317460317460316,114.2063492063492,23.095238095238095,289.6031746031746,-83.88888888888889,-325.0,-2.619047619047619,-56.11111111111111,14.206349206349206,-2.142857142857143,-5.7936507936507935,-166.26984126984127
-35.95238095238095,-20.396825396825395,283.57142857142856,56.42857142857142,-203.57142857142856,-52.460317460317455,24.365079365079364,-1.507936507936508,-164.36507936507937,-1.1904761904761905,23.41269841269841,297.38095238095235,25.317460317460316,114.2063492063492,23.095238095238095,289.6031746031746,-83.88888888888889,-325.0,-2.619047619047619,-56.11111111111111,14.206349206349206,-2.142857142857143,-5.7936507936507935,-166.26984126984127
-13.412698412698411,-27.38095238095238,95.15873015873015,74.68253968253968,-82.77777777777777,-17.698412698412696,299.4444444444444,6.746031746031746,-61.19047619047619,-325.0,69.6031746031746,201.19047619047618,73.57142857142857,-72.93650793650794,68.01587301587301,138.4920634920635,-33.25396825396825,-270.39682539682536,-310.55555555555554,-18.96825396825397,13.253968253968253,-1.8253968253968254,-5.634920634920634,-166.26984126984127
-13.412698412698411,-27.38095238095238,95.15873015873015,74.68253968253968,-82.77777777777777,-17.698412698412696,299.4444444444444,6.746031746031746,-61.19047619047619,-325.0,69.6031746031746,201.19047619047618,73.57142857142857,-72.93650793650794,68.01587301587301,138.4920634920635,-33.25396825396825,-270.39682539682536,-310.55555555555554,-18.96825396825397,13.253968253968253,-1.8253968253968254,-5.634920634920634,-166.26984126984127
-13.253968253968253,30.238095238095237,93.88888888888889,-34.36507936507936,-68.33333333333333,84.04761904761904,295.6349206349206,80.23809523809523,-54.68253968253968,-325.0,78.4920634920635,22.46031746031746,81.98412698412697,51.03174603174603,78.65079365079364,74.36507936507937,-32.77777777777778,-267.06349206349205,-306.58730158730157,-18.49206349206349,-31.19047619047619,1.1904761904761905,0.23809523809523808,-166.26984126984127
-13.253968253968253,30.238095238095237,93.88888888888889,-34.36507936507936,-68.33333333333333,84.04761904761904,295.6349206349206,80.23809523809523,-54.68253968253968,-325.0,78.4920634920635,22.46031746031746,81.98412698412697,51.03174603174603,78.65079365079364,74.36507936507937,-32.77777777777778,-267.06349206349205,-306.58730158730157,-18.49206349206349,-31.19047619047619,1.1904761904761905,0.23809523809523808,-166.26984126984127
-12.936507936507935,-17.857142857142858,91.82539682539682,76.58730158730158,-81.19047619047619,-23.41269841269841,289.4444444444444,2.619047619047619,-59.44444444444444,-325.0,56.58730158730158,198.015873015873,60.55555555555555,20.396825396825395,55.15873015873016,136.26984126984127,-32.3015873015873,-261.66666666666663,-300.07936507936506,-18.015873015873016,13.888888888888888,-1.8253968253968254,-5.158730158730158,-321.8253968253968
-12.936507936507935,-17.857142857142858,91.82539682539682,76.58730158730158,-81.19047619047619,-23.41269841269841,289.4444444444444,2.619047619047619,-59.44444444444444,-325.0,56.58730158730158,198.015873015873,60.55555555555555,20.396825396825395,55.15873015873016,136.26984126984127,-32.3015873015873,-261.66666666666663,-300.07936507936506,-18.015873015873016,13.888888888888888,-1.8253968253968254,-5.158730158730158,-321.8253968253968
-12.777777777777777,61.03174603174603,90.71428571428571,-137.53968253968253,-63.57142857142857,123.09523809523809,285.6349206349206,104.2063492063492,-50.39682539682539,-325.0,13.571428571428571,-163.57142857142856,12.142857142857142,146.42857142857142,14.84126984126984,13.253968253968253,-31.666666666666664,-258.17460317460313,-296.1111111111111,-18.333333333333332,-14.84126984126984,0.7142857142857142,11.031746031746032,-321.8253968253968
-12.777777777777777,61.03174603174603,90.71428571428571,-137.53968253968253,-63.57142857142857,123.09523809523809,285.6349206349206,104.2063492063492,-50.39682539682539,-325.0,13.571428571428571,-163.57142857142856,12.142857142857142,146.42857142857142,14.84126984126984,13.253968253968253,-31.666666666666664,-258.17460317460313,-296.1111111111111,-18.333333333333332,-14.84126984126984,0.7142857142857142,11.031746031746032,-321.8253968253968
-12.619047619047619,16.428571428571427,89.12698412698413,43.095238095238095,-71.98412698412697,33.888888888888886,280.7142857142857,50.079365079365076,-55.0,-325.0,50.55555555555555,165.95238095238093,55.79365079365079,-35.0,47.698412698412696,132.77777777777777,-31.349206349206348,-254.04761904761904,-290.87301587301585,-19.444444444444443,-1.349206349206349,-1.8253968253968254,-11.349206349206348,-321.8253968253968
-12.619047619047619,16.428571428571427,89.12698412698413,43.095238095238095,-71.98412698412697,33.888888888888886,280.7142857142857,50.079365079365076,-55.0,-325.0,50.55555555555555,165.95238095238093,55.79365079365079,-35.0,47.698412698412696,132.77777777777777,-31.349206349206348,-254.04761904761904,-290.87301587301585,-19.444444444444443,-1.349206349206349,-1.8253968253968254,-11.349206349206348,-321.8253968253968
-12.3015873015873,77.22222222222221,87.38095238095238,-139.6031746031746,-57.698412698412696,142.61904761904762,275.95238095238096,123.25396825396825,-43.73015873015873,-325.0,24.206349206349206,-168.015873015873,22.619047619047617,139.44444444444443,25.317460317460316,15.317460317460316,-30.07936507936508,-250.07936507936506,-286.1111111111111,-17.063492063492063,-22.936507936507937,0.7142857142857142,10.238095238095237,-321.8253968253968
-12.3015873015873,77.22222222222221,87.38095238095238,-139.6031746031746,-57.698412698412696,142.61904761904762,275.95238095238096,123.25396825396825,-43.73015873015873,-325.0,24.206349206349206,-168.015873015873,22.619047619047617,139.44444444444443,25.317460317460316,15.317460317460316,-30.07936507936508,-250.07936507936506,-286.1111111111111,-17.063492063492063,-22.936507936507937,0.7142857142857142,10.238095238095237,-321.8253968253968
-12.3015873015873,-2.9365079365079363,85.63492063492063,80.07936507936508,-75.0,-14.84126984126984,270.07936507936506,11.349206349206348,-54.841269841269835,-325.0,39.285714285714285,188.8095238095238,42.93650793650794,-11.031746031746032,38.01587301587301,138.65079365079364,-30.238095238095237,-245.0,-280.07936507936506,-16.746031746031743,15.317460317460316,-1.349206349206349,-5.158730158730158,-321.8253968253968
-12.3015873015873,-2.9365079365079363,85.63492063492063,80.07936507936508,-75.0,-14.84126984126984,270.07936507936506,11.349206349206348,-54.841269841269835,-325.0,39.285714285714285,188.8095238095238,42.93650793650794,-11.031746031746032,38.01587301587301,138.65079365079364,-30.238095238095237,-245.0,-280.07936507936506,-16.746031746031743,15.317460317460316,-1.349206349206349,-5.158730158730158,-321.8253968253968
-12.142857142857142,53.73015873015873,84.36507936507937,-29.285714285714285,-52.460317460317455,93.88888888888889,266.58730158730157,91.19047619047619,-43.095238095238095,-325.0,52.14285714285714,8.492063492063492,55.476190476190474,87.85714285714285,52.61904761904761,80.07936507936508,-29.76190476190476,-241.98412698412696,-276.4285714285714,-16.428571428571427,-32.14285714285714,0.3968253968253968,0.23809523809523808,-166.26984126984127
-12.142857142857142,53.73015873015873,84.36507936507937,-29.285714285714285,-52.460317460317455,93.88888888888889,266.58730158730157,91.19047619047619,-43.095238095238095,-325.0,52.14285714285714,8.492063492063492,55.476190476190474,87.85714285714285,52.61904761904761,80.07936507936508,-29.76190476190476,-241.98412698412696,-276.4285714285714,-16.428571428571427,-32.14285714285714,0.3968253968253968,0.23809523809523808,-166.26984126984127
-12.142857142857142,28.174603174603174,82.77777777777777,51.666666666666664,-65.79365079365078,34.047619047619044,262.3015873015873,49.6031746031746,-50.238095238095234,-325.0,32.77777777777778,173.88888888888889,37.53968253968254,5.952380952380952,29.76190476190476,143.73015873015873,-29.285714285714285,-238.015873015873,-271.8253968253968,-17.857142857142858,0.7142857142857142,-2.46031746031746,-10.396825396825395,-166.26984126984127
-12.142857142857142,28.174603174603174,82.77777777777777,51.666666666666664,-65.79365079365078,34.047619047619044,262.3015873015873,49.6031746031746,-50.238095238095234,-325.0,32.77777777777778,173.88888888888889,37.53968253968254,5.952380952380952,29.76190476190476,143.73015873015873,-29.285714285714285,-238.015873015873,-271.8253968253968,-17.857142857142858,0.7142857142857142,-2.46031746031746,-10.396825396825395,-166.26984126984127
-11.825396825396824,96.58730158730158,81.5079365079365,-135.79365079365078,-51.19047619047619,141.984126984127,257.53968253968253,119.12698412698413,-38.17460317460317,-325.0,5.7936507936507935,-168.17460317460316,4.2063492063492065,133.25396825396825,7.3809523809523805,-26.746031746031743,-27.698412698412696,-234.04761904761904,-267.06349206349205,-15.317460317460316,-27.857142857142854,0.7142857142857142,9.603174603174603,-166.26984126984127
-11.825396825396824,96.58730158730158,81.5079365079365,-135.79365079365078,-51.19047619047619,141.984126984127,257.53968253968253,119.12698412698413,-38.17460317460317,-325.0,5.7936507936507935,-168.17460317460316,4.2063492063492065,133.25396825396825,7.3809523809523805,-26.746031746031743,-27.698412698412696,-234.04761904761904,-267.06349206349205,-15.317460317460316,-27.857142857142854,0.7142857142857142,9.603174603174603,-166.26984126984127
-11.507936507936508,30.71428571428571,79.6031746031746,57.22222222222222,-64.84126984126983,27.857142857142854,253.4126984126984,45.0,-48.80952380952381,-325.0,16.26984126984127,177.2222222222222,21.03174603174603,169.9206349206349,13.095238095238095,98.17460317460316,-28.174603174603174,-230.7142857142857,-262.6190476190476,-17.698412698412696,2.3015873015873014,-2.142857142857143,-11.666666666666666,-166.26984126984127
-11.507936507936508,30.71428571428571,79.6031746031746,57.22222222222222,-64.84126984126983,27.857142857142854,253.4126984126984,45.0,-48.80952380952381,-325.0,16.26984126984127,177.2222222222222,21.03174603174603,169.9206349206349,13.095238095238095,98.17460317460316,-28.174603174603174,-230.7142857142857,-262.6190476190476,-17.698412698412696,2.3015873015873014,-2.142857142857143,-11.666666666666666,-166.26984126984127
-11.349206349206348,28.015873015873016,78.33333333333333,57.53968253968254,-64.52380952380952,22.3015873015873,248.96825396825395,41.82539682539682,-48.49206349206349,-320.39682539682536,19.76190476190476,176.26984126984127,24.68253968253968,163.57142857142856,16.746031746031743,94.2063492063492,-27.857142857142854,-226.74603174603175,-258.17460317460313,-17.698412698412696,3.095238095238095,-1.984126984126984,-11.19047619047619,-166.26984126984127
-11.349206349206348,28.015873015873016,78.33333333333333,57.53968253968254,-64.52380952380952,22.3015873015873,248.96825396825395,41.82539682539682,-48.49206349206349,-320.39682539682536,19.76190476190476,176.26984126984127,24.68253968253968,163.57142857142856,16.746031746031743,94.2063492063492,-27.857142857142854,-226.74603174603175,-258.17460317460313,-17.698412698412696,3.095238095238095,-1.984126984126984,-11.19047619047619,-166.26984126984127
-11.349206349206348,-21.666666666666664,76.42857142857143,109.44444444444444,-76.1111111111111,-70.07936507936508,242.6190476190476,-30.71428571428571,-53.57142857142857,-313.0952380952381,30.555555555555554,183.4126984126984,32.61904761904762,37.38095238095238,30.87301587301587,81.66666666666666,-27.38095238095238,-220.87301587301587,-251.66666666666666,-3.4126984126984126,34.52380952380952,-1.507936507936508,2.9365079365079363,-321.8253968253968
-11.349206349206348,-21.666666666666664,76.42857142857143,109.44444444444444,-76.1111111111111,-70.07936507936508,242.6190476190476,-30.71428571428571,-53.57142857142857,-313.0952380952381,30.555555555555554,183.4126984126984,32.61904761904762,37.38095238095238,30.87301587301587,81.66666666666666,-27.38095238095238,-220.87301587301587,-251.66666666666666,-3.4126984126984126,34.52380952380952,-1.507936507936508,2.9365079365079363,-321.8253968253968
-10.873015873015872,24.523809523809522,74.52380952380952,63.57142857142857,-66.42857142857143,21.19047619047619,236.26984126984127,42.460317460317455,-47.06349206349206,-305.0,11.19047619047619,180.07936507936506,15.95238095238095,66.9047619047619,8.492063492063492,76.26984126984127,-26.587301587301585,-215.47619047619045,-245.15873015873015,-17.22222222222222,6.904761904761904,-3.253968253968254,-11.984126984126984,-321.8253968253968
-10.873015873015872,24.523809523809522,74.52380952380952,63.57142857142857,-66.42857142857143,21.19047619047619,236.26984126984127,42.460317460317455,-47.06349206349206,-305.0,11.19047619047619,180.07936507936506,15.95238095238095,66.9047619047619,8.492063492063492,76.26984126984127,-26.587301587301585,-215.47619047619045,-245.15873015873015,-17.22222222222222,6.904761904761904,-3.253968253968254,-11.984126984126984,-321.8253968253968
-10.873015873015872,19.444444444444443,73.09523809523809,64.52380952380952,-66.11111111111111,19.76190476190476,232.3015873015873,42.3015873015873,-46.11111111111111,-299.9206349206349,8.333333333333332,179.60317460317458,13.095238095238095,49.12698412698413,5.634920634920634,86.9047619047619,-25.952380952380953,-207.53968253968253,-241.03174603174602,-16.904761904761905,7.222222222222221,-2.46031746031746,-12.142857142857142,-321.8253968253968
-10.873015873015872,19.444444444444443,73.09523809523809,64.52380952380952,-66.11111111111111,19.76190476190476,232.3015873015873,42.3015873015873,-46.11111111111111,-299.9206349206349,8.333333333333332,179.60317460317458,13.095238095238095,49.12698412698413,5.634920634920634,86.9047619047619,-25.952380952380953,-207.53968253968253,-241.03174603174602,-16.904761904761905,7.222222222222221,-2.46031746031746,-12.142857142857142,-321.8253968253968
-10.396825396825395,-6.587301587301587,70.23809523809524,84.36507936507937,-68.01587301587301,-25.158730158730158,223.57142857142856,8.65079365079365,-47.53968253968254,-288.3333333333333,5.634920634920634,175.0,8.65079365079365,-4.682539682539682,4.841269841269841,107.53968253968253,-25.158730158730158,-145.47619047619048,-231.98412698412696,-7.222222222222221,23.095238095238095,-1.1904761904761905,-4.365079365079365,-321.8253968253968
-10.396825396825395,-6.587301587301587,70.23809523809524,84.36507936507937,-68.01587301587301,-25.158730158730158,223.57142857142856,8.65079365079365,-47.53968253968254,-288.3333333333333,5.634920634920634,175.0,8.65079365079365,-4.682539682539682,4.841269841269841,107.53968253968253,-25.158730158730158,-145.47619047619048,-231.98412698412696,-7.222222222222221,23.095238095238095,-1.1904761904761905,-4.365079365079365,-321.8253968253968
-10.079365079365079,-5.0,67.6984126984127,88.65079365079364,-67.22222222222221,-33.73015873015873,215.95238095238093,3.253968253968254,-46.904761904761905,-278.3333333333333,8.174603174603174,179.60317460317458,11.031746031746032,-68.33333333333333,7.5396825396825395,120.07936507936508,-24.365079365079364,-139.6031746031746,-224.2063492063492,-7.063492063492063,25.79365079365079,-1.507936507936508,-3.73015873015873,-321.8253968253968
-10.079365079365079,-5.0,67.6984126984127,88.65079365079364,-67.22222222222221,-33.73015873015873,215.95238095238093,3.253968253968254,-46.904761904761905,-278.3333333333333,8.174603174603174,179.60317460317458,11.031746031746032,-68.33333333333333,7.5396825396825395,120.07936507936508,-24.365079365079364,-139.6031746031746,-224.2063492063492,-7.063492063492063,25.79365079365079,-1.507936507936508,-3.73015873015873,-321.8253968253968
-9.920634920634921,17.38095238095238,66.9047619047619,73.88888888888889,-63.888888888888886,1.1904761904761905,213.09523809523807,31.349206349206348,-43.57142857142857,-274.68253968253964,10.714285714285714,188.33333333333331,15.158730158730158,-95.63492063492063,8.333333333333332,122.93650793650794,-23.88888888888889,-187.69841269841268,-221.19047619047618,-16.11111111111111,12.777777777777777,-2.142857142857143,-11.031746031746032,-166.26984126984127
-9.920634920634921,17.38095238095238,66.9047619047619,73.88888888888889,-63.888888888888886,1.1904761904761905,213.09523809523807,31.349206349206348,-43.57142857142857,-274.68253968253964,10.714285714285714,188.33333333333331,15.158730158730158,-95.63492063492063,8.333333333333332,122.93650793650794,-23.88888888888889,-187.69841269841268,-221.19047619047618,-16.11111111111111,12.777777777777777,-2.142857142857143,-11.031746031746032,-166.26984126984127
-9.920634920634921,17.38095238095238,66.9047619047619,73.88888888888889,-63.888888888888886,1.1904761904761905,213.09523809523807,31.349206349206348,-43.57142857142857,-274.68253968253964,10.714285714285714,188.33333333333331,15.158730158730158,-95.63492063492063,8.333333333333332,122.93650793650794,-23.88888888888889,-187.69841269841268,-221.19047619047618,-16.11111111111111,12.777777777777777,-2.142857142857143,-11.031746031746032,-166.26984126984127
-9.920634920634921,17.38095238095238,66.9047619047619,73.88888888888889,-63.888888888888886,1.1904761904761905,213.09523809523807,31.349206349206348,-43.57142857142857,-274.68253968253964,10.714285714285714,188.33333333333331,15.158730158730158,-95.63492063492063,8.333333333333332,122.93650793650794,-23.88888888888889,-187.69841269841268,-221.19047619047618,-16.11111111111111,12.777777777777777,-2.142857142857143,-11.031746031746032,-166.26984126984127
-5.158730158730158,116.1111111111111,22.619047619047617,-52.93650793650794,18.80952380952381,172.14285714285714,89.44444444444444,145.47619047619048,5.7936507936507935,-114.84126984126983,5.7936507936507935,-16.746031746031743,8.809523809523808,173.88888888888889,2.9365079365079363,36.42857142857142,7.222222222222221,113.4126984126984,-94.04761904761904,-17.698412698412696,-67.85714285714285,-0.07936507936507936,-9.444444444444445,-166.26984126984127
-5.158730158730158,116.1111111111111,22.619047619047617,-52.93650793650794,18.80952380952381,172.14285714285714,89.44444444444444,145.47619047619048,5.7936507936507935,-114.84126984126983,5.7936507936507935,-16.746031746031743,8.809523809523808,173.88888888888889,2.9365079365079363,36.42857142857142,7.222222222222221,113.4126984126984,-94.04761904761904,-17.698412698412696,-67.85714285714285,-0.07936507936507936,-9.444444444444445,-166.26984126984127
-5.317460317460317,78.96825396825396,-58.17460317460317,-127.6984126984127,15.793650793650793,108.49206349206348,87.22222222222221,92.93650793650794,8.492063492063492,-112.46031746031746,-48.33333333333333,-135.63492063492063,-50.55555555555555,98.96825396825396,-47.698412698412696,17.38095238095238,0.7142857142857142,99.6031746031746,-91.98412698412697,21.507936507936506,-69.6031746031746,0.07936507936507936,7.222222222222221,-166.26984126984127
-5.317460317460317,78.96825396825396,-58.17460317460317,-127.6984126984127,15.793650793650793,108.49206349206348,87.22222222222221,92.93650793650794,8.492063492063492,-112.46031746031746,-48.33333333333333,-135.63492063492063,-50.55555555555555,98.96825396825396,-47.698412698412696,17.38095238095238,0.7142857142857142,99.6031746031746,-91.98412698412697,21.507936507936506,-69.6031746031746,0.07936507936507936,7.222222222222221,-166.26984126984127
-5.158730158730158,53.888888888888886,-153.57142857142856,48.33333333333333,-15.634920634920634,47.698412698412696,85.79365079365078,51.19047619047619,-14.84126984126984,-110.55555555555554,-22.142857142857142,116.1111111111111,-20.238095238095237,61.82539682539682,-23.88888888888889,99.44444444444444,-7.063492063492063,-7.5396825396825395,-90.39682539682539,-12.3015873015873,3.095238095238095,-1.6666666666666665,-8.65079365079365,-166.26984126984127
-5.158730158730158,53.888888888888886,-153.57142857142856,48.33333333333333,-15.634920634920634,47.698412698412696,85.79365079365078,51.19047619047619,-14.84126984126984,-110.55555555555554,-22.142857142857142,116.1111111111111,-20.238095238095237,61.82539682539682,-23.88888888888889,99.44444444444444,-7.063492063492063,-7.5396825396825395,-90.39682539682539,-12.3015873015873,3.095238095238095,-1.6666666666666665,-8.65079365079365,-166.26984126984127
-5.158730158730158,72.46031746031746,-141.34920634920636,-70.07936507936508,19.444444444444443,77.6984126984127,84.84126984126983,70.07936507936508,8.015873015873016,-108.96825396825396,-54.52380952380952,-38.49206349206349,-54.52380952380952,118.17460317460316,-55.317460317460316,56.74603174603174,7.3809523809523805,75.79365079365078,-89.28571428571428,0.873015873015873,-65.0,-0.873015873015873,-0.873015873015873,-321.8253968253968
-5.158730158730158,72.46031746031746,-141.34920634920636,-70.07936507936508,19.444444444444443,77.6984126984127,84.84126984126983,70.07936507936508,8.015873015873016,-108.96825396825396,-54.52380952380952,-38.49206349206349,-54.52380952380952,118.17460317460316,-55.317460317460316,56.74603174603174,7.3809523809523805,75.79365079365078,-89.28571428571428,0.873015873015873,-65.0,-0.873015873015873,-0.873015873015873,-321.8253968253968
-5.158730158730158,50.87301587301587,-162.61904761904762,57.22222222222222,-17.857142857142858,46.269841269841265,82.77777777777777,49.6031746031746,-18.174603174603174,-106.58730158730158,-29.285714285714285,125.95238095238095,-27.539682539682538,55.79365079365079,-30.71428571428571,88.01587301587301,-5.7936507936507935,102.61904761904762,-87.38095238095238,-12.777777777777777,10.238095238095237,-0.7142857142857142,-8.015873015873016,-321.8253968253968
-5.158730158730158,50.87301587301587,-162.61904761904762,57.22222222222222,-17.857142857142858,46.269841269841265,82.77777777777777,49.6031746031746,-18.174603174603174,-106.58730158730158,-29.285714285714285,125.95238095238095,-27.539682539682538,55.79365079365079,-30.71428571428571,88.01587301587301,-5.7936507936507935,102.61904761904762,-87.38095238095238,-12.777777777777777,10.238095238095237,-0.7142857142857142,-8.015873015873016,-321.8253968253968
-5.158730158730158,84.04761904761904,-71.34920634920634,-130.07936507936506,26.746031746031743,108.17460317460316,81.5079365079365,92.46031746031746,13.253968253968253,-104.68253968253968,-27.857142857142854,-141.19047619047618,-29.6031746031746,128.8095238095238,-27.698412698412696,0.7142857142857142,9.761904761904761,20.396825396825395,-85.79365079365078,34.84126984126984,-76.74603174603175,0.873015873015873,7.698412698412698,-321.8253968253968
-5.158730158730158,84.04761904761904,-71.34920634920634,-130.07936507936506,26.746031746031743,108.17460317460316,81.5079365079365,92.46031746031746,13.253968253968253,-104.68253968253968,-27.857142857142854,-141.19047619047618,-29.6031746031746,128.8095238095238,-27.698412698412696,0.7142857142857142,9.761904761904761,20.396825396825395,-85.79365079365078,34.84126984126984,-76.74603174603175,0.873015873015873,7.698412698412698,-321.8253968253968
-5.0,55.15873015873016,-168.015873015873,58.96825396825397,-15.793650793650793,40.55555555555555,80.07936507936508,46.74603174603175,-16.587301587301585,-102.77777777777777,-8.65079365079365,130.3968253968254,-7.222222222222221,38.80952380952381,-10.555555555555555,80.87301587301587,-5.0,-128.8095238095238,-84.52380952380952,-11.031746031746032,9.444444444444445,-1.1904761904761905,-7.857142857142857,-321.8253968253968
-5.0,55.15873015873016,-168.015873015873,58.96825396825397,-15.793650793650793,40.55555555555555,80.07936507936508,46.74603174603175,-16.587301587301585,-102.77777777777777,-8.65079365079365,130.3968253968254,-7.222222222222221,38.80952380952381,-10.555555555555555,80.87301587301587,-5.0,-128.8095238095238,-84.52380952380952,-11.031746031746032,9.444444444444445,-1.1904761904761905,-7.857142857142857,-321.8253968253968
-4.365079365079365,88.33333333333333,-69.44444444444444,-125.79365079365078,34.84126984126984,118.01587301587301,78.65079365079364,99.76190476190476,20.396825396825395,-101.03174603174602,-27.38095238095238,-143.09523809523807,-29.285714285714285,130.7142857142857,-27.22222222222222,5.476190476190476,12.936507936507935,-93.88888888888889,-82.77777777777777,37.38095238095238,-86.74603174603175,-0.07936507936507936,7.5396825396825395,-321.8253968253968
-4.365079365079365,88.33333333333333,-69.44444444444444,-125.79365079365078,34.84126984126984,118.01587301587301,78.65079365079364,99.76190476190476,20.396825396825395,-101.03174603174602,-27.38095238095238,-143.09523809523807,-29.285714285714285,130.7142857142857,-27.22222222222222,5.476190476190476,12.936507936507935,-93.88888888888889,-82.77777777777777,37.38095238095238,-86.74603174603175,-0.07936507936507936,7.5396825396825395,-321.8253968253968
-4.523809523809524,17.539682539682538,-187.38095238095238,38.17460317460317,-40.87301587301587,8.65079365079365,76.1111111111111,19.444444444444443,-31.507936507936506,-98.01587301587301,-20.07936507936508,33.095238095238095,-24.206349206349206,-128.8095238095238,-18.65079365079365,68.96825396825396,-17.539682539682538,-98.65079365079364,-80.23809523809523,71.5079365079365,46.269841269841265,0.07936507936507936,8.968253968253968,-166.26984126984127
-4.523809523809524,17.539682539682538,-187.38095238095238,38.17460317460317,-40.87301587301587,8.65079365079365,76.1111111111111,19.444444444444443,-31.507936507936506,-98.01587301587301,-20.07936507936508,33.095238095238095,-24.206349206349206,-128.8095238095238,-18.65079365079365,68.96825396825396,-17.539682539682538,-98.65079365079364,-80.23809523809523,71.5079365079365,46.269841269841265,0.07936507936507936,8.968253968253968,-166.26984126984127
-4.523809523809524,17.539682539682538,-187.38095238095238,38.17460317460317,-40.87301587301587,8.65079365079365,76.1111111111111,19.444444444444443,-31.507936507936506,-98.01587301587301,-20.07936507936508,33.095238095238095,-24.206349206349206,-128.8095238095238,-18.65079365079365,68.96825396825396,-17.539682539682538,-98.65079365079364,-80.23809523809523,71.5079365079365,46.269841269841265,0.07936507936507936,8.968253968253968,-166.26984126984127
-4.523809523809524,17.539682539682538,-187.38095238095238,38.17460317460317,-40.87301587301587,8.65079365079365,76.1111111111111,19.444444444444443,-31.507936507936506,-98.01587301587301,-20.07936507936508,33.095238095238095,-24.206349206349206,-128.8095238095238,-18.65079365079365,68.96825396825396,-17.539682539682538,-98.65079365079364,-80.23809523809523,71.5079365079365,46.269841269841265,0.07936507936507936,8.968253968253968,-166.26984126984127
-4.523809523809524,17.539682539682538,-187.38095238095238,38.17460317460317,-40.87301587301587,8.65079365079365,76.1111111111111,19.444444444444443,-31.507936507936506,-98.01587301587301,-20.07936507936508,33.095238095238095,-24.206349206349206,-128.8095238095238,-18.65079365079365,68.96825396825396,-17.539682539682538,-98.65079365079364,-80.23809523809523,71.5079365079365,46.269841269841265,0.07936507936507936,8.968253968253968,-166.26984126984127
-4.523809523809524,17.539682539682538,-187.38095238095238,38.17460317460317,-40.87301587301587,8.65079365079365,76.1111111111111,19.444444444444443,-31.507936507936506,-98.01587301587301,-20.07936507936508,33.095238095238095,-24.206349206349206,-128.8095238095238,-18.65079365079365,68.96825396825396,-17.539682539682538,-98.65079365079364,-80.23809523809523,71.5079365079365,46.269841269841265,0.07936507936507936,8.968253968253968,-166.26984126984127
-4.523809523809524,17.539682539682538,-187.38095238095238,38.17460317460317,-40.87301587301587,8.65079365079365,76.1111111111111,19.444444444444443,-31.507936507936506,-98.01587301587301,-20.07936507936508,33.095238095238095,-24.206349206349206,-128.8095238095238,-18.65079365079365,68.96825396825396,-17.539682539682538,-98.65079365079364,-80.23809523809523,71.5079365079365,46.269841269841265,0.07936507936507936,8.968253968253968,-166.26984126984127
-4.523809523809524,17.539682539682538,-187.38095238095238,38.17460317460317,-40.87301587301587,8.65079365079365,76.1111111111111,19.444444444444443,-31.507936507936506,-98.01587301587301,-20.07936507936508,33.095238095238095,-24.206349206349206,-128.8095238095238,-18.65079365079365,68.96825396825396,-17.539682539682538,-98.65079365079364,-80.23809523809523,71.5079365079365,46.269841269841265,0.07936507936507936,8.968253968253968,-166.26984126984127
-4.523809523809524,17.539682539682538,-187.38095238095238,38.17460317460317,-40.87301587301587,8.65079365079365,76.1111111111111,19.444444444444443,-31.507936507936506,-98.01587301587301,-20.07936507936508,33.095238095238095,-24.206349206349206,-128.8095238095238,-18.65079365079365,68.96825396825396,-17.539682539682538,-98.65079365079364,-80.23809523809523,71.5079365079365,46.269841269841265,0.07936507936507936,8.968253968253968,-166.26984126984127
-4.523809523809524,17.539682539682538,-187.38095238095238,38.17460317460317,-40.87301587301587,8.65079365079365,76.1111111111111,19.444444444444443,-31.507936507936506,-98.01587301587301,-20.07936507936508,33.095238095238095,-24.206349206349206,-128.8095238095238,-18.65079365079365,68.96825396825396,-17.539682539682538,-98.65079365079364,-80.23809523809523,71.5079365079365,46.269841269841265,0.07936507936507936,8.968253968253968,-166.26984126984127
-4.523809523809524,17.539682539682538,-187.38095238095238,38.17460317460317,-40.87301587301587,8.65079365079365,76.1111111111111,19.444444444444443,-31.507936507936506,-98.01587301587301,-20.07936507936508,33.095238095238095,-24.206349206349206,-128.8095238095238,-18.65079365079365,68.96825396825396,-17.539682539682538,-98.65079365079364,-80.23809523809523,71.5079365079365,46.269841269841265,0.07936507936507936,8.968253968253968,-321.8253968253968
-4.523809523809524,17.539682539682538,-187.38095238095238,38.17460317460317,-40.87301587301587,8.65079365079365,76.1111111111111,19.444444444444443,-31.507936507936506,-98.01587301587301,-20.07936507936508,33.095238095238095,-24.206349206349206,-128.8095238095238,-18.65079365079365,68.96825396825396,-17.539682539682538,-98.65079365079364,-80.23809523809523,71.5079365079365,46.269841269841265,0.07936507936507936,8.968253968253968,-321.8253968253968
-4.523809523809524,17.539682539682538,-187.38095238095238,38.17460317460317,-40.87301587301587,8.65079365079365,76.1111111111111,19.444444444444443,-31.507936507936506,-98.01587301587301,-20.07936507936508,33.095238095238095,-24.206349206349206,-128.8095238095238,-18.65079365079365,68.96825396825396,-17.539682539682538,-98.65079365079364,-80.23809523809523,71.5079365079365,46.269841269841265,0.07936507936507936,8.968253968253968,-321.8253968253968
-4.523809523809524,17.539682539682538,-187.38095238095238,38.17460317460317,-40.87301587301587,8.65079365079365,76.1111111111111,19.444444444444443,-31.507936507936506,-98.01587301587301,-20.07936507936508,33.095238095238095,-24.206349206349206,-128.8095238095238,-18.65079365079365,68.96825396825396,-17.539682539682538,-98.65079365079364,-80.23809523809523,71.5079365079365,46.269841269841265,0.07936507936507936,8.968253968253968,-321.8253968253968
4.0476190476190474,127.85714285714285,53.095238095238095,-318.968253968254,139.28571428571428,220.55555555555554,58.96825396825397,178.96825396825395,111.19047619047619,-75.95238095238095,-30.87301587301587,-325.0,-29.76190476190476,114.36507936507935,-31.666666666666664,-10.714285714285714,111.34920634920634,102.14285714285714,-62.3015873015873,12.46031746031746,-235.0,1.507936507936508,4.2063492063492065,-321.8253968253968
4.0476190476190474,127.85714285714285,53.095238095238095,-318.968253968254,139.28571428571428,220.55555555555554,58.96825396825397,178.96825396825395,111.19047619047619,-75.95238095238095,-30.87301587301587,-325.0,-29.76190476190476,114.36507936507935,-31.666666666666664,-10.714285714285714,111.34920634920634,102.14285714285714,-62.3015873015873,12.46031746031746,-235.0,1.507936507936508,4.2063492063492065,-321.8253968253968
-0.3968253968253968,70.55555555555556,-108.65079365079364,-169.44444444444443,52.61904761904761,111.98412698412697,58.01587301587301,93.88888888888889,40.87301587301587,-74.84126984126983,-24.523809523809522,-183.4126984126984,-25.952380952380953,28.65079365079365,-24.047619047619047,21.349206349206348,48.33333333333333,37.38095238095238,-61.507936507936506,49.6031746031746,-100.55555555555554,0.873015873015873,7.063492063492063,-321.8253968253968
-0.3968253968253968,70.55555555555556,-108.65079365079364,-169.44444444444443,52.61904761904761,111.98412698412697,58.01587301587301,93.88888888888889,40.87301587301587,-74.84126984126983,-24.523809523809522,-183.4126984126984,-25.952380952380953,28.65079365079365,-24.047619047619047,21.349206349206348,48.33333333333333,37.38095238095238,-61.507936507936506,49.6031746031746,-100.55555555555554,0.873015873015873,7.063492063492063,-321.8253968253968
0.23809523809523808,114.84126984126983,-68.4920634920635,-165.47619047619045,73.88888888888889,162.77777777777777,56.269841269841265,132.77777777777777,53.73015873015873,-72.61904761904762,6.746031746031746,-152.46031746031744,8.968253968253968,10.079365079365079,4.523809523809524,-82.93650793650794,60.079365079365076,131.8253968253968,-60.079365079365076,-9.761904761904761,-137.22222222222223,0.5555555555555556,-3.4126984126984126,-321.8253968253968
0.23809523809523808,114.84126984126983,-68.4920634920635,-165.47619047619045,73.88888888888889,162.77777777777777,56.269841269841265,132.77777777777777,53.73015873015873,-72.61904761904762,6.746031746031746,-152.46031746031744,8.968253968253968,10.079365079365079,4.523809523809524,-82.93650793650794,60.079365079365076,131.8253968253968,-60.079365079365076,-9.761904761904761,-137.22222222222223,0.5555555555555556,-3.4126984126984126,-321.8253968253968
-2.619047619047619,89.76190476190476,-193.25396825396825,-16.26984126984127,16.428571428571427,104.84126984126983,56.269841269841265,91.5079365079365,9.126984126984127,-72.3015873015873,32.77777777777778,20.07936507936508,35.63492063492063,-64.68253968253968,29.6031746031746,-68.17460317460318,20.71428571428571,146.9047619047619,-59.76190476190476,-28.015873015873016,-43.095238095238095,-0.07936507936507936,-10.714285714285714,-166.26984126984127
-2.619047619047619,89.76190476190476,-193.25396825396825,-16.26984126984127,16.428571428571427,104.84126984126983,56.269841269841265,91.5079365079365,9.126984126984127,-72.3015873015873,32.77777777777778,20.07936507936508,35.63492063492063,-64.68253968253968,29.6031746031746,-68.17460317460318,20.71428571428571,146.9047619047619,-59.76190476190476,-28.015873015873016,-43.095238095238095,-0.07936507936507936,-10.714285714285714,-166.26984126984127
0.873015873015873,122.14285714285714,-74.52380952380952,-155.79365079365078,73.73015873015872,159.9206349206349,54.68253968253968,127.85714285714285,51.82539682539682,-70.07936507936508,13.095238095238095,-154.68253968253967,15.158730158730158,1.6666666666666665,10.714285714285714,-160.55555555555554,64.36507936507937,224.68253968253967,-58.01587301587301,-11.19047619047619,-134.04761904761904,0.5555555555555556,-4.0476190476190474,-166.26984126984127
0.873015873015873,122.14285714285714,-74.52380952380952,-155.79365079365078,73.73015873015872,159.9206349206349,54.68253968253968,127.85714285714285,51.82539682539682,-70.07936507936508,13.095238095238095,-154.68253968253967,15.158730158730158,1.6666666666666665,10.714285714285714,-160.55555555555554,64.36507936507937,224.68253968253967,-58.01587301587301,-11.19047619047619,-134.04761904761904,0.5555555555555556,-4.0476190476190474,-166.26984126984127
-2.142857142857143,86.42857142857143,-205.15873015873015,-5.952380952380952,13.888888888888888,96.42857142857142,54.52380952380952,82.14285714285714,6.26984126984127,-69.92063492063491,34.36507936507936,15.793650793650793,36.58730158730159,-54.52380952380952,31.03174603174603,-110.23809523809523,21.507936507936506,172.14285714285714,-57.698412698412696,-29.126984126984127,-36.58730158730159,-0.07936507936507936,-11.507936507936508,-166.26984126984127
-2.142857142857143,86.42857142857143,-205.15873015873015,-5.952380952380952,13.888888888888888,96.42857142857142,54.52380952380952,82.14285714285714,6.26984126984127,-69.92063492063491,34.36507936507936,15.793650793650793,36.58730158730159,-54.52380952380952,31.03174603174603,-110.23809523809523,21.507936507936506,172.14285714285714,-57.698412698412696,-29.126984126984127,-36.58730158730159,-0.07936507936507936,-11.507936507936508,-166.26984126984127
-2.3015873015873014,90.39682539682539,-213.09523809523807,-2.46031746031746,12.46031746031746,96.1111111111111,53.41269841269841,84.84126984126983,3.253968253968254,-68.80952380952381,33.25396825396825,18.333333333333332,35.476190476190474,-82.93650793650794,29.920634920634917,-110.39682539682539,21.507936507936506,145.63492063492063,-56.74603174603174,-29.76190476190476,-35.63492063492063,-0.3968253968253968,-11.19047619047619,-166.26984126984127
-2.3015873015873014,90.39682539682539,-213.09523809523807,-2.46031746031746,12.46031746031746,96.1111111111111,53.41269841269841,84.84126984126983,3.253968253968254,-68.80952380952381,33.25396825396825,18.333333333333332,35.476190476190474,-82.93650793650794,29.920634920634917,-110.39682539682539,21.507936507936506,145.63492063492063,-56.74603174603174,-29.76190476190476,-35.63492063492063,-0.3968253968253968,-11.19047619047619,-166.26984126984127
-3.253968253968254,64.52380952380952,-253.25396825396825,-25.0,-3.095238095238095,50.55555555555555,51.98412698412698,50.55555555555555,-9.603174603174603,-66.9047619047619,22.619047619047617,-37.22222222222222,21.984126984126984,-165.79365079365078,21.349206349206348,-125.47619047619047,6.904761904761904,105.47619047619047,-55.317460317460316,32.61904761904762,-9.603174603174603,-0.07936507936507936,-0.5555555555555556,-166.26984126984127
-3.253968253968254,64.52380952380952,-253.25396825396825,-25.0,-3.095238095238095,50.55555555555555,51.98412698412698,50.55555555555555,-9.603174603174603,-66.9047619047619,22.619047619047617,-37.22222222222222,21.984126984126984,-165.79365079365078,21.349206349206348,-125.47619047619047,6.904761904761904,105.47619047619047,-55.317460317460316,32.61904761904762,-9.603174603174603,-0.07936507936507936,-0.5555555555555556,-166.26984126984127
2.142857142857143,108.17460317460316,-78.01587301587301,-151.984126984127,70.71428571428571,149.28571428571428,50.71428571428571,126.9047619047619,42.93650793650794,-65.31746031746032,26.26984126984127,-148.015873015873,28.65079365079365,-165.15873015873015,23.88888888888889,-151.984126984127,65.15873015873015,280.23809523809524,-54.2063492063492,-12.3015873015873,-127.22222222222221,0.3968253968253968,-3.4126984126984126,-321.8253968253968
2.142857142857143,108.17460317460316,-78.01587301587301,-151.984126984127,70.71428571428571,149.28571428571428,50.71428571428571,126.9047619047619,42.93650793650794,-65.31746031746032,26.26984126984127,-148.015873015873,28.65079365079365,-165.15873015873015,23.88888888888889,-151.984126984127,65.15873015873015,280.23809523809524,-54.2063492063492,-12.3015873015873,-127.22222222222221,0.3968253968253968,-3.4126984126984126,-321.8253968253968
-2.9365079365079363,55.15873015873016,-245.63492063492063,-28.015873015873016,-1.1904761904761905,51.19047619047619,50.079365079365076,50.87301587301587,-8.968253968253968,-64.52380952380952,25.952380952380953,-38.17460317460317,25.317460317460316,-253.4126984126984,24.84126984126984,-115.15873015873015,10.238095238095237,270.7142857142857,-53.41269841269841,35.0,-12.619047619047619,-0.873015873015873,-0.5555555555555556,-321.8253968253968
-2.9365079365079363,55.15873015873016,-245.63492063492063,-28.015873015873016,-1.1904761904761905,51.19047619047619,50.079365079365076,50.87301587301587,-8.968253968253968,-64.52380952380952,25.952380952380953,-38.17460317460317,25.317460317460316,-253.4126984126984,24.84126984126984,-115.15873015873015,10.238095238095237,270.7142857142857,-53.41269841269841,35.0,-12.619047619047619,-0.873015873015873,-0.5555555555555556,-321.8253968253968
9.920634920634921,145.63492063492063,62.14285714285714,-304.04761904761904,141.5079365079365,218.17460317460316,49.285714285714285,169.60317460317458,88.33333333333333,-63.095238095238095,3.4126984126984126,-325.0,6.904761904761904,-117.53968253968253,2.46031746031746,-206.9047619047619,128.8095238095238,294.36507936507934,-52.460317460317455,12.3015873015873,-238.17460317460316,0.873015873015873,3.253968253968254,-321.8253968253968
9.920634920634921,145.63492063492063,62.14285714285714,-304.04761904761904,141.5079365079365,218.17460317460316,49.285714285714285,169.60317460317458,88.33333333333333,-63.095238095238095,3.4126984126984126,-325.0,6.904761904761904,-117.53968253968253,2.46031746031746,-206.9047619047619,128.8095238095238,294.36507936507934,-52.460317460317455,12.3015873015873,-238.17460317460316,0.873015873015873,3.253968253968254,-321.8253968253968
9.920634920634921,145.63492063492063,62.14285714285714,-304.04761904761904,141.5079365079365,218.17460317460316,49.285714285714285,169.60317460317458,88.33333333333333,-63.095238095238095,3.4126984126984126,-325.0,6.904761904761904,-117.53968253968253,2.46031746031746,-206.9047619047619,128.8095238095238,294.36507936507934,-52.460317460317455,12.3015873015873,-238.17460317460316,0.873015873015873,3.253968253968254,-321.8253968253968
9.920634920634921,145.63492063492063,62.14285714285714,-304.04761904761904,141.5079365079365,218.17460317460316,49.285714285714285,169.60317460317458,88.33333333333333,-63.095238095238095,3.4126984126984126,-325.0,6.904761904761904,-117.53968253968253,2.46031746031746,-206.9047619047619,128.8095238095238,294.36507936507934,-52.460317460317455,12.3015873015873,-238.17460317460316,0.873015873015873,3.253968253968254,-321.8253968253968
8.333333333333332,120.87301587301586,-78.4920634920635,-137.38095238095238,81.19047619047619,158.4920634920635,47.22222222222222,128.4920634920635,49.44444444444444,-60.873015873015866,18.65079365079365,-132.61904761904762,21.349206349206348,-134.84126984126982,16.587301587301585,-174.68253968253967,75.79365079365078,232.3015873015873,-50.39682539682539,-13.571428571428571,-131.5079365079365,-0.7142857142857142,-4.365079365079365,-321.8253968253968
8.333333333333332,120.87301587301586,-78.4920634920635,-137.38095238095238,81.19047619047619,158.4920634920635,47.22222222222222,128.4920634920635,49.44444444444444,-60.873015873015866,18.65079365079365,-132.61904761904762,21.349206349206348,-134.84126984126982,16.587301587301585,-174.68253968253967,75.79365079365078,232.3015873015873,-50.39682539682539,-13.571428571428571,-131.5079365079365,-0.7142857142857142,-4.365079365079365,-321.8253968253968
1.507936507936508,66.58730158730158,-246.26984126984127,-24.047619047619047,8.492063492063492,63.095238095238095,46.58730158730158,55.317460317460316,-1.349206349206349,-60.079365079365076,12.936507936507935,-27.698412698412696,12.3015873015873,-222.3015873015873,11.825396825396824,-127.53968253968253,16.11111111111111,225.95238095238093,-49.76190476190476,35.317460317460316,-18.174603174603174,-1.0317460317460316,-0.23809523809523808,-166.26984126984127
1.507936507936508,66.58730158730158,-246.26984126984127,-24.047619047619047,8.492063492063492,63.095238095238095,46.58730158730158,55.317460317460316,-1.349206349206349,-60.079365079365076,12.936507936507935,-27.698412698412696,12.3015873015873,-222.3015873015873,11.825396825396824,-127.53968253968253,16.11111111111111,225.95238095238093,-49.76190476190476,35.317460317460316,-18.174603174603174,-1.0317460317460316,-0.23809523809523808,-166.26984126984127
17.698412698412696,108.96825396825396,-83.4126984126984,-137.06349206349205,88.65079365079364,157.85714285714286,45.476190476190474,125.95238095238095,53.41269841269841,-58.8095238095238,9.126984126984127,-133.4126984126984,11.984126984126984,-152.14285714285714,7.5396825396825395,-141.984126984127,84.36507936507937,325.0,-48.650793650793645,-13.253968253968253,-136.26984126984127,0.5555555555555556,-4.365079365079365,-166.26984126984127
17.698412698412696,108.96825396825396,-83.4126984126984,-137.06349206349205,88.65079365079364,157.85714285714286,45.476190476190474,125.95238095238095,53.41269841269841,-58.8095238095238,9.126984126984127,-133.4126984126984,11.984126984126984,-152.14285714285714,7.5396825396825395,-141.984126984127,84.36507936507937,325.0,-48.650793650793645,-13.253968253968253,-136.26984126984127,0.5555555555555556,-4.365079365079365,-166.26984126984127
21.666666666666664,54.52380952380952,-123.09523809523809,-62.14285714285714,59.76190476190476,50.079365079365076,44.36507936507936,45.95238095238095,35.95238095238095,-57.38095238095238,-13.412698412698411,-42.3015873015873,-12.142857142857142,-216.9047619047619,-12.46031746031746,-96.26984126984127,61.03174603174603,204.2063492063492,-47.698412698412696,27.22222222222222,-78.33333333333333,0.23809523809523808,-0.5555555555555556,-166.26984126984127
21.666666666666664,54.52380952380952,-123.09523809523809,-62.14285714285714,59.76190476190476,50.079365079365076,44.36507936507936,45.95238095238095,35.95238095238095,-57.38095238095238,-13.412698412698411,-42.3015873015873,-12.142857142857142,-216.9047619047619,-12.46031746031746,-96.26984126984127,61.03174603174603,204.2063492063492,-47.698412698412696,27.22222222222222,-78.33333333333333,0.23809523809523808,-0.5555555555555556,-166.26984126984127
10.079365079365079,69.76190476190476,-239.60317460317458,28.015873015873016,15.158730158730158,81.82539682539682,44.047619047619044,78.96825396825396,1.507936507936508,-56.58730158730158,33.57142857142857,61.34920634920635,35.476190476190474,-250.3968253968254,30.07936507936508,-50.079365079365076,22.619047619047617,296.4285714285714,-47.22222222222222,-36.42857142857142,-25.634920634920633,-1.349206349206349,-11.507936507936508,-166.26984126984127
10.079365079365079,69.76190476190476,-239.60317460317458,28.015873015873016,15.158730158730158,81.82539682539682,44.047619047619044,78.96825396825396,1.507936507936508,-56.58730158730158,33.57142857142857,61.34920634920635,35.476190476190474,-250.3968253968254,30.07936507936508,-50.079365079365076,22.619047619047617,296.4285714285714,-47.22222222222222,-36.42857142857142,-25.634920634920633,-1.349206349206349,-11.507936507936508,-166.26984126984127
25.952380952380953,98.17460317460316,-81.19047619047619,-136.58730158730157,92.14285714285714,149.9206349206349,43.41269841269841,124.68253968253967,53.41269841269841,-55.79365079365079,8.809523809523808,-131.8253968253968,11.507936507936508,-141.984126984127,6.746031746031746,-47.53968253968254,82.77777777777777,310.7142857142857,-46.74603174603175,-16.746031746031743,-138.17460317460316,0.07936507936507936,-4.0476190476190474,-166.26984126984127
25.952380952380953,98.17460317460316,-81.19047619047619,-136.58730158730157,92.14285714285714,149.9206349206349,43.41269841269841,124.68253968253967,53.41269841269841,-55.79365079365079,8.809523809523808,-131.8253968253968,11.507936507936508,-141.984126984127,6.746031746031746,-47.53968253968254,82.77777777777777,310.7142857142857,-46.74603174603175,-16.746031746031743,-138.17460317460316,0.07936507936507936,-4.0476190476190474,-166.26984126984127
-0.5555555555555556,-13.73015873015873,-285.7936507936508,101.03174603174602,-29.920634920634917,-27.063492063492063,40.55555555555555,-6.746031746031746,-26.587301587301585,-54.52380952380952,-20.396825396825395,159.12698412698413,-20.07936507936508,-248.8095238095238,-21.03174603174603,122.30158730158729,-11.031746031746032,206.74603174603175,-44.047619047619044,3.571428571428571,44.2063492063492,-2.142857142857143,-7.063492063492063,-321.8253968253968
-0.5555555555555556,-13.73015873015873,-285.7936507936508,101.03174603174602,-29.920634920634917,-27.063492063492063,40.55555555555555,-6.746031746031746,-26.587301587301585,-54.52380952380952,-20.396825396825395,159.12698412698413,-20.07936507936508,-248.8095238095238,-21.03174603174603,122.30158730158729,-11.031746031746032,206.74603174603175,-44.047619047619044,3.571428571428571,44.2063492063492,-2.142857142857143,-7.063492063492063,-321.8253968253968
18.174603174603174,19.444444444444443,-124.52380952380952,-65.31746031746032,57.38095238095238,46.11111111111111,39.92063492063492,46.42857142857142,35.476190476190474,-53.73015873015873,-27.539682539682538,-39.44444444444444,-26.26984126984127,-251.03174603174602,-26.428571428571427,83.73015873015872,56.58730158730158,222.14285714285714,-43.41269841269841,27.22222222222222,-69.12698412698413,-0.07936507936507936,-0.07936507936507936,-321.8253968253968
18.174603174603174,19.444444444444443,-124.52380952380952,-65.31746031746032,57.38095238095238,46.11111111111111,39.92063492063492,46.42857142857142,35.476190476190474,-53.73015873015873,-27.539682539682538,-39.44444444444444,-26.26984126984127,-251.03174603174602,-26.428571428571427,83.73015873015872,56.58730158730158,222.14285714285714,-43.41269841269841,27.22222222222222,-69.12698412698413,-0.07936507936507936,-0.07936507936507936,-321.8253968253968
44.047619047619044,107.53968253968253,76.1111111111111,-305.3174603174603,182.14285714285714,217.69841269841268,41.34920634920635,174.04761904761904,120.07936507936508,-53.095238095238095,-12.619047619047619,-325.0,-8.65079365079365,-176.9047619047619,-12.777777777777777,7.5396825396825395,151.34920634920633,305.1587301587301,-44.047619047619044,8.65079365079365,-244.04761904761904,1.984126984126984,2.3015873015873014,-321.8253968253968
44.047619047619044,107.53968253968253,76.1111111111111,-305.3174603174603,182.14285714285714,217.69841269841268,41.34920634920635,174.04761904761904,120.07936507936508,-53.095238095238095,-12.619047619047619,-325.0,-8.65079365079365,-176.9047619047619,-12.777777777777777,7.5396825396825395,151.34920634920633,305.1587301587301,-44.047619047619044,8.65079365079365,-244.04761904761904,1.984126984126984,2.3015873015873014,-321.8253968253968
18.65079365079365,51.666666666666664,-94.68253968253968,-206.58730158730157,95.0,126.9047619047619,39.285714285714285,101.5079365079365,64.2063492063492,-51.34920634920635,12.3015873015873,-232.46031746031744,12.777777777777777,-316.58730158730157,13.253968253968253,46.904761904761905,83.57142857142857,101.5079365079365,-41.82539682539682,51.98412698412698,-142.93650793650792,-0.07936507936507936,5.158730158730158,-321.8253968253968
18.65079365079365,51.666666666666664,-94.68253968253968,-206.58730158730157,95.0,126.9047619047619,39.285714285714285,101.5079365079365,64.2063492063492,-51.34920634920635,12.3015873015873,-232.46031746031744,12.777777777777777,-316.58730158730157,13.253968253968253,46.904761904761905,83.57142857142857,101.5079365079365,-41.82539682539682,51.98412698412698,-142.93650793650792,-0.07936507936507936,5.158730158730158,-321.8253968253968
35.63492063492063,103.4126984126984,68.4920634920635,-307.22222222222223,171.19047619047618,221.03174603174602,39.92063492063492,173.88888888888889,117.53968253968253,-51.19047619047619,17.063492063492063,-325.0,20.873015873015873,-308.17460317460313,16.746031746031743,22.142857142857142,144.52380952380952,132.3015873015873,-42.93650793650794,1.1904761904761905,-256.58730158730157,0.07936507936507936,1.1904761904761905,-321.8253968253968
35.63492063492063,103.4126984126984,68.4920634920635,-307.22222222222223,171.19047619047618,221.03174603174602,39.92063492063492,173.88888888888889,117.53968253968253,-51.19047619047619,17.063492063492063,-325.0,20.873015873015873,-308.17460317460313,16.746031746031743,22.142857142857142,144.52380952380952,132.3015873015873,-42.93650793650794,1.1904761904761905,-256.58730158730157,0.07936507936507936,1.1904761904761905,-321.8253968253968
3.73015873015873,59.44444444444444,-87.85714285714285,-196.11111111111111,104.04761904761904,133.25396825396825,37.06349206349206,111.5079365079365,70.07936507936508,-49.76190476190476,-8.015873015873016,-177.69841269841268,-8.333333333333332,-293.0952380952381,-6.904761904761904,59.92063492063492,93.73015873015872,176.74603174603175,-38.96825396825397,51.98412698412698,-141.19047619047618,1.349206349206349,5.952380952380952,-166.26984126984127
3.73015873015873,59.44444444444444,-87.85714285714285,-196.11111111111111,104.04761904761904,133.25396825396825,37.06349206349206,111.5079365079365,70.07936507936508,-49.76190476190476,-8.015873015873016,-177.69841269841268,-8.333333333333332,-293.0952380952381,-6.904761904761904,59.92063492063492,93.73015873015872,176.74603174603175,-38.96825396825397,51.98412698412698,-141.19047619047618,1.349206349206349,5.952380952380952,-166.26984126984127
-5.7936507936507935,-37.22222222222222,-319.1269841269841,111.03174603174602,-32.93650793650794,-32.460317460317455,25.476190476190474,-4.2063492063492065,-26.9047619047619,-48.96825396825397,5.7936507936507935,197.06349206349205,7.063492063492063,-325.0,5.317460317460317,173.73015873015873,-15.0,42.93650793650794,-25.158730158730158,5.7936507936507935,51.82539682539682,-1.507936507936508,-7.063492063492063,-166.26984126984127
-5.7936507936507935,-37.22222222222222,-319.1269841269841,111.03174603174602,-32.93650793650794,-32.460317460317455,25.476190476190474,-4.2063492063492065,-26.9047619047619,-48.96825396825397,5.7936507936507935,197.06349206349205,7.063492063492063,-325.0,5.317460317460317,173.73015873015873,-15.0,42.93650793650794,-25.158730158730158,5.7936507936507935,51.82539682539682,-1.507936507936508,-7.063492063492063,-166.26984126984127
5.952380952380952,25.0,-107.22222222222221,-220.2380952380952,103.88888888888889,111.34920634920634,34.36507936507936,97.85714285714285,76.58730158730158,-47.857142857142854,22.619047619047617,-216.9047619047619,22.777777777777775,-325.0,24.047619047619047,46.74603174603175,88.96825396825396,-36.11111111111111,-36.42857142857142,61.19047619047619,-154.2063492063492,1.984126984126984,6.904761904761904,-166.26984126984127
5.952380952380952,25.0,-107.22222222222221,-220.2380952380952,103.88888888888889,111.34920634920634,34.36507936507936,97.85714285714285,76.58730158730158,-47.857142857142854,22.619047619047617,-216.9047619047619,22.777777777777775,-325.0,24.047619047619047,46.74603174603175,88.96825396825396,-36.11111111111111,-36.42857142857142,61.19047619047619,-154.2063492063492,1.984126984126984,6.904761904761904,-166.26984126984127
17.698412698412696,62.93650793650793,57.53968253968254,-325.0,186.26984126984127,191.8253968253968,38.01587301587301,158.33333333333331,137.69841269841268,-47.698412698412696,27.063492063492063,-325.0,30.555555555555554,-325.0,27.38095238095238,11.507936507936508,154.04761904761904,25.0,-40.714285714285715,6.26984126984127,-277.06349206349205,2.142857142857143,2.46031746031746,-166.26984126984127
17.698412698412696,62.93650793650793,57.53968253968254,-325.0,186.26984126984127,191.8253968253968,38.01587301587301,158.33333333333331,137.69841269841268,-47.698412698412696,27.063492063492063,-325.0,30.555555555555554,-325.0,27.38095238095238,11.507936507936508,154.04761904761904,25.0,-40.714285714285715,6.26984126984127,-277.06349206349205,2.142857142857143,2.46031746031746,-166.26984126984127
19.285714285714285,46.904761904761905,58.8095238095238,-325.0,190.3968253968254,174.2063492063492,37.53968253968254,136.58730158730157,133.25396825396825,-46.904761904761905,31.666666666666664,-325.0,35.0,-310.7142857142857,31.825396825396822,7.063492063492063,157.53968253968253,143.09523809523807,-41.19047619047619,11.349206349206348,-289.2857142857143,2.46031746031746,2.46031746031746,-166.26984126984127
19.285714285714285,46.904761904761905,58.8095238095238,-325.0,190.3968253968254,174.2063492063492,37.53968253968254,136.58730158730157,133.25396825396825,-46.904761904761905,31.666666666666664,-325.0,35.0,-310.7142857142857,31.825396825396822,7.063492063492063,157.53968253968253,143.09523809523807,-41.19047619047619,11.349206349206348,-289.2857142857143,2.46031746031746,2.46031746031746,-166.26984126984127
-1.0317460317460316,-52.77777777777777,-325.0,21.19047619047619,6.26984126984127,-10.873015873015872,31.349206349206348,-4.682539682539682,-3.4126984126984126,-45.63492063492063,59.92063492063492,89.92063492063491,62.460317460317455,-325.0,56.269841269841265,118.8095238095238,11.031746031746032,130.55555555555554,-4.0476190476190474,-39.92063492063492,-19.92063492063492,-1.984126984126984,-11.666666666666666,-321.8253968253968
-1.0317460317460316,-52.77777777777777,-325.0,21.19047619047619,6.26984126984127,-10.873015873015872,31.349206349206348,-4.682539682539682,-3.4126984126984126,-45.63492063492063,59.92063492063492,89.92063492063491,62.460317460317455,-325.0,56.269841269841265,118.8095238095238,11.031746031746032,130.55555555555554,-4.0476190476190474,-39.92063492063492,-19.92063492063492,-1.984126984126984,-11.666666666666666,-321.8253968253968
11.825396825396824,-13.412698412698411,-134.84126984126982,-151.984126984127,94.52380952380952,71.66666666666666,34.047619047619044,52.3015873015873,57.22222222222222,-45.0,41.666666666666664,-117.53968253968253,44.36507936507936,-284.5238095238095,39.92063492063492,64.68253968253968,87.85714285714285,175.47619047619045,-23.57142857142857,-9.920634920634921,-156.58730158730157,0.5555555555555556,-5.317460317460317,-321.8253968253968
11.825396825396824,-13.412698412698411,-134.84126984126982,-151.984126984127,94.52380952380952,71.66666666666666,34.047619047619044,52.3015873015873,57.22222222222222,-45.0,41.666666666666664,-117.53968253968253,44.36507936507936,-284.5238095238095,39.92063492063492,64.68253968253968,87.85714285714285,175.47619047619045,-23.57142857142857,-9.920634920634921,-156.58730158730157,0.5555555555555556,-5.317460317460317,-321.8253968253968
-5.0,-101.66666666666666,-325.0,98.49206349206348,-38.33333333333333,-96.1111111111111,2.46031746031746,-76.26984126984127,-31.507936507936506,-44.047619047619044,19.6031746031746,163.57142857142856,20.555555555555554,-325.0,18.333333333333332,144.2063492063492,-19.76190476190476,119.44444444444444,58.01587301587301,21.03174603174603,55.79365079365079,-1.507936507936508,-6.26984126984127,-321.8253968253968
-5.0,-101.66666666666666,-325.0,98.49206349206348,-38.33333333333333,-96.1111111111111,2.46031746031746,-76.26984126984127,-31.507936507936506,-44.047619047619044,19.6031746031746,163.57142857142856,20.555555555555554,-325.0,18.333333333333332,144.2063492063492,-19.76190476190476,119.44444444444444,58.01587301587301,21.03174603174603,55.79365079365079,-1.507936507936508,-6.26984126984127,-321.8253968253968
1.349206349206349,-51.666666666666664,-250.3968253968254,-163.25396825396825,33.73015873015873,-6.587301587301587,19.285714285714285,-18.49206349206349,12.3015873015873,-43.095238095238095,7.698412698412698,-175.63492063492063,4.0476190476190474,-302.46031746031747,9.285714285714285,48.96825396825397,45.476190476190474,113.25396825396825,-4.841269841269841,141.66666666666666,-48.17460317460317,1.1904761904761905,10.555555555555555,-321.8253968253968
1.349206349206349,-51.666666666666664,-250.3968253968254,-163.25396825396825,33.73015873015873,-6.587301587301587,19.285714285714285,-18.49206349206349,12.3015873015873,-43.095238095238095,7.698412698412698,-175.63492063492063,4.0476190476190474,-302.46031746031747,9.285714285714285,48.96825396825397,45.476190476190474,113.25396825396825,-4.841269841269841,141.66666666666666,-48.17460317460317,1.1904761904761905,10.555555555555555,-321.8253968253968
-4.841269841269841,-96.42857142857142,-325.0,101.82539682539682,-39.12698412698413,-94.36507936507935,-19.126984126984127,-74.04761904761904,-32.3015873015873,-42.61904761904761,16.11111111111111,163.73015873015873,17.539682539682538,-298.4920634920635,15.634920634920634,137.06349206349205,-20.873015873015873,196.42857142857142,82.3015873015873,16.904761904761905,60.238095238095234,-1.8253968253968254,-5.952380952380952,-321.8253968253968
-4.841269841269841,-96.42857142857142,-325.0,101.82539682539682,-39.12698412698413,-94.36507936507935,-19.126984126984127,-74.04761904761904,-32.3015873015873,-42.61904761904761,16.11111111111111,163.73015873015873,17.539682539682538,-298.4920634920635,15.634920634920634,137.06349206349205,-20.873015873015873,196.42857142857142,82.3015873015873,16.904761904761905,60.238095238095234,-1.8253968253968254,-5.952380952380952,-321.8253968253968
14.047619047619047,12.936507936507935,-102.93650793650794,-244.04761904761904,111.19047619047619,98.65079365079364,25.0,70.07936507936508,65.31746031746032,-41.666666666666664,-6.428571428571428,-256.90476190476187,-6.26984126984127,-156.26984126984127,-5.158730158730158,20.555555555555554,102.30158730158729,208.8095238095238,-23.730158730158728,69.76190476190476,-156.26984126984127,0.873015873015873,5.952380952380952,-166.26984126984127
14.047619047619047,12.936507936507935,-102.93650793650794,-244.04761904761904,111.19047619047619,98.65079365079364,25.0,70.07936507936508,65.31746031746032,-41.666666666666664,-6.428571428571428,-256.90476190476187,-6.26984126984127,-156.26984126984127,-5.158730158730158,20.555555555555554,102.30158730158729,208.8095238095238,-23.730158730158728,69.76190476190476,-156.26984126984127,0.873015873015873,5.952380952380952,-166.26984126984127
-4.523809523809524,-54.52380952380952,-325.0,113.57142857142857,-41.19047619047619,-46.42857142857142,-23.88888888888889,-25.952380952380953,-32.93650793650794,-41.03174603174603,-0.7142857142857142,160.23809523809524,0.23809523809523808,-311.5079365079365,-1.349206349206349,171.984126984127,-23.57142857142857,-17.539682539682538,39.44444444444444,18.015873015873016,65.95238095238095,-1.1904761904761905,-6.111111111111111,-166.26984126984127
-4.523809523809524,-54.52380952380952,-325.0,113.57142857142857,-41.19047619047619,-46.42857142857142,-23.88888888888889,-25.952380952380953,-32.93650793650794,-41.03174603174603,-0.7142857142857142,160.23809523809524,0.23809523809523808,-311.5079365079365,-1.349206349206349,171.984126984127,-23.57142857142857,-17.539682539682538,39.44444444444444,18.015873015873016,65.95238095238095,-1.1904761904761905,-6.111111111111111,-166.26984126984127
23.88888888888889,1.6666666666666665,-136.58730158730157,-60.39682539682539,52.61904761904761,51.666666666666664,-8.809523809523808,47.698412698412696,37.22222222222222,-40.39682539682539,-2.9365079365079363,-53.095238095238095,-1.1904761904761905,-247.06349206349205,-1.8253968253968254,121.66666666666666,51.507936507936506,76.9047619047619,13.095238095238095,41.507936507936506,-67.85714285714285,0.5555555555555556,-0.23809523809523808,-166.26984126984127
23.88888888888889,1.6666666666666665,-136.58730158730157,-60.39682539682539,52.61904761904761,51.666666666666664,-8.809523809523808,47.698412698412696,37.22222222222222,-40.39682539682539,-2.9365079365079363,-53.095238095238095,-1.1904761904761905,-247.06349206349205,-1.8253968253968254,121.66666666666666,51.507936507936506,76.9047619047619,13.095238095238095,41.507936507936506,-67.85714285714285,0.5555555555555556,-0.23809523809523808,-166.26984126984127
57.698412698412696,94.68253968253968,51.98412698412698,-302.1428571428571,185.95238095238093,224.52380952380952,38.01587301587301,177.53968253968253,131.66666666666666,-40.079365079365076,1.984126984126984,-325.0,5.317460317460317,-169.12698412698413,2.46031746031746,44.047619047619044,156.26984126984127,209.12698412698413,-46.269841269841265,-0.873015873015873,-261.984126984127,2.142857142857143,0.5555555555555556,-166.26984126984127
57.698412698412696,94.68253968253968,51.98412698412698,-302.1428571428571,185.95238095238093,224.52380952380952,38.01587301587301,177.53968253968253,131.66666666666666,-40.079365079365076,1.984126984126984,-325.0,5.317460317460317,-169.12698412698413,2.46031746031746,44.047619047619044,156.26984126984127,209.12698412698413,-46.269841269841265,-0.873015873015873,-261.984126984127,2.142857142857143,0.5555555555555556,-166.26984126984127
45.0,65.31746031746032,-91.19047619047619,-217.53968253968253,113.57142857142857,148.17460317460316,24.68253968253968,124.68253968253967,82.14285714285714,-38.80952380952381,-17.22222222222222,-248.17460317460316,-16.746031746031743,-192.3015873015873,-15.95238095238095,68.96825396825396,93.73015873015872,280.23809523809524,-30.396825396825395,57.38095238095238,-159.12698412698413,1.1904761904761905,6.428571428571428,-166.26984126984127
45.0,65.31746031746032,-91.19047619047619,-217.53968253968253,113.57142857142857,148.17460317460316,24.68253968253968,124.68253968253967,82.14285714285714,-38.80952380952381,-17.22222222222222,-248.17460317460316,-16.746031746031743,-192.3015873015873,-15.95238095238095,68.96825396825396,93.73015873015872,280.23809523809524,-30.396825396825395,57.38095238095238,-159.12698412698413,1.1904761904761905,6.428571428571428,-166.26984126984127
68.01587301587301,108.17460317460316,50.87301587301587,-293.57142857142856,180.23809523809524,225.47619047619045,38.80952380952381,184.68253968253967,128.96825396825395,-38.65079365079365,-17.539682539682538,-316.1111111111111,-13.253968253968253,-141.34920634920636,-16.746031746031743,53.095238095238095,145.95238095238093,325.0,-47.53968253968254,-2.9365079365079363,-258.3333333333333,1.8253968253968254,1.507936507936508,-321.8253968253968
68.01587301587301,108.17460317460316,50.87301587301587,-293.57142857142856,180.23809523809524,225.47619047619045,38.80952380952381,184.68253968253967,128.96825396825395,-38.65079365079365,-17.539682539682538,-316.1111111111111,-13.253968253968253,-141.34920634920636,-16.746031746031743,53.095238095238095,145.95238095238093,325.0,-47.53968253968254,-2.9365079365079363,-258.3333333333333,1.8253968253968254,1.507936507936508,-321.8253968253968
54.52380952380952,83.57142857142857,39.76190476190476,-309.2857142857143,168.4920634920635,196.42857142857142,38.65079365079365,155.0,118.17460317460316,-37.857142857142854,-5.476190476190476,-312.1428571428571,-1.1904761904761905,-148.33333333333331,-5.317460317460317,27.857142857142854,134.36507936507937,268.17460317460313,-48.49206349206349,-2.619047619047619,-264.2063492063492,1.8253968253968254,1.0317460317460316,-321.8253968253968
54.52380952380952,83.57142857142857,39.76190476190476,-309.2857142857143,168.4920634920635,196.42857142857142,38.65079365079365,155.0,118.17460317460316,-37.857142857142854,-5.476190476190476,-312.1428571428571,-1.1904761904761905,-148.33333333333331,-5.317460317460317,27.857142857142854,134.36507936507937,268.17460317460313,-48.49206349206349,-2.619047619047619,-264.2063492063492,1.8253968253968254,1.0317460317460316,-321.8253968253968
0.5555555555555556,-39.92063492063492,-325.0,46.269841269841265,-17.857142857142858,-18.80952380952381,-52.77777777777777,-8.174603174603174,-16.904761904761905,-37.22222222222222,-1.349206349206349,126.1111111111111,0.3968253968253968,-300.39682539682536,-4.0476190476190474,119.44444444444444,-10.555555555555555,232.14285714285714,119.6031746031746,-52.14285714285714,4.0476190476190474,-1.984126984126984,-12.3015873015873,-321.8253968253968
0.5555555555555556,-39.92063492063492,-325.0,46.269841269841265,-17.857142857142858,-18.80952380952381,-52.77777777777777,-8.174603174603174,-16.904761904761905,-37.22222222222222,-1.349206349206349,126.1111111111111,0.3968253968253968,-300.39682539682536,-4.0476190476190474,119.44444444444444,-10.555555555555555,232.14285714285714,119.6031746031746,-52.14285714285714,4.0476190476190474,-1.984126984126984,-12.3015873015873,-321.8253968253968
3.4126984126984126,-15.793650793650793,-248.8095238095238,-193.57142857142856,44.84126984126984,24.047619047619047,-2.142857142857143,13.095238095238095,26.746031746031743,-36.11111111111111,-17.698412698412696,-192.61904761904762,-20.555555555555554,-227.53968253968253,-16.746031746031743,26.587301587301585,35.0,311.19047619047615,18.333333333333332,123.25396825396825,-78.96825396825396,0.07936507936507936,9.920634920634921,-321.8253968253968
3.4126984126984126,-15.793650793650793,-248.8095238095238,-193.57142857142856,44.84126984126984,24.047619047619047,-2.142857142857143,13.095238095238095,26.746031746031743,-36.11111111111111,-17.698412698412696,-192.61904761904762,-20.555555555555554,-227.53968253968253,-16.746031746031743,26.587301587301585,35.0,311.19047619047615,18.333333333333332,123.25396825396825,-78.96825396825396,0.07936507936507936,9.920634920634921,-321.8253968253968
-2.619047619047619,-34.2063492063492,-325.0,60.39682539682539,-20.07936507936508,-15.793650793650793,-62.3015873015873,-5.7936507936507935,-19.126984126984127,-35.63492063492063,-9.444444444444445,140.07936507936506,-7.857142857142857,-262.46031746031747,-12.142857142857142,116.74603174603173,-12.3015873015873,231.98412698412696,131.984126984127,-54.2063492063492,18.174603174603174,-1.8253968253968254,-12.777777777777777,-321.8253968253968
-2.619047619047619,-34.2063492063492,-325.0,60.39682539682539,-20.07936507936508,-15.793650793650793,-62.3015873015873,-5.7936507936507935,-19.126984126984127,-35.63492063492063,-9.444444444444445,140.07936507936506,-7.857142857142857,-262.46031746031747,-12.142857142857142,116.74603174603173,-12.3015873015873,231.98412698412696,131.984126984127,-54.2063492063492,18.174603174603174,-1.8253968253968254,-12.777777777777777,-321.8253968253968
9.285714285714285,45.317460317460316,-122.6190476190476,-235.47619047619045,101.19047619047619,131.66666666666666,18.65079365079365,104.36507936507935,67.38095238095238,-34.682539682539684,-12.142857142857142,-236.74603174603175,-11.19047619047619,-64.52380952380952,-11.984126984126984,31.349206349206348,76.1111111111111,240.7142857142857,-15.476190476190474,48.650793650793645,-151.5079365079365,0.7142857142857142,5.0,-166.26984126984127
9.285714285714285,45.317460317460316,-122.6190476190476,-235.47619047619045,101.19047619047619,131.66666666666666,18.65079365079365,104.36507936507935,67.38095238095238,-34.682539682539684,-12.142857142857142,-236.74603174603175,-11.19047619047619,-64.52380952380952,-11.984126984126984,31.349206349206348,76.1111111111111,240.7142857142857,-15.476190476190474,48.650793650793645,-151.5079365079365,0.7142857142857142,5.0,-166.26984126984127
-9.285714285714285,-16.11111111111111,-325.0,134.52380952380952,-55.476190476190474,-28.174603174603174,-130.23809523809524,-4.523809523809524,-41.03174603174603,-32.460317460317455,-50.87301587301587,197.69841269841268,-51.19047619047619,-250.2380952380952,-50.87301587301587,189.44444444444443,-37.06349206349206,273.73015873015873,131.8253968253968,3.571428571428571,81.66666666666666,-1.507936507936508,-5.634920634920634,-166.26984126984127
-9.285714285714285,-16.11111111111111,-325.0,134.52380952380952,-55.476190476190474,-28.174603174603174,-130.23809523809524,-4.523809523809524,-41.03174603174603,-32.460317460317455,-50.87301587301587,197.69841269841268,-51.19047619047619,-250.2380952380952,-50.87301587301587,189.44444444444443,-37.06349206349206,273.73015873015873,131.8253968253968,3.571428571428571,81.66666666666666,-1.507936507936508,-5.634920634920634,-166.26984126984127
-12.777777777777777,-42.460317460317455,-325.0,190.07936507936506,-88.33333333333333,-94.2063492063492,-175.79365079365078,-54.52380952380952,-61.82539682539682,-31.507936507936506,-56.74603174603174,243.4126984126984,-58.33333333333333,-301.8253968253968,-54.2063492063492,207.2222222222222,-59.285714285714285,228.8095238095238,165.95238095238093,62.77777777777777,136.42857142857142,-0.23809523809523808,0.7142857142857142,-166.26984126984127
-12.777777777777777,-42.460317460317455,-325.0,190.07936507936506,-88.33333333333333,-94.2063492063492,-175.79365079365078,-54.52380952380952,-61.82539682539682,-31.507936507936506,-56.74603174603174,243.4126984126984,-58.33333333333333,-301.8253968253968,-54.2063492063492,207.2222222222222,-59.285714285714285,228.8095238095238,165.95238095238093,62.77777777777777,136.42857142857142,-0.23809523809523808,0.7142857142857142,-166.26984126984127
-1.507936507936508,44.84126984126984,-325.0,99.12698412698413,-26.11111111111111,53.57142857142857,-89.44444444444444,65.15873015873015,-22.777777777777775,-29.285714285714285,-55.317460317460316,170.55555555555554,-54.2063492063492,-151.5079365079365,-57.38095238095238,176.26984126984127,-16.26984126984127,23.095238095238095,110.87301587301587,-58.33333333333333,32.3015873015873,-1.6666666666666665,-11.825396825396824,-166.26984126984127
-1.507936507936508,44.84126984126984,-325.0,99.12698412698413,-26.11111111111111,53.57142857142857,-89.44444444444444,65.15873015873015,-22.777777777777775,-29.285714285714285,-55.317460317460316,170.55555555555554,-54.2063492063492,-151.5079365079365,-57.38095238095238,176.26984126984127,-16.26984126984127,23.095238095238095,110.87301587301587,-58.33333333333333,32.3015873015873,-1.6666666666666665,-11.825396825396824,-166.26984126984127
-1.507936507936508,44.84126984126984,-325.0,99.12698412698413,-26.11111111111111,53.57142857142857,-89.44444444444444,65.15873015873015,-22.777777777777775,-29.285714285714285,-55.317460317460316,170.55555555555554,-54.2063492063492,-151.5079365079365,-57.38095238095238,176.26984126984127,-16.26984126984127,23.095238095238095,110.87301587301587,-58.33333333333333,32.3015873015873,-1.6666666666666665,-11.825396825396824,-166.26984126984127
-1.507936507936508,44.84126984126984,-325.0,99.12698412698413,-26.11111111111111,53.57142857142857,-89.44444444444444,65.15873015873015,-22.777777777777775,-29.285714285714285,-55.317460317460316,170.55555555555554,-54.2063492063492,-151.5079365079365,-57.38095238095238,176.26984126984127,-16.26984126984127,23.095238095238095,110.87301587301587,-58.33333333333333,32.3015873015873,-1.6666666666666665,-11.825396825396824,-166.26984126984127
-6.904761904761904,-4.0476190476190474,-325.0,147.06349206349205,-60.238095238095234,-15.0,-152.93650793650792,9.126984126984127,-43.73015873015873,-11.825396825396824,-54.047619047619044,183.4126984126984,-54.841269841269835,-231.5079365079365,-53.73015873015873,184.2063492063492,-39.76190476190476,196.26984126984127,181.34920634920633,9.920634920634921,93.4126984126984,-1.6666666666666665,-5.158730158730158,-321.8253968253968
-6.904761904761904,-4.0476190476190474,-325.0,147.06349206349205,-60.238095238095234,-15.0,-152.93650793650792,9.126984126984127,-43.73015873015873,-11.825396825396824,-54.047619047619044,183.4126984126984,-54.841269841269835,-231.5079365079365,-53.73015873015873,184.2063492063492,-39.76190476190476,196.26984126984127,181.34920634920633,9.920634920634921,93.4126984126984,-1.6666666666666665,-5.158730158730158,-321.8253968253968
-15.476190476190474,-40.079365079365076,-325.0,191.19047619047618,-90.71428571428571,-83.4126984126984,-197.06349206349205,-44.68253968253968,-63.25396825396825,-2.142857142857143,-60.55555555555555,218.8095238095238,-62.77777777777777,-245.63492063492063,-58.01587301587301,196.58730158730157,-61.98412698412698,157.85714285714286,226.9047619047619,77.53968253968253,141.34920634920636,-0.5555555555555556,1.6666666666666665,-321.8253968253968
-15.476190476190474,-40.079365079365076,-325.0,191.19047619047618,-90.71428571428571,-83.4126984126984,-197.06349206349205,-44.68253968253968,-63.25396825396825,-2.142857142857143,-60.55555555555555,218.8095238095238,-62.77777777777777,-245.63492063492063,-58.01587301587301,196.58730158730157,-61.98412698412698,157.85714285714286,226.9047619047619,77.53968253968253,141.34920634920636,-0.5555555555555556,1.6666666666666665,-321.8253968253968
-7.3809523809523805,2.3015873015873014,-325.0,149.6031746031746,-62.14285714285714,-19.76190476190476,-186.9047619047619,2.142857142857143,-45.317460317460316,-5.476190476190476,-45.63492063492063,193.25396825396825,-45.79365079365079,-155.79365079365078,-44.68253968253968,174.84126984126982,-41.82539682539682,-48.49206349206349,195.79365079365078,3.73015873015873,95.79365079365078,-1.6666666666666665,-4.841269841269841,-321.8253968253968
-7.3809523809523805,2.3015873015873014,-325.0,149.6031746031746,-62.14285714285714,-19.76190476190476,-186.9047619047619,2.142857142857143,-45.317460317460316,-5.476190476190476,-45.63492063492063,193.25396825396825,-45.79365079365079,-155.79365079365078,-44.68253968253968,174.84126984126982,-41.82539682539682,-48.49206349206349,195.79365079365078,3.73015873015873,95.79365079365078,-1.6666666666666665,-4.841269841269841,-321.8253968253968
-16.587301587301585,-34.2063492063492,-325.0,188.8095238095238,-91.66666666666666,-85.79365079365078,-229.60317460317458,-49.44444444444444,-64.04761904761905,5.7936507936507935,-32.460317460317455,223.7301587301587,-33.57142857142857,-192.93650793650792,-28.96825396825397,186.74603174603175,-62.93650793650793,-81.5079365079365,238.65079365079364,66.74603174603175,142.46031746031744,-0.5555555555555556,1.6666666666666665,-321.8253968253968
-16.587301587301585,-34.2063492063492,-325.0,188.8095238095238,-91.66666666666666,-85.79365079365078,-229.60317460317458,-49.44444444444444,-64.04761904761905,5.7936507936507935,-32.460317460317455,223.7301587301587,-33.57142857142857,-192.93650793650792,-28.96825396825397,186.74603174603175,-62.93650793650793,-81.5079365079365,238.65079365079364,66.74603174603175,142.46031746031744,-0.5555555555555556,1.6666666666666665,-321.8253968253968
-8.809523809523808,3.888888888888889,-325.0,150.23809523809524,-63.73015873015873,-21.03174603174603,-215.63492063492063,1.984126984126984,-46.269841269841265,12.777777777777777,-48.49206349206349,197.38095238095238,-49.44444444444444,-163.57142857142856,-47.698412698412696,179.28571428571428,-43.57142857142857,91.66666666666666,219.60317460317458,8.174603174603174,96.74603174603175,-1.507936507936508,-5.317460317460317,-321.8253968253968
-8.809523809523808,3.888888888888889,-325.0,150.23809523809524,-63.73015873015873,-21.03174603174603,-215.63492063492063,1.984126984126984,-46.269841269841265,12.777777777777777,-48.49206349206349,197.38095238095238,-49.44444444444444,-163.57142857142856,-47.698412698412696,179.28571428571428,-43.57142857142857,91.66666666666666,219.60317460317458,8.174603174603174,96.74603174603175,-1.507936507936508,-5.317460317460317,-321.8253968253968
39.285714285714285,82.46031746031746,-207.06349206349205,-178.17460317460316,60.079365079365076,120.23809523809523,-21.03174603174603,101.82539682539682,41.666666666666664,-19.444444444444443,-24.84126984126984,-215.95238095238093,-26.9047619047619,10.079365079365079,-24.523809523809522,58.33333333333333,53.095238095238095,79.44444444444444,19.444444444444443,82.3015873015873,-94.04761904761904,-0.23809523809523808,10.079365079365079,-166.26984126984127
39.285714285714285,82.46031746031746,-207.06349206349205,-178.17460317460316,60.079365079365076,120.23809523809523,-21.03174603174603,101.82539682539682,41.666666666666664,-19.444444444444443,-24.84126984126984,-215.95238095238093,-26.9047619047619,10.079365079365079,-24.523809523809522,58.33333333333333,53.095238095238095,79.44444444444444,19.444444444444443,82.3015873015873,-94.04761904761904,-0.23809523809523808,10.079365079365079,-166.26984126984127
-9.444444444444445,0.07936507936507936,-325.0,150.7142857142857,-64.84126984126983,-33.25396825396825,-240.87301587301587,-2.7777777777777777,-46.42857142857142,31.349206349206348,-44.047619047619044,208.33333333333331,-45.317460317460316,-96.42857142857142,-43.57142857142857,171.984126984127,-44.68253968253968,40.079365079365076,230.07936507936506,13.888888888888888,99.76190476190476,-1.8253968253968254,-4.523809523809524,-166.26984126984127
