Fp1[1],Fp2[2],F3[3],F4[4],C3[5],C4[6],P3[7],P4[8],O1[9],O2[10],F7[11],F8[12],T3[13],T4[14],T5[15],T6[16],Fz[17],Pz[18],Cz[19],Pg1[20],Pg2[21],EOGR[22],EOOGL[23],EMG[24]
50.39682539682539,199.9206349206349,-325.0,325.0,-325.0,56.42857142857142,-325.0,67.06349206349206,-325.0,150.07936507936506,-325.0,110.23809523809523,-325.0,325.0,-325.0,-307.53968253968253,-325.0,88.17460317460316,-26.9047619047619,-15.158730158730158,81.82539682539682,-1.0317460317460316,-5.0,-166.26984126984127
50.39682539682539,199.9206349206349,-325.0,325.0,-325.0,56.42857142857142,-325.0,67.06349206349206,-325.0,150.07936507936506,-325.0,110.23809523809523,-325.0,325.0,-325.0,-307.53968253968253,-325.0,88.17460317460316,-26.9047619047619,-15.158730158730158,81.82539682539682,-1.0317460317460316,-5.0,-166.26984126984127
49.285714285714285,196.11111111111111,-325.0,324.36507936507934,-325.0,55.0,-325.0,65.79365079365078,-325.0,144.52380952380952,-325.0,111.66666666666666,-325.0,325.0,-325.0,-302.1428571428571,-325.0,86.58730158730158,-20.238095238095237,-15.0,101.66666666666666,0.873015873015873,2.3015873015873014,-166.26984126984127
49.285714285714285,196.11111111111111,-325.0,324.36507936507934,-325.0,55.0,-325.0,65.79365079365078,-325.0,144.52380952380952,-325.0,111.66666666666666,-325.0,325.0,-325.0,-302.1428571428571,-325.0,86.58730158730158,-20.238095238095237,-15.0,101.66666666666666,0.873015873015873,2.3015873015873014,-166.26984126984127
48.80952380952381,193.25396825396825,-325.0,325.0,-325.0,54.36507936507936,-325.0,64.84126984126983,-325.0,145.47619047619048,-325.0,115.79365079365078,-325.0,325.0,-325.0,-297.6984126984127,-325.0,85.47619047619047,-10.396825396825395,-14.682539682539682,115.79365079365078,0.873015873015873,-10.238095238095237,-166.26984126984127
48.80952380952381,193.25396825396825,-325.0,325.0,-325.0,54.36507936507936,-325.0,64.84126984126983,-325.0,145.47619047619048,-325.0,115.79365079365078,-325.0,325.0,-325.0,-297.6984126984127,-325.0,85.47619047619047,-10.396825396825395,-14.682539682539682,115.79365079365078,0.873015873015873,-10.238095238095237,-166.26984126984127
47.53968253968254,188.65079365079364,-325.0,322.3015873015873,-325.0,52.93650793650794,-325.0,63.095238095238095,-325.0,142.77777777777777,-325.0,120.23809523809523,-325.0,325.0,-325.0,-291.3492063492063,-325.0,83.4126984126984,0.07936507936507936,-14.206349206349206,134.2063492063492,-0.07936507936507936,1.6666666666666665,-166.26984126984127
47.53968253968254,188.65079365079364,-325.0,322.3015873015873,-325.0,52.93650793650794,-325.0,63.095238095238095,-325.0,142.77777777777777,-325.0,120.23809523809523,-325.0,325.0,-325.0,-291.3492063492063,-325.0,83.4126984126984,0.07936507936507936,-14.206349206349206,134.2063492063492,-0.07936507936507936,1.6666666666666665,-166.26984126984127
46.269841269841265,185.15873015873015,-325.0,317.85714285714283,-325.0,51.82539682539682,-325.0,61.98412698412698,-325.0,143.4126984126984,-325.0,124.2063492063492,-325.0,325.0,-325.0,-285.95238095238096,-325.0,81.98412698412697,10.079365079365079,-13.888888888888888,146.11111111111111,-0.3968253968253968,-3.253968253968254,-166.26984126984127
46.269841269841265,185.15873015873015,-325.0,317.85714285714283,-325.0,51.82539682539682,-325.0,61.98412698412698,-325.0,143.4126984126984,-325.0,124.2063492063492,-325.0,325.0,-325.0,-285.95238095238096,-325.0,81.98412698412697,10.079365079365079,-13.888888888888888,146.11111111111111,-0.3968253968253968,-3.253968253968254,-166.26984126984127
45.317460317460316,181.66666666666666,-325.0,315.0,-325.0,50.87301587301587,-325.0,60.71428571428571,-325.0,141.984126984127,-325.0,127.85714285714285,-325.0,325.0,-325.0,-280.87301587301585,-325.0,80.55555555555556,18.49206349206349,-13.888888888888888,158.8095238095238,0.3968253968253968,2.142857142857143,-321.8253968253968
45.317460317460316,181.66666666666666,-325.0,315.0,-325.0,50.87301587301587,-325.0,60.71428571428571,-325.0,141.984126984127,-325.0,127.85714285714285,-325.0,325.0,-325.0,-280.87301587301585,-325.0,80.55555555555556,18.49206349206349,-13.888888888888888,158.8095238095238,0.3968253968253968,2.142857142857143,-321.8253968253968
43.73015873015873,176.42857142857142,-325.0,310.39682539682536,-325.0,49.285714285714285,-325.0,58.8095238095238,-325.0,144.2063492063492,-325.0,135.79365079365078,-325.0,325.0,-325.0,-273.57142857142856,-325.0,78.33333333333333,33.41269841269841,-13.412698412698411,96.9047619047619,0.7142857142857142,-7.063492063492063,-321.8253968253968
43.73015873015873,176.42857142857142,-325.0,310.39682539682536,-325.0,49.285714285714285,-325.0,58.8095238095238,-325.0,144.2063492063492,-325.0,135.79365079365078,-325.0,325.0,-325.0,-273.57142857142856,-325.0,78.33333333333333,33.41269841269841,-13.412698412698411,96.9047619047619,0.7142857142857142,-7.063492063492063,-321.8253968253968
42.3015873015873,171.5079365079365,-325.0,304.68253968253964,-325.0,47.857142857142854,-325.0,57.22222222222222,-325.0,144.36507936507937,-325.0,142.46031746031744,-325.0,325.0,-325.0,-266.4285714285714,-325.0,76.42857142857143,45.63492063492063,-13.095238095238095,-90.87301587301587,-0.7142857142857142,2.46031746031746,-321.8253968253968
42.3015873015873,171.5079365079365,-325.0,304.68253968253964,-325.0,47.857142857142854,-325.0,57.22222222222222,-325.0,144.36507936507937,-325.0,142.46031746031744,-325.0,325.0,-325.0,-266.4285714285714,-325.0,76.42857142857143,45.63492063492063,-13.095238095238095,-90.87301587301587,-0.7142857142857142,2.46031746031746,-321.8253968253968
40.238095238095234,163.57142857142856,-325.0,284.36507936507934,-325.0,45.476190476190474,-325.0,54.2063492063492,-325.0,136.11111111111111,-325.0,142.61904761904762,-325.0,325.0,-325.0,-254.84126984126982,86.58730158730158,72.93650793650794,56.11111111111111,-12.46031746031746,-210.87301587301587,-0.873015873015873,5.317460317460317,-321.8253968253968
40.238095238095234,163.57142857142856,-325.0,284.36507936507934,-325.0,45.476190476190474,-325.0,54.2063492063492,-325.0,136.11111111111111,-325.0,142.61904761904762,-325.0,325.0,-325.0,-254.84126984126982,86.58730158730158,72.93650793650794,56.11111111111111,-12.46031746031746,-210.87301587301587,-0.873015873015873,5.317460317460317,-321.8253968253968
39.6031746031746,160.3968253968254,-325.0,286.58730158730157,-325.0,44.68253968253968,-325.0,53.41269841269841,-325.0,143.88888888888889,-325.0,152.46031746031744,-325.0,325.0,-325.0,-250.3968253968254,318.3333333333333,71.98412698412697,70.07936507936508,-12.46031746031746,-206.74603174603175,1.1904761904761905,-7.3809523809523805,-321.8253968253968
39.6031746031746,160.3968253968254,-325.0,286.58730158730157,-325.0,44.68253968253968,-325.0,53.41269841269841,-325.0,143.88888888888889,-325.0,152.46031746031744,-325.0,325.0,-325.0,-250.3968253968254,318.3333333333333,71.98412698412697,70.07936507936508,-12.46031746031746,-206.74603174603175,1.1904761904761905,-7.3809523809523805,-321.8253968253968
38.65079365079365,157.38095238095238,-325.0,271.031746031746,-325.0,43.73015873015873,-325.0,52.3015873015873,-325.0,132.3015873015873,-325.0,144.52380952380952,-325.0,325.0,-325.0,-245.95238095238093,296.58730158730157,70.55555555555556,65.47619047619047,-12.142857142857142,-202.46031746031744,-0.873015873015873,5.317460317460317,-166.26984126984127
38.65079365079365,157.38095238095238,-325.0,271.031746031746,-325.0,43.73015873015873,-325.0,52.3015873015873,-325.0,132.3015873015873,-325.0,144.52380952380952,-325.0,325.0,-325.0,-245.95238095238093,296.58730158730157,70.55555555555556,65.47619047619047,-12.142857142857142,-202.46031746031744,-0.873015873015873,5.317460317460317,-166.26984126984127
38.17460317460317,155.0,-325.0,265.95238095238096,-325.0,43.095238095238095,-325.0,51.507936507936506,-325.0,131.5079365079365,-325.0,145.47619047619048,-325.0,325.0,-325.0,-242.77777777777777,291.66666666666663,69.6031746031746,69.28571428571428,-12.142857142857142,-199.60317460317458,-1.0317460317460316,-0.873015873015873,-166.26984126984127
38.17460317460317,155.0,-325.0,265.95238095238096,-325.0,43.095238095238095,-325.0,51.507936507936506,-325.0,131.5079365079365,-325.0,145.47619047619048,-325.0,325.0,-325.0,-242.77777777777777,291.66666666666663,69.6031746031746,69.28571428571428,-12.142857142857142,-199.60317460317458,-1.0317460317460316,-0.873015873015873,-166.26984126984127
29.76190476190476,123.4126984126984,-306.90476190476187,197.69841269841268,-325.0,34.047619047619044,-319.6031746031746,40.714285714285715,-325.0,120.55555555555554,-270.7142857142857,145.47619047619048,-298.015873015873,269.6031746031746,-263.4126984126984,-196.26984126984127,232.46031746031744,-325.0,111.03174603174602,-9.761904761904761,-157.2222222222222,2.142857142857143,-4.523809523809524,-166.26984126984127
29.76190476190476,123.4126984126984,-306.90476190476187,197.69841269841268,-325.0,34.047619047619044,-319.6031746031746,40.714285714285715,-325.0,120.55555555555554,-270.7142857142857,145.47619047619048,-298.015873015873,269.6031746031746,-263.4126984126984,-196.26984126984127,232.46031746031744,-325.0,111.03174603174602,-9.761904761904761,-157.2222222222222,2.142857142857143,-4.523809523809524,-166.26984126984127
28.174603174603174,117.85714285714285,-270.23809523809524,68.01587301587301,-291.031746031746,32.3015873015873,-280.39682539682536,38.80952380952381,-287.38095238095235,121.82539682539682,-234.04761904761904,144.2063492063492,-261.031746031746,257.85714285714283,-228.17460317460316,-187.85714285714283,221.98412698412696,-325.0,119.12698412698413,-9.603174603174603,-149.9206349206349,0.23809523809523808,-0.07936507936507936,-166.26984126984127
28.174603174603174,117.85714285714285,-270.23809523809524,68.01587301587301,-291.031746031746,32.3015873015873,-280.39682539682536,38.80952380952381,-287.38095238095235,121.82539682539682,-234.04761904761904,144.2063492063492,-261.031746031746,257.85714285714283,-228.17460317460316,-187.85714285714283,221.98412698412696,-325.0,119.12698412698413,-9.603174603174603,-149.9206349206349,0.23809523809523808,-0.07936507936507936,-166.26984126984127
27.857142857142854,116.74603174603173,-222.77777777777777,-61.03174603174603,-256.90476190476187,31.98412698412698,-235.63492063492063,38.33333333333333,-249.60317460317458,114.2063492063492,-185.3174603174603,134.84126984126982,-210.55555555555554,255.63492063492063,-179.44444444444443,-186.11111111111111,219.9206349206349,-325.0,113.4126984126984,-9.603174603174603,-148.17460317460316,0.5555555555555556,4.365079365079365,-166.26984126984127
27.857142857142854,116.74603174603173,-222.77777777777777,-61.03174603174603,-256.90476190476187,31.98412698412698,-235.63492063492063,38.33333333333333,-249.60317460317458,114.2063492063492,-185.3174603174603,134.84126984126982,-210.55555555555554,255.63492063492063,-179.44444444444443,-186.11111111111111,219.9206349206349,-325.0,113.4126984126984,-9.603174603174603,-148.17460317460316,0.5555555555555556,4.365079365079365,-166.26984126984127
27.857142857142854,116.74603174603173,-222.77777777777777,-61.03174603174603,-256.90476190476187,31.98412698412698,-235.63492063492063,38.33333333333333,-249.60317460317458,114.2063492063492,-185.3174603174603,134.84126984126982,-210.55555555555554,255.63492063492063,-179.44444444444443,-186.11111111111111,219.9206349206349,-325.0,113.4126984126984,-9.603174603174603,-148.17460317460316,0.5555555555555556,4.365079365079365,-321.8253968253968
27.857142857142854,116.74603174603173,-222.77777777777777,-61.03174603174603,-256.90476190476187,31.98412698412698,-235.63492063492063,38.33333333333333,-249.60317460317458,114.2063492063492,-185.3174603174603,134.84126984126982,-210.55555555555554,255.63492063492063,-179.44444444444443,-186.11111111111111,219.9206349206349,-325.0,113.4126984126984,-9.603174603174603,-148.17460317460316,0.5555555555555556,4.365079365079365,-321.8253968253968
27.857142857142854,116.74603174603173,-222.77777777777777,-61.03174603174603,-256.90476190476187,31.98412698412698,-235.63492063492063,38.33333333333333,-249.60317460317458,114.2063492063492,-185.3174603174603,134.84126984126982,-210.55555555555554,255.63492063492063,-179.44444444444443,-186.11111111111111,219.9206349206349,-325.0,113.4126984126984,-9.603174603174603,-148.17460317460316,0.5555555555555556,4.365079365079365,-321.8253968253968
27.857142857142854,116.74603174603173,-222.77777777777777,-61.03174603174603,-256.90476190476187,31.98412698412698,-235.63492063492063,38.33333333333333,-249.60317460317458,114.2063492063492,-185.3174603174603,134.84126984126982,-210.55555555555554,255.63492063492063,-179.44444444444443,-186.11111111111111,219.9206349206349,-325.0,113.4126984126984,-9.603174603174603,-148.17460317460316,0.5555555555555556,4.365079365079365,-321.8253968253968
25.476190476190474,108.33333333333333,-187.06349206349205,-325.0,-219.28571428571428,29.444444444444443,-201.5079365079365,35.476190476190474,-213.25396825396825,113.73015873015872,-150.3968253968254,130.07936507936506,-178.17460317460316,237.85714285714283,-145.15873015873015,-173.4126984126984,204.04761904761904,-325.0,121.03174603174602,-8.809523809523808,-137.06349206349205,-0.7142857142857142,3.73015873015873,-321.8253968253968
25.476190476190474,108.33333333333333,-187.06349206349205,-325.0,-219.28571428571428,29.444444444444443,-201.5079365079365,35.476190476190474,-213.25396825396825,113.73015873015872,-150.3968253968254,130.07936507936506,-178.17460317460316,237.85714285714283,-145.15873015873015,-173.4126984126984,204.04761904761904,-325.0,121.03174603174602,-8.809523809523808,-137.06349206349205,-0.7142857142857142,3.73015873015873,-321.8253968253968
18.015873015873016,77.6984126984127,-75.15873015873015,-242.46031746031744,-109.44444444444444,21.03174603174603,-90.39682539682539,25.317460317460316,-103.88888888888889,93.09523809523809,-47.38095238095238,79.12698412698413,-68.80952380952381,111.66666666666666,-42.61904761904761,-60.079365079365076,146.42857142857142,-325.0,108.49206349206348,-6.904761904761904,-97.6984126984127,-1.507936507936508,3.73015873015873,-321.8253968253968
18.015873015873016,77.6984126984127,-75.15873015873015,-242.46031746031744,-109.44444444444444,21.03174603174603,-90.39682539682539,25.317460317460316,-103.88888888888889,93.09523809523809,-47.38095238095238,79.12698412698413,-68.80952380952381,111.66666666666666,-42.61904761904761,-60.079365079365076,146.42857142857142,-325.0,108.49206349206348,-6.904761904761904,-97.6984126984127,-1.507936507936508,3.73015873015873,-321.8253968253968
10.396825396825395,46.11111111111111,39.6031746031746,-157.2222222222222,3.888888888888889,12.777777777777777,24.206349206349206,15.0,9.761904761904761,73.88888888888889,59.6031746031746,30.555555555555554,43.888888888888886,-157.06349206349205,65.15873015873015,58.49206349206349,87.06349206349206,-325.0,96.26984126984127,-5.0,-57.06349206349206,2.46031746031746,-4.0476190476190474,-321.8253968253968
10.396825396825395,46.11111111111111,39.6031746031746,-157.2222222222222,3.888888888888889,12.777777777777777,24.206349206349206,15.0,9.761904761904761,73.88888888888889,59.6031746031746,30.555555555555554,43.888888888888886,-157.06349206349205,65.15873015873015,58.49206349206349,87.06349206349206,-325.0,96.26984126984127,-5.0,-57.06349206349206,2.46031746031746,-4.0476190476190474,-321.8253968253968
10.396825396825395,46.11111111111111,39.6031746031746,-157.2222222222222,3.888888888888889,12.777777777777777,24.206349206349206,15.0,9.761904761904761,73.88888888888889,59.6031746031746,30.555555555555554,43.888888888888886,-157.06349206349205,65.15873015873015,58.49206349206349,87.06349206349206,-325.0,96.26984126984127,-5.0,-57.06349206349206,2.46031746031746,-4.0476190476190474,-166.26984126984127
10.396825396825395,46.11111111111111,39.6031746031746,-157.2222222222222,3.888888888888889,12.777777777777777,24.206349206349206,15.0,9.761904761904761,73.88888888888889,59.6031746031746,30.555555555555554,43.888888888888886,-157.06349206349205,65.15873015873015,58.49206349206349,87.06349206349206,-325.0,96.26984126984127,-5.0,-57.06349206349206,2.46031746031746,-4.0476190476190474,-166.26984126984127
10.396825396825395,46.11111111111111,39.6031746031746,-157.2222222222222,3.888888888888889,12.777777777777777,24.206349206349206,15.0,9.761904761904761,73.88888888888889,59.6031746031746,30.555555555555554,43.888888888888886,-157.06349206349205,65.15873015873015,58.49206349206349,87.06349206349206,-325.0,96.26984126984127,-5.0,-57.06349206349206,2.46031746031746,-4.0476190476190474,-166.26984126984127
10.396825396825395,46.11111111111111,39.6031746031746,-157.2222222222222,3.888888888888889,12.777777777777777,24.206349206349206,15.0,9.761904761904761,73.88888888888889,59.6031746031746,30.555555555555554,43.888888888888886,-157.06349206349205,65.15873015873015,58.49206349206349,87.06349206349206,-325.0,96.26984126984127,-5.0,-57.06349206349206,2.46031746031746,-4.0476190476190474,-166.26984126984127
9.126984126984127,-139.44444444444443,87.38095238095238,-140.55555555555554,54.68253968253968,11.349206349206348,72.46031746031746,13.412698412698411,59.76190476190476,73.09523809523809,104.04761904761904,23.095238095238095,90.87301587301587,-241.03174603174602,108.80952380952381,191.66666666666666,77.53968253968253,-323.57142857142856,90.87301587301587,-4.682539682539682,-50.71428571428571,-1.1904761904761905,0.5555555555555556,-166.26984126984127
9.126984126984127,-139.44444444444443,87.38095238095238,-140.55555555555554,54.68253968253968,11.349206349206348,72.46031746031746,13.412698412698411,59.76190476190476,73.09523809523809,104.04761904761904,23.095238095238095,90.87301587301587,-241.03174603174602,108.80952380952381,191.66666666666666,77.53968253968253,-323.57142857142856,90.87301587301587,-4.682539682539682,-50.71428571428571,-1.1904761904761905,0.5555555555555556,-166.26984126984127
8.333333333333332,-325.0,89.44444444444444,-122.46031746031746,58.17460317460317,9.761904761904761,72.77777777777777,11.507936507936508,61.19047619047619,74.68253968253968,101.5079365079365,19.92063492063492,89.44444444444444,-325.0,105.79365079365078,325.0,67.53968253968253,-319.6031746031746,87.53968253968253,-4.2063492063492065,-43.888888888888886,-1.507936507936508,7.857142857142857,-166.26984126984127
8.333333333333332,-325.0,89.44444444444444,-122.46031746031746,58.17460317460317,9.761904761904761,72.77777777777777,11.507936507936508,61.19047619047619,74.68253968253968,101.5079365079365,19.92063492063492,89.44444444444444,-325.0,105.79365079365078,325.0,67.53968253968253,-319.6031746031746,87.53968253968253,-4.2063492063492065,-43.888888888888886,-1.507936507936508,7.857142857142857,-166.26984126984127
7.857142857142857,-325.0,162.46031746031744,-119.76190476190476,132.77777777777777,9.603174603174603,150.87301587301587,11.349206349206348,139.6031746031746,65.31746031746032,176.58730158730157,6.428571428571428,166.58730158730157,-325.0,182.14285714285714,325.0,65.95238095238095,-313.0952380952381,77.38095238095238,-4.0476190476190474,-42.93650793650794,-1.1904761904761905,-1.0317460317460316,-166.26984126984127
7.857142857142857,-325.0,162.46031746031744,-119.76190476190476,132.77777777777777,9.603174603174603,150.87301587301587,11.349206349206348,139.6031746031746,65.31746031746032,176.58730158730157,6.428571428571428,166.58730158730157,-325.0,182.14285714285714,325.0,65.95238095238095,-313.0952380952381,77.38095238095238,-4.0476190476190474,-42.93650793650794,-1.1904761904761905,-1.0317460317460316,-166.26984126984127
7.857142857142857,-325.0,190.23809523809524,-119.28571428571428,161.19047619047618,9.603174603174603,180.55555555555554,11.349206349206348,169.9206349206349,62.14285714285714,206.9047619047619,3.73015873015873,198.4920634920635,-325.0,212.93650793650792,325.0,65.63492063492063,-311.8253968253968,74.84126984126983,-4.0476190476190474,-42.61904761904761,-1.8253968253968254,6.428571428571428,-321.8253968253968
7.857142857142857,-325.0,190.23809523809524,-119.28571428571428,161.19047619047618,9.603174603174603,180.55555555555554,11.349206349206348,169.9206349206349,62.14285714285714,206.9047619047619,3.73015873015873,198.4920634920635,-325.0,212.93650793650792,325.0,65.63492063492063,-311.8253968253968,74.84126984126983,-4.0476190476190474,-42.61904761904761,-1.8253968253968254,6.428571428571428,-321.8253968253968
7.698412698412698,-325.0,139.28571428571428,-115.63492063492063,110.39682539682539,9.285714285714285,122.77777777777777,10.873015873015872,112.14285714285714,72.93650793650794,148.96825396825395,12.619047619047619,137.06349206349205,-325.0,152.61904761904762,273.4126984126984,63.41269841269841,-303.25396825396825,84.68253968253968,-4.2063492063492065,-41.19047619047619,-2.3015873015873014,-1.984126984126984,-321.8253968253968
7.698412698412698,-325.0,139.28571428571428,-115.63492063492063,110.39682539682539,9.285714285714285,122.77777777777777,10.873015873015872,112.14285714285714,72.93650793650794,148.96825396825395,12.619047619047619,137.06349206349205,-325.0,152.61904761904762,273.4126984126984,63.41269841269841,-303.25396825396825,84.68253968253968,-4.2063492063492065,-41.19047619047619,-2.3015873015873014,-1.984126984126984,-321.8253968253968
7.3809523809523805,-325.0,153.57142857142856,-113.57142857142857,124.04761904761904,9.126984126984127,139.9206349206349,10.873015873015872,128.8095238095238,66.74603174603175,164.36507936507937,7.5396825396825395,153.4126984126984,-325.0,169.12698412698413,60.238095238095234,62.3015873015873,-298.3333333333333,77.6984126984127,-4.0476190476190474,-40.55555555555555,0.07936507936507936,0.7142857142857142,-321.8253968253968
7.3809523809523805,-325.0,153.57142857142856,-113.57142857142857,124.04761904761904,9.126984126984127,139.9206349206349,10.873015873015872,128.8095238095238,66.74603174603175,164.36507936507937,7.5396825396825395,153.4126984126984,-325.0,169.12698412698413,60.238095238095234,62.3015873015873,-298.3333333333333,77.6984126984127,-4.0476190476190474,-40.55555555555555,0.07936507936507936,0.7142857142857142,-321.8253968253968
7.3809523809523805,-325.0,139.12698412698413,-111.98412698412697,109.6031746031746,8.968253968253968,123.4126984126984,10.714285714285714,112.6190476190476,68.33333333333333,148.015873015873,7.5396825396825395,137.38095238095238,-325.0,152.3015873015873,281.5079365079365,61.34920634920635,-294.68253968253964,79.44444444444444,-4.0476190476190474,-40.079365079365076,-1.1904761904761905,-0.7142857142857142,-321.8253968253968
7.3809523809523805,-325.0,139.12698412698413,-111.98412698412697,109.6031746031746,8.968253968253968,123.4126984126984,10.714285714285714,112.6190476190476,68.33333333333333,148.015873015873,7.5396825396825395,137.38095238095238,-325.0,152.3015873015873,281.5079365079365,61.34920634920635,-294.68253968253964,79.44444444444444,-4.0476190476190474,-40.079365079365076,-1.1904761904761905,-0.7142857142857142,-321.8253968253968
7.222222222222221,-325.0,118.65079365079364,-109.76190476190476,88.65079365079364,8.809523809523808,102.46031746031746,10.396825396825395,91.34920634920634,73.4126984126984,125.47619047619047,13.888888888888888,113.57142857142857,-325.0,130.07936507936506,303.57142857142856,60.39682539682539,-290.07936507936506,85.0,-3.888888888888889,-39.285714285714285,-0.5555555555555556,7.857142857142857,-321.8253968253968
7.222222222222221,-325.0,118.65079365079364,-109.76190476190476,88.65079365079364,8.809523809523808,102.46031746031746,10.396825396825395,91.34920634920634,73.4126984126984,125.47619047619047,13.888888888888888,113.57142857142857,-325.0,130.07936507936506,303.57142857142856,60.39682539682539,-290.07936507936506,85.0,-3.888888888888889,-39.285714285714285,-0.5555555555555556,7.857142857142857,-321.8253968253968
7.063492063492063,-325.0,123.88888888888889,-108.01587301587301,96.26984126984127,8.65079365079365,108.49206349206348,10.555555555555555,98.96825396825396,72.14285714285714,132.61904761904762,8.65079365079365,124.2063492063492,-325.0,136.74603174603175,325.0,58.96825396825397,-285.3174603174603,82.61904761904762,-3.73015873015873,-38.33333333333333,-2.3015873015873014,-8.809523809523808,-166.26984126984127
7.063492063492063,-325.0,123.88888888888889,-108.01587301587301,96.26984126984127,8.65079365079365,108.49206349206348,10.555555555555555,98.96825396825396,72.14285714285714,132.61904761904762,8.65079365079365,124.2063492063492,-325.0,136.74603174603175,325.0,58.96825396825397,-285.3174603174603,82.61904761904762,-3.73015873015873,-38.33333333333333,-2.3015873015873014,-8.809523809523808,-166.26984126984127
7.063492063492063,-325.0,123.88888888888889,-108.01587301587301,96.26984126984127,8.65079365079365,108.49206349206348,10.555555555555555,98.96825396825396,72.14285714285714,132.61904761904762,8.65079365079365,124.2063492063492,-325.0,136.74603174603175,325.0,58.96825396825397,-285.3174603174603,82.61904761904762,-3.73015873015873,-38.33333333333333,-2.3015873015873014,-8.809523809523808,-166.26984126984127
7.063492063492063,-325.0,123.88888888888889,-108.01587301587301,96.26984126984127,8.65079365079365,108.49206349206348,10.555555555555555,98.96825396825396,72.14285714285714,132.61904761904762,8.65079365079365,124.2063492063492,-325.0,136.74603174603175,325.0,58.96825396825397,-285.3174603174603,82.61904761904762,-3.73015873015873,-38.33333333333333,-2.3015873015873014,-8.809523809523808,-166.26984126984127
7.063492063492063,-325.0,123.88888888888889,-108.01587301587301,96.26984126984127,8.65079365079365,108.49206349206348,10.555555555555555,98.96825396825396,72.14285714285714,132.61904761904762,8.65079365079365,124.2063492063492,-325.0,136.74603174603175,325.0,58.96825396825397,-285.3174603174603,82.61904761904762,-3.73015873015873,-38.33333333333333,-2.3015873015873014,-8.809523809523808,-166.26984126984127
7.063492063492063,-325.0,123.88888888888889,-108.01587301587301,96.26984126984127,8.65079365079365,108.49206349206348,10.555555555555555,98.96825396825396,72.14285714285714,132.61904761904762,8.65079365079365,124.2063492063492,-325.0,136.74603174603175,325.0,58.96825396825397,-285.3174603174603,82.61904761904762,-3.73015873015873,-38.33333333333333,-2.3015873015873014,-8.809523809523808,-166.26984126984127
7.063492063492063,-325.0,123.88888888888889,-108.01587301587301,96.26984126984127,8.65079365079365,108.49206349206348,10.555555555555555,98.96825396825396,72.14285714285714,132.61904761904762,8.65079365079365,124.2063492063492,-325.0,136.74603174603175,325.0,58.96825396825397,-285.3174603174603,82.61904761904762,-3.73015873015873,-38.33333333333333,-2.3015873015873014,-8.809523809523808,-166.26984126984127
7.063492063492063,-325.0,123.88888888888889,-108.01587301587301,96.26984126984127,8.65079365079365,108.49206349206348,10.555555555555555,98.96825396825396,72.14285714285714,132.61904761904762,8.65079365079365,124.2063492063492,-325.0,136.74603174603175,325.0,58.96825396825397,-285.3174603174603,82.61904761904762,-3.73015873015873,-38.33333333333333,-2.3015873015873014,-8.809523809523808,-166.26984126984127
7.063492063492063,-325.0,123.88888888888889,-108.01587301587301,96.26984126984127,8.65079365079365,108.49206349206348,10.555555555555555,98.96825396825396,72.14285714285714,132.61904761904762,8.65079365079365,124.2063492063492,-325.0,136.74603174603175,325.0,58.96825396825397,-285.3174603174603,82.61904761904762,-3.73015873015873,-38.33333333333333,-2.3015873015873014,-8.809523809523808,-166.26984126984127
7.063492063492063,-325.0,123.88888888888889,-108.01587301587301,96.26984126984127,8.65079365079365,108.49206349206348,10.555555555555555,98.96825396825396,72.14285714285714,132.61904761904762,8.65079365079365,124.2063492063492,-325.0,136.74603174603175,325.0,58.96825396825397,-285.3174603174603,82.61904761904762,-3.73015873015873,-38.33333333333333,-2.3015873015873014,-8.809523809523808,-166.26984126984127
6.428571428571428,-325.0,64.68253968253968,-97.22222222222221,38.49206349206349,7.857142857142857,50.079365079365076,9.444444444444445,41.507936507936506,76.58730158730158,70.87301587301587,12.142857142857142,62.460317460317455,-325.0,75.95238095238095,325.0,52.93650793650794,-260.39682539682536,85.79365079365078,-3.73015873015873,-34.52380952380952,-1.349206349206349,6.587301587301587,-321.8253968253968
6.428571428571428,-325.0,64.68253968253968,-97.22222222222221,38.49206349206349,7.857142857142857,50.079365079365076,9.444444444444445,41.507936507936506,76.58730158730158,70.87301587301587,12.142857142857142,62.460317460317455,-325.0,75.95238095238095,325.0,52.93650793650794,-260.39682539682536,85.79365079365078,-3.73015873015873,-34.52380952380952,-1.349206349206349,6.587301587301587,-321.8253968253968
5.7936507936507935,-325.0,98.96825396825396,-88.80952380952381,75.79365079365078,7.3809523809523805,86.26984126984127,8.333333333333332,79.44444444444444,62.77777777777777,105.63492063492063,-2.9365079365079363,100.39682539682539,-325.0,110.55555555555554,325.0,48.33333333333333,-241.34920634920633,72.3015873015873,-3.73015873015873,-31.349206349206348,-2.9365079365079363,4.841269841269841,-321.8253968253968
5.7936507936507935,-325.0,98.96825396825396,-88.80952380952381,75.79365079365078,7.3809523809523805,86.26984126984127,8.333333333333332,79.44444444444444,62.77777777777777,105.63492063492063,-2.9365079365079363,100.39682539682539,-325.0,110.55555555555554,325.0,48.33333333333333,-241.34920634920633,72.3015873015873,-3.73015873015873,-31.349206349206348,-2.9365079365079363,4.841269841269841,-321.8253968253968
5.7936507936507935,-325.0,98.96825396825396,-88.80952380952381,75.79365079365078,7.3809523809523805,86.26984126984127,8.333333333333332,79.44444444444444,62.77777777777777,105.63492063492063,-2.9365079365079363,100.39682539682539,-325.0,110.55555555555554,325.0,48.33333333333333,-241.34920634920633,72.3015873015873,-3.73015873015873,-31.349206349206348,-2.9365079365079363,4.841269841269841,-321.8253968253968
5.7936507936507935,-325.0,98.96825396825396,-88.80952380952381,75.79365079365078,7.3809523809523805,86.26984126984127,8.333333333333332,79.44444444444444,62.77777777777777,105.63492063492063,-2.9365079365079363,100.39682539682539,-325.0,110.55555555555554,325.0,48.33333333333333,-241.34920634920633,72.3015873015873,-3.73015873015873,-31.349206349206348,-2.9365079365079363,4.841269841269841,-321.8253968253968
5.0,-325.0,27.063492063492063,-72.3015873015873,325.0,6.111111111111111,17.063492063492063,-158.8095238095238,167.85714285714286,57.857142857142854,30.71428571428571,-4.841269841269841,26.746031746031743,-325.0,35.476190476190474,325.0,39.285714285714285,-201.34920634920633,64.04761904761905,-3.095238095238095,-25.634920634920633,-0.7142857142857142,6.428571428571428,-321.8253968253968
5.0,-325.0,27.063492063492063,-72.3015873015873,325.0,6.111111111111111,17.063492063492063,-158.8095238095238,167.85714285714286,57.857142857142854,30.71428571428571,-4.841269841269841,26.746031746031743,-325.0,35.476190476190474,325.0,39.285714285714285,-201.34920634920633,64.04761904761905,-3.095238095238095,-25.634920634920633,-0.7142857142857142,6.428571428571428,-321.8253968253968
4.365079365079365,-325.0,24.68253968253968,-66.9047619047619,325.0,-41.666666666666664,17.063492063492063,-325.0,325.0,45.79365079365079,28.809523809523807,-17.38095238095238,23.57142857142857,-325.0,33.73015873015873,325.0,36.269841269841265,-187.85714285714283,50.87301587301587,128.17460317460316,-23.57142857142857,-1.1904761904761905,-8.809523809523808,-321.8253968253968
4.365079365079365,-325.0,24.68253968253968,-66.9047619047619,325.0,-41.666666666666664,17.063492063492063,-325.0,325.0,45.79365079365079,28.809523809523807,-17.38095238095238,23.57142857142857,-325.0,33.73015873015873,325.0,36.269841269841265,-187.85714285714283,50.87301587301587,128.17460317460316,-23.57142857142857,-1.1904761904761905,-8.809523809523808,-321.8253968253968
4.523809523809524,-325.0,21.349206349206348,-65.47619047619047,325.0,-38.96825396825397,14.84126984126984,-325.0,325.0,46.74603174603175,25.0,-13.571428571428571,19.92063492063492,-325.0,30.07936507936508,325.0,35.317460317460316,-184.2063492063492,51.19047619047619,235.47619047619045,-23.095238095238095,1.1904761904761905,0.23809523809523808,-166.26984126984127
4.523809523809524,-325.0,21.349206349206348,-65.47619047619047,325.0,-38.96825396825397,14.84126984126984,-325.0,325.0,46.74603174603175,25.0,-13.571428571428571,19.92063492063492,-325.0,30.07936507936508,325.0,35.317460317460316,-184.2063492063492,51.19047619047619,235.47619047619045,-23.095238095238095,1.1904761904761905,0.23809523809523808,-166.26984126984127
4.365079365079365,-325.0,35.79365079365079,-64.2063492063492,325.0,-325.0,29.76190476190476,-325.0,325.0,43.73015873015873,40.714285714285715,-35.15873015873016,37.22222222222222,-325.0,45.15873015873016,325.0,34.52380952380952,-181.34920634920633,48.17460317460317,325.0,-22.619047619047617,-2.46031746031746,0.23809523809523808,-166.26984126984127
4.365079365079365,-325.0,35.79365079365079,-64.2063492063492,325.0,-325.0,29.76190476190476,-325.0,325.0,43.73015873015873,40.714285714285715,-35.15873015873016,37.22222222222222,-325.0,45.15873015873016,325.0,34.52380952380952,-181.34920634920633,48.17460317460317,325.0,-22.619047619047617,-2.46031746031746,0.23809523809523808,-166.26984126984127
4.2063492063492065,-325.0,46.11111111111111,-63.095238095238095,325.0,-292.6190476190476,40.39682539682539,-325.0,325.0,42.3015873015873,50.238095238095234,-33.41269841269841,45.317460317460316,-325.0,54.68253968253968,325.0,34.047619047619044,-178.33333333333331,46.58730158730158,325.0,-22.3015873015873,0.5555555555555556,0.7142857142857142,-166.26984126984127
4.2063492063492065,-325.0,46.11111111111111,-63.095238095238095,325.0,-292.6190476190476,40.39682539682539,-325.0,325.0,42.3015873015873,50.238095238095234,-33.41269841269841,45.317460317460316,-325.0,54.68253968253968,325.0,34.047619047619044,-178.33333333333331,46.58730158730158,325.0,-22.3015873015873,0.5555555555555556,0.7142857142857142,-166.26984126984127
4.2063492063492065,-325.0,61.507936507936506,-62.3015873015873,325.0,-325.0,57.698412698412696,-325.0,325.0,44.68253968253968,67.38095238095238,-138.4920634920635,63.25396825396825,-325.0,71.98412698412697,325.0,33.41269841269841,-176.11111111111111,48.650793650793645,325.0,-21.984126984126984,-0.873015873015873,-0.07936507936507936,-166.26984126984127
4.2063492063492065,-325.0,61.507936507936506,-62.3015873015873,325.0,-325.0,57.698412698412696,-325.0,325.0,44.68253968253968,67.38095238095238,-138.4920634920635,63.25396825396825,-325.0,71.98412698412697,325.0,33.41269841269841,-176.11111111111111,48.650793650793645,325.0,-21.984126984126984,-0.873015873015873,-0.07936507936507936,-166.26984126984127
4.2063492063492065,-325.0,88.17460317460316,-61.19047619047619,325.0,-325.0,85.0,-325.0,325.0,42.460317460317455,94.2063492063492,-219.28571428571428,90.71428571428571,-325.0,98.65079365079364,325.0,32.77777777777778,-173.25396825396825,46.269841269841265,325.0,-21.507936507936506,-0.873015873015873,-0.23809523809523808,-166.26984126984127
4.2063492063492065,-325.0,88.17460317460316,-61.19047619047619,325.0,-325.0,85.0,-325.0,325.0,42.460317460317455,94.2063492063492,-219.28571428571428,90.71428571428571,-325.0,98.65079365079364,325.0,32.77777777777778,-173.25396825396825,46.269841269841265,325.0,-21.507936507936506,-0.873015873015873,-0.23809523809523808,-166.26984126984127
4.0476190476190474,-325.0,85.15873015873015,-59.92063492063492,325.0,-325.0,81.98412698412697,-325.0,325.0,43.41269841269841,90.87301587301587,-236.26984126984127,87.22222222222221,-325.0,95.31746031746032,325.0,32.3015873015873,-170.55555555555554,46.904761904761905,325.0,-21.03174603174603,-0.5555555555555556,0.07936507936507936,-321.8253968253968
4.0476190476190474,-325.0,85.15873015873015,-59.92063492063492,325.0,-325.0,81.98412698412697,-325.0,325.0,43.41269841269841,90.87301587301587,-236.26984126984127,87.22222222222221,-325.0,95.31746031746032,325.0,32.3015873015873,-170.55555555555554,46.904761904761905,325.0,-21.03174603174603,-0.5555555555555556,0.07936507936507936,-321.8253968253968
3.888888888888889,-325.0,81.98412698412697,-58.17460317460317,325.0,-325.0,79.28571428571428,-325.0,325.0,42.93650793650794,87.22222222222221,-271.5079365079365,83.57142857142857,-325.0,90.87301587301587,325.0,31.19047619047619,-165.79365079365078,46.11111111111111,325.0,-20.396825396825395,-1.0317460317460316,6.587301587301587,-321.8253968253968
3.888888888888889,-325.0,81.98412698412697,-58.17460317460317,325.0,-325.0,79.28571428571428,-325.0,325.0,42.93650793650794,87.22222222222221,-271.5079365079365,83.57142857142857,-325.0,90.87301587301587,325.0,31.19047619047619,-165.79365079365078,46.11111111111111,325.0,-20.396825396825395,-1.0317460317460316,6.587301587301587,-321.8253968253968
3.888888888888889,-325.0,89.28571428571428,-56.11111111111111,325.0,-325.0,86.42857142857143,-325.0,325.0,36.11111111111111,93.4126984126984,-207.85714285714283,89.28571428571428,-322.3015873015873,96.58730158730158,325.0,30.238095238095237,-45.476190476190474,39.285714285714285,325.0,-19.76190476190476,-0.7142857142857142,-0.5555555555555556,-321.8253968253968
3.888888888888889,-325.0,89.28571428571428,-56.11111111111111,325.0,-325.0,86.42857142857143,-325.0,325.0,36.11111111111111,93.4126984126984,-207.85714285714283,89.28571428571428,-322.3015873015873,96.58730158730158,325.0,30.238095238095237,-45.476190476190474,39.285714285714285,325.0,-19.76190476190476,-0.7142857142857142,-0.5555555555555556,-321.8253968253968
3.888888888888889,-325.0,103.57142857142857,-55.15873015873016,325.0,-325.0,102.30158730158729,-325.0,325.0,28.015873015873016,108.80952380952381,-300.7142857142857,105.79365079365078,-316.90476190476187,111.66666666666666,325.0,29.6031746031746,325.0,30.238095238095237,325.0,-19.126984126984127,-2.619047619047619,7.5396825396825395,-321.8253968253968
3.888888888888889,-325.0,103.57142857142857,-55.15873015873016,325.0,-325.0,102.30158730158729,-325.0,325.0,28.015873015873016,108.80952380952381,-300.7142857142857,105.79365079365078,-316.90476190476187,111.66666666666666,325.0,29.6031746031746,325.0,30.238095238095237,325.0,-19.126984126984127,-2.619047619047619,7.5396825396825395,-321.8253968253968
3.888888888888889,-325.0,78.80952380952381,-53.73015873015873,325.0,-325.0,79.6031746031746,-325.0,325.0,27.698412698412696,85.31746031746032,-250.7142857142857,81.82539682539682,-310.07936507936506,89.92063492063491,325.0,29.126984126984127,325.0,30.238095238095237,325.0,-19.126984126984127,0.5555555555555556,-7.222222222222221,-321.8253968253968
3.888888888888889,-325.0,78.80952380952381,-53.73015873015873,325.0,-325.0,79.6031746031746,-325.0,325.0,27.698412698412696,85.31746031746032,-250.7142857142857,81.82539682539682,-310.07936507936506,89.92063492063491,325.0,29.126984126984127,325.0,30.238095238095237,325.0,-19.126984126984127,0.5555555555555556,-7.222222222222221,-321.8253968253968
3.571428571428571,-325.0,87.6984126984127,-52.93650793650794,325.0,-325.0,86.26984126984127,-325.0,325.0,34.2063492063492,93.25396825396825,-319.1269841269841,91.19047619047619,-305.0,96.26984126984127,325.0,28.49206349206349,253.7301587301587,36.11111111111111,325.0,-18.65079365079365,-1.349206349206349,6.746031746031746,-166.26984126984127
3.571428571428571,-325.0,87.6984126984127,-52.93650793650794,325.0,-325.0,86.26984126984127,-325.0,325.0,34.2063492063492,93.25396825396825,-319.1269841269841,91.19047619047619,-305.0,96.26984126984127,325.0,28.49206349206349,253.7301587301587,36.11111111111111,325.0,-18.65079365079365,-1.349206349206349,6.746031746031746,-166.26984126984127
3.571428571428571,-325.0,65.31746031746032,-51.82539682539682,325.0,-325.0,65.47619047619047,-325.0,325.0,32.61904761904762,71.03174603174602,-278.015873015873,66.58730158730158,-299.76190476190476,75.79365079365078,325.0,27.857142857142854,320.23809523809524,34.36507936507936,325.0,-18.333333333333332,0.5555555555555556,-6.746031746031746,-166.26984126984127
3.571428571428571,-325.0,65.31746031746032,-51.82539682539682,325.0,-325.0,65.47619047619047,-325.0,325.0,32.61904761904762,71.03174603174602,-278.015873015873,66.58730158730158,-299.76190476190476,75.79365079365078,325.0,27.857142857142854,320.23809523809524,34.36507936507936,325.0,-18.333333333333332,0.5555555555555556,-6.746031746031746,-166.26984126984127
3.571428571428571,-325.0,71.03174603174602,-51.03174603174603,325.0,-325.0,71.5079365079365,-325.0,325.0,33.25396825396825,77.85714285714285,-325.0,76.74603174603175,-294.68253968253964,81.5079365079365,325.0,27.38095238095238,193.4126984126984,34.682539682539684,325.0,-18.015873015873016,0.07936507936507936,6.428571428571428,-166.26984126984127
3.571428571428571,-325.0,71.03174603174602,-51.03174603174603,325.0,-325.0,71.5079365079365,-325.0,325.0,33.25396825396825,77.85714285714285,-325.0,76.74603174603175,-294.68253968253964,81.5079365079365,325.0,27.38095238095238,193.4126984126984,34.682539682539684,325.0,-18.015873015873016,0.07936507936507936,6.428571428571428,-166.26984126984127
3.4126984126984126,-325.0,66.11111111111111,-50.079365079365076,322.9365079365079,-325.0,66.58730158730158,-325.0,325.0,42.460317460317455,71.19047619047619,-319.6031746031746,66.9047619047619,-289.76190476190476,75.31746031746032,325.0,26.746031746031743,29.6031746031746,43.41269841269841,325.0,-17.539682539682538,0.07936507936507936,-8.333333333333332,-166.26984126984127
3.4126984126984126,-325.0,66.11111111111111,-50.079365079365076,322.9365079365079,-325.0,66.58730158730158,-325.0,325.0,42.460317460317455,71.19047619047619,-319.6031746031746,66.9047619047619,-289.76190476190476,75.31746031746032,325.0,26.746031746031743,29.6031746031746,43.41269841269841,325.0,-17.539682539682538,0.07936507936507936,-8.333333333333332,-166.26984126984127
3.253968253968254,-325.0,66.74603174603175,-49.285714285714285,317.38095238095235,-325.0,67.53968253968253,-325.0,325.0,39.6031746031746,73.4126984126984,-325.0,71.82539682539682,-284.8412698412698,76.58730158730158,325.0,26.428571428571427,275.3174603174603,40.55555555555555,325.0,-17.22222222222222,-1.1904761904761905,6.746031746031746,-166.26984126984127
3.253968253968254,-325.0,66.74603174603175,-49.285714285714285,317.38095238095235,-325.0,67.53968253968253,-325.0,325.0,39.6031746031746,73.4126984126984,-325.0,71.82539682539682,-284.8412698412698,76.58730158730158,325.0,26.428571428571427,275.3174603174603,40.55555555555555,325.0,-17.22222222222222,-1.1904761904761905,6.746031746031746,-166.26984126984127
3.253968253968254,-325.0,35.0,-48.49206349206349,312.3015873015873,-325.0,36.11111111111111,-325.0,325.0,41.03174603174603,40.39682539682539,-325.0,36.42857142857142,-280.07936507936506,44.36507936507936,325.0,25.952380952380953,325.0,41.507936507936506,325.0,-17.063492063492063,-0.23809523809523808,-6.904761904761904,-321.8253968253968
3.253968253968254,-325.0,35.0,-48.49206349206349,312.3015873015873,-325.0,36.11111111111111,-325.0,325.0,41.03174603174603,40.39682539682539,-325.0,36.42857142857142,-280.07936507936506,44.36507936507936,325.0,25.952380952380953,325.0,41.507936507936506,325.0,-17.063492063492063,-0.23809523809523808,-6.904761904761904,-321.8253968253968
3.095238095238095,-312.1428571428571,41.03174603174603,-44.36507936507936,287.6984126984127,-325.0,43.73015873015873,-325.0,305.7936507936508,39.92063492063492,47.857142857142854,-325.0,45.15873015873016,-257.85714285714283,51.82539682539682,319.4444444444444,23.88888888888889,42.77777777777778,39.6031746031746,325.0,-15.793650793650793,-0.5555555555555556,-7.3809523809523805,-321.8253968253968
3.095238095238095,-312.1428571428571,41.03174603174603,-44.36507936507936,287.6984126984127,-325.0,43.73015873015873,-325.0,305.7936507936508,39.92063492063492,47.857142857142854,-325.0,45.15873015873016,-257.85714285714283,51.82539682539682,319.4444444444444,23.88888888888889,42.77777777777778,39.6031746031746,325.0,-15.793650793650793,-0.5555555555555556,-7.3809523809523805,-321.8253968253968
2.7777777777777777,-295.7936507936508,52.14285714285714,-39.92063492063492,261.1904761904762,-325.0,56.58730158730158,-325.0,282.9365079365079,40.238095238095234,60.238095238095234,-325.0,59.12698412698413,-233.7301587301587,63.41269841269841,310.23809523809524,21.349206349206348,-236.26984126984127,38.33333333333333,325.0,-14.206349206349206,0.7142857142857142,0.07936507936507936,-321.8253968253968
2.7777777777777777,-295.7936507936508,52.14285714285714,-39.92063492063492,261.1904761904762,-325.0,56.58730158730158,-325.0,282.9365079365079,40.238095238095234,60.238095238095234,-325.0,59.12698412698413,-233.7301587301587,63.41269841269841,310.23809523809524,21.349206349206348,-236.26984126984127,38.33333333333333,325.0,-14.206349206349206,0.7142857142857142,0.07936507936507936,-321.8253968253968
2.7777777777777777,-288.6507936507936,41.34920634920635,-38.65079365079365,254.52380952380952,-325.0,46.11111111111111,-325.0,275.6349206349206,41.82539682539682,48.96825396825397,-325.0,47.06349206349206,-227.85714285714283,52.61904761904761,302.77777777777777,20.555555555555554,-230.2380952380952,39.92063492063492,325.0,-13.73015873015873,-0.7142857142857142,-7.5396825396825395,-321.8253968253968
2.7777777777777777,-288.6507936507936,41.34920634920635,-38.65079365079365,254.52380952380952,-325.0,46.11111111111111,-325.0,275.6349206349206,41.82539682539682,48.96825396825397,-325.0,47.06349206349206,-227.85714285714283,52.61904761904761,302.77777777777777,20.555555555555554,-230.2380952380952,39.92063492063492,325.0,-13.73015873015873,-0.7142857142857142,-7.5396825396825395,-321.8253968253968
2.619047619047619,-283.88888888888886,46.269841269841265,-38.49206349206349,250.2380952380952,-325.0,51.19047619047619,-325.0,271.031746031746,40.238095238095234,54.52380952380952,-325.0,53.41269841269841,-224.04761904761904,57.22222222222222,297.53968253968253,20.396825396825395,-226.1111111111111,37.857142857142854,325.0,-13.571428571428571,-0.3968253968253968,6.746031746031746,-321.8253968253968
2.619047619047619,-283.88888888888886,46.269841269841265,-38.49206349206349,250.2380952380952,-325.0,51.19047619047619,-325.0,271.031746031746,40.238095238095234,54.52380952380952,-325.0,53.41269841269841,-224.04761904761904,57.22222222222222,297.53968253968253,20.396825396825395,-226.1111111111111,37.857142857142854,325.0,-13.571428571428571,-0.3968253968253968,6.746031746031746,-321.8253968253968
2.7777777777777777,-279.2857142857143,27.38095238095238,-37.857142857142854,246.1111111111111,-325.0,32.14285714285714,-325.0,266.1111111111111,42.93650793650794,35.317460317460316,-325.0,33.41269841269841,-220.07936507936506,38.96825396825397,292.6190476190476,19.92063492063492,-221.98412698412696,40.079365079365076,325.0,-13.253968253968253,-0.873015873015873,-6.904761904761904,-166.26984126984127
2.7777777777777777,-279.2857142857143,27.38095238095238,-37.857142857142854,246.1111111111111,-325.0,32.14285714285714,-325.0,266.1111111111111,42.93650793650794,35.317460317460316,-325.0,33.41269841269841,-220.07936507936506,38.96825396825397,292.6190476190476,19.92063492063492,-221.98412698412696,40.079365079365076,325.0,-13.253968253968253,-0.873015873015873,-6.904761904761904,-166.26984126984127
2.7777777777777777,-275.6349206349206,33.57142857142857,-36.904761904761905,242.93650793650792,-325.0,38.33333333333333,-325.0,262.77777777777777,39.76190476190476,41.507936507936506,-325.0,40.238095238095234,-217.2222222222222,44.36507936507936,288.968253968254,19.92063492063492,-219.28571428571428,37.53968253968254,325.0,-13.253968253968253,-1.8253968253968254,7.698412698412698,-166.26984126984127
2.7777777777777777,-275.6349206349206,33.57142857142857,-36.904761904761905,242.93650793650792,-325.0,38.33333333333333,-325.0,262.77777777777777,39.76190476190476,41.507936507936506,-325.0,40.238095238095234,-217.2222222222222,44.36507936507936,288.968253968254,19.92063492063492,-219.28571428571428,37.53968253968254,325.0,-13.253968253968253,-1.8253968253968254,7.698412698412698,-166.26984126984127
2.7777777777777777,-275.6349206349206,33.57142857142857,-36.904761904761905,242.93650793650792,-325.0,38.33333333333333,-325.0,262.77777777777777,39.76190476190476,41.507936507936506,-325.0,40.238095238095234,-217.2222222222222,44.36507936507936,288.968253968254,19.92063492063492,-219.28571428571428,37.53968253968254,325.0,-13.253968253968253,-1.8253968253968254,7.698412698412698,-166.26984126984127
2.7777777777777777,-275.6349206349206,33.57142857142857,-36.904761904761905,242.93650793650792,-325.0,38.33333333333333,-325.0,262.77777777777777,39.76190476190476,41.507936507936506,-325.0,40.238095238095234,-217.2222222222222,44.36507936507936,288.968253968254,19.92063492063492,-219.28571428571428,37.53968253968254,325.0,-13.253968253968253,-1.8253968253968254,7.698412698412698,-166.26984126984127
2.7777777777777777,-275.6349206349206,33.57142857142857,-36.904761904761905,242.93650793650792,-325.0,38.33333333333333,-325.0,262.77777777777777,39.76190476190476,41.507936507936506,-325.0,40.238095238095234,-217.2222222222222,44.36507936507936,288.968253968254,19.92063492063492,-219.28571428571428,37.53968253968254,325.0,-13.253968253968253,-1.8253968253968254,7.698412698412698,-166.26984126984127
2.7777777777777777,-275.6349206349206,33.57142857142857,-36.904761904761905,242.93650793650792,-325.0,38.33333333333333,-325.0,262.77777777777777,39.76190476190476,41.507936507936506,-325.0,40.238095238095234,-217.2222222222222,44.36507936507936,288.968253968254,19.92063492063492,-219.28571428571428,37.53968253968254,325.0,-13.253968253968253,-1.8253968253968254,7.698412698412698,-166.26984126984127
2.46031746031746,-260.55555555555554,15.158730158730158,-34.682539682539684,228.96825396825395,-325.0,20.396825396825395,-325.0,247.38095238095238,45.63492063492063,23.253968253968253,-325.0,22.3015873015873,-204.68253968253967,26.746031746031743,272.6190476190476,18.49206349206349,-206.26984126984127,42.14285714285714,325.0,-12.3015873015873,-1.0317460317460316,-0.07936507936507936,-166.26984126984127
2.46031746031746,-260.55555555555554,15.158730158730158,-34.682539682539684,228.96825396825395,-325.0,20.396825396825395,-325.0,247.38095238095238,45.63492063492063,23.253968253968253,-325.0,22.3015873015873,-204.68253968253967,26.746031746031743,272.6190476190476,18.49206349206349,-206.26984126984127,42.14285714285714,325.0,-12.3015873015873,-1.0317460317460316,-0.07936507936507936,-166.26984126984127
2.3015873015873014,-255.3174603174603,16.428571428571427,-34.047619047619044,224.04761904761904,-325.0,21.825396825396822,-325.0,242.14285714285714,43.095238095238095,25.317460317460316,-323.25396825396825,24.68253968253968,-200.23809523809524,28.49206349206349,266.90476190476187,18.174603174603174,-201.8253968253968,39.44444444444444,325.0,-12.142857142857142,0.23809523809523808,-1.507936507936508,-321.8253968253968
2.3015873015873014,-255.3174603174603,16.428571428571427,-34.047619047619044,224.04761904761904,-325.0,21.825396825396822,-325.0,242.14285714285714,43.095238095238095,25.317460317460316,-323.25396825396825,24.68253968253968,-200.23809523809524,28.49206349206349,266.90476190476187,18.174603174603174,-201.8253968253968,39.44444444444444,325.0,-12.142857142857142,0.23809523809523808,-1.507936507936508,-321.8253968253968
2.3015873015873014,-251.19047619047618,14.047619047619047,-33.25396825396825,220.2380952380952,-325.0,19.126984126984127,-325.0,237.85714285714283,43.888888888888886,21.825396825396822,-317.69841269841265,20.396825396825395,-197.06349206349205,25.0,262.77777777777777,17.539682539682538,-198.33333333333331,39.76190476190476,325.0,-11.825396825396824,-2.3015873015873014,0.5555555555555556,-321.8253968253968
2.3015873015873014,-251.19047619047618,14.047619047619047,-33.25396825396825,220.2380952380952,-325.0,19.126984126984127,-325.0,237.85714285714283,43.888888888888886,21.825396825396822,-317.69841269841265,20.396825396825395,-197.06349206349205,25.0,262.77777777777777,17.539682539682538,-198.33333333333331,39.76190476190476,325.0,-11.825396825396824,-2.3015873015873014,0.5555555555555556,-321.8253968253968
2.46031746031746,-247.2222222222222,15.793650793650793,-32.77777777777778,216.42857142857142,-325.0,21.507936507936506,-325.0,233.88888888888889,41.19047619047619,24.365079365079364,-312.1428571428571,23.730158730158728,-193.57142857142856,27.539682539682538,258.3333333333333,17.38095238095238,-195.0,37.53968253968254,325.0,-11.666666666666666,0.7142857142857142,-0.7142857142857142,-321.8253968253968
2.46031746031746,-247.2222222222222,15.793650793650793,-32.77777777777778,216.42857142857142,-325.0,21.507936507936506,-325.0,233.88888888888889,41.19047619047619,24.365079365079364,-312.1428571428571,23.730158730158728,-193.57142857142856,27.539682539682538,258.3333333333333,17.38095238095238,-195.0,37.53968253968254,325.0,-11.666666666666666,0.7142857142857142,-0.7142857142857142,-321.8253968253968
2.3015873015873014,-242.93650793650792,0.3968253968253968,-32.14285714285714,212.77777777777777,-325.0,5.476190476190476,-325.0,229.76190476190476,46.11111111111111,8.65079365079365,-306.74603174603175,7.3809523809523805,-190.3968253968254,11.825396825396824,254.04761904761904,17.22222222222222,-191.5079365079365,41.82539682539682,325.0,-11.666666666666666,-1.507936507936508,0.7142857142857142,-321.8253968253968
2.3015873015873014,-242.93650793650792,0.3968253968253968,-32.14285714285714,212.77777777777777,-325.0,5.476190476190476,-325.0,229.76190476190476,46.11111111111111,8.65079365079365,-306.74603174603175,7.3809523809523805,-190.3968253968254,11.825396825396824,254.04761904761904,17.22222222222222,-191.5079365079365,41.82539682539682,325.0,-11.666666666666666,-1.507936507936508,0.7142857142857142,-321.8253968253968
2.3015873015873014,-233.25396825396825,-3.253968253968254,-31.03174603174603,203.7301587301587,-325.0,1.8253968253968254,-325.0,219.76190476190476,47.22222222222222,5.158730158730158,-293.73015873015873,4.841269841269841,-182.3015873015873,7.857142857142857,243.57142857142856,16.428571428571427,-183.25396825396825,41.98412698412698,325.0,-10.873015873015872,-0.7142857142857142,6.746031746031746,-321.8253968253968
2.3015873015873014,-233.25396825396825,-3.253968253968254,-31.03174603174603,203.7301587301587,-325.0,1.8253968253968254,-325.0,219.76190476190476,47.22222222222222,5.158730158730158,-293.73015873015873,4.841269841269841,-182.3015873015873,7.857142857142857,243.57142857142856,16.428571428571427,-183.25396825396825,41.98412698412698,325.0,-10.873015873015872,-0.7142857142857142,6.746031746031746,-321.8253968253968
2.3015873015873014,-229.44444444444443,-5.634920634920634,-25.317460317460316,200.23809523809524,-325.0,-0.3968253968253968,-325.0,216.26984126984127,44.36507936507936,2.619047619047619,-288.3333333333333,1.507936507936508,-179.12698412698413,5.952380952380952,239.44444444444443,16.11111111111111,82.14285714285714,39.6031746031746,325.0,-11.031746031746032,-0.3968253968253968,-6.904761904761904,-166.26984126984127
2.3015873015873014,-229.44444444444443,-5.634920634920634,-25.317460317460316,200.23809523809524,-325.0,-0.3968253968253968,-325.0,216.26984126984127,44.36507936507936,2.619047619047619,-288.3333333333333,1.507936507936508,-179.12698412698413,5.952380952380952,239.44444444444443,16.11111111111111,82.14285714285714,39.6031746031746,325.0,-11.031746031746032,-0.3968253968253968,-6.904761904761904,-166.26984126984127
2.142857142857143,-225.79365079365078,-34.2063492063492,-29.920634920634917,197.06349206349205,-325.0,-30.71428571428571,-325.0,212.46031746031744,46.904761904761905,-27.22222222222222,-283.4126984126984,-28.174603174603174,-176.11111111111111,-24.68253968253968,235.3174603174603,15.634920634920634,325.0,41.82539682539682,325.0,-10.714285714285714,-0.23809523809523808,6.746031746031746,-166.26984126984127
2.142857142857143,-225.79365079365078,-34.2063492063492,-29.920634920634917,197.06349206349205,-325.0,-30.71428571428571,-325.0,212.46031746031744,46.904761904761905,-27.22222222222222,-283.4126984126984,-28.174603174603174,-176.11111111111111,-24.68253968253968,235.3174603174603,15.634920634920634,325.0,41.82539682539682,325.0,-10.714285714285714,-0.23809523809523808,6.746031746031746,-166.26984126984127
2.142857142857143,-221.98412698412696,-45.0,-18.80952380952381,193.7301587301587,-325.0,-40.39682539682539,-325.0,208.96825396825395,45.79365079365079,-37.06349206349206,-278.6507936507936,-38.01587301587301,-173.25396825396825,-33.41269841269841,231.66666666666666,15.317460317460316,325.0,40.714285714285715,325.0,-10.396825396825395,0.7142857142857142,-8.333333333333332,-166.26984126984127
2.142857142857143,-221.98412698412696,-45.0,-18.80952380952381,193.7301587301587,-325.0,-40.39682539682539,-325.0,208.96825396825395,45.79365079365079,-37.06349206349206,-278.6507936507936,-38.01587301587301,-173.25396825396825,-33.41269841269841,231.66666666666666,15.317460317460316,325.0,40.714285714285715,325.0,-10.396825396825395,0.7142857142857142,-8.333333333333332,-166.26984126984127
1.984126984126984,-219.28571428571428,-37.22222222222222,-28.809523809523807,191.19047619047618,-325.0,-33.25396825396825,-325.0,206.26984126984127,41.82539682539682,-29.285714285714285,-274.8412698412698,-29.6031746031746,-170.87301587301587,-26.587301587301585,228.65079365079364,15.317460317460316,325.0,36.11111111111111,325.0,-10.396825396825395,-0.7142857142857142,8.65079365079365,-166.26984126984127
1.984126984126984,-219.28571428571428,-37.22222222222222,-28.809523809523807,191.19047619047618,-325.0,-33.25396825396825,-325.0,206.26984126984127,41.82539682539682,-29.285714285714285,-274.8412698412698,-29.6031746031746,-170.87301587301587,-26.587301587301585,228.65079365079364,15.317460317460316,325.0,36.11111111111111,325.0,-10.396825396825395,-0.7142857142857142,8.65079365079365,-166.26984126984127
1.984126984126984,-215.0,-46.269841269841265,-1.0317460317460316,187.06349206349205,-325.0,-42.14285714285714,-325.0,201.66666666666666,43.57142857142857,-38.49206349206349,-268.968253968254,-39.92063492063492,-167.38095238095238,-35.476190476190474,223.7301587301587,14.84126984126984,325.0,37.857142857142854,325.0,-10.079365079365079,0.7142857142857142,-7.3809523809523805,-166.26984126984127
1.984126984126984,-215.0,-46.269841269841265,-1.0317460317460316,187.06349206349205,-325.0,-42.14285714285714,-325.0,201.66666666666666,43.57142857142857,-38.49206349206349,-268.968253968254,-39.92063492063492,-167.38095238095238,-35.476190476190474,223.7301587301587,14.84126984126984,325.0,37.857142857142854,325.0,-10.079365079365079,0.7142857142857142,-7.3809523809523805,-166.26984126984127
2.142857142857143,-211.34920634920633,-46.269841269841265,-28.809523809523807,183.88888888888889,-325.0,-42.14285714285714,-325.0,198.17460317460316,45.317460317460316,-38.33333333333333,-264.2063492063492,-38.65079365079365,-164.36507936507937,-35.63492063492063,220.3968253968254,14.523809523809524,325.0,39.6031746031746,325.0,-10.079365079365079,-0.07936507936507936,6.904761904761904,-321.8253968253968
2.142857142857143,-211.34920634920633,-46.269841269841265,-28.809523809523807,183.88888888888889,-325.0,-42.14285714285714,-325.0,198.17460317460316,45.317460317460316,-38.33333333333333,-264.2063492063492,-38.65079365079365,-164.36507936507937,-35.63492063492063,220.3968253968254,14.523809523809524,325.0,39.6031746031746,325.0,-10.079365079365079,-0.07936507936507936,6.904761904761904,-321.8253968253968
1.984126984126984,-207.85714285714283,-50.55555555555555,27.063492063492063,180.7142857142857,-325.0,-46.74603174603175,-325.0,194.84126984126982,47.22222222222222,-43.095238095238095,-259.6031746031746,-44.2063492063492,-161.66666666666666,-40.079365079365076,216.42857142857142,14.523809523809524,325.0,41.03174603174603,325.0,-10.079365079365079,-0.07936507936507936,-7.222222222222221,-321.8253968253968
1.984126984126984,-207.85714285714283,-50.55555555555555,27.063492063492063,180.7142857142857,-325.0,-46.74603174603175,-325.0,194.84126984126982,47.22222222222222,-43.095238095238095,-259.6031746031746,-44.2063492063492,-161.66666666666666,-40.079365079365076,216.42857142857142,14.523809523809524,325.0,41.03174603174603,325.0,-10.079365079365079,-0.07936507936507936,-7.222222222222221,-321.8253968253968
2.142857142857143,-204.52380952380952,-49.92063492063492,-28.96825396825397,177.53968253968253,-325.0,-46.74603174603175,-325.0,191.34920634920633,47.22222222222222,-42.61904761904761,-255.15873015873015,-43.25396825396825,-158.8095238095238,-40.079365079365076,212.93650793650792,14.206349206349206,325.0,41.19047619047619,325.0,-9.761904761904761,-0.873015873015873,7.063492063492063,-321.8253968253968
2.142857142857143,-204.52380952380952,-49.92063492063492,-28.96825396825397,177.53968253968253,-325.0,-46.74603174603175,-325.0,191.34920634920633,47.22222222222222,-42.61904761904761,-255.15873015873015,-43.25396825396825,-158.8095238095238,-40.079365079365076,212.93650793650792,14.206349206349206,325.0,41.19047619047619,325.0,-9.761904761904761,-0.873015873015873,7.063492063492063,-321.8253968253968
1.984126984126984,-201.03174603174602,-44.84126984126984,66.9047619047619,174.68253968253967,-325.0,-41.82539682539682,-325.0,188.17460317460316,43.888888888888886,-37.698412698412696,-250.55555555555554,-38.80952380952381,-155.95238095238093,-35.15873015873016,209.28571428571428,13.888888888888888,325.0,38.33333333333333,325.0,-9.603174603174603,-0.07936507936507936,-7.857142857142857,-321.8253968253968
1.984126984126984,-201.03174603174602,-44.84126984126984,66.9047619047619,174.68253968253967,-325.0,-41.82539682539682,-325.0,188.17460317460316,43.888888888888886,-37.698412698412696,-250.55555555555554,-38.80952380952381,-155.95238095238093,-35.15873015873016,209.28571428571428,13.888888888888888,325.0,38.33333333333333,325.0,-9.603174603174603,-0.07936507936507936,-7.857142857142857,-321.8253968253968
1.984126984126984,-198.65079365079364,-45.476190476190474,1.984126984126984,172.46031746031744,-325.0,-41.666666666666664,-325.0,185.63492063492063,46.42857142857142,-37.22222222222222,-247.38095238095238,-37.53968253968254,-154.04761904761904,-33.888888888888886,206.74603174603175,13.73015873015873,325.0,40.39682539682539,325.0,-9.444444444444445,0.07936507936507936,-0.23809523809523808,-321.8253968253968
1.984126984126984,-198.65079365079364,-45.476190476190474,1.984126984126984,172.46031746031744,-325.0,-41.666666666666664,-325.0,185.63492063492063,46.42857142857142,-37.22222222222222,-247.38095238095238,-37.53968253968254,-154.04761904761904,-33.888888888888886,206.74603174603175,13.73015873015873,325.0,40.39682539682539,325.0,-9.444444444444445,0.07936507936507936,-0.23809523809523808,-321.8253968253968
1.6666666666666665,-193.09523809523807,17.698412698412696,48.96825396825397,167.2222222222222,-325.0,20.71428571428571,-325.0,180.07936507936506,45.63492063492063,25.476190476190474,-239.9206349206349,25.0,-149.44444444444443,27.22222222222222,200.7142857142857,13.095238095238095,-267.38095238095235,39.285714285714285,325.0,-8.968253968253968,-2.619047619047619,0.23809523809523808,-166.26984126984127
1.6666666666666665,-193.09523809523807,17.698412698412696,48.96825396825397,167.2222222222222,-325.0,20.71428571428571,-325.0,180.07936507936506,45.63492063492063,25.476190476190474,-239.9206349206349,25.0,-149.44444444444443,27.22222222222222,200.7142857142857,13.095238095238095,-267.38095238095235,39.285714285714285,325.0,-8.968253968253968,-2.619047619047619,0.23809523809523808,-166.26984126984127
1.6666666666666665,-192.14285714285714,16.428571428571427,41.19047619047619,166.74603174603175,-325.0,18.333333333333332,-325.0,179.28571428571428,48.17460317460317,23.41269841269841,-238.65079365079364,22.3015873015873,-148.8095238095238,24.523809523809522,199.9206349206349,13.095238095238095,-325.0,41.666666666666664,325.0,-9.126984126984127,-2.7777777777777777,7.063492063492063,-166.26984126984127
1.6666666666666665,-192.14285714285714,16.428571428571427,41.19047619047619,166.74603174603175,-325.0,18.333333333333332,-325.0,179.28571428571428,48.17460317460317,23.41269841269841,-238.65079365079364,22.3015873015873,-148.8095238095238,24.523809523809522,199.9206349206349,13.095238095238095,-325.0,41.666666666666664,325.0,-9.126984126984127,-2.7777777777777777,7.063492063492063,-166.26984126984127
1.6666666666666665,-188.96825396825395,9.126984126984127,65.95238095238095,163.88888888888889,-325.0,10.396825396825395,-325.0,176.26984126984127,48.96825396825397,15.95238095238095,-234.52380952380952,14.84126984126984,-146.26984126984127,17.063492063492063,196.42857142857142,12.936507936507935,-285.1587301587301,42.61904761904761,325.0,-9.126984126984127,-3.4126984126984126,7.3809523809523805,-166.26984126984127
1.6666666666666665,-188.96825396825395,9.126984126984127,65.95238095238095,163.88888888888889,-325.0,10.396825396825395,-325.0,176.26984126984127,48.96825396825397,15.95238095238095,-234.52380952380952,14.84126984126984,-146.26984126984127,17.063492063492063,196.42857142857142,12.936507936507935,-285.1587301587301,42.61904761904761,325.0,-9.126984126984127,-3.4126984126984126,7.3809523809523805,-166.26984126984127
1.8253968253968254,-183.7301587301587,-11.825396825396824,141.03174603174602,158.8095238095238,-325.0,-10.714285714285714,-325.0,170.7142857142857,47.22222222222222,-5.634920634920634,-227.69841269841268,-7.5396825396825395,-141.984126984127,-4.365079365079365,190.87301587301587,12.619047619047619,325.0,40.714285714285715,325.0,-8.65079365079365,0.23809523809523808,-1.984126984126984,-166.26984126984127
1.8253968253968254,-183.7301587301587,-11.825396825396824,141.03174603174602,158.8095238095238,-325.0,-10.714285714285714,-325.0,170.7142857142857,47.22222222222222,-5.634920634920634,-227.69841269841268,-7.5396825396825395,-141.984126984127,-4.365079365079365,190.87301587301587,12.619047619047619,325.0,40.714285714285715,325.0,-8.65079365079365,0.23809523809523808,-1.984126984126984,-166.26984126984127
1.984126984126984,-180.87301587301587,-41.03174603174603,137.53968253968253,155.95238095238093,-325.0,-39.6031746031746,-325.0,167.85714285714286,43.25396825396825,-34.682539682539684,-223.7301587301587,-35.476190476190474,-139.44444444444443,-32.77777777777778,187.69841269841268,12.46031746031746,325.0,37.06349206349206,325.0,-8.65079365079365,-1.6666666666666665,1.349206349206349,-166.26984126984127
1.984126984126984,-180.87301587301587,-41.03174603174603,137.53968253968253,155.95238095238093,-325.0,-39.6031746031746,-325.0,167.85714285714286,43.25396825396825,-34.682539682539684,-223.7301587301587,-35.476190476190474,-139.44444444444443,-32.77777777777778,187.69841269841268,12.46031746031746,325.0,37.06349206349206,325.0,-8.65079365079365,-1.6666666666666665,1.349206349206349,-166.26984126984127
1.984126984126984,-178.65079365079364,-17.539682539682538,234.84126984126982,154.04761904761904,-325.0,-16.26984126984127,-322.9365079365079,165.79365079365078,43.095238095238095,-11.349206349206348,-220.7142857142857,-11.984126984126984,-137.69841269841268,-9.444444444444445,185.47619047619045,12.3015873015873,1.1904761904761905,37.22222222222222,325.0,-8.492063492063492,-0.23809523809523808,-1.349206349206349,-321.8253968253968
1.984126984126984,-178.65079365079364,-17.539682539682538,234.84126984126982,154.04761904761904,-325.0,-16.26984126984127,-322.9365079365079,165.79365079365078,43.095238095238095,-11.349206349206348,-220.7142857142857,-11.984126984126984,-137.69841269841268,-9.444444444444445,185.47619047619045,12.3015873015873,1.1904761904761905,37.22222222222222,325.0,-8.492063492063492,-0.23809523809523808,-1.349206349206349,-321.8253968253968
1.8253968253968254,-175.63492063492063,4.365079365079365,265.0,151.34920634920633,-325.0,5.317460317460317,-318.3333333333333,162.93650793650792,45.15873015873016,11.031746031746032,-216.9047619047619,9.920634920634921,-135.3174603174603,12.619047619047619,182.3015873015873,11.984126984126984,-323.73015873015873,38.80952380952381,325.0,-8.174603174603174,-0.7142857142857142,-1.1904761904761905,-321.8253968253968
1.8253968253968254,-175.63492063492063,4.365079365079365,265.0,151.34920634920633,-325.0,5.317460317460317,-318.3333333333333,162.93650793650792,45.15873015873016,11.031746031746032,-216.9047619047619,9.920634920634921,-135.3174603174603,12.619047619047619,182.3015873015873,11.984126984126984,-323.73015873015873,38.80952380952381,325.0,-8.174603174603174,-0.7142857142857142,-1.1904761904761905,-321.8253968253968
1.507936507936508,-171.984126984127,-3.571428571428571,186.58730158730157,148.33333333333331,-325.0,-2.619047619047619,-312.1428571428571,159.28571428571428,47.06349206349206,3.4126984126984126,-212.14285714285714,1.984126984126984,-132.46031746031744,5.0,178.4920634920635,11.666666666666666,-325.0,40.55555555555555,321.984126984127,-8.174603174603174,1.0317460317460316,-2.3015873015873014,-321.8253968253968
1.507936507936508,-171.984126984127,-3.571428571428571,186.58730158730157,148.33333333333331,-325.0,-2.619047619047619,-312.1428571428571,159.28571428571428,47.06349206349206,3.4126984126984126,-212.14285714285714,1.984126984126984,-132.46031746031744,5.0,178.4920634920635,11.666666666666666,-325.0,40.55555555555555,321.984126984127,-8.174603174603174,1.0317460317460316,-2.3015873015873014,-321.8253968253968
1.6666666666666665,-170.07936507936506,25.634920634920633,237.69841269841268,146.42857142857142,-325.0,28.49206349206349,-308.17460317460313,157.2222222222222,38.80952380952381,33.57142857142857,-209.44444444444443,33.41269841269841,-130.7142857142857,35.15873015873016,176.26984126984127,11.507936507936508,-325.0,32.14285714285714,318.015873015873,-7.857142857142857,-1.8253968253968254,-5.952380952380952,-321.8253968253968
1.6666666666666665,-170.07936507936506,25.634920634920633,237.69841269841268,146.42857142857142,-325.0,28.49206349206349,-308.17460317460313,157.2222222222222,38.80952380952381,33.57142857142857,-209.44444444444443,33.41269841269841,-130.7142857142857,35.15873015873016,176.26984126984127,11.507936507936508,-325.0,32.14285714285714,318.015873015873,-7.857142857142857,-1.8253968253968254,-5.952380952380952,-321.8253968253968
1.6666666666666665,-166.42857142857142,-8.968253968253968,198.015873015873,143.09523809523807,-323.0952380952381,-8.968253968253968,-302.3015873015873,153.88888888888889,44.047619047619044,-2.3015873015873014,-204.52380952380952,-3.888888888888889,-128.015873015873,-0.873015873015873,172.3015873015873,11.349206349206348,-270.55555555555554,37.698412698412696,311.19047619047615,-8.015873015873016,1.1904761904761905,-3.095238095238095,-321.8253968253968
1.6666666666666665,-166.42857142857142,-8.968253968253968,198.015873015873,143.09523809523807,-323.0952380952381,-8.968253968253968,-302.3015873015873,153.88888888888889,44.047619047619044,-2.3015873015873014,-204.52380952380952,-3.888888888888889,-128.015873015873,-0.873015873015873,172.3015873015873,11.349206349206348,-270.55555555555554,37.698412698412696,311.19047619047615,-8.015873015873016,1.1904761904761905,-3.095238095238095,-321.8253968253968
1.8253968253968254,-165.79365079365078,-16.904761904761905,325.0,142.46031746031744,-321.66666666666663,-17.698412698412696,-301.031746031746,153.25396825396825,45.0,-11.349206349206348,-203.7301587301587,-13.412698412698411,-127.38095238095238,-10.238095238095237,171.66666666666666,11.19047619047619,-300.55555555555554,38.65079365079365,309.9206349206349,-7.857142857142857,0.7142857142857142,-10.555555555555555,-166.26984126984127
1.8253968253968254,-165.79365079365078,-16.904761904761905,325.0,142.46031746031744,-321.66666666666663,-17.698412698412696,-301.031746031746,153.25396825396825,45.0,-11.349206349206348,-203.7301587301587,-13.412698412698411,-127.38095238095238,-10.238095238095237,171.66666666666666,11.19047619047619,-300.55555555555554,38.65079365079365,309.9206349206349,-7.857142857142857,0.7142857142857142,-10.555555555555555,-166.26984126984127
11.984126984126984,-240.2380952380952,3.73015873015873,163.4126984126984,29.76190476190476,-71.66666666666666,-57.698412698412696,-232.14285714285714,73.88888888888889,0.5555555555555556,140.23809523809524,-260.7142857142857,136.58730158730157,-12.3015873015873,-3.253968253968254,177.53968253968253,-141.34920634920636,-325.0,40.87301587301587,302.46031746031747,-17.857142857142858,0.3968253968253968,-156.9047619047619,-166.26984126984127
11.984126984126984,-240.2380952380952,3.73015873015873,163.4126984126984,29.76190476190476,-71.66666666666666,-57.698412698412696,-232.14285714285714,73.88888888888889,0.5555555555555556,140.23809523809524,-260.7142857142857,136.58730158730157,-12.3015873015873,-3.253968253968254,177.53968253968253,-141.34920634920636,-325.0,40.87301587301587,302.46031746031747,-17.857142857142858,0.3968253968253968,-156.9047619047619,-166.26984126984127
-7.5396825396825395,-155.63492063492063,-4.682539682539682,216.58730158730157,133.57142857142856,-302.77777777777777,-5.7936507936507935,-283.57142857142856,143.25396825396825,40.39682539682539,1.0317460317460316,-190.87301587301587,0.23809523809523808,-119.44444444444444,2.619047619047619,161.19047619047618,10.714285714285714,-211.8253968253968,33.888888888888886,291.5079365079365,-7.3809523809523805,0.3968253968253968,-3.095238095238095,-166.26984126984127
-7.5396825396825395,-155.63492063492063,-4.682539682539682,216.58730158730157,133.57142857142856,-302.77777777777777,-5.7936507936507935,-283.57142857142856,143.25396825396825,40.39682539682539,1.0317460317460316,-190.87301587301587,0.23809523809523808,-119.44444444444444,2.619047619047619,161.19047619047618,10.714285714285714,-211.8253968253968,33.888888888888886,291.5079365079365,-7.3809523809523805,0.3968253968253968,-3.095238095238095,-166.26984126984127
-14.523809523809524,-153.73015873015873,14.84126984126984,325.0,131.984126984127,-299.1269841269841,15.95238095238095,-280.39682539682536,141.66666666666666,37.38095238095238,21.666666666666664,-188.33333333333331,22.619047619047617,-117.6984126984127,23.253968253968253,159.28571428571428,10.555555555555555,-34.2063492063492,31.507936507936506,287.85714285714283,-7.222222222222221,-0.873015873015873,-6.904761904761904,-166.26984126984127
-14.523809523809524,-153.73015873015873,14.84126984126984,325.0,131.984126984127,-299.1269841269841,15.95238095238095,-280.39682539682536,141.66666666666666,37.38095238095238,21.666666666666664,-188.33333333333331,22.619047619047617,-117.6984126984127,23.253968253968253,159.28571428571428,10.555555555555555,-34.2063492063492,31.507936507936506,287.85714285714283,-7.222222222222221,-0.873015873015873,-6.904761904761904,-166.26984126984127
-25.79365079365079,-150.55555555555554,-10.873015873015872,227.2222222222222,129.12698412698413,-293.0952380952381,-12.3015873015873,-274.8412698412698,138.4920634920635,33.888888888888886,-4.841269841269841,-184.2063492063492,-5.158730158730158,-115.31746031746032,-3.253968253968254,155.79365079365078,10.238095238095237,-43.888888888888886,28.015873015873016,282.1428571428571,-7.222222222222221,-0.23809523809523808,-2.619047619047619,-166.26984126984127
-25.79365079365079,-150.55555555555554,-10.873015873015872,227.2222222222222,129.12698412698413,-293.0952380952381,-12.3015873015873,-274.8412698412698,138.4920634920635,33.888888888888886,-4.841269841269841,-184.2063492063492,-5.158730158730158,-115.31746031746032,-3.253968253968254,155.79365079365078,10.238095238095237,-43.888888888888886,28.015873015873016,282.1428571428571,-7.222222222222221,-0.23809523809523808,-2.619047619047619,-166.26984126984127
-32.14285714285714,-148.8095238095238,-8.809523809523808,325.0,127.38095238095238,-289.6031746031746,-10.873015873015872,-271.66666666666663,136.74603174603175,35.15873015873016,-3.253968253968254,-181.8253968253968,-3.4126984126984126,-113.88888888888889,-1.984126984126984,153.73015873015873,10.079365079365079,-249.28571428571428,29.444444444444443,278.4920634920635,-7.063492063492063,-1.6666666666666665,-0.5555555555555556,-321.8253968253968
-32.14285714285714,-148.8095238095238,-8.809523809523808,325.0,127.38095238095238,-289.6031746031746,-10.873015873015872,-271.66666666666663,136.74603174603175,35.15873015873016,-3.253968253968254,-181.8253968253968,-3.4126984126984126,-113.88888888888889,-1.984126984126984,153.73015873015873,10.079365079365079,-249.28571428571428,29.444444444444443,278.4920634920635,-7.063492063492063,-1.6666666666666665,-0.5555555555555556,-321.8253968253968
-39.92063492063492,-146.26984126984127,-8.492063492063492,155.63492063492063,125.0,-284.8412698412698,-9.761904761904761,-267.38095238095235,134.36507936507937,37.38095238095238,-1.6666666666666665,-178.65079365079364,-1.507936507936508,-111.82539682539682,0.07936507936507936,151.34920634920633,10.079365079365079,-181.8253968253968,31.666666666666664,273.88888888888886,-6.904761904761904,1.6666666666666665,5.317460317460317,-321.8253968253968
-39.92063492063492,-146.26984126984127,-8.492063492063492,155.63492063492063,125.0,-284.8412698412698,-9.761904761904761,-267.38095238095235,134.36507936507937,37.38095238095238,-1.6666666666666665,-178.65079365079364,-1.507936507936508,-111.82539682539682,0.07936507936507936,151.34920634920633,10.079365079365079,-181.8253968253968,31.666666666666664,273.88888888888886,-6.904761904761904,1.6666666666666665,5.317460317460317,-321.8253968253968
-49.76190476190476,-143.25396825396825,-9.761904761904761,325.0,122.6190476190476,-279.2857142857143,-10.873015873015872,-261.8253968253968,131.34920634920636,36.269841269841265,-3.4126984126984126,-174.68253968253967,-2.7777777777777777,-109.76190476190476,-2.46031746031746,148.015873015873,9.761904761904761,-239.44444444444443,30.07936507936508,268.3333333333333,-6.904761904761904,-0.873015873015873,1.507936507936508,-321.8253968253968
-49.76190476190476,-143.25396825396825,-9.761904761904761,325.0,122.6190476190476,-279.2857142857143,-10.873015873015872,-261.8253968253968,131.34920634920636,36.269841269841265,-3.4126984126984126,-174.68253968253967,-2.7777777777777777,-109.76190476190476,-2.46031746031746,148.015873015873,9.761904761904761,-239.44444444444443,30.07936507936508,268.3333333333333,-6.904761904761904,-0.873015873015873,1.507936507936508,-321.8253968253968
-54.841269841269835,-141.8253968253968,-19.76190476190476,186.26984126984127,120.87301587301586,-275.7936507936508,-21.03174603174603,-258.6507936507936,129.44444444444443,41.34920634920635,-12.936507936507935,-172.61904761904762,-12.619047619047619,-108.01587301587301,-10.873015873015872,146.42857142857142,9.444444444444445,-325.0,35.15873015873016,265.0,-6.587301587301587,1.6666666666666665,4.682539682539682,-321.8253968253968
-54.841269841269835,-141.8253968253968,-19.76190476190476,186.26984126984127,120.87301587301586,-275.7936507936508,-21.03174603174603,-258.6507936507936,129.44444444444443,41.34920634920635,-12.936507936507935,-172.61904761904762,-12.619047619047619,-108.01587301587301,-10.873015873015872,146.42857142857142,9.444444444444445,-325.0,35.15873015873016,265.0,-6.587301587301587,1.6666666666666665,4.682539682539682,-321.8253968253968
-63.888888888888886,-138.8095238095238,-11.031746031746032,325.0,118.17460317460316,-270.23809523809524,-12.619047619047619,-253.57142857142856,126.58730158730158,38.17460317460317,-4.682539682539682,-168.8095238095238,-3.253968253968254,-105.95238095238095,-3.4126984126984126,143.09523809523807,9.444444444444445,-325.0,32.14285714285714,259.44444444444446,5.317460317460317,-1.1904761904761905,1.6666666666666665,-321.8253968253968
-63.888888888888886,-138.8095238095238,-11.031746031746032,325.0,118.17460317460316,-270.23809523809524,-12.619047619047619,-253.57142857142856,126.58730158730158,38.17460317460317,-4.682539682539682,-168.8095238095238,-3.253968253968254,-105.95238095238095,-3.4126984126984126,143.09523809523807,9.444444444444445,-325.0,32.14285714285714,259.44444444444446,5.317460317460317,-1.1904761904761905,1.6666666666666665,-321.8253968253968
-69.12698412698413,-136.9047619047619,-16.428571428571427,325.0,116.74603174603173,-267.06349206349205,-19.126984126984127,-250.55555555555554,125.0,36.904761904761905,-10.714285714285714,-166.58730158730157,-9.603174603174603,-104.52380952380952,-9.761904761904761,141.34920634920636,9.444444444444445,-325.0,31.19047619047619,256.26984126984127,34.2063492063492,-0.5555555555555556,-1.0317460317460316,-166.26984126984127
-69.12698412698413,-136.9047619047619,-16.428571428571427,325.0,116.74603174603173,-267.06349206349205,-19.126984126984127,-250.55555555555554,125.0,36.904761904761905,-10.714285714285714,-166.58730158730157,-9.603174603174603,-104.52380952380952,-9.761904761904761,141.34920634920636,9.444444444444445,-325.0,31.19047619047619,256.26984126984127,34.2063492063492,-0.5555555555555556,-1.0317460317460316,-166.26984126984127
-77.38095238095238,-134.2063492063492,-13.73015873015873,325.0,114.04761904761904,-261.66666666666663,-15.634920634920634,-245.47619047619045,122.30158730158729,33.095238095238095,-7.5396825396825395,-162.77777777777777,-5.7936507936507935,-102.14285714285714,-5.952380952380952,138.17460317460316,5.317460317460317,-325.0,26.9047619047619,250.87301587301585,35.95238095238095,-1.6666666666666665,0.873015873015873,-166.26984126984127
-77.38095238095238,-134.2063492063492,-13.73015873015873,325.0,114.04761904761904,-261.66666666666663,-15.634920634920634,-245.47619047619045,122.30158730158729,33.095238095238095,-7.5396825396825395,-162.77777777777777,-5.7936507936507935,-102.14285714285714,-5.952380952380952,138.17460317460316,5.317460317460317,-325.0,26.9047619047619,250.87301587301585,35.95238095238095,-1.6666666666666665,0.873015873015873,-166.26984126984127
-85.31746031746032,-131.34920634920636,-32.61904761904762,325.0,111.98412698412697,-256.58730158730157,-35.15873015873016,-240.7142857142857,119.6031746031746,34.682539682539684,-26.587301587301585,-159.28571428571428,-25.952380952380953,-100.23809523809523,-24.206349206349206,135.3174603174603,-6.428571428571428,-322.46031746031747,28.333333333333332,245.95238095238093,41.03174603174603,-0.873015873015873,8.492063492063492,-166.26984126984127
-85.31746031746032,-131.34920634920636,-32.61904761904762,325.0,111.98412698412697,-256.58730158730157,-35.15873015873016,-240.7142857142857,119.6031746031746,34.682539682539684,-26.587301587301585,-159.28571428571428,-25.952380952380953,-100.23809523809523,-24.206349206349206,135.3174603174603,-6.428571428571428,-322.46031746031747,28.333333333333332,245.95238095238093,41.03174603174603,-0.873015873015873,8.492063492063492,-166.26984126984127
-93.57142857142857,-128.17460317460316,-36.904761904761905,278.17460317460313,108.96825396825396,-250.2380952380952,-40.39682539682539,-235.15873015873015,116.74603174603173,42.61904761904761,-31.98412698412698,-155.0,-31.98412698412698,-97.38095238095238,-30.07936507936508,131.984126984127,-20.396825396825395,-316.90476190476187,38.01587301587301,239.44444444444443,17.857142857142858,1.8253968253968254,5.0,-166.26984126984127
-93.57142857142857,-128.17460317460316,-36.904761904761905,278.17460317460313,108.96825396825396,-250.2380952380952,-40.39682539682539,-235.15873015873015,116.74603174603173,42.61904761904761,-31.98412698412698,-155.0,-31.98412698412698,-97.38095238095238,-30.07936507936508,131.984126984127,-20.396825396825395,-316.90476190476187,38.01587301587301,239.44444444444443,17.857142857142858,1.8253968253968254,5.0,-166.26984126984127
-101.19047619047619,-125.47619047619047,-9.920634920634921,325.0,106.58730158730158,-245.3174603174603,-12.936507936507935,-230.3968253968254,114.04761904761904,23.88888888888889,-4.682539682539682,-151.66666666666666,-3.095238095238095,-95.47619047619047,-3.571428571428571,129.28571428571428,-31.825396825396822,-308.968253968254,18.174603174603174,234.84126984126982,147.2222222222222,-1.507936507936508,1.507936507936508,-166.26984126984127
-101.19047619047619,-125.47619047619047,-9.920634920634921,325.0,106.58730158730158,-245.3174603174603,-12.936507936507935,-230.3968253968254,114.04761904761904,23.88888888888889,-4.682539682539682,-151.66666666666666,-3.095238095238095,-95.47619047619047,-3.571428571428571,129.28571428571428,-31.825396825396822,-308.968253968254,18.174603174603174,234.84126984126982,147.2222222222222,-1.507936507936508,1.507936507936508,-166.26984126984127
-106.26984126984127,-123.57142857142857,-14.047619047619047,310.07936507936506,104.68253968253968,-241.19047619047618,-17.063492063492063,-226.58730158730157,111.98412698412697,25.79365079365079,-8.65079365079365,-148.96825396825395,-7.5396825396825395,-93.88888888888889,-7.5396825396825395,126.9047619047619,-40.238095238095234,-303.88888888888886,20.238095238095237,230.7142857142857,154.2063492063492,1.507936507936508,-2.142857142857143,-321.8253968253968
-106.26984126984127,-123.57142857142857,-14.047619047619047,310.07936507936506,104.68253968253968,-241.19047619047618,-17.063492063492063,-226.58730158730157,111.98412698412697,25.79365079365079,-8.65079365079365,-148.96825396825395,-7.5396825396825395,-93.88888888888889,-7.5396825396825395,126.9047619047619,-40.238095238095234,-303.88888888888886,20.238095238095237,230.7142857142857,154.2063492063492,1.507936507936508,-2.142857142857143,-321.8253968253968
-109.92063492063491,-121.98412698412697,-9.603174603174603,325.0,103.4126984126984,-238.33333333333331,-12.777777777777777,-223.88888888888889,110.55555555555554,24.047619047619047,-4.2063492063492065,-147.06349206349205,-2.46031746031746,-92.77777777777777,-3.4126984126984126,125.47619047619047,-46.269841269841265,-301.031746031746,18.333333333333332,227.85714285714283,228.33333333333331,-0.07936507936507936,0.23809523809523808,-321.8253968253968
-109.92063492063491,-121.98412698412697,-9.603174603174603,325.0,103.4126984126984,-238.33333333333331,-12.777777777777777,-223.88888888888889,110.55555555555554,24.047619047619047,-4.2063492063492065,-147.06349206349205,-2.46031746031746,-92.77777777777777,-3.4126984126984126,125.47619047619047,-46.269841269841265,-301.031746031746,18.333333333333332,227.85714285714283,228.33333333333331,-0.07936507936507936,0.23809523809523808,-321.8253968253968
-115.95238095238095,-119.44444444444444,-12.46031746031746,314.5238095238095,100.87301587301587,-233.4126984126984,-15.634920634920634,-219.44444444444443,108.17460317460316,23.095238095238095,-7.3809523809523805,-143.57142857142856,-6.26984126984127,-90.71428571428571,-6.26984126984127,122.6190476190476,-55.79365079365079,-294.8412698412698,17.857142857142858,223.25396825396825,201.5079365079365,1.349206349206349,-1.8253968253968254,-321.8253968253968
-115.95238095238095,-119.44444444444444,-12.46031746031746,314.5238095238095,100.87301587301587,-233.4126984126984,-15.634920634920634,-219.44444444444443,108.17460317460316,23.095238095238095,-7.3809523809523805,-143.57142857142856,-6.26984126984127,-90.71428571428571,-6.26984126984127,122.6190476190476,-55.79365079365079,-294.8412698412698,17.857142857142858,223.25396825396825,201.5079365079365,1.349206349206349,-1.8253968253968254,-321.8253968253968
-120.55555555555554,-117.53968253968253,-5.317460317460317,325.0,99.12698412698413,-229.76190476190476,-9.126984126984127,-215.95238095238093,106.1111111111111,21.349206349206348,-0.5555555555555556,-141.19047619047618,1.8253968253968254,-89.12698412698413,0.07936507936507936,120.71428571428571,-63.41269841269841,-289.6031746031746,15.95238095238095,219.44444444444443,255.0,-1.8253968253968254,0.873015873015873,-321.8253968253968
-120.55555555555554,-117.53968253968253,-5.317460317460317,325.0,99.12698412698413,-229.76190476190476,-9.126984126984127,-215.95238095238093,106.1111111111111,21.349206349206348,-0.5555555555555556,-141.19047619047618,1.8253968253968254,-89.12698412698413,0.07936507936507936,120.71428571428571,-63.41269841269841,-289.6031746031746,15.95238095238095,219.44444444444443,255.0,-1.8253968253968254,0.873015873015873,-321.8253968253968
-124.68253968253967,-115.47619047619047,-5.158730158730158,321.3492063492063,97.38095238095238,-226.1111111111111,-8.333333333333332,-212.61904761904762,104.36507936507935,23.57142857142857,-0.7142857142857142,-138.65079365079364,0.5555555555555556,-87.38095238095238,0.873015873015873,118.65079365079364,-70.23809523809524,-231.34920634920633,18.96825396825397,215.79365079365078,218.8095238095238,2.142857142857143,-2.9365079365079363,-321.8253968253968
-124.68253968253967,-115.47619047619047,-5.158730158730158,321.3492063492063,97.38095238095238,-226.1111111111111,-8.333333333333332,-212.61904761904762,104.36507936507935,23.57142857142857,-0.7142857142857142,-138.65079365079364,0.5555555555555556,-87.38095238095238,0.873015873015873,118.65079365079364,-70.23809523809524,-231.34920634920633,18.96825396825397,215.79365079365078,218.8095238095238,2.142857142857143,-2.9365079365079363,-321.8253968253968
-127.6984126984127,-114.04761904761904,-9.920634920634921,325.0,96.1111111111111,-223.4126984126984,-13.095238095238095,-210.07936507936506,103.09523809523809,24.047619047619047,-4.841269841269841,-136.9047619047619,-2.3015873015873014,-86.42857142857143,-3.253968253968254,117.22222222222221,-75.31746031746032,-267.53968253968253,19.126984126984127,213.09523809523807,325.0,0.873015873015873,-0.873015873015873,-166.26984126984127
-127.6984126984127,-114.04761904761904,-9.920634920634921,325.0,96.1111111111111,-223.4126984126984,-13.095238095238095,-210.07936507936506,103.09523809523809,24.047619047619047,-4.841269841269841,-136.9047619047619,-2.3015873015873014,-86.42857142857143,-3.253968253968254,117.22222222222221,-75.31746031746032,-267.53968253968253,19.126984126984127,213.09523809523807,325.0,0.873015873015873,-0.873015873015873,-166.26984126984127
-132.46031746031744,-111.82539682539682,-18.96825396825397,325.0,94.04761904761904,-218.8095238095238,-22.619047619047617,-205.95238095238093,100.71428571428571,31.507936507936506,-15.0,-134.04761904761904,-14.047619047619047,-84.52380952380952,-13.571428571428571,114.84126984126983,-83.09523809523809,-275.4761904761905,26.746031746031743,208.65079365079364,234.2063492063492,0.873015873015873,-3.253968253968254,-166.26984126984127
-132.46031746031744,-111.82539682539682,-18.96825396825397,325.0,94.04761904761904,-218.8095238095238,-22.619047619047617,-205.95238095238093,100.71428571428571,31.507936507936506,-15.0,-134.04761904761904,-14.047619047619047,-84.52380952380952,-13.571428571428571,114.84126984126983,-83.09523809523809,-275.4761904761905,26.746031746031743,208.65079365079364,234.2063492063492,0.873015873015873,-3.253968253968254,-166.26984126984127
-136.42857142857142,-109.92063492063491,-10.555555555555555,325.0,92.61904761904762,-215.3174603174603,-15.158730158730158,-202.77777777777777,99.12698412698413,23.88888888888889,-6.587301587301587,-131.5079365079365,-3.571428571428571,-83.09523809523809,-6.111111111111111,112.77777777777777,-89.6031746031746,-271.5079365079365,18.96825396825397,205.3174603174603,323.4126984126984,-1.8253968253968254,1.8253968253968254,-166.26984126984127
-136.42857142857142,-109.92063492063491,-10.555555555555555,325.0,92.61904761904762,-215.3174603174603,-15.158730158730158,-202.77777777777777,99.12698412698413,23.88888888888889,-6.587301587301587,-131.5079365079365,-3.571428571428571,-83.09523809523809,-6.111111111111111,112.77777777777777,-89.6031746031746,-271.5079365079365,18.96825396825397,205.3174603174603,323.4126984126984,-1.8253968253968254,1.8253968253968254,-166.26984126984127
-137.22222222222223,-109.44444444444444,-28.65079365079365,325.0,92.14285714285714,-214.36507936507937,-33.888888888888886,-201.98412698412696,98.80952380952381,24.68253968253968,-24.523809523809522,-131.03174603174602,-22.3015873015873,-82.77777777777777,-23.41269841269841,112.46031746031746,-91.03174603174602,-270.55555555555554,20.07936507936508,204.52380952380952,325.0,-1.1904761904761905,8.65079365079365,-166.26984126984127
-137.22222222222223,-109.44444444444444,-28.65079365079365,325.0,92.14285714285714,-214.36507936507937,-33.888888888888886,-201.98412698412696,98.80952380952381,24.68253968253968,-24.523809523809522,-131.03174603174602,-22.3015873015873,-82.77777777777777,-23.41269841269841,112.46031746031746,-91.03174603174602,-270.55555555555554,20.07936507936508,204.52380952380952,325.0,-1.1904761904761905,8.65079365079365,-166.26984126984127
-145.95238095238093,-104.52380952380952,-31.349206349206348,325.0,87.6984126984127,-205.0,-35.95238095238095,-192.93650793650792,94.04761904761904,36.904761904761905,-28.333333333333332,-124.68253968253967,-27.698412698412696,-78.96825396825396,-27.38095238095238,106.9047619047619,-105.95238095238095,-248.015873015873,32.460317460317455,195.15873015873015,257.38095238095235,1.507936507936508,-3.095238095238095,-166.26984126984127
-145.95238095238093,-104.52380952380952,-31.349206349206348,325.0,87.6984126984127,-205.0,-35.95238095238095,-192.93650793650792,94.04761904761904,36.904761904761905,-28.333333333333332,-124.68253968253967,-27.698412698412696,-78.96825396825396,-27.38095238095238,106.9047619047619,-105.95238095238095,-248.015873015873,32.460317460317455,195.15873015873015,257.38095238095235,1.507936507936508,-3.095238095238095,-166.26984126984127
-146.74603174603175,-103.88888888888889,-20.07936507936508,325.0,87.38095238095238,-204.04761904761904,-23.41269841269841,-192.3015873015873,93.73015873015872,34.047619047619044,-16.11111111111111,-123.88888888888889,-14.047619047619047,-78.4920634920635,-15.317460317460316,106.42857142857142,-107.06349206349206,-250.7142857142857,29.76190476190476,194.36507936507937,325.0,1.349206349206349,-9.761904761904761,-321.8253968253968
-146.74603174603175,-103.88888888888889,-20.07936507936508,325.0,87.38095238095238,-204.04761904761904,-23.41269841269841,-192.3015873015873,93.73015873015872,34.047619047619044,-16.11111111111111,-123.88888888888889,-14.047619047619047,-78.4920634920635,-15.317460317460316,106.42857142857142,-107.06349206349206,-250.7142857142857,29.76190476190476,194.36507936507937,325.0,1.349206349206349,-9.761904761904761,-321.8253968253968
-151.984126984127,-101.19047619047619,-31.349206349206348,325.0,84.68253968253968,-198.4920634920635,-36.42857142857142,-187.06349206349205,90.71428571428571,32.93650793650794,-29.126984126984127,-120.39682539682539,-28.333333333333332,-76.26984126984127,-27.698412698412696,103.4126984126984,-116.26984126984127,-125.0,28.96825396825397,188.4920634920635,270.23809523809524,0.873015873015873,-4.0476190476190474,-321.8253968253968
-151.984126984127,-101.19047619047619,-31.349206349206348,325.0,84.68253968253968,-198.4920634920635,-36.42857142857142,-187.06349206349205,90.71428571428571,32.93650793650794,-29.126984126984127,-120.39682539682539,-28.333333333333332,-76.26984126984127,-27.698412698412696,103.4126984126984,-116.26984126984127,-125.0,28.96825396825397,188.4920634920635,270.23809523809524,0.873015873015873,-4.0476190476190474,-321.8253968253968
-154.84126984126982,-99.6031746031746,-39.44444444444444,325.0,83.25396825396825,-195.15873015873015,-44.84126984126984,-184.04761904761904,89.12698412698413,33.57142857142857,-36.42857142857142,-118.33333333333333,-33.73015873015873,-75.0,-35.79365079365079,101.82539682539682,-120.71428571428571,24.206349206349206,28.49206349206349,185.47619047619045,325.0,-1.6666666666666665,1.6666666666666665,-321.8253968253968
-154.84126984126982,-99.6031746031746,-39.44444444444444,325.0,83.25396825396825,-195.15873015873015,-44.84126984126984,-184.04761904761904,89.12698412698413,33.57142857142857,-36.42857142857142,-118.33333333333333,-33.73015873015873,-75.0,-35.79365079365079,101.82539682539682,-120.71428571428571,24.206349206349206,28.49206349206349,185.47619047619045,325.0,-1.6666666666666665,1.6666666666666665,-321.8253968253968
-156.74603174603175,-98.49206349206348,-56.74603174603174,325.0,82.3015873015873,-192.77777777777777,-62.61904761904761,-181.984126984127,87.85714285714285,32.14285714285714,-54.36507936507936,-116.74603174603173,-52.61904761904761,-74.04761904761904,-53.57142857142857,100.55555555555554,-124.2063492063492,200.7142857142857,27.22222222222222,183.4126984126984,325.0,-0.5555555555555556,-0.7142857142857142,-321.8253968253968
-156.74603174603175,-98.49206349206348,-56.74603174603174,325.0,82.3015873015873,-192.77777777777777,-62.61904761904761,-181.984126984127,87.85714285714285,32.14285714285714,-54.36507936507936,-116.74603174603173,-52.61904761904761,-74.04761904761904,-53.57142857142857,100.55555555555554,-124.2063492063492,200.7142857142857,27.22222222222222,183.4126984126984,325.0,-0.5555555555555556,-0.7142857142857142,-321.8253968253968
-159.9206349206349,-96.42857142857142,-49.92063492063492,325.0,80.39682539682539,-188.8095238095238,-54.68253968253968,-178.33333333333331,86.1111111111111,27.539682539682538,-46.11111111111111,-114.04761904761904,-43.57142857142857,-72.61904761904762,-45.476190476190474,61.507936507936506,-129.76190476190476,325.0,22.619047619047617,179.28571428571428,325.0,-1.0317460317460316,1.507936507936508,-321.8253968253968
-159.9206349206349,-96.42857142857142,-49.92063492063492,325.0,80.39682539682539,-188.8095238095238,-54.68253968253968,-178.33333333333331,86.1111111111111,27.539682539682538,-46.11111111111111,-114.04761904761904,-43.57142857142857,-72.61904761904762,-45.476190476190474,61.507936507936506,-129.76190476190476,325.0,22.619047619047617,179.28571428571428,325.0,-1.0317460317460316,1.507936507936508,-321.8253968253968
-162.14285714285714,-94.68253968253968,-25.476190476190474,325.0,79.12698412698413,-185.79365079365078,-29.444444444444443,-175.15873015873015,84.52380952380952,27.698412698412696,-22.3015873015873,-112.14285714285714,-21.349206349206348,-71.34920634920634,-21.03174603174603,57.698412698412696,-133.57142857142856,108.01587301587301,22.936507936507937,176.42857142857142,295.4761904761905,1.349206349206349,-3.095238095238095,-166.26984126984127
-162.14285714285714,-94.68253968253968,-25.476190476190474,325.0,79.12698412698413,-185.79365079365078,-29.444444444444443,-175.15873015873015,84.52380952380952,27.698412698412696,-22.3015873015873,-112.14285714285714,-21.349206349206348,-71.34920634920634,-21.03174603174603,57.698412698412696,-133.57142857142856,108.01587301587301,22.936507936507937,176.42857142857142,295.4761904761905,1.349206349206349,-3.095238095238095,-166.26984126984127
-163.73015873015873,-93.57142857142857,-25.158730158730158,325.0,78.01587301587301,-183.57142857142856,-29.920634920634917,-173.25396825396825,83.4126984126984,27.698412698412696,-21.349206349206348,-110.55555555555554,-19.76190476190476,-70.39682539682539,-20.555555555555554,91.34920634920634,-136.42857142857142,-66.11111111111111,22.777777777777775,174.04761904761904,325.0,-0.5555555555555556,-0.5555555555555556,-166.26984126984127
-163.73015873015873,-93.57142857142857,-25.158730158730158,325.0,78.01587301587301,-183.57142857142856,-29.920634920634917,-173.25396825396825,83.4126984126984,27.698412698412696,-21.349206349206348,-110.55555555555554,-19.76190476190476,-70.39682539682539,-20.555555555555554,91.34920634920634,-136.42857142857142,-66.11111111111111,22.777777777777775,174.04761904761904,325.0,-0.5555555555555556,-0.5555555555555556,-166.26984126984127
-165.63492063492063,-91.82539682539682,-38.17460317460317,325.0,76.58730158730158,-180.55555555555554,-43.73015873015873,-170.55555555555554,81.98412698412697,27.38095238095238,-35.476190476190474,-108.65079365079364,-34.047619047619044,-69.12698412698413,-35.0,96.26984126984127,-140.07936507936506,-104.36507936507935,22.936507936507937,171.19047619047618,325.0,-0.3968253968253968,-0.7142857142857142,-166.26984126984127
-165.63492063492063,-91.82539682539682,-38.17460317460317,325.0,76.58730158730158,-180.55555555555554,-43.73015873015873,-170.55555555555554,81.98412698412697,27.38095238095238,-35.476190476190474,-108.65079365079364,-34.047619047619044,-69.12698412698413,-35.0,96.26984126984127,-140.07936507936506,-104.36507936507935,22.936507936507937,171.19047619047618,325.0,-0.3968253968253968,-0.7142857142857142,-166.26984126984127
-168.17460317460316,-89.92063492063491,-20.07936507936508,325.0,74.84126984126983,-176.9047619047619,-24.523809523809522,-167.06349206349205,79.92063492063491,21.349206349206348,-16.904761904761905,-106.42857142857142,-13.888888888888888,-67.6984126984127,-16.11111111111111,87.85714285714285,-144.52380952380952,-239.12698412698413,16.428571428571427,167.69841269841268,325.0,-1.8253968253968254,3.253968253968254,-166.26984126984127
-168.17460317460316,-89.92063492063491,-20.07936507936508,325.0,74.84126984126983,-176.9047619047619,-24.523809523809522,-167.06349206349205,79.92063492063491,21.349206349206348,-16.904761904761905,-106.42857142857142,-13.888888888888888,-67.6984126984127,-16.11111111111111,87.85714285714285,-144.52380952380952,-239.12698412698413,16.428571428571427,167.69841269841268,325.0,-1.8253968253968254,3.253968253968254,-166.26984126984127
-172.46031746031744,-86.26984126984127,-25.952380952380953,325.0,71.66666666666666,-170.07936507936506,-31.98412698412698,-160.55555555555554,76.58730158730158,21.825396825396822,-24.365079365079364,-101.82539682539682,-23.57142857142857,-64.84126984126983,-23.730158730158728,53.25396825396825,-152.46031746031744,-165.79365079365078,17.698412698412696,160.7142857142857,322.9365079365079,0.23809523809523808,5.476190476190476,-166.26984126984127
-172.46031746031744,-86.26984126984127,-25.952380952380953,325.0,71.66666666666666,-170.07936507936506,-31.98412698412698,-160.55555555555554,76.58730158730158,21.825396825396822,-24.365079365079364,-101.82539682539682,-23.57142857142857,-64.84126984126983,-23.730158730158728,53.25396825396825,-152.46031746031744,-165.79365079365078,17.698412698412696,160.7142857142857,322.9365079365079,0.23809523809523808,5.476190476190476,-166.26984126984127
-173.88888888888889,-84.84126984126983,-15.634920634920634,325.0,70.39682539682539,-167.06349206349205,-19.76190476190476,-157.85714285714286,75.15873015873015,17.857142857142858,-12.936507936507935,-100.07936507936508,-11.031746031746032,-63.73015873015873,-12.619047619047619,31.666666666666664,-155.47619047619048,-196.74603174603175,12.777777777777777,158.17460317460316,325.0,-0.3968253968253968,-7.5396825396825395,-321.8253968253968
-173.88888888888889,-84.84126984126983,-15.634920634920634,325.0,70.39682539682539,-167.06349206349205,-19.76190476190476,-157.85714285714286,75.15873015873015,17.857142857142858,-12.936507936507935,-100.07936507936508,-11.031746031746032,-63.73015873015873,-12.619047619047619,31.666666666666664,-155.47619047619048,-196.74603174603175,12.777777777777777,158.17460317460316,325.0,-0.3968253968253968,-7.5396825396825395,-321.8253968253968
-175.47619047619045,-83.57142857142857,-13.412698412698411,325.0,69.12698412698413,-164.36507936507937,-18.80952380952381,-155.47619047619048,73.88888888888889,14.206349206349206,-11.507936507936508,-98.17460317460316,-10.555555555555555,-62.61904761904761,-10.555555555555555,-21.349206349206348,-158.33333333333331,-114.2063492063492,9.761904761904761,155.3174603174603,325.0,-0.07936507936507936,5.634920634920634,-321.8253968253968
-175.47619047619045,-83.57142857142857,-13.412698412698411,325.0,69.12698412698413,-164.36507936507937,-18.80952380952381,-155.47619047619048,73.88888888888889,14.206349206349206,-11.507936507936508,-98.17460317460316,-10.555555555555555,-62.61904761904761,-10.555555555555555,-21.349206349206348,-158.33333333333331,-114.2063492063492,9.761904761904761,155.3174603174603,325.0,-0.07936507936507936,5.634920634920634,-321.8253968253968
-177.06349206349205,-82.14285714285714,-26.9047619047619,325.0,68.01587301587301,-161.66666666666666,-32.61904761904762,-153.09523809523807,72.77777777777777,10.873015873015872,-25.158730158730158,-96.42857142857142,-23.730158730158728,-61.666666666666664,-25.476190476190474,88.17460317460316,-161.03174603174602,-71.5079365079365,6.111111111111111,152.61904761904762,325.0,-0.07936507936507936,-8.174603174603174,-321.8253968253968
-177.06349206349205,-82.14285714285714,-26.9047619047619,325.0,68.01587301587301,-161.66666666666666,-32.61904761904762,-153.09523809523807,72.77777777777777,10.873015873015872,-25.158730158730158,-96.42857142857142,-23.730158730158728,-61.666666666666664,-25.476190476190474,88.17460317460316,-161.03174603174602,-71.5079365079365,6.111111111111111,152.61904761904762,325.0,-0.07936507936507936,-8.174603174603174,-321.8253968253968
-178.015873015873,-80.87301587301587,-57.38095238095238,325.0,66.9047619047619,-159.12698412698413,-63.25396825396825,-150.3968253968254,71.34920634920634,16.11111111111111,-55.79365079365079,-94.84126984126983,-55.317460317460316,-60.55555555555555,-55.0,91.03174603174602,-163.4126984126984,-2.619047619047619,11.349206349206348,150.3968253968254,325.0,0.07936507936507936,5.634920634920634,-321.8253968253968
-178.015873015873,-80.87301587301587,-57.38095238095238,325.0,66.9047619047619,-159.12698412698413,-63.25396825396825,-150.3968253968254,71.34920634920634,16.11111111111111,-55.79365079365079,-94.84126984126983,-55.317460317460316,-60.55555555555555,-55.0,91.03174603174602,-163.4126984126984,-2.619047619047619,11.349206349206348,150.3968253968254,325.0,0.07936507936507936,5.634920634920634,-321.8253968253968
-178.65079365079364,-79.76190476190476,-51.98412698412698,325.0,65.95238095238095,-157.06349206349205,-58.650793650793645,-148.8095238095238,70.55555555555556,12.46031746031746,-51.19047619047619,-93.4126984126984,-50.079365079365076,-59.76190476190476,-51.03174603174603,88.65079365079364,-165.15873015873015,-61.507936507936506,8.492063492063492,148.17460317460316,325.0,0.3968253968253968,-10.396825396825395,-321.8253968253968
-178.65079365079364,-79.76190476190476,-51.98412698412698,325.0,65.95238095238095,-157.06349206349205,-58.650793650793645,-148.8095238095238,70.55555555555556,12.46031746031746,-51.19047619047619,-93.4126984126984,-50.079365079365076,-59.76190476190476,-51.03174603174603,88.65079365079364,-165.15873015873015,-61.507936507936506,8.492063492063492,148.17460317460316,325.0,0.3968253968253968,-10.396825396825395,-321.8253968253968
-180.07936507936506,-78.17460317460316,-42.3015873015873,325.0,64.52380952380952,-153.88888888888889,-48.33333333333333,-145.79365079365078,68.96825396825396,12.619047619047619,-40.39682539682539,-91.34920634920634,-39.92063492063492,-58.650793650793645,-40.079365079365076,86.9047619047619,-167.69841269841268,242.46031746031744,8.015873015873016,145.3174603174603,273.88888888888886,0.7142857142857142,5.7936507936507935,-166.26984126984127
-180.07936507936506,-78.17460317460316,-42.3015873015873,325.0,64.52380952380952,-153.88888888888889,-48.33333333333333,-145.79365079365078,68.96825396825396,12.619047619047619,-40.39682539682539,-91.34920634920634,-39.92063492063492,-58.650793650793645,-40.079365079365076,86.9047619047619,-167.69841269841268,242.46031746031744,8.015873015873016,145.3174603174603,273.88888888888886,0.7142857142857142,5.7936507936507935,-166.26984126984127
-181.19047619047618,-76.9047619047619,-37.53968253968254,325.0,63.41269841269841,-151.34920634920633,-42.460317460317455,-143.25396825396825,67.6984126984127,6.904761904761904,-35.63492063492063,-89.6031746031746,-34.36507936507936,-57.698412698412696,-35.476190476190474,85.15873015873015,-169.76190476190476,325.0,1.6666666666666665,142.61904761904762,325.0,-0.07936507936507936,-8.015873015873016,-166.26984126984127
-181.19047619047618,-76.9047619047619,-37.53968253968254,325.0,63.41269841269841,-151.34920634920633,-42.460317460317455,-143.25396825396825,67.6984126984127,6.904761904761904,-35.63492063492063,-89.6031746031746,-34.36507936507936,-57.698412698412696,-35.476190476190474,85.15873015873015,-169.76190476190476,325.0,1.6666666666666665,142.61904761904762,325.0,-0.07936507936507936,-8.015873015873016,-166.26984126984127
-181.8253968253968,-75.63492063492063,-54.2063492063492,325.0,62.14285714285714,-148.8095238095238,-60.238095238095234,-141.19047619047618,66.42857142857143,10.079365079365079,-53.095238095238095,-88.17460317460316,-52.61904761904761,-56.58730158730158,-52.93650793650794,83.88888888888889,-171.66666666666666,325.0,5.952380952380952,140.23809523809524,271.19047619047615,-0.23809523809523808,5.476190476190476,-166.26984126984127
-181.8253968253968,-75.63492063492063,-54.2063492063492,325.0,62.14285714285714,-148.8095238095238,-60.238095238095234,-141.19047619047618,66.42857142857143,10.079365079365079,-53.095238095238095,-88.17460317460316,-52.61904761904761,-56.58730158730158,-52.93650793650794,83.88888888888889,-171.66666666666666,325.0,5.952380952380952,140.23809523809524,271.19047619047615,-0.23809523809523808,5.476190476190476,-166.26984126984127
-182.61904761904762,-74.36507936507937,-40.39682539682539,325.0,61.19047619047619,-146.58730158730157,-45.95238095238095,-138.65079365079364,65.15873015873015,6.111111111111111,-38.96825396825397,-86.58730158730158,-38.01587301587301,-55.63492063492063,-38.96825396825397,82.14285714285714,-173.57142857142856,325.0,1.1904761904761905,137.85714285714286,325.0,-0.7142857142857142,-7.698412698412698,-166.26984126984127
-182.61904761904762,-74.36507936507937,-40.39682539682539,325.0,61.19047619047619,-146.58730158730157,-45.95238095238095,-138.65079365079364,65.15873015873015,6.111111111111111,-38.96825396825397,-86.58730158730158,-38.01587301587301,-55.63492063492063,-38.96825396825397,82.14285714285714,-173.57142857142856,325.0,1.1904761904761905,137.85714285714286,325.0,-0.7142857142857142,-7.698412698412698,-166.26984126984127
-183.4126984126984,-72.61904761904762,-94.52380952380952,325.0,59.285714285714285,-142.3015873015873,-103.57142857142857,-135.0,63.41269841269841,14.682539682539682,-94.84126984126983,-84.04761904761904,-95.63492063492063,-54.047619047619044,-95.47619047619047,79.92063492063491,-175.95238095238093,325.0,10.555555555555555,134.04761904761904,325.0,-2.46031746031746,7.5396825396825395,-166.26984126984127
-183.4126984126984,-72.61904761904762,-94.52380952380952,325.0,59.285714285714285,-142.3015873015873,-103.57142857142857,-135.0,63.41269841269841,14.682539682539682,-94.84126984126983,-84.04761904761904,-95.63492063492063,-54.047619047619044,-95.47619047619047,79.92063492063491,-175.95238095238093,325.0,10.555555555555555,134.04761904761904,325.0,-2.46031746031746,7.5396825396825395,-166.26984126984127
-184.2063492063492,-70.71428571428571,-81.82539682539682,325.0,57.698412698412696,-138.8095238095238,-89.76190476190476,-131.8253968253968,61.666666666666664,15.634920634920634,-81.82539682539682,-81.66666666666666,-82.77777777777777,-52.61904761904761,-82.46031746031746,76.26984126984127,-178.17460317460316,325.0,11.507936507936508,130.55555555555554,325.0,-1.0317460317460316,-1.6666666666666665,-321.8253968253968
-184.2063492063492,-70.71428571428571,-81.82539682539682,325.0,57.698412698412696,-138.8095238095238,-89.76190476190476,-131.8253968253968,61.666666666666664,15.634920634920634,-81.82539682539682,-81.66666666666666,-82.77777777777777,-52.61904761904761,-82.46031746031746,76.26984126984127,-178.17460317460316,325.0,11.507936507936508,130.55555555555554,325.0,-1.0317460317460316,-1.6666666666666665,-321.8253968253968
-184.84126984126982,-68.96825396825396,-15.793650793650793,325.0,56.58730158730158,-136.11111111111111,-19.92063492063492,-128.96825396825395,60.238095238095234,5.952380952380952,-12.936507936507935,-80.07936507936508,-11.825396825396824,-51.507936507936506,-12.936507936507935,-132.46031746031744,-179.9206349206349,273.57142857142856,1.0317460317460316,128.015873015873,325.0,-1.349206349206349,2.142857142857143,-321.8253968253968
-184.84126984126982,-68.96825396825396,-15.793650793650793,325.0,56.58730158730158,-136.11111111111111,-19.92063492063492,-128.96825396825395,60.238095238095234,5.952380952380952,-12.936507936507935,-80.07936507936508,-11.825396825396824,-51.507936507936506,-12.936507936507935,-132.46031746031744,-179.9206349206349,273.57142857142856,1.0317460317460316,128.015873015873,325.0,-1.349206349206349,2.142857142857143,-321.8253968253968
-185.0,-68.01587301587301,-17.063492063492063,325.0,55.63492063492063,-134.36507936507937,-24.523809523809522,-127.38095238095238,59.44444444444444,7.857142857142857,-16.428571428571427,-78.80952380952381,-17.539682539682538,-50.87301587301587,-17.539682539682538,-281.984126984127,-180.7142857142857,298.3333333333333,3.253968253968254,126.1111111111111,325.0,-1.0317460317460316,-1.8253968253968254,-321.8253968253968
-185.0,-68.01587301587301,-17.063492063492063,325.0,55.63492063492063,-134.36507936507937,-24.523809523809522,-127.38095238095238,59.44444444444444,7.857142857142857,-16.428571428571427,-78.80952380952381,-17.539682539682538,-50.87301587301587,-17.539682539682538,-281.984126984127,-180.7142857142857,298.3333333333333,3.253968253968254,126.1111111111111,325.0,-1.0317460317460316,-1.8253968253968254,-321.8253968253968
-185.3174603174603,-66.74603174603175,18.96825396825397,325.0,54.52380952380952,-131.8253968253968,14.047619047619047,-124.84126984126983,58.17460317460317,8.015873015873016,20.873015873015873,-77.06349206349206,20.238095238095237,-49.92063492063492,19.6031746031746,-325.0,-181.984126984127,325.0,3.571428571428571,123.57142857142857,325.0,-1.984126984126984,2.142857142857143,-321.8253968253968
-185.3174603174603,-66.74603174603175,18.96825396825397,325.0,54.52380952380952,-131.8253968253968,14.047619047619047,-124.84126984126983,58.17460317460317,8.015873015873016,20.873015873015873,-77.06349206349206,20.238095238095237,-49.92063492063492,19.6031746031746,-325.0,-181.984126984127,325.0,3.571428571428571,123.57142857142857,325.0,-1.984126984126984,2.142857142857143,-321.8253968253968
-184.84126984126982,-61.19047619047619,-13.73015873015873,325.0,49.76190476190476,-120.87301587301586,-18.333333333333332,-114.68253968253967,52.93650793650794,11.507936507936508,-12.3015873015873,-70.55555555555556,-15.317460317460316,-45.63492063492063,-12.936507936507935,-98.17460317460316,-185.0,325.0,7.857142857142857,112.77777777777777,325.0,1.0317460317460316,5.7936507936507935,-321.8253968253968
-184.84126984126982,-61.19047619047619,-13.73015873015873,325.0,49.76190476190476,-120.87301587301586,-18.333333333333332,-114.68253968253967,52.93650793650794,11.507936507936508,-12.3015873015873,-70.55555555555556,-15.317460317460316,-45.63492063492063,-12.936507936507935,-98.17460317460316,-185.0,325.0,7.857142857142857,112.77777777777777,325.0,1.0317460317460316,5.7936507936507935,-321.8253968253968
-184.2063492063492,-55.476190476190474,-60.238095238095234,325.0,44.84126984126984,-109.44444444444444,-66.26984126984127,-104.2063492063492,47.698412698412696,14.365079365079364,-57.698412698412696,-63.41269841269841,-59.12698412698413,-41.19047619047619,-59.285714285714285,131.19047619047618,-187.2222222222222,257.85714285714283,10.079365079365079,102.30158730158729,325.0,1.1904761904761905,-11.031746031746032,-166.26984126984127
-184.2063492063492,-55.476190476190474,-60.238095238095234,325.0,44.84126984126984,-109.44444444444444,-66.26984126984127,-104.2063492063492,47.698412698412696,14.365079365079364,-57.698412698412696,-63.41269841269841,-59.12698412698413,-41.19047619047619,-59.285714285714285,131.19047619047618,-187.2222222222222,257.85714285714283,10.079365079365079,102.30158730158729,325.0,1.1904761904761905,-11.031746031746032,-166.26984126984127
-183.57142857142856,-54.52380952380952,-64.68253968253968,325.0,43.73015873015873,-107.06349206349206,-69.28571428571428,-102.30158730158729,46.74603174603175,16.11111111111111,-63.095238095238095,-60.39682539682539,-67.85714285714285,-40.55555555555555,-63.41269841269841,127.6984126984127,-187.53968253968253,325.0,12.142857142857142,99.76190476190476,325.0,0.7142857142857142,6.428571428571428,-166.26984126984127
-183.57142857142856,-54.52380952380952,-64.68253968253968,325.0,43.73015873015873,-107.06349206349206,-69.28571428571428,-102.30158730158729,46.74603174603175,16.11111111111111,-63.095238095238095,-60.39682539682539,-67.85714285714285,-40.55555555555555,-63.41269841269841,127.6984126984127,-187.53968253968253,325.0,12.142857142857142,99.76190476190476,325.0,0.7142857142857142,6.428571428571428,-166.26984126984127
-183.09523809523807,-53.57142857142857,-59.6031746031746,325.0,42.93650793650794,-105.31746031746032,-64.68253968253968,-100.55555555555554,45.79365079365079,15.158730158730158,-57.53968253968254,-42.3015873015873,-59.285714285714285,-39.76190476190476,-58.96825396825397,27.38095238095238,-187.53968253968253,243.57142857142856,11.031746031746032,98.01587301587301,325.0,-1.0317460317460316,-7.063492063492063,-166.26984126984127
-183.09523809523807,-53.57142857142857,-59.6031746031746,325.0,42.93650793650794,-105.31746031746032,-64.68253968253968,-100.55555555555554,45.79365079365079,15.158730158730158,-57.53968253968254,-42.3015873015873,-59.285714285714285,-39.76190476190476,-58.96825396825397,27.38095238095238,-187.53968253968253,243.57142857142856,11.031746031746032,98.01587301587301,325.0,-1.0317460317460316,-7.063492063492063,-166.26984126984127
-182.61904761904762,-52.460317460317455,-35.63492063492063,325.0,42.14285714285714,-103.73015873015872,-40.079365079365076,-98.96825396825396,45.0,14.682539682539682,-33.73015873015873,-55.79365079365079,-38.49206349206349,-39.285714285714285,-34.52380952380952,-14.682539682539682,-187.38095238095238,246.26984126984127,10.714285714285714,96.58730158730158,325.0,0.3968253968253968,6.26984126984127,-166.26984126984127
-182.61904761904762,-52.460317460317455,-35.63492063492063,325.0,42.14285714285714,-103.73015873015872,-40.079365079365076,-98.96825396825396,45.0,14.682539682539682,-33.73015873015873,-55.79365079365079,-38.49206349206349,-39.285714285714285,-34.52380952380952,-14.682539682539682,-187.38095238095238,246.26984126984127,10.714285714285714,96.58730158730158,325.0,0.3968253968253968,6.26984126984127,-166.26984126984127
-182.3015873015873,-51.82539682539682,-36.42857142857142,325.0,41.82539682539682,-102.46031746031746,-40.87301587301587,-97.6984126984127,44.2063492063492,12.777777777777777,-34.84126984126984,-28.96825396825397,-38.49206349206349,-38.65079365079365,-36.269841269841265,97.53968253968253,-187.38095238095238,279.1269841269841,8.65079365079365,95.47619047619047,325.0,0.07936507936507936,-0.7142857142857142,-166.26984126984127
-182.3015873015873,-51.82539682539682,-36.42857142857142,325.0,41.82539682539682,-102.46031746031746,-40.87301587301587,-97.6984126984127,44.2063492063492,12.777777777777777,-34.84126984126984,-28.96825396825397,-38.49206349206349,-38.65079365079365,-36.269841269841265,97.53968253968253,-187.38095238095238,279.1269841269841,8.65079365079365,95.47619047619047,325.0,0.07936507936507936,-0.7142857142857142,-166.26984126984127
-181.5079365079365,-50.71428571428571,-63.57142857142857,325.0,40.714285714285715,-100.55555555555554,-67.6984126984127,-95.95238095238095,43.25396825396825,11.984126984126984,-61.507936507936506,-51.19047619047619,-65.79365079365078,-37.698412698412696,-61.82539682539682,85.95238095238095,-187.2222222222222,320.55555555555554,8.174603174603174,93.4126984126984,325.0,1.349206349206349,6.428571428571428,-321.8253968253968
-181.5079365079365,-50.71428571428571,-63.57142857142857,325.0,40.714285714285715,-100.55555555555554,-67.6984126984127,-95.95238095238095,43.25396825396825,11.984126984126984,-61.507936507936506,-51.19047619047619,-65.79365079365078,-37.698412698412696,-61.82539682539682,85.95238095238095,-187.2222222222222,320.55555555555554,8.174603174603174,93.4126984126984,325.0,1.349206349206349,6.428571428571428,-321.8253968253968
