Fp1[1],Fp2[2],F3[3],F4[4],C3[5],C4[6],P3[7],P4[8],O1[9],O2[10],F7[11],F8[12],T3[13],T4[14],T5[15],T6[16],Fz[17],Pz[18],Cz[19],Pg1[20],Pg2[21],EOGR[22],EOOGL[23],EMG[24]
325.0,325.0,-325.0,89.6031746031746,-325.0,325.0,-325.0,325.0,-325.0,-325.0,-325.0,40.87301587301587,-325.0,325.0,-325.0,325.0,325.0,-71.19047619047619,-124.84126984126983,-265.0,51.666666666666664,7.3809523809523805,10.873015873015872,-166.26984126984127
325.0,325.0,-325.0,89.6031746031746,-325.0,325.0,-325.0,325.0,-325.0,-325.0,-325.0,40.87301587301587,-325.0,325.0,-325.0,325.0,325.0,-71.19047619047619,-124.84126984126983,-265.0,51.666666666666664,7.3809523809523805,10.873015873015872,-166.26984126984127
325.0,325.0,-325.0,89.76190476190476,-325.0,325.0,-325.0,325.0,-325.0,-325.0,-325.0,37.698412698412696,-325.0,325.0,-325.0,325.0,325.0,-70.23809523809524,-117.06349206349206,-261.5079365079365,62.460317460317455,-0.3968253968253968,-0.23809523809523808,-166.26984126984127
325.0,325.0,-325.0,89.76190476190476,-325.0,325.0,-325.0,325.0,-325.0,-325.0,-325.0,37.698412698412696,-325.0,325.0,-325.0,325.0,325.0,-70.23809523809524,-117.06349206349206,-261.5079365079365,62.460317460317455,-0.3968253968253968,-0.23809523809523808,-166.26984126984127
325.0,325.0,-325.0,82.77777777777777,-325.0,325.0,-325.0,325.0,-325.0,-325.0,-325.0,25.158730158730158,-325.0,325.0,-325.0,325.0,325.0,-68.17460317460318,-108.80952380952381,-254.04761904761904,-325.0,11.507936507936508,16.746031746031743,-166.26984126984127
325.0,325.0,-325.0,82.77777777777777,-325.0,325.0,-325.0,325.0,-325.0,-325.0,-325.0,25.158730158730158,-325.0,325.0,-325.0,325.0,325.0,-68.17460317460318,-108.80952380952381,-254.04761904761904,-325.0,11.507936507936508,16.746031746031743,-166.26984126984127
325.0,325.0,-325.0,82.77777777777777,-325.0,325.0,-325.0,325.0,-325.0,-325.0,-325.0,25.158730158730158,-325.0,325.0,-325.0,325.0,325.0,-68.17460317460318,-108.80952380952381,-254.04761904761904,-325.0,11.507936507936508,16.746031746031743,-166.26984126984127
325.0,325.0,-325.0,82.77777777777777,-325.0,325.0,-325.0,325.0,-325.0,-325.0,-325.0,25.158730158730158,-325.0,325.0,-325.0,325.0,325.0,-68.17460317460318,-108.80952380952381,-254.04761904761904,-325.0,11.507936507936508,16.746031746031743,-166.26984126984127
325.0,325.0,-325.0,82.77777777777777,-325.0,325.0,-325.0,325.0,-325.0,-325.0,-325.0,25.158730158730158,-325.0,325.0,-325.0,325.0,325.0,-68.17460317460318,-108.80952380952381,-254.04761904761904,-325.0,11.507936507936508,16.746031746031743,-166.26984126984127
325.0,325.0,-325.0,82.77777777777777,-325.0,325.0,-325.0,325.0,-325.0,-325.0,-325.0,25.158730158730158,-325.0,325.0,-325.0,325.0,325.0,-68.17460317460318,-108.80952380952381,-254.04761904761904,-325.0,11.507936507936508,16.746031746031743,-166.26984126984127
309.1269841269841,325.0,-325.0,88.01587301587301,-325.0,321.3492063492063,-325.0,325.0,-325.0,-325.0,-325.0,21.507936507936506,-325.0,320.23809523809524,-325.0,319.9206349206349,325.0,-63.41269841269841,-66.11111111111111,-235.3174603174603,-325.0,3.095238095238095,4.0476190476190474,-321.8253968253968
309.1269841269841,325.0,-325.0,88.01587301587301,-325.0,321.3492063492063,-325.0,325.0,-325.0,-325.0,-325.0,21.507936507936506,-325.0,320.23809523809524,-325.0,319.9206349206349,325.0,-63.41269841269841,-66.11111111111111,-235.3174603174603,-325.0,3.095238095238095,4.0476190476190474,-321.8253968253968
289.2857142857143,325.0,-325.0,93.88888888888889,-325.0,313.73015873015873,-325.0,325.0,-325.0,-325.0,-325.0,18.174603174603174,-325.0,311.19047619047615,-325.0,310.39682539682536,325.0,-58.17460317460317,-17.38095238095238,-214.04761904761904,-325.0,-2.46031746031746,-4.682539682539682,-321.8253968253968
289.2857142857143,325.0,-325.0,93.88888888888889,-325.0,313.73015873015873,-325.0,325.0,-325.0,-325.0,-325.0,18.174603174603174,-325.0,311.19047619047615,-325.0,310.39682539682536,325.0,-58.17460317460317,-17.38095238095238,-214.04761904761904,-325.0,-2.46031746031746,-4.682539682539682,-321.8253968253968
285.3174603174603,325.0,-325.0,93.4126984126984,-325.0,309.76190476190476,-325.0,322.3015873015873,-325.0,-325.0,-325.0,15.95238095238095,-325.0,306.90476190476187,-325.0,306.58730158730157,325.0,-57.38095238095238,-13.253968253968253,-210.7142857142857,-325.0,10.555555555555555,14.682539682539682,-321.8253968253968
285.3174603174603,325.0,-325.0,93.4126984126984,-325.0,309.76190476190476,-325.0,322.3015873015873,-325.0,-325.0,-325.0,15.95238095238095,-325.0,306.90476190476187,-325.0,306.58730158730157,325.0,-57.38095238095238,-13.253968253968253,-210.7142857142857,-325.0,10.555555555555555,14.682539682539682,-321.8253968253968
278.4920634920635,325.0,-325.0,99.12698412698413,-325.0,303.0952380952381,-325.0,315.3174603174603,-325.0,-325.0,-325.0,21.507936507936506,-325.0,299.9206349206349,-325.0,299.6031746031746,325.0,-56.269841269841265,1.1904761904761905,-206.1111111111111,-325.0,-2.3015873015873014,-4.523809523809524,-321.8253968253968
278.4920634920635,325.0,-325.0,99.12698412698413,-325.0,303.0952380952381,-325.0,315.3174603174603,-325.0,-325.0,-325.0,21.507936507936506,-325.0,299.9206349206349,-325.0,299.6031746031746,325.0,-56.269841269841265,1.1904761904761905,-206.1111111111111,-325.0,-2.3015873015873014,-4.523809523809524,-321.8253968253968
273.4126984126984,325.0,-325.0,103.25396825396825,-325.0,297.6984126984127,-325.0,309.9206349206349,-325.0,-325.0,-325.0,22.777777777777775,-325.0,294.5238095238095,-325.0,294.8412698412698,325.0,-55.476190476190474,10.555555555555555,-202.14285714285714,-325.0,1.6666666666666665,2.3015873015873014,-321.8253968253968
273.4126984126984,325.0,-325.0,103.25396825396825,-325.0,297.6984126984127,-325.0,309.9206349206349,-325.0,-325.0,-325.0,22.777777777777775,-325.0,294.5238095238095,-325.0,294.8412698412698,325.0,-55.476190476190474,10.555555555555555,-202.14285714285714,-325.0,1.6666666666666665,2.3015873015873014,-321.8253968253968
268.3333333333333,325.0,-325.0,103.25396825396825,-325.0,292.46031746031747,-325.0,304.8412698412698,-325.0,-325.0,-325.0,23.88888888888889,-325.0,289.2857142857143,-325.0,289.4444444444444,325.0,-54.36507936507936,17.38095238095238,-198.4920634920635,-325.0,-1.8253968253968254,-3.888888888888889,-166.26984126984127
268.3333333333333,325.0,-325.0,103.25396825396825,-325.0,292.46031746031747,-325.0,304.8412698412698,-325.0,-325.0,-325.0,23.88888888888889,-325.0,289.2857142857143,-325.0,289.4444444444444,325.0,-54.36507936507936,17.38095238095238,-198.4920634920635,-325.0,-1.8253968253968254,-3.888888888888889,-166.26984126984127
262.1428571428571,325.0,-325.0,102.77777777777777,-325.0,286.4285714285714,-325.0,298.3333333333333,-325.0,-325.0,-325.0,21.825396825396822,-325.0,282.77777777777777,-325.0,283.25396825396825,325.0,-53.095238095238095,23.253968253968253,-194.04761904761904,-323.73015873015873,-0.23809523809523808,-0.3968253968253968,-166.26984126984127
262.1428571428571,325.0,-325.0,102.77777777777777,-325.0,286.4285714285714,-325.0,298.3333333333333,-325.0,-325.0,-325.0,21.825396825396822,-325.0,282.77777777777777,-325.0,283.25396825396825,325.0,-53.095238095238095,23.253968253968253,-194.04761904761904,-323.73015873015873,-0.23809523809523808,-0.3968253968253968,-166.26984126984127
-226.26984126984127,-29.444444444444443,108.17460317460316,214.36507936507937,-174.84126984126982,15.317460317460316,83.88888888888889,45.476190476190474,-85.79365079365078,-10.714285714285714,-235.15873015873015,-63.888888888888886,99.6031746031746,33.888888888888886,-23.730158730158728,126.26984126984127,-196.9047619047619,-85.0,-68.33333333333333,-79.44444444444444,79.44444444444444,151.984126984127,6.587301587301587,-166.26984126984127
-226.26984126984127,-29.444444444444443,108.17460317460316,214.36507936507937,-174.84126984126982,15.317460317460316,83.88888888888889,45.476190476190474,-85.79365079365078,-10.714285714285714,-235.15873015873015,-63.888888888888886,99.6031746031746,33.888888888888886,-23.730158730158728,126.26984126984127,-196.9047619047619,-85.0,-68.33333333333333,-79.44444444444444,79.44444444444444,151.984126984127,6.587301587301587,-166.26984126984127
-172.14285714285714,-22.3015873015873,150.3968253968254,325.0,-325.0,-20.07936507936508,72.3015873015873,-19.92063492063492,-325.0,294.5238095238095,-325.0,-9.444444444444445,77.06349206349206,-17.22222222222222,74.68253968253968,-19.126984126984127,-325.0,27.063492063492063,-8.65079365079365,-325.0,135.79365079365078,-4.365079365079365,-7.857142857142857,-166.26984126984127
-172.14285714285714,-22.3015873015873,150.3968253968254,325.0,-325.0,-20.07936507936508,72.3015873015873,-19.92063492063492,-325.0,294.5238095238095,-325.0,-9.444444444444445,77.06349206349206,-17.22222222222222,74.68253968253968,-19.126984126984127,-325.0,27.063492063492063,-8.65079365079365,-325.0,135.79365079365078,-4.365079365079365,-7.857142857142857,-166.26984126984127
-169.28571428571428,-38.01587301587301,147.85714285714286,325.0,-325.0,-19.6031746031746,71.03174603174602,-19.6031746031746,-325.0,283.88888888888886,-325.0,-9.761904761904761,74.84126984126983,-16.904761904761905,72.46031746031746,-18.80952380952381,-324.8412698412698,26.587301587301585,-8.809523809523808,-325.0,133.57142857142856,-4.841269841269841,-7.5396825396825395,-166.26984126984127
-169.28571428571428,-38.01587301587301,147.85714285714286,325.0,-325.0,-19.6031746031746,71.03174603174602,-19.6031746031746,-325.0,283.88888888888886,-325.0,-9.761904761904761,74.84126984126983,-16.904761904761905,72.46031746031746,-18.80952380952381,-324.8412698412698,26.587301587301585,-8.809523809523808,-325.0,133.57142857142856,-4.841269841269841,-7.5396825396825395,-166.26984126984127
-164.36507936507937,98.96825396825396,143.4126984126984,225.0,-276.26984126984127,-19.126984126984127,68.80952380952381,-19.285714285714285,-254.84126984126982,-102.93650793650794,-265.1587301587301,-1.1904761904761905,54.36507936507936,-16.587301587301585,52.460317460317455,-18.333333333333332,-200.23809523809524,25.952380952380953,-2.3015873015873014,-325.0,129.44444444444443,6.904761904761904,11.031746031746032,-321.8253968253968
-164.36507936507937,98.96825396825396,143.4126984126984,225.0,-276.26984126984127,-19.126984126984127,68.80952380952381,-19.285714285714285,-254.84126984126982,-102.93650793650794,-265.1587301587301,-1.1904761904761905,54.36507936507936,-16.587301587301585,52.460317460317455,-18.333333333333332,-200.23809523809524,25.952380952380953,-2.3015873015873014,-325.0,129.44444444444443,6.904761904761904,11.031746031746032,-321.8253968253968
-161.984126984127,162.46031746031744,141.5079365079365,325.0,-325.0,-18.65079365079365,67.85714285714285,-18.96825396825397,-325.0,48.80952380952381,-325.0,-5.0,52.77777777777777,-16.11111111111111,50.87301587301587,-18.174603174603174,-320.23809523809524,25.634920634920633,-5.7936507936507935,-325.0,127.85714285714285,-13.73015873015873,-18.333333333333332,-321.8253968253968
-161.984126984127,162.46031746031744,141.5079365079365,325.0,-325.0,-18.65079365079365,67.85714285714285,-18.96825396825397,-325.0,48.80952380952381,-325.0,-5.0,52.77777777777777,-16.11111111111111,50.87301587301587,-18.174603174603174,-320.23809523809524,25.634920634920633,-5.7936507936507935,-325.0,127.85714285714285,-13.73015873015873,-18.333333333333332,-321.8253968253968
-158.8095238095238,144.84126984126982,138.33333333333331,247.2222222222222,-270.07936507936506,-18.49206349206349,66.26984126984127,-18.65079365079365,-251.5079365079365,269.2857142857143,-259.9206349206349,-0.873015873015873,-3.571428571428571,-16.11111111111111,-3.4126984126984126,-18.015873015873016,-194.04761904761904,25.0,-2.3015873015873014,-325.0,125.0,8.174603174603174,10.714285714285714,-321.8253968253968
-158.8095238095238,144.84126984126982,138.33333333333331,247.2222222222222,-270.07936507936506,-18.49206349206349,66.26984126984127,-18.65079365079365,-251.5079365079365,269.2857142857143,-259.9206349206349,-0.873015873015873,-3.571428571428571,-16.11111111111111,-3.4126984126984126,-18.015873015873016,-194.04761904761904,25.0,-2.3015873015873014,-325.0,125.0,8.174603174603174,10.714285714285714,-321.8253968253968
-156.74603174603175,145.95238095238093,136.58730158730157,325.0,-325.0,-18.015873015873016,65.47619047619047,-18.333333333333332,-325.0,178.33333333333331,-325.0,6.428571428571428,-31.507936507936506,-16.11111111111111,-34.2063492063492,-17.698412698412696,-318.4920634920635,25.0,4.682539682539682,-325.0,123.73015873015872,-11.825396825396824,-18.015873015873016,-321.8253968253968
-156.74603174603175,145.95238095238093,136.58730158730157,325.0,-325.0,-18.015873015873016,65.47619047619047,-18.333333333333332,-325.0,178.33333333333331,-325.0,6.428571428571428,-31.507936507936506,-16.11111111111111,-34.2063492063492,-17.698412698412696,-318.4920634920635,25.0,4.682539682539682,-325.0,123.73015873015872,-11.825396825396824,-18.015873015873016,-321.8253968253968
-156.74603174603175,145.95238095238093,136.58730158730157,325.0,-325.0,-18.015873015873016,65.47619047619047,-18.333333333333332,-325.0,178.33333333333331,-325.0,6.428571428571428,-31.507936507936506,-16.11111111111111,-34.2063492063492,-17.698412698412696,-318.4920634920635,25.0,4.682539682539682,-325.0,123.73015873015872,-11.825396825396824,-18.015873015873016,-321.8253968253968
-156.74603174603175,145.95238095238093,136.58730158730157,325.0,-325.0,-18.015873015873016,65.47619047619047,-18.333333333333332,-325.0,178.33333333333331,-325.0,6.428571428571428,-31.507936507936506,-16.11111111111111,-34.2063492063492,-17.698412698412696,-318.4920634920635,25.0,4.682539682539682,-325.0,123.73015873015872,-11.825396825396824,-18.015873015873016,-321.8253968253968
-153.4126984126984,102.14285714285714,133.4126984126984,325.0,-325.0,-17.857142857142858,64.04761904761905,-18.015873015873016,-325.0,232.77777777777777,-325.0,0.3968253968253968,-6.746031746031746,-15.634920634920634,-8.968253968253968,-17.38095238095238,-321.8253968253968,24.365079365079364,-0.3968253968253968,-325.0,120.87301587301586,-7.222222222222221,-11.666666666666666,-166.26984126984127
-153.4126984126984,102.14285714285714,133.4126984126984,325.0,-325.0,-17.857142857142858,64.04761904761905,-18.015873015873016,-325.0,232.77777777777777,-325.0,0.3968253968253968,-6.746031746031746,-15.634920634920634,-8.968253968253968,-17.38095238095238,-321.8253968253968,24.365079365079364,-0.3968253968253968,-325.0,120.87301587301586,-7.222222222222221,-11.666666666666666,-166.26984126984127
-147.69841269841268,209.12698412698413,128.33333333333331,325.0,-325.0,-17.38095238095238,61.507936507936506,-17.698412698412696,-325.0,325.0,-325.0,7.698412698412698,-72.14285714285714,-15.158730158730158,-73.4126984126984,-16.746031746031743,-321.8253968253968,23.41269841269841,5.952380952380952,-325.0,116.1111111111111,-1.349206349206349,-1.507936507936508,-166.26984126984127
-147.69841269841268,209.12698412698413,128.33333333333331,325.0,-325.0,-17.38095238095238,61.507936507936506,-17.698412698412696,-325.0,325.0,-325.0,7.698412698412698,-72.14285714285714,-15.158730158730158,-73.4126984126984,-16.746031746031743,-321.8253968253968,23.41269841269841,5.952380952380952,-325.0,116.1111111111111,-1.349206349206349,-1.507936507936508,-166.26984126984127
-142.14285714285714,304.04761904761904,123.25396825396825,325.0,-256.58730158730157,-1.1904761904761905,58.96825396825397,24.365079365079364,-235.15873015873015,322.3015873015873,-263.25396825396825,5.634920634920634,-51.03174603174603,4.365079365079365,-52.93650793650794,-7.5396825396825395,-172.3015873015873,22.619047619047617,3.4126984126984126,-325.0,111.66666666666666,-5.317460317460317,-7.5396825396825395,-166.26984126984127
-142.14285714285714,304.04761904761904,123.25396825396825,325.0,-256.58730158730157,-1.1904761904761905,58.96825396825397,24.365079365079364,-235.15873015873015,322.3015873015873,-263.25396825396825,5.634920634920634,-51.03174603174603,4.365079365079365,-52.93650793650794,-7.5396825396825395,-172.3015873015873,22.619047619047617,3.4126984126984126,-325.0,111.66666666666666,-5.317460317460317,-7.5396825396825395,-166.26984126984127
-137.69841269841268,325.0,119.28571428571428,325.0,-188.015873015873,14.682539682539682,57.22222222222222,66.42857142857143,-145.3174603174603,319.76190476190476,-201.34920634920633,4.365079365079365,-24.206349206349206,23.88888888888889,-25.952380952380953,1.6666666666666665,-25.79365079365079,22.142857142857142,1.507936507936508,-325.0,108.17460317460316,2.142857142857143,3.73015873015873,-166.26984126984127
-137.69841269841268,325.0,119.28571428571428,325.0,-188.015873015873,14.682539682539682,57.22222222222222,66.42857142857143,-145.3174603174603,319.76190476190476,-201.34920634920633,4.365079365079365,-24.206349206349206,23.88888888888889,-25.952380952380953,1.6666666666666665,-25.79365079365079,22.142857142857142,1.507936507936508,-325.0,108.17460317460316,2.142857142857143,3.73015873015873,-166.26984126984127
-137.69841269841268,325.0,119.28571428571428,325.0,-188.015873015873,14.682539682539682,57.22222222222222,66.42857142857143,-145.3174603174603,319.76190476190476,-201.34920634920633,4.365079365079365,-24.206349206349206,23.88888888888889,-25.952380952380953,1.6666666666666665,-25.79365079365079,22.142857142857142,1.507936507936508,-325.0,108.17460317460316,2.142857142857143,3.73015873015873,-166.26984126984127
-137.69841269841268,325.0,119.28571428571428,325.0,-188.015873015873,14.682539682539682,57.22222222222222,66.42857142857143,-145.3174603174603,319.76190476190476,-201.34920634920633,4.365079365079365,-24.206349206349206,23.88888888888889,-25.952380952380953,1.6666666666666665,-25.79365079365079,22.142857142857142,1.507936507936508,-325.0,108.17460317460316,2.142857142857143,3.73015873015873,-166.26984126984127
-137.69841269841268,325.0,119.28571428571428,325.0,-188.015873015873,14.682539682539682,57.22222222222222,66.42857142857143,-145.3174603174603,319.76190476190476,-201.34920634920633,4.365079365079365,-24.206349206349206,23.88888888888889,-25.952380952380953,1.6666666666666665,-25.79365079365079,22.142857142857142,1.507936507936508,-325.0,108.17460317460316,2.142857142857143,3.73015873015873,-321.8253968253968
-137.69841269841268,325.0,119.28571428571428,325.0,-188.015873015873,14.682539682539682,57.22222222222222,66.42857142857143,-145.3174603174603,319.76190476190476,-201.34920634920633,4.365079365079365,-24.206349206349206,23.88888888888889,-25.952380952380953,1.6666666666666665,-25.79365079365079,22.142857142857142,1.507936507936508,-325.0,108.17460317460316,2.142857142857143,3.73015873015873,-321.8253968253968
-137.69841269841268,325.0,119.28571428571428,325.0,-188.015873015873,14.682539682539682,57.22222222222222,66.42857142857143,-145.3174603174603,319.76190476190476,-201.34920634920633,4.365079365079365,-24.206349206349206,23.88888888888889,-25.952380952380953,1.6666666666666665,-25.79365079365079,22.142857142857142,1.507936507936508,-325.0,108.17460317460316,2.142857142857143,3.73015873015873,-321.8253968253968
-137.69841269841268,325.0,119.28571428571428,325.0,-188.015873015873,14.682539682539682,57.22222222222222,66.42857142857143,-145.3174603174603,319.76190476190476,-201.34920634920633,4.365079365079365,-24.206349206349206,23.88888888888889,-25.952380952380953,1.6666666666666665,-25.79365079365079,22.142857142857142,1.507936507936508,-325.0,108.17460317460316,2.142857142857143,3.73015873015873,-321.8253968253968
-137.69841269841268,325.0,119.28571428571428,325.0,-188.015873015873,14.682539682539682,57.22222222222222,66.42857142857143,-145.3174603174603,319.76190476190476,-201.34920634920633,4.365079365079365,-24.206349206349206,23.88888888888889,-25.952380952380953,1.6666666666666665,-25.79365079365079,22.142857142857142,1.507936507936508,-325.0,108.17460317460316,2.142857142857143,3.73015873015873,-321.8253968253968
-137.69841269841268,325.0,119.28571428571428,325.0,-188.015873015873,14.682539682539682,57.22222222222222,66.42857142857143,-145.3174603174603,319.76190476190476,-201.34920634920633,4.365079365079365,-24.206349206349206,23.88888888888889,-25.952380952380953,1.6666666666666665,-25.79365079365079,22.142857142857142,1.507936507936508,-325.0,108.17460317460316,2.142857142857143,3.73015873015873,-321.8253968253968
-20.238095238095237,-50.71428571428571,-325.0,154.52380952380952,-156.42857142857142,-4.0476190476190474,-325.0,8.968253968253968,-114.2063492063492,-325.0,-78.4920634920635,0.873015873015873,325.0,-6.111111111111111,24.84126984126984,-11.825396825396824,-96.26984126984127,18.015873015873016,-0.873015873015873,-133.4126984126984,14.523809523809524,-13.095238095238095,-18.333333333333332,-321.8253968253968
-20.238095238095237,-50.71428571428571,-325.0,154.52380952380952,-156.42857142857142,-4.0476190476190474,-325.0,8.968253968253968,-114.2063492063492,-325.0,-78.4920634920635,0.873015873015873,325.0,-6.111111111111111,24.84126984126984,-11.825396825396824,-96.26984126984127,18.015873015873016,-0.873015873015873,-133.4126984126984,14.523809523809524,-13.095238095238095,-18.333333333333332,-321.8253968253968
-19.6031746031746,-71.66666666666666,-194.2063492063492,57.22222222222222,-152.77777777777777,4.682539682539682,-256.74603174603175,8.015873015873016,-111.66666666666666,-325.0,-76.74603174603175,-6.587301587301587,325.0,8.968253968253968,53.41269841269841,-3.73015873015873,-74.36507936507937,0.5555555555555556,-9.603174603174603,-129.6031746031746,12.936507936507935,4.682539682539682,8.968253968253968,-321.8253968253968
-19.6031746031746,-71.66666666666666,-194.2063492063492,57.22222222222222,-152.77777777777777,4.682539682539682,-256.74603174603175,8.015873015873016,-111.66666666666666,-325.0,-76.74603174603175,-6.587301587301587,325.0,8.968253968253968,53.41269841269841,-3.73015873015873,-74.36507936507937,0.5555555555555556,-9.603174603174603,-129.6031746031746,12.936507936507935,4.682539682539682,8.968253968253968,-321.8253968253968
-19.6031746031746,-168.8095238095238,-325.0,170.3968253968254,-150.55555555555554,-63.41269841269841,-325.0,-63.25396825396825,-109.92063492063491,-325.0,-75.63492063492063,-7.3809523809523805,325.0,-69.92063492063491,33.73015873015873,-65.47619047619047,-98.49206349206348,-43.57142857142857,-9.126984126984127,-125.31746031746032,14.682539682539682,-6.111111111111111,-10.079365079365079,-166.26984126984127
-19.6031746031746,-168.8095238095238,-325.0,170.3968253968254,-150.55555555555554,-63.41269841269841,-325.0,-63.25396825396825,-109.92063492063491,-325.0,-75.63492063492063,-7.3809523809523805,325.0,-69.92063492063491,33.73015873015873,-65.47619047619047,-98.49206349206348,-43.57142857142857,-9.126984126984127,-125.31746031746032,14.682539682539682,-6.111111111111111,-10.079365079365079,-166.26984126984127
-19.126984126984127,-134.84126984126982,-191.98412698412696,-1.6666666666666665,-147.85714285714286,-28.49206349206349,-261.031746031746,-41.19047619047619,-108.01587301587301,-325.0,-74.2063492063492,0.07936507936507936,324.8412698412698,-31.666666666666664,66.9047619047619,-41.507936507936506,-75.79365079365078,-42.61904761904761,-2.9365079365079363,-123.57142857142857,10.238095238095237,5.476190476190476,8.492063492063492,-166.26984126984127
-19.126984126984127,-134.84126984126982,-191.98412698412696,-1.6666666666666665,-147.85714285714286,-28.49206349206349,-261.031746031746,-41.19047619047619,-108.01587301587301,-325.0,-74.2063492063492,0.07936507936507936,324.8412698412698,-31.666666666666664,66.9047619047619,-41.507936507936506,-75.79365079365078,-42.61904761904761,-2.9365079365079363,-123.57142857142857,10.238095238095237,5.476190476190476,8.492063492063492,-166.26984126984127
-18.80952380952381,-177.2222222222222,-191.98412698412696,-49.12698412698413,-145.47619047619048,-41.507936507936506,-261.031746031746,-58.17460317460317,-106.26984126984127,-325.0,-73.09523809523809,1.8253968253968254,320.55555555555554,-44.047619047619044,69.28571428571428,-52.93650793650794,-80.71428571428571,-98.96825396825396,-1.507936507936508,-118.65079365079364,10.079365079365079,5.476190476190476,9.126984126984127,-166.26984126984127
-18.80952380952381,-177.2222222222222,-191.98412698412696,-49.12698412698413,-145.47619047619048,-41.507936507936506,-261.031746031746,-58.17460317460317,-106.26984126984127,-325.0,-73.09523809523809,1.8253968253968254,320.55555555555554,-44.047619047619044,69.28571428571428,-52.93650793650794,-80.71428571428571,-98.96825396825396,-1.507936507936508,-118.65079365079364,10.079365079365079,5.476190476190476,9.126984126984127,-166.26984126984127
-18.49206349206349,-260.39682539682536,-325.0,-19.92063492063492,-143.57142857142856,-76.1111111111111,-325.0,-100.71428571428571,-104.84126984126983,-325.0,-72.14285714285714,-0.23809523809523808,316.58730158730157,-77.85714285714285,74.84126984126983,-76.1111111111111,-106.26984126984127,-177.06349206349205,-2.9365079365079363,-112.14285714285714,14.682539682539682,13.73015873015873,18.333333333333332,-166.26984126984127
-18.49206349206349,-260.39682539682536,-325.0,-19.92063492063492,-143.57142857142856,-76.1111111111111,-325.0,-100.71428571428571,-104.84126984126983,-325.0,-72.14285714285714,-0.23809523809523808,316.58730158730157,-77.85714285714285,74.84126984126983,-76.1111111111111,-106.26984126984127,-177.06349206349205,-2.9365079365079363,-112.14285714285714,14.682539682539682,13.73015873015873,18.333333333333332,-166.26984126984127
-17.38095238095238,-185.47619047619045,-325.0,208.17460317460316,-135.79365079365078,-78.80952380952381,-325.0,-97.6984126984127,-99.12698412698413,-325.0,-68.17460317460318,6.587301587301587,298.17460317460313,-83.4126984126984,-8.492063492063492,-75.15873015873015,-99.12698412698413,-93.4126984126984,5.7936507936507935,-113.4126984126984,14.365079365079364,0.5555555555555556,0.7142857142857142,-166.26984126984127
-17.38095238095238,-185.47619047619045,-325.0,208.17460317460316,-135.79365079365078,-78.80952380952381,-325.0,-97.6984126984127,-99.12698412698413,-325.0,-68.17460317460318,6.587301587301587,298.17460317460313,-83.4126984126984,-8.492063492063492,-75.15873015873015,-99.12698412698413,-93.4126984126984,5.7936507936507935,-113.4126984126984,14.365079365079364,0.5555555555555556,0.7142857142857142,-166.26984126984127
-17.22222222222222,-69.76190476190476,-325.0,143.09523809523807,-132.61904761904762,-35.63492063492063,-325.0,-18.65079365079365,-96.58730158730158,-325.0,-66.74603174603175,1.8253968253968254,290.39682539682536,-38.17460317460317,-31.507936507936506,-38.96825396825397,-96.1111111111111,-10.238095238095237,0.07936507936507936,-113.09523809523809,12.3015873015873,-12.142857142857142,-17.38095238095238,-321.8253968253968
-17.22222222222222,-69.76190476190476,-325.0,143.09523809523807,-132.61904761904762,-35.63492063492063,-325.0,-18.65079365079365,-96.58730158730158,-325.0,-66.74603174603175,1.8253968253968254,290.39682539682536,-38.17460317460317,-31.507936507936506,-38.96825396825397,-96.1111111111111,-10.238095238095237,0.07936507936507936,-113.09523809523809,12.3015873015873,-12.142857142857142,-17.38095238095238,-321.8253968253968
-9.920634920634921,281.031746031746,-308.015873015873,130.87301587301587,-69.76190476190476,259.6031746031746,-305.0,281.19047619047615,-50.238095238095234,115.79365079365078,-35.476190476190474,-11.19047619047619,145.47619047619048,249.44444444444443,-91.66666666666666,269.2857142857143,-49.44444444444444,102.77777777777777,-11.984126984126984,-60.079365079365076,9.285714285714285,-9.761904761904761,-13.571428571428571,-321.8253968253968
-9.920634920634921,281.031746031746,-308.015873015873,130.87301587301587,-69.76190476190476,259.6031746031746,-305.0,281.19047619047615,-50.238095238095234,115.79365079365078,-35.476190476190474,-11.19047619047619,145.47619047619048,249.44444444444443,-91.66666666666666,269.2857142857143,-49.44444444444444,102.77777777777777,-11.984126984126984,-60.079365079365076,9.285714285714285,-9.761904761904761,-13.571428571428571,-321.8253968253968
-9.761904761904761,232.77777777777777,-303.4126984126984,121.5079365079365,-68.65079365079364,214.2063492063492,-308.4920634920635,236.58730158730157,-49.285714285714285,325.0,-34.84126984126984,0.07936507936507936,142.93650793650792,216.9047619047619,-177.85714285714286,226.1111111111111,-48.49206349206349,88.80952380952381,-0.873015873015873,-58.96825396825397,9.444444444444445,7.5396825396825395,11.984126984126984,-321.8253968253968
-9.761904761904761,232.77777777777777,-303.4126984126984,121.5079365079365,-68.65079365079364,214.2063492063492,-308.4920634920635,236.58730158730157,-49.285714285714285,325.0,-34.84126984126984,0.07936507936507936,142.93650793650792,216.9047619047619,-177.85714285714286,226.1111111111111,-48.49206349206349,88.80952380952381,-0.873015873015873,-58.96825396825397,9.444444444444445,7.5396825396825395,11.984126984126984,-321.8253968253968
-9.761904761904761,273.25396825396825,-281.8253968253968,85.0,-68.33333333333333,280.7142857142857,-291.984126984127,278.968253968254,-48.96825396825397,325.0,-34.682539682539684,0.873015873015873,142.46031746031744,291.19047619047615,-161.66666666666666,277.22222222222223,-48.17460317460317,90.55555555555556,-1.1904761904761905,-58.650793650793645,3.73015873015873,9.126984126984127,13.888888888888888,-321.8253968253968
-9.761904761904761,273.25396825396825,-281.8253968253968,85.0,-68.33333333333333,280.7142857142857,-291.984126984127,278.968253968254,-48.96825396825397,325.0,-34.682539682539684,0.873015873015873,142.46031746031744,291.19047619047615,-161.66666666666666,277.22222222222223,-48.17460317460317,90.55555555555556,-1.1904761904761905,-58.650793650793645,3.73015873015873,9.126984126984127,13.888888888888888,-321.8253968253968
-8.174603174603174,232.93650793650792,-246.26984126984127,42.61904761904761,-57.698412698412696,258.6507936507936,-267.38095238095235,252.46031746031744,-44.68253968253968,299.2857142857143,-31.666666666666664,-1.8253968253968254,128.8095238095238,270.39682539682536,46.11111111111111,258.015873015873,-43.888888888888886,69.28571428571428,-3.73015873015873,-53.095238095238095,-5.0,8.015873015873016,12.46031746031746,-321.8253968253968
-8.174603174603174,232.93650793650792,-246.26984126984127,42.61904761904761,-57.698412698412696,258.6507936507936,-267.38095238095235,252.46031746031744,-44.68253968253968,299.2857142857143,-31.666666666666664,-1.8253968253968254,128.8095238095238,270.39682539682536,46.11111111111111,258.015873015873,-43.888888888888886,69.28571428571428,-3.73015873015873,-53.095238095238095,-5.0,8.015873015873016,12.46031746031746,-321.8253968253968
-6.26984126984127,153.57142857142856,-267.85714285714283,62.61904761904761,-47.857142857142854,184.04761904761904,-252.14285714285714,198.8095238095238,-37.698412698412696,299.2857142857143,-26.746031746031743,-2.142857142857143,106.74603174603175,181.03174603174602,238.96825396825395,197.53968253968253,-36.904761904761905,52.61904761904761,-2.7777777777777777,-44.84126984126984,0.873015873015873,0.3968253968253968,0.5555555555555556,-166.26984126984127
-6.26984126984127,153.57142857142856,-267.85714285714283,62.61904761904761,-47.857142857142854,184.04761904761904,-252.14285714285714,198.8095238095238,-37.698412698412696,299.2857142857143,-26.746031746031743,-2.142857142857143,106.74603174603175,181.03174603174602,238.96825396825395,197.53968253968253,-36.904761904761905,52.61904761904761,-2.7777777777777777,-44.84126984126984,0.873015873015873,0.3968253968253968,0.5555555555555556,-166.26984126984127
-5.952380952380952,114.52380952380952,-325.0,125.0,-48.80952380952381,131.34920634920636,-261.5079365079365,171.66666666666666,-35.0,325.0,-25.0,0.3968253968253968,98.49206349206348,112.46031746031746,224.04761904761904,156.42857142857142,-34.047619047619044,57.22222222222222,0.873015873015873,-42.14285714285714,15.476190476190474,-6.111111111111111,-10.079365079365079,-166.26984126984127
-5.952380952380952,114.52380952380952,-325.0,125.0,-48.80952380952381,131.34920634920636,-261.5079365079365,171.66666666666666,-35.0,325.0,-25.0,0.3968253968253968,98.49206349206348,112.46031746031746,224.04761904761904,156.42857142857142,-34.047619047619044,57.22222222222222,0.873015873015873,-42.14285714285714,15.476190476190474,-6.111111111111111,-10.079365079365079,-166.26984126984127
-5.952380952380952,114.52380952380952,-325.0,125.0,-48.80952380952381,131.34920634920636,-261.5079365079365,171.66666666666666,-35.0,325.0,-25.0,0.3968253968253968,98.49206349206348,112.46031746031746,224.04761904761904,156.42857142857142,-34.047619047619044,57.22222222222222,0.873015873015873,-42.14285714285714,15.476190476190474,-6.111111111111111,-10.079365079365079,-166.26984126984127
-5.952380952380952,114.52380952380952,-325.0,125.0,-48.80952380952381,131.34920634920636,-261.5079365079365,171.66666666666666,-35.0,325.0,-25.0,0.3968253968253968,98.49206349206348,112.46031746031746,224.04761904761904,156.42857142857142,-34.047619047619044,57.22222222222222,0.873015873015873,-42.14285714285714,15.476190476190474,-6.111111111111111,-10.079365079365079,-166.26984126984127
-5.952380952380952,114.52380952380952,-325.0,125.0,-48.80952380952381,131.34920634920636,-261.5079365079365,171.66666666666666,-35.0,325.0,-25.0,0.3968253968253968,98.49206349206348,112.46031746031746,224.04761904761904,156.42857142857142,-34.047619047619044,57.22222222222222,0.873015873015873,-42.14285714285714,15.476190476190474,-6.111111111111111,-10.079365079365079,-166.26984126984127
-5.952380952380952,114.52380952380952,-325.0,125.0,-48.80952380952381,131.34920634920636,-261.5079365079365,171.66666666666666,-35.0,325.0,-25.0,0.3968253968253968,98.49206349206348,112.46031746031746,224.04761904761904,156.42857142857142,-34.047619047619044,57.22222222222222,0.873015873015873,-42.14285714285714,15.476190476190474,-6.111111111111111,-10.079365079365079,-166.26984126984127
-5.952380952380952,114.52380952380952,-325.0,125.0,-48.80952380952381,131.34920634920636,-261.5079365079365,171.66666666666666,-35.0,325.0,-25.0,0.3968253968253968,98.49206349206348,112.46031746031746,224.04761904761904,156.42857142857142,-34.047619047619044,57.22222222222222,0.873015873015873,-42.14285714285714,15.476190476190474,-6.111111111111111,-10.079365079365079,-166.26984126984127
-5.952380952380952,114.52380952380952,-325.0,125.0,-48.80952380952381,131.34920634920636,-261.5079365079365,171.66666666666666,-35.0,325.0,-25.0,0.3968253968253968,98.49206349206348,112.46031746031746,224.04761904761904,156.42857142857142,-34.047619047619044,57.22222222222222,0.873015873015873,-42.14285714285714,15.476190476190474,-6.111111111111111,-10.079365079365079,-166.26984126984127
87.53968253968253,7.5396825396825395,-240.07936507936506,-30.71428571428571,-41.98412698412698,63.888888888888886,-221.34920634920633,68.33333333333333,-32.14285714285714,-325.0,-23.253968253968253,4.682539682539682,90.39682539682539,80.55555555555556,325.0,79.6031746031746,-27.38095238095238,-98.80952380952381,3.4126984126984126,-37.53968253968254,-45.79365079365079,8.174603174603174,11.666666666666666,-321.8253968253968
87.53968253968253,7.5396825396825395,-240.07936507936506,-30.71428571428571,-41.98412698412698,63.888888888888886,-221.34920634920633,68.33333333333333,-32.14285714285714,-325.0,-23.253968253968253,4.682539682539682,90.39682539682539,80.55555555555556,325.0,79.6031746031746,-27.38095238095238,-98.80952380952381,3.4126984126984126,-37.53968253968254,-45.79365079365079,8.174603174603174,11.666666666666666,-321.8253968253968
95.15873015873015,71.98412698412697,-249.28571428571428,-1.1904761904761905,-40.238095238095234,126.1111111111111,-211.98412698412696,124.84126984126983,-31.666666666666664,-325.0,-22.936507936507937,8.333333333333332,89.12698412698413,134.84126984126982,325.0,135.0,-25.317460317460316,-42.460317460317455,7.222222222222221,-38.49206349206349,-52.3015873015873,-11.825396825396824,-16.11111111111111,-321.8253968253968
95.15873015873015,71.98412698412697,-249.28571428571428,-1.1904761904761905,-40.238095238095234,126.1111111111111,-211.98412698412696,124.84126984126983,-31.666666666666664,-325.0,-22.936507936507937,8.333333333333332,89.12698412698413,134.84126984126982,325.0,135.0,-25.317460317460316,-42.460317460317455,7.222222222222221,-38.49206349206349,-52.3015873015873,-11.825396825396824,-16.11111111111111,-321.8253968253968
171.34920634920633,108.49206349206348,-176.74603174603175,-12.936507936507935,-32.14285714285714,182.61904761904762,-187.85714285714283,173.88888888888889,-31.349206349206348,-280.87301587301585,-22.777777777777775,9.444444444444445,87.85714285714285,196.58730158730157,325.0,189.76190476190476,18.015873015873016,-8.333333333333332,8.015873015873016,-36.58730158730159,-60.079365079365076,-4.365079365079365,-4.523809523809524,-321.8253968253968
171.34920634920633,108.49206349206348,-176.74603174603175,-12.936507936507935,-32.14285714285714,182.61904761904762,-187.85714285714283,173.88888888888889,-31.349206349206348,-280.87301587301585,-22.777777777777775,9.444444444444445,87.85714285714285,196.58730158730157,325.0,189.76190476190476,18.015873015873016,-8.333333333333332,8.015873015873016,-36.58730158730159,-60.079365079365076,-4.365079365079365,-4.523809523809524,-321.8253968253968
51.19047619047619,17.539682539682538,-278.015873015873,83.09523809523809,-37.38095238095238,65.47619047619047,-215.15873015873015,88.4920634920635,-30.555555555555554,-224.36507936507934,-22.3015873015873,9.761904761904761,85.79365079365078,64.68253968253968,325.0,83.73015873015872,-5.158730158730158,-58.96825396825397,9.126984126984127,-35.476190476190474,-6.428571428571428,-8.333333333333332,-11.507936507936508,-321.8253968253968
51.19047619047619,17.539682539682538,-278.015873015873,83.09523809523809,-37.38095238095238,65.47619047619047,-215.15873015873015,88.4920634920635,-30.555555555555554,-224.36507936507934,-22.3015873015873,9.761904761904761,85.79365079365078,64.68253968253968,325.0,83.73015873015872,-5.158730158730158,-58.96825396825397,9.126984126984127,-35.476190476190474,-6.428571428571428,-8.333333333333332,-11.507936507936508,-321.8253968253968
-9.444444444444445,-53.888888888888886,-325.0,116.9047619047619,-42.460317460317455,-27.698412698412696,-232.6190476190476,15.793650793650793,-30.396825396825395,-135.3174603174603,-22.142857142857142,11.031746031746032,85.47619047619047,-33.095238095238095,325.0,4.523809523809524,-27.38095238095238,-105.47619047619047,11.031746031746032,-33.25396825396825,16.26984126984127,-4.682539682539682,-8.015873015873016,-321.8253968253968
-9.444444444444445,-53.888888888888886,-325.0,116.9047619047619,-42.460317460317455,-27.698412698412696,-232.6190476190476,15.793650793650793,-30.396825396825395,-135.3174603174603,-22.142857142857142,11.031746031746032,85.47619047619047,-33.095238095238095,325.0,4.523809523809524,-27.38095238095238,-105.47619047619047,11.031746031746032,-33.25396825396825,16.26984126984127,-4.682539682539682,-8.015873015873016,-321.8253968253968
-9.444444444444445,-53.888888888888886,-325.0,116.9047619047619,-42.460317460317455,-27.698412698412696,-232.6190476190476,15.793650793650793,-30.396825396825395,-135.3174603174603,-22.142857142857142,11.031746031746032,85.47619047619047,-33.095238095238095,325.0,4.523809523809524,-27.38095238095238,-105.47619047619047,11.031746031746032,-33.25396825396825,16.26984126984127,-4.682539682539682,-8.015873015873016,-166.26984126984127
-9.444444444444445,-53.888888888888886,-325.0,116.9047619047619,-42.460317460317455,-27.698412698412696,-232.6190476190476,15.793650793650793,-30.396825396825395,-135.3174603174603,-22.142857142857142,11.031746031746032,85.47619047619047,-33.095238095238095,325.0,4.523809523809524,-27.38095238095238,-105.47619047619047,11.031746031746032,-33.25396825396825,16.26984126984127,-4.682539682539682,-8.015873015873016,-166.26984126984127
124.04761904761904,54.841269841269835,-222.14285714285714,60.71428571428571,-31.507936507936506,110.07936507936508,-199.12698412698413,124.68253968253967,-29.76190476190476,18.333333333333332,-21.666666666666664,8.015873015873016,83.25396825396825,115.63492063492063,325.0,125.79365079365078,-18.65079365079365,-36.269841269841265,6.904761904761904,-32.93650793650794,-21.19047619047619,-1.0317460317460316,-0.5555555555555556,-166.26984126984127
124.04761904761904,54.841269841269835,-222.14285714285714,60.71428571428571,-31.507936507936506,110.07936507936508,-199.12698412698413,124.68253968253967,-29.76190476190476,18.333333333333332,-21.666666666666664,8.015873015873016,83.25396825396825,115.63492063492063,325.0,125.79365079365078,-18.65079365079365,-36.269841269841265,6.904761904761904,-32.93650793650794,-21.19047619047619,-1.0317460317460316,-0.5555555555555556,-166.26984126984127
43.73015873015873,163.4126984126984,-281.031746031746,94.84126984126983,-35.79365079365079,202.61904761904762,-207.2222222222222,228.96825396825395,-28.96825396825397,325.0,-21.19047619047619,-7.063492063492063,80.07936507936508,198.96825396825395,325.0,220.7142857142857,-24.68253968253968,65.95238095238095,-6.904761904761904,-35.476190476190474,1.984126984126984,-10.079365079365079,-12.936507936507935,-166.26984126984127
43.73015873015873,163.4126984126984,-281.031746031746,94.84126984126983,-35.79365079365079,202.61904761904762,-207.2222222222222,228.96825396825395,-28.96825396825397,325.0,-21.19047619047619,-7.063492063492063,80.07936507936508,198.96825396825395,325.0,220.7142857142857,-24.68253968253968,65.95238095238095,-6.904761904761904,-35.476190476190474,1.984126984126984,-10.079365079365079,-12.936507936507935,-166.26984126984127
-18.015873015873016,123.73015873015872,-325.0,116.74603174603173,-40.87301587301587,143.73015873015873,-220.3968253968254,191.34920634920633,-28.809523809523807,325.0,-21.03174603174603,-8.65079365079365,79.76190476190476,135.47619047619048,325.0,178.8095238095238,-29.920634920634917,54.52380952380952,-7.698412698412698,-35.15873015873016,19.92063492063492,-5.7936507936507935,-8.333333333333332,-166.26984126984127
-18.015873015873016,123.73015873015872,-325.0,116.74603174603173,-40.87301587301587,143.73015873015873,-220.3968253968254,191.34920634920633,-28.809523809523807,325.0,-21.03174603174603,-8.65079365079365,79.76190476190476,135.47619047619048,325.0,178.8095238095238,-29.920634920634917,54.52380952380952,-7.698412698412698,-35.15873015873016,19.92063492063492,-5.7936507936507935,-8.333333333333332,-166.26984126984127
211.19047619047618,317.06349206349205,-160.07936507936506,80.71428571428571,-20.555555555555554,325.0,-168.8095238095238,325.0,-27.38095238095238,325.0,-19.76190476190476,0.23809523809523808,75.15873015873015,325.0,325.0,325.0,-29.126984126984127,95.0,-1.1904761904761905,-32.93650793650794,-22.936507936507937,-3.571428571428571,-5.476190476190476,-166.26984126984127
211.19047619047618,317.06349206349205,-160.07936507936506,80.71428571428571,-20.555555555555554,325.0,-168.8095238095238,325.0,-27.38095238095238,325.0,-19.76190476190476,0.23809523809523808,75.15873015873015,325.0,325.0,325.0,-29.126984126984127,95.0,-1.1904761904761905,-32.93650793650794,-22.936507936507937,-3.571428571428571,-5.476190476190476,-166.26984126984127
-14.682539682539682,182.77777777777777,-325.0,105.95238095238095,-40.39682539682539,222.61904761904762,-209.44444444444443,228.65079365079364,-26.9047619047619,325.0,-19.92063492063492,-1.0317460317460316,73.88888888888889,207.06349206349205,325.0,239.60317460317458,-28.65079365079365,92.77777777777777,-0.873015873015873,-32.93650793650794,21.984126984126984,2.7777777777777777,4.0476190476190474,-321.8253968253968
-14.682539682539682,182.77777777777777,-325.0,105.95238095238095,-40.39682539682539,222.61904761904762,-209.44444444444443,228.65079365079364,-26.9047619047619,325.0,-19.92063492063492,-1.0317460317460316,73.88888888888889,207.06349206349205,325.0,239.60317460317458,-28.65079365079365,92.77777777777777,-0.873015873015873,-32.93650793650794,21.984126984126984,2.7777777777777777,4.0476190476190474,-321.8253968253968
249.28571428571428,288.6507936507936,-123.73015873015872,50.87301587301587,-38.96825396825397,325.0,-193.57142857142856,325.0,-26.587301587301585,325.0,-19.76190476190476,-0.873015873015873,72.93650793650794,325.0,325.0,325.0,-28.174603174603174,91.66666666666666,-2.619047619047619,-32.14285714285714,-29.76190476190476,3.095238095238095,6.111111111111111,-321.8253968253968
249.28571428571428,288.6507936507936,-123.73015873015872,50.87301587301587,-38.96825396825397,325.0,-193.57142857142856,325.0,-26.587301587301585,325.0,-19.76190476190476,-0.873015873015873,72.93650793650794,325.0,325.0,325.0,-28.174603174603174,91.66666666666666,-2.619047619047619,-32.14285714285714,-29.76190476190476,3.095238095238095,6.111111111111111,-321.8253968253968
126.1111111111111,257.38095238095235,-217.85714285714283,78.01587301587301,-38.96825396825397,300.87301587301585,-197.53968253968253,300.87301587301585,-26.26984126984127,318.6507936507936,-19.6031746031746,1.0317460317460316,71.98412698412697,299.9206349206349,325.0,310.7142857142857,-27.857142857142854,90.23809523809523,-0.23809523809523808,-31.666666666666664,-3.253968253968254,8.015873015873016,10.873015873015872,-321.8253968253968
126.1111111111111,257.38095238095235,-217.85714285714283,78.01587301587301,-38.96825396825397,300.87301587301585,-197.53968253968253,300.87301587301585,-26.26984126984127,318.6507936507936,-19.6031746031746,1.0317460317460316,71.98412698412697,299.9206349206349,325.0,310.7142857142857,-27.857142857142854,90.23809523809523,-0.23809523809523808,-31.666666666666664,-3.253968253968254,8.015873015873016,10.873015873015872,-321.8253968253968
161.34920634920633,325.0,-162.14285714285714,89.12698412698413,-36.269841269841265,325.0,-190.87301587301587,325.0,-25.634920634920633,-303.4126984126984,-18.96825396825397,2.3015873015873014,69.92063492063491,325.0,325.0,325.0,-27.22222222222222,87.6984126984127,1.1904761904761905,-31.349206349206348,8.65079365079365,-4.365079365079365,-5.476190476190476,-321.8253968253968
161.34920634920633,325.0,-162.14285714285714,89.12698412698413,-36.269841269841265,325.0,-190.87301587301587,325.0,-25.634920634920633,-303.4126984126984,-18.96825396825397,2.3015873015873014,69.92063492063491,325.0,325.0,325.0,-27.22222222222222,87.6984126984127,1.1904761904761905,-31.349206349206348,8.65079365079365,-4.365079365079365,-5.476190476190476,-321.8253968253968
-22.46031746031746,312.6190476190476,-321.19047619047615,105.0,-37.857142857142854,313.25396825396825,-195.63492063492063,325.0,-25.158730158730158,-325.0,-18.65079365079365,4.0476190476190474,68.80952380952381,306.90476190476187,325.0,323.88888888888886,-26.587301587301585,85.95238095238095,4.2063492063492065,-30.71428571428571,21.507936507936506,3.4126984126984126,3.73015873015873,-321.8253968253968
-22.46031746031746,312.6190476190476,-321.19047619047615,105.0,-37.857142857142854,313.25396825396825,-195.63492063492063,325.0,-25.158730158730158,-325.0,-18.65079365079365,4.0476190476190474,68.80952380952381,306.90476190476187,325.0,323.88888888888886,-26.587301587301585,85.95238095238095,4.2063492063492065,-30.71428571428571,21.507936507936506,3.4126984126984126,3.73015873015873,-321.8253968253968
21.825396825396822,314.36507936507934,-294.2063492063492,99.44444444444444,-37.38095238095238,325.0,-192.77777777777777,325.0,-24.84126984126984,-325.0,-18.49206349206349,2.46031746031746,67.85714285714285,325.0,325.0,325.0,-26.26984126984127,84.68253968253968,1.984126984126984,-30.396825396825395,17.22222222222222,-0.23809523809523808,-1.0317460317460316,-166.26984126984127
21.825396825396822,314.36507936507934,-294.2063492063492,99.44444444444444,-37.38095238095238,325.0,-192.77777777777777,325.0,-24.84126984126984,-325.0,-18.49206349206349,2.46031746031746,67.85714285714285,325.0,325.0,325.0,-26.26984126984127,84.68253968253968,1.984126984126984,-30.396825396825395,17.22222222222222,-0.23809523809523808,-1.0317460317460316,-166.26984126984127
8.174603174603174,249.28571428571428,-294.04761904761904,95.0,-36.74603174603175,276.4285714285714,-189.44444444444443,287.85714285714283,-24.523809523809522,-325.0,-18.174603174603174,0.23809523809523808,66.74603174603175,281.8253968253968,325.0,291.031746031746,-25.79365079365079,83.09523809523809,-0.3968253968253968,-29.76190476190476,16.904761904761905,0.07936507936507936,0.23809523809523808,-166.26984126984127
8.174603174603174,249.28571428571428,-294.04761904761904,95.0,-36.74603174603175,276.4285714285714,-189.44444444444443,287.85714285714283,-24.523809523809522,-325.0,-18.174603174603174,0.23809523809523808,66.74603174603175,281.8253968253968,325.0,291.031746031746,-25.79365079365079,83.09523809523809,-0.3968253968253968,-29.76190476190476,16.904761904761905,0.07936507936507936,0.23809523809523808,-166.26984126984127
-8.015873015873016,259.9206349206349,-299.6031746031746,92.77777777777777,-36.11111111111111,276.4285714285714,-186.11111111111111,287.85714285714283,-24.206349206349206,-256.90476190476187,-17.857142857142858,1.6666666666666665,65.63492063492063,281.8253968253968,325.0,291.031746031746,-25.476190476190474,81.5079365079365,1.1904761904761905,-29.285714285714285,15.476190476190474,-0.7142857142857142,-0.23809523809523808,-166.26984126984127
-8.015873015873016,259.9206349206349,-299.6031746031746,92.77777777777777,-36.11111111111111,276.4285714285714,-186.11111111111111,287.85714285714283,-24.206349206349206,-256.90476190476187,-17.857142857142858,1.6666666666666665,65.63492063492063,281.8253968253968,325.0,291.031746031746,-25.476190476190474,81.5079365079365,1.1904761904761905,-29.285714285714285,15.476190476190474,-0.7142857142857142,-0.23809523809523808,-166.26984126984127
4.365079365079365,316.26984126984127,-287.38095238095235,93.88888888888889,-35.63492063492063,325.0,-182.93650793650792,325.0,-23.88888888888889,-256.90476190476187,-17.857142857142858,6.746031746031746,64.52380952380952,325.0,325.0,325.0,-25.0,79.92063492063491,6.26984126984127,-28.65079365079365,15.317460317460316,-0.873015873015873,-0.3968253968253968,-166.26984126984127
4.365079365079365,316.26984126984127,-287.38095238095235,93.88888888888889,-35.63492063492063,325.0,-182.93650793650792,325.0,-23.88888888888889,-256.90476190476187,-17.857142857142858,6.746031746031746,64.52380952380952,325.0,325.0,325.0,-25.0,79.92063492063491,6.26984126984127,-28.65079365079365,15.317460317460316,-0.873015873015873,-0.3968253968253968,-166.26984126984127
-10.714285714285714,307.69841269841265,-296.1111111111111,98.49206349206348,-35.317460317460316,325.0,-182.3015873015873,325.0,-23.57142857142857,-325.0,-17.857142857142858,10.714285714285714,63.888888888888886,325.0,325.0,325.0,-24.84126984126984,79.12698412698413,9.920634920634921,-28.333333333333332,20.873015873015873,11.507936507936508,16.428571428571427,-166.26984126984127
-10.714285714285714,307.69841269841265,-296.1111111111111,98.49206349206348,-35.317460317460316,325.0,-182.3015873015873,325.0,-23.57142857142857,-325.0,-17.857142857142858,10.714285714285714,63.888888888888886,325.0,325.0,325.0,-24.84126984126984,79.12698412698413,9.920634920634921,-28.333333333333332,20.873015873015873,11.507936507936508,16.428571428571427,-166.26984126984127
19.92063492063492,316.26984126984127,-262.9365079365079,95.31746031746032,-30.396825396825395,325.0,-170.07936507936506,325.0,-23.095238095238095,-325.0,-15.634920634920634,6.587301587301587,62.14285714285714,325.0,325.0,325.0,-21.03174603174603,76.9047619047619,5.952380952380952,-27.698412698412696,11.349206349206348,-0.7142857142857142,-1.0317460317460316,-321.8253968253968
19.92063492063492,316.26984126984127,-262.9365079365079,95.31746031746032,-30.396825396825395,325.0,-170.07936507936506,325.0,-23.095238095238095,-325.0,-15.634920634920634,6.587301587301587,62.14285714285714,325.0,325.0,325.0,-21.03174603174603,76.9047619047619,5.952380952380952,-27.698412698412696,11.349206349206348,-0.7142857142857142,-1.0317460317460316,-321.8253968253968
-8.333333333333332,294.04761904761904,-270.07936507936506,91.34920634920634,-31.666666666666664,273.57142857142856,-168.17460317460316,305.7936507936508,-22.142857142857142,-325.0,-15.95238095238095,1.0317460317460316,59.6031746031746,269.9206349206349,325.0,299.4444444444444,-23.095238095238095,73.57142857142857,1.6666666666666665,-27.063492063492063,18.174603174603174,4.0476190476190474,6.587301587301587,-321.8253968253968
-8.333333333333332,294.04761904761904,-270.07936507936506,91.34920634920634,-31.666666666666664,273.57142857142856,-168.17460317460316,305.7936507936508,-22.142857142857142,-325.0,-15.95238095238095,1.0317460317460316,59.6031746031746,269.9206349206349,325.0,299.4444444444444,-23.095238095238095,73.57142857142857,1.6666666666666665,-27.063492063492063,18.174603174603174,4.0476190476190474,6.587301587301587,-321.8253968253968
46.269841269841265,293.57142857142856,-221.19047619047618,88.4920634920635,-23.095238095238095,290.7142857142857,-154.52380952380952,300.07936507936506,-21.825396825396822,-325.0,-10.238095238095237,2.3015873015873014,58.96825396825397,291.031746031746,322.77777777777777,300.87301587301585,-14.523809523809524,68.96825396825396,2.3015873015873014,-26.587301587301585,3.4126984126984126,-0.3968253968253968,-0.5555555555555556,-321.8253968253968
46.269841269841265,293.57142857142856,-221.19047619047618,88.4920634920635,-23.095238095238095,290.7142857142857,-154.52380952380952,300.07936507936506,-21.825396825396822,-325.0,-10.238095238095237,2.3015873015873014,58.96825396825397,291.031746031746,322.77777777777777,300.87301587301585,-14.523809523809524,68.96825396825396,2.3015873015873014,-26.587301587301585,3.4126984126984126,-0.3968253968253968,-0.5555555555555556,-321.8253968253968
124.36507936507935,242.93650793650792,-167.85714285714286,68.17460317460318,-22.142857142857142,260.39682539682536,-145.47619047619048,237.38095238095238,-21.19047619047619,-218.33333333333331,-5.952380952380952,6.904761904761904,57.22222222222222,266.58730158730157,314.04761904761904,262.3015873015873,-1.6666666666666665,2.46031746031746,6.428571428571428,-25.317460317460316,-28.96825396825397,6.26984126984127,9.444444444444445,-321.8253968253968
124.36507936507935,242.93650793650792,-167.85714285714286,68.17460317460318,-22.142857142857142,260.39682539682536,-145.47619047619048,237.38095238095238,-21.19047619047619,-218.33333333333331,-5.952380952380952,6.904761904761904,57.22222222222222,266.58730158730157,314.04761904761904,262.3015873015873,-1.6666666666666665,2.46031746031746,6.428571428571428,-25.317460317460316,-28.96825396825397,6.26984126984127,9.444444444444445,-321.8253968253968
-3.888888888888889,61.82539682539682,-239.9206349206349,81.66666666666666,-27.857142857142854,46.269841269841265,-155.79365079365078,51.507936507936506,-20.873015873015873,-220.3968253968254,-12.3015873015873,-1.0317460317460316,56.269841269841265,34.682539682539684,308.968253968254,56.58730158730158,-15.95238095238095,-156.26984126984127,-0.7142857142857142,-19.92063492063492,2.7777777777777777,-6.904761904761904,-10.238095238095237,-321.8253968253968
-3.888888888888889,61.82539682539682,-239.9206349206349,81.66666666666666,-27.857142857142854,46.269841269841265,-155.79365079365078,51.507936507936506,-20.873015873015873,-220.3968253968254,-12.3015873015873,-1.0317460317460316,56.269841269841265,34.682539682539684,308.968253968254,56.58730158730158,-15.95238095238095,-156.26984126984127,-0.7142857142857142,-19.92063492063492,2.7777777777777777,-6.904761904761904,-10.238095238095237,-321.8253968253968
-52.93650793650794,-14.206349206349206,-276.74603174603175,86.42857142857143,-31.666666666666664,-43.73015873015873,-161.984126984127,-21.825396825396822,-20.71428571428571,-207.85714285714283,-16.26984126984127,-2.46031746031746,56.11111111111111,-55.95238095238095,307.69841269841265,-17.857142857142858,-22.936507936507937,-209.28571428571428,-1.6666666666666665,-14.206349206349206,19.76190476190476,-0.873015873015873,-2.619047619047619,-166.26984126984127
-52.93650793650794,-14.206349206349206,-276.74603174603175,86.42857142857143,-31.666666666666664,-43.73015873015873,-161.984126984127,-21.825396825396822,-20.71428571428571,-207.85714285714283,-16.26984126984127,-2.46031746031746,56.11111111111111,-55.95238095238095,307.69841269841265,-17.857142857142858,-22.936507936507937,-209.28571428571428,-1.6666666666666665,-14.206349206349206,19.76190476190476,-0.873015873015873,-2.619047619047619,-166.26984126984127
-55.15873015873016,-44.52380952380952,-273.57142857142856,86.58730158730158,-31.349206349206348,-74.36507936507937,-159.44444444444443,-48.80952380952381,-20.396825396825395,-231.19047619047618,-16.11111111111111,-0.23809523809523808,55.0,-85.15873015873015,302.6190476190476,-41.98412698412698,-22.936507936507937,-226.42857142857142,0.7142857142857142,-14.682539682539682,20.555555555555554,-0.7142857142857142,-2.46031746031746,-166.26984126984127
-55.15873015873016,-44.52380952380952,-273.57142857142856,86.58730158730158,-31.349206349206348,-74.36507936507937,-159.44444444444443,-48.80952380952381,-20.396825396825395,-231.19047619047618,-16.11111111111111,-0.23809523809523808,55.0,-85.15873015873015,302.6190476190476,-41.98412698412698,-22.936507936507937,-226.42857142857142,0.7142857142857142,-14.682539682539682,20.555555555555554,-0.7142857142857142,-2.46031746031746,-166.26984126984127
-57.38095238095238,-74.68253968253968,-270.39682539682536,86.9047619047619,-31.03174603174603,-104.84126984126983,-156.9047619047619,-75.79365079365078,-19.92063492063492,-254.36507936507934,-15.793650793650793,1.984126984126984,53.888888888888886,-114.2063492063492,297.53968253968253,-65.95238095238095,-22.777777777777775,-243.4126984126984,3.095238095238095,-15.158730158730158,21.507936507936506,-0.5555555555555556,-2.142857142857143,-166.26984126984127
-57.38095238095238,-74.68253968253968,-270.39682539682536,86.9047619047619,-31.03174603174603,-104.84126984126983,-156.9047619047619,-75.79365079365078,-19.92063492063492,-254.36507936507934,-15.793650793650793,1.984126984126984,53.888888888888886,-114.2063492063492,297.53968253968253,-65.95238095238095,-22.777777777777775,-243.4126984126984,3.095238095238095,-15.158730158730158,21.507936507936506,-0.5555555555555556,-2.142857142857143,-166.26984126984127
-51.98412698412698,212.93650793650792,-52.93650793650794,51.82539682539682,-30.396825396825395,242.77777777777777,-124.52380952380952,224.68253968253967,-19.6031746031746,-104.52380952380952,3.4126984126984126,2.9365079365079363,51.98412698412698,237.53968253968253,286.4285714285714,242.3015873015873,-12.619047619047619,16.26984126984127,2.619047619047619,-24.047619047619047,-44.68253968253968,-6.904761904761904,-8.65079365079365,-166.26984126984127
-51.98412698412698,212.93650793650792,-52.93650793650794,51.82539682539682,-30.396825396825395,242.77777777777777,-124.52380952380952,224.68253968253967,-19.6031746031746,-104.52380952380952,3.4126984126984126,2.9365079365079363,51.98412698412698,237.53968253968253,286.4285714285714,242.3015873015873,-12.619047619047619,16.26984126984127,2.619047619047619,-24.047619047619047,-44.68253968253968,-6.904761904761904,-8.65079365079365,-166.26984126984127
-50.55555555555555,220.07936507936506,-205.47619047619045,77.85714285714285,-29.920634920634917,217.69841269841268,-141.19047619047618,238.015873015873,-19.285714285714285,-178.33333333333331,-10.396825396825395,7.222222222222221,50.55555555555555,197.53968253968253,279.44444444444446,241.5079365079365,-21.666666666666664,86.1111111111111,7.5396825396825395,-23.41269841269841,6.587301587301587,-6.904761904761904,-10.873015873015872,-166.26984126984127
-50.55555555555555,220.07936507936506,-205.47619047619045,77.85714285714285,-29.920634920634917,217.69841269841268,-141.19047619047618,238.015873015873,-19.285714285714285,-178.33333333333331,-10.396825396825395,7.222222222222221,50.55555555555555,197.53968253968253,279.44444444444446,241.5079365079365,-21.666666666666664,86.1111111111111,7.5396825396825395,-23.41269841269841,6.587301587301587,-6.904761904761904,-10.873015873015872,-166.26984126984127
-50.39682539682539,181.8253968253968,-260.7142857142857,81.98412698412697,-29.76190476190476,166.42857142857142,-148.015873015873,205.15873015873015,-18.96825396825397,-265.0,-15.793650793650793,9.761904761904761,50.238095238095234,146.11111111111111,278.3333333333333,206.1111111111111,-22.142857142857142,85.47619047619047,10.396825396825395,-22.619047619047617,22.936507936507937,-1.0317460317460316,-3.095238095238095,-321.8253968253968
-50.39682539682539,181.8253968253968,-260.7142857142857,81.98412698412697,-29.76190476190476,166.42857142857142,-148.015873015873,205.15873015873015,-18.96825396825397,-265.0,-15.793650793650793,9.761904761904761,50.238095238095234,146.11111111111111,278.3333333333333,206.1111111111111,-22.142857142857142,85.47619047619047,10.396825396825395,-22.619047619047617,22.936507936507937,-1.0317460317460316,-3.095238095238095,-321.8253968253968
-50.39682539682539,181.8253968253968,-260.7142857142857,81.98412698412697,-29.76190476190476,166.42857142857142,-148.015873015873,205.15873015873015,-18.96825396825397,-265.0,-15.793650793650793,9.761904761904761,50.238095238095234,146.11111111111111,278.3333333333333,206.1111111111111,-22.142857142857142,85.47619047619047,10.396825396825395,-22.619047619047617,22.936507936507937,-1.0317460317460316,-3.095238095238095,-321.8253968253968
-50.39682539682539,181.8253968253968,-260.7142857142857,81.98412698412697,-29.76190476190476,166.42857142857142,-148.015873015873,205.15873015873015,-18.96825396825397,-265.0,-15.793650793650793,9.761904761904761,50.238095238095234,146.11111111111111,278.3333333333333,206.1111111111111,-22.142857142857142,85.47619047619047,10.396825396825395,-22.619047619047617,22.936507936507937,-1.0317460317460316,-3.095238095238095,-321.8253968253968
62.3015873015873,265.95238095238096,-123.88888888888889,67.06349206349206,-28.65079365079365,294.04761904761904,-126.42857142857142,289.4444444444444,-18.333333333333332,-302.1428571428571,16.11111111111111,3.095238095238095,47.22222222222222,288.4920634920635,265.7936507936508,298.015873015873,-11.825396825396824,75.47619047619047,2.3015873015873014,-22.936507936507937,-17.38095238095238,5.7936507936507935,7.698412698412698,-321.8253968253968
62.3015873015873,265.95238095238096,-123.88888888888889,67.06349206349206,-28.65079365079365,294.04761904761904,-126.42857142857142,289.4444444444444,-18.333333333333332,-302.1428571428571,16.11111111111111,3.095238095238095,47.22222222222222,288.4920634920635,265.7936507936508,298.015873015873,-11.825396825396824,75.47619047619047,2.3015873015873014,-22.936507936507937,-17.38095238095238,5.7936507936507935,7.698412698412698,-321.8253968253968
303.4126984126984,-167.85714285714286,-225.0,287.06349206349205,285.7936507936508,-199.60317460317458,-273.25396825396825,60.873015873015866,-18.174603174603174,-304.68253968253964,41.03174603174603,2.619047619047619,68.01587301587301,304.68253968253964,-80.55555555555556,304.68253968253964,322.6190476190476,71.5079365079365,1.6666666666666665,-2.46031746031746,272.3015873015873,-0.07936507936507936,-20.71428571428571,-321.8253968253968
303.4126984126984,-167.85714285714286,-225.0,287.06349206349205,285.7936507936508,-199.60317460317458,-273.25396825396825,60.873015873015866,-18.174603174603174,-304.68253968253964,41.03174603174603,2.619047619047619,68.01587301587301,304.68253968253964,-80.55555555555556,304.68253968253964,322.6190476190476,71.5079365079365,1.6666666666666665,-2.46031746031746,272.3015873015873,-0.07936507936507936,-20.71428571428571,-321.8253968253968
325.0,161.8253968253968,91.66666666666666,-50.55555555555555,-8.174603174603174,225.79365079365078,29.76190476190476,189.60317460317458,7.857142857142857,-302.77777777777777,150.07936507936506,-13.73015873015873,44.68253968253968,212.77777777777777,247.53968253968253,224.36507936507934,118.8095238095238,-22.142857142857142,-13.73015873015873,18.015873015873016,-182.14285714285714,-2.3015873015873014,-0.3968253968253968,-321.8253968253968
325.0,161.8253968253968,91.66666666666666,-50.55555555555555,-8.174603174603174,225.79365079365078,29.76190476190476,189.60317460317458,7.857142857142857,-302.77777777777777,150.07936507936506,-13.73015873015873,44.68253968253968,212.77777777777777,247.53968253968253,224.36507936507934,118.8095238095238,-22.142857142857142,-13.73015873015873,18.015873015873016,-182.14285714285714,-2.3015873015873014,-0.3968253968253968,-321.8253968253968
325.0,161.8253968253968,91.66666666666666,-50.55555555555555,-8.174603174603174,225.79365079365078,29.76190476190476,189.60317460317458,7.857142857142857,-302.77777777777777,150.07936507936506,-13.73015873015873,44.68253968253968,212.77777777777777,247.53968253968253,224.36507936507934,118.8095238095238,-22.142857142857142,-13.73015873015873,18.015873015873016,-182.14285714285714,-2.3015873015873014,-0.3968253968253968,-166.26984126984127
325.0,161.8253968253968,91.66666666666666,-50.55555555555555,-8.174603174603174,225.79365079365078,29.76190476190476,189.60317460317458,7.857142857142857,-302.77777777777777,150.07936507936506,-13.73015873015873,44.68253968253968,212.77777777777777,247.53968253968253,224.36507936507934,118.8095238095238,-22.142857142857142,-13.73015873015873,18.015873015873016,-182.14285714285714,-2.3015873015873014,-0.3968253968253968,-166.26984126984127
314.8412698412698,151.66666666666666,101.82539682539682,-60.71428571428571,154.36507936507937,215.63492063492063,29.76190476190476,179.44444444444443,7.857142857142857,-312.9365079365079,139.9206349206349,-23.88888888888889,54.841269841269835,222.93650793650792,85.0,214.2063492063492,-43.73015873015873,-11.984126984126984,-13.73015873015873,28.174603174603174,-192.3015873015873,-2.3015873015873014,151.984126984127,-166.26984126984127
314.8412698412698,151.66666666666666,101.82539682539682,-60.71428571428571,154.36507936507937,215.63492063492063,29.76190476190476,179.44444444444443,7.857142857142857,-312.9365079365079,139.9206349206349,-23.88888888888889,54.841269841269835,222.93650793650792,85.0,214.2063492063492,-43.73015873015873,-11.984126984126984,-13.73015873015873,28.174603174603174,-192.3015873015873,-2.3015873015873014,151.984126984127,-166.26984126984127
304.68253968253964,141.5079365079365,111.98412698412697,-70.87301587301587,316.90476190476187,205.47619047619045,29.76190476190476,169.28571428571428,7.857142857142857,-323.0952380952381,129.76190476190476,-34.047619047619044,65.0,233.09523809523807,-77.53968253968253,204.04761904761904,-206.26984126984127,-1.8253968253968254,-13.73015873015873,38.33333333333333,-202.46031746031744,-2.3015873015873014,304.36507936507934,-166.26984126984127
304.68253968253964,141.5079365079365,111.98412698412697,-70.87301587301587,316.90476190476187,205.47619047619045,29.76190476190476,169.28571428571428,7.857142857142857,-323.0952380952381,129.76190476190476,-34.047619047619044,65.0,233.09523809523807,-77.53968253968253,204.04761904761904,-206.26984126984127,-1.8253968253968254,-13.73015873015873,38.33333333333333,-202.46031746031744,-2.3015873015873014,304.36507936507934,-166.26984126984127
304.68253968253964,141.5079365079365,111.98412698412697,-70.87301587301587,316.90476190476187,205.47619047619045,29.76190476190476,169.28571428571428,7.857142857142857,-323.0952380952381,129.76190476190476,-34.047619047619044,65.0,233.09523809523807,-77.53968253968253,204.04761904761904,-206.26984126984127,-1.8253968253968254,-13.73015873015873,38.33333333333333,-202.46031746031744,-2.3015873015873014,304.36507936507934,-166.26984126984127
304.68253968253964,141.5079365079365,111.98412698412697,-70.87301587301587,316.90476190476187,205.47619047619045,29.76190476190476,169.28571428571428,7.857142857142857,-323.0952380952381,129.76190476190476,-34.047619047619044,65.0,233.09523809523807,-77.53968253968253,204.04761904761904,-206.26984126984127,-1.8253968253968254,-13.73015873015873,38.33333333333333,-202.46031746031744,-2.3015873015873014,304.36507936507934,-166.26984126984127
34.52380952380952,233.25396825396825,1.1904761904761905,73.88888888888889,136.9047619047619,265.1587301587301,-5.634920634920634,247.06349206349205,-7.222222222222221,0.873015873015873,53.41269841269841,-12.936507936507935,-130.07936507936506,278.968253968254,-201.34920634920633,264.5238095238095,-136.74603174603175,78.80952380952381,-118.65079365079364,-5.317460317460317,-51.666666666666664,0.07936507936507936,153.09523809523807,-166.26984126984127
34.52380952380952,233.25396825396825,1.1904761904761905,73.88888888888889,136.9047619047619,265.1587301587301,-5.634920634920634,247.06349206349205,-7.222222222222221,0.873015873015873,53.41269841269841,-12.936507936507935,-130.07936507936506,278.968253968254,-201.34920634920633,264.5238095238095,-136.74603174603175,78.80952380952381,-118.65079365079364,-5.317460317460317,-51.666666666666664,0.07936507936507936,153.09523809523807,-166.26984126984127
-123.4126984126984,325.0,-60.079365079365076,215.47619047619045,-22.777777777777775,325.0,-25.952380952380953,325.0,17.38095238095238,276.58730158730157,-4.682539682539682,-1.0317460317460316,-194.52380952380952,325.0,0.3968253968253968,325.0,101.19047619047619,157.53968253968253,-220.55555555555554,-48.650793650793645,43.41269841269841,4.2063492063492065,7.3809523809523805,-321.8253968253968
-123.4126984126984,325.0,-60.079365079365076,215.47619047619045,-22.777777777777775,325.0,-25.952380952380953,325.0,17.38095238095238,276.58730158730157,-4.682539682539682,-1.0317460317460316,-194.52380952380952,325.0,0.3968253968253968,325.0,101.19047619047619,157.53968253968253,-220.55555555555554,-48.650793650793645,43.41269841269841,4.2063492063492065,7.3809523809523805,-321.8253968253968
-145.3174603174603,325.0,-67.53968253968253,212.61904761904762,-25.317460317460316,325.0,-27.22222222222222,325.0,9.126984126984127,325.0,-7.063492063492063,1.984126984126984,-194.52380952380952,325.0,-132.3015873015873,325.0,59.285714285714285,155.3174603174603,-217.85714285714283,-48.17460317460317,52.14285714285714,-0.873015873015873,-1.1904761904761905,-321.8253968253968
-145.3174603174603,325.0,-67.53968253968253,212.61904761904762,-25.317460317460316,325.0,-27.22222222222222,325.0,9.126984126984127,325.0,-7.063492063492063,1.984126984126984,-194.52380952380952,325.0,-132.3015873015873,325.0,59.285714285714285,155.3174603174603,-217.85714285714283,-48.17460317460317,52.14285714285714,-0.873015873015873,-1.1904761904761905,-321.8253968253968
-204.2063492063492,154.52380952380952,-181.8253968253968,266.90476190476187,73.25396825396825,222.61904761904762,96.74603174603175,314.8412698412698,142.14285714285714,115.0,106.9047619047619,18.49206349206349,-253.88888888888889,111.66666666666666,117.06349206349206,325.0,44.68253968253968,142.3015873015873,-51.666666666666664,-46.904761904761905,67.38095238095238,22.46031746031746,27.698412698412696,-321.8253968253968
-204.2063492063492,154.52380952380952,-181.8253968253968,266.90476190476187,73.25396825396825,222.61904761904762,96.74603174603175,314.8412698412698,142.14285714285714,115.0,106.9047619047619,18.49206349206349,-253.88888888888889,111.66666666666666,117.06349206349206,325.0,44.68253968253968,142.3015873015873,-51.666666666666664,-46.904761904761905,67.38095238095238,22.46031746031746,27.698412698412696,-321.8253968253968
-259.76190476190476,-15.793650793650793,-285.6349206349206,325.0,179.12698412698413,120.39682539682539,224.68253968253967,304.8412698412698,283.0952380952381,-82.61904761904762,224.68253968253967,27.698412698412696,-182.77777777777777,-101.66666666666666,279.6031746031746,325.0,44.68253968253968,132.14285714285714,110.87301587301587,-46.904761904761905,77.53968253968253,32.61904761904762,37.857142857142854,-321.8253968253968
-259.76190476190476,-15.793650793650793,-285.6349206349206,325.0,179.12698412698413,120.39682539682539,224.68253968253967,304.8412698412698,283.0952380952381,-82.61904761904762,224.68253968253967,27.698412698412696,-182.77777777777777,-101.66666666666666,279.6031746031746,325.0,44.68253968253968,132.14285714285714,110.87301587301587,-46.904761904761905,77.53968253968253,32.61904761904762,37.857142857142854,-321.8253968253968
-259.76190476190476,-15.793650793650793,-285.6349206349206,325.0,179.12698412698413,120.39682539682539,224.68253968253967,304.8412698412698,283.0952380952381,-82.61904761904762,224.68253968253967,27.698412698412696,-182.77777777777777,-101.66666666666666,279.6031746031746,325.0,44.68253968253968,132.14285714285714,110.87301587301587,-46.904761904761905,77.53968253968253,32.61904761904762,37.857142857142854,-321.8253968253968
-259.76190476190476,-15.793650793650793,-285.6349206349206,325.0,179.12698412698413,120.39682539682539,224.68253968253967,304.8412698412698,283.0952380952381,-82.61904761904762,224.68253968253967,27.698412698412696,-182.77777777777777,-101.66666666666666,279.6031746031746,325.0,44.68253968253968,132.14285714285714,110.87301587301587,-46.904761904761905,77.53968253968253,32.61904761904762,37.857142857142854,-321.8253968253968
-259.76190476190476,-15.793650793650793,-285.6349206349206,325.0,179.12698412698413,120.39682539682539,224.68253968253967,304.8412698412698,283.0952380952381,-82.61904761904762,224.68253968253967,27.698412698412696,-182.77777777777777,-101.66666666666666,279.6031746031746,325.0,44.68253968253968,132.14285714285714,110.87301587301587,-46.904761904761905,77.53968253968253,32.61904761904762,37.857142857142854,-166.26984126984127
-259.76190476190476,-15.793650793650793,-285.6349206349206,325.0,179.12698412698413,120.39682539682539,224.68253968253967,304.8412698412698,283.0952380952381,-82.61904761904762,224.68253968253967,27.698412698412696,-182.77777777777777,-101.66666666666666,279.6031746031746,325.0,44.68253968253968,132.14285714285714,110.87301587301587,-46.904761904761905,77.53968253968253,32.61904761904762,37.857142857142854,-166.26984126984127
-259.76190476190476,-15.793650793650793,-285.6349206349206,325.0,179.12698412698413,120.39682539682539,224.68253968253967,304.8412698412698,283.0952380952381,-82.61904761904762,224.68253968253967,27.698412698412696,-182.77777777777777,-101.66666666666666,279.6031746031746,325.0,44.68253968253968,132.14285714285714,110.87301587301587,-46.904761904761905,77.53968253968253,32.61904761904762,37.857142857142854,-166.26984126984127
-259.76190476190476,-15.793650793650793,-285.6349206349206,325.0,179.12698412698413,120.39682539682539,224.68253968253967,304.8412698412698,283.0952380952381,-82.61904761904762,224.68253968253967,27.698412698412696,-182.77777777777777,-101.66666666666666,279.6031746031746,325.0,44.68253968253968,132.14285714285714,110.87301587301587,-46.904761904761905,77.53968253968253,32.61904761904762,37.857142857142854,-166.26984126984127
-259.76190476190476,-15.793650793650793,-285.6349206349206,325.0,179.12698412698413,120.39682539682539,224.68253968253967,304.8412698412698,283.0952380952381,-82.61904761904762,224.68253968253967,27.698412698412696,-182.77777777777777,-101.66666666666666,279.6031746031746,325.0,44.68253968253968,132.14285714285714,110.87301587301587,-46.904761904761905,77.53968253968253,32.61904761904762,37.857142857142854,-166.26984126984127
-259.76190476190476,-15.793650793650793,-285.6349206349206,325.0,179.12698412698413,120.39682539682539,224.68253968253967,304.8412698412698,283.0952380952381,-82.61904761904762,224.68253968253967,27.698412698412696,-182.77777777777777,-101.66666666666666,279.6031746031746,325.0,44.68253968253968,132.14285714285714,110.87301587301587,-46.904761904761905,77.53968253968253,32.61904761904762,37.857142857142854,-166.26984126984127
-259.76190476190476,-15.793650793650793,-285.6349206349206,325.0,179.12698412698413,120.39682539682539,224.68253968253967,304.8412698412698,283.0952380952381,-82.61904761904762,224.68253968253967,27.698412698412696,-182.77777777777777,-101.66666666666666,279.6031746031746,325.0,44.68253968253968,132.14285714285714,110.87301587301587,-46.904761904761905,77.53968253968253,32.61904761904762,37.857142857142854,-166.26984126984127
-259.76190476190476,-15.793650793650793,-285.6349206349206,325.0,179.12698412698413,120.39682539682539,224.68253968253967,304.8412698412698,283.0952380952381,-82.61904761904762,224.68253968253967,27.698412698412696,-182.77777777777777,-101.66666666666666,279.6031746031746,325.0,44.68253968253968,132.14285714285714,110.87301587301587,-46.904761904761905,77.53968253968253,32.61904761904762,37.857142857142854,-166.26984126984127
-259.76190476190476,-15.793650793650793,-285.6349206349206,325.0,179.12698412698413,120.39682539682539,224.68253968253967,304.8412698412698,283.0952380952381,-82.61904761904762,224.68253968253967,27.698412698412696,-182.77777777777777,-101.66666666666666,279.6031746031746,325.0,44.68253968253968,132.14285714285714,110.87301587301587,-46.904761904761905,77.53968253968253,32.61904761904762,37.857142857142854,-166.26984126984127
-259.76190476190476,-15.793650793650793,-285.6349206349206,325.0,179.12698412698413,120.39682539682539,224.68253968253967,304.8412698412698,283.0952380952381,-82.61904761904762,224.68253968253967,27.698412698412696,-182.77777777777777,-101.66666666666666,279.6031746031746,325.0,44.68253968253968,132.14285714285714,110.87301587301587,-46.904761904761905,77.53968253968253,32.61904761904762,37.857142857142854,-166.26984126984127
-259.76190476190476,-15.793650793650793,-285.6349206349206,325.0,179.12698412698413,120.39682539682539,224.68253968253967,304.8412698412698,283.0952380952381,-82.61904761904762,224.68253968253967,27.698412698412696,-182.77777777777777,-101.66666666666666,279.6031746031746,325.0,44.68253968253968,132.14285714285714,110.87301587301587,-46.904761904761905,77.53968253968253,32.61904761904762,37.857142857142854,-321.8253968253968
-259.76190476190476,-15.793650793650793,-285.6349206349206,325.0,179.12698412698413,120.39682539682539,224.68253968253967,304.8412698412698,283.0952380952381,-82.61904761904762,224.68253968253967,27.698412698412696,-182.77777777777777,-101.66666666666666,279.6031746031746,325.0,44.68253968253968,132.14285714285714,110.87301587301587,-46.904761904761905,77.53968253968253,32.61904761904762,37.857142857142854,-321.8253968253968
-129.9206349206349,55.63492063492063,-155.47619047619048,120.55555555555554,114.2063492063492,77.06349206349206,123.57142857142857,167.85714285714286,116.42857142857142,121.19047619047619,178.65079365079364,21.825396825396822,-128.33333333333331,-23.88888888888889,52.93650793650794,178.17460317460316,87.6984126984127,30.555555555555554,61.19047619047619,57.06349206349206,19.126984126984127,22.619047619047617,28.015873015873016,-321.8253968253968
-129.9206349206349,55.63492063492063,-155.47619047619048,120.55555555555554,114.2063492063492,77.06349206349206,123.57142857142857,167.85714285714286,116.42857142857142,121.19047619047619,178.65079365079364,21.825396825396822,-128.33333333333331,-23.88888888888889,52.93650793650794,178.17460317460316,87.6984126984127,30.555555555555554,61.19047619047619,57.06349206349206,19.126984126984127,22.619047619047617,28.015873015873016,-321.8253968253968
0.07936507936507936,127.22222222222221,-25.158730158730158,-83.73015873015872,49.285714285714285,33.73015873015873,22.619047619047617,30.87301587301587,-50.079365079365076,325.0,132.61904761904762,16.11111111111111,-73.88888888888889,54.047619047619044,-173.73015873015873,31.507936507936506,130.7142857142857,-71.03174603174602,11.666666666666666,161.19047619047618,-39.12698412698413,12.777777777777777,18.333333333333332,-321.8253968253968
0.07936507936507936,127.22222222222221,-25.158730158730158,-83.73015873015872,49.285714285714285,33.73015873015873,22.619047619047617,30.87301587301587,-50.079365079365076,325.0,132.61904761904762,16.11111111111111,-73.88888888888889,54.047619047619044,-173.73015873015873,31.507936507936506,130.7142857142857,-71.03174603174602,11.666666666666666,161.19047619047618,-39.12698412698413,12.777777777777777,18.333333333333332,-321.8253968253968
0.07936507936507936,127.22222222222221,-25.158730158730158,-83.73015873015872,49.285714285714285,33.73015873015873,22.619047619047617,30.87301587301587,-50.079365079365076,325.0,132.61904761904762,16.11111111111111,-73.88888888888889,54.047619047619044,-173.73015873015873,31.507936507936506,130.7142857142857,-71.03174603174602,11.666666666666666,161.19047619047618,-39.12698412698413,12.777777777777777,18.333333333333332,-321.8253968253968
0.07936507936507936,127.22222222222221,-25.158730158730158,-83.73015873015872,49.285714285714285,33.73015873015873,22.619047619047617,30.87301587301587,-50.079365079365076,325.0,132.61904761904762,16.11111111111111,-73.88888888888889,54.047619047619044,-173.73015873015873,31.507936507936506,130.7142857142857,-71.03174603174602,11.666666666666666,161.19047619047618,-39.12698412698413,12.777777777777777,18.333333333333332,-321.8253968253968
-179.12698412698413,38.33333333333333,-148.4920634920635,283.57142857142856,-128.8095238095238,33.888888888888886,-112.6190476190476,53.41269841269841,-90.23809523809523,325.0,-168.015873015873,0.23809523809523808,-241.8253968253968,36.269841269841265,-325.0,60.873015873015866,-204.52380952380952,58.17460317460317,325.0,-106.42857142857142,228.015873015873,-4.0476190476190474,-6.428571428571428,-321.8253968253968
-179.12698412698413,38.33333333333333,-148.4920634920635,283.57142857142856,-128.8095238095238,33.888888888888886,-112.6190476190476,53.41269841269841,-90.23809523809523,325.0,-168.015873015873,0.23809523809523808,-241.8253968253968,36.269841269841265,-325.0,60.873015873015866,-204.52380952380952,58.17460317460317,325.0,-106.42857142857142,228.015873015873,-4.0476190476190474,-6.428571428571428,-321.8253968253968
-179.12698412698413,38.33333333333333,-148.4920634920635,283.57142857142856,-128.8095238095238,33.888888888888886,-112.6190476190476,53.41269841269841,-90.23809523809523,325.0,-168.015873015873,0.23809523809523808,-241.8253968253968,36.269841269841265,-325.0,60.873015873015866,-204.52380952380952,58.17460317460317,325.0,-106.42857142857142,228.015873015873,-4.0476190476190474,-6.428571428571428,-166.26984126984127
-179.12698412698413,38.33333333333333,-148.4920634920635,283.57142857142856,-128.8095238095238,33.888888888888886,-112.6190476190476,53.41269841269841,-90.23809523809523,325.0,-168.015873015873,0.23809523809523808,-241.8253968253968,36.269841269841265,-325.0,60.873015873015866,-204.52380952380952,58.17460317460317,325.0,-106.42857142857142,228.015873015873,-4.0476190476190474,-6.428571428571428,-166.26984126984127
-179.12698412698413,38.33333333333333,-148.4920634920635,283.57142857142856,-128.8095238095238,33.888888888888886,-112.6190476190476,53.41269841269841,-90.23809523809523,325.0,-168.015873015873,0.23809523809523808,-241.8253968253968,36.269841269841265,-325.0,60.873015873015866,-204.52380952380952,58.17460317460317,325.0,-106.42857142857142,228.015873015873,-4.0476190476190474,-6.428571428571428,-166.26984126984127
-179.12698412698413,38.33333333333333,-148.4920634920635,283.57142857142856,-128.8095238095238,33.888888888888886,-112.6190476190476,53.41269841269841,-90.23809523809523,325.0,-168.015873015873,0.23809523809523808,-241.8253968253968,36.269841269841265,-325.0,60.873015873015866,-204.52380952380952,58.17460317460317,325.0,-106.42857142857142,228.015873015873,-4.0476190476190474,-6.428571428571428,-166.26984126984127
-179.12698412698413,38.33333333333333,-148.4920634920635,283.57142857142856,-128.8095238095238,33.888888888888886,-112.6190476190476,53.41269841269841,-90.23809523809523,325.0,-168.015873015873,0.23809523809523808,-241.8253968253968,36.269841269841265,-325.0,60.873015873015866,-204.52380952380952,58.17460317460317,325.0,-106.42857142857142,228.015873015873,-4.0476190476190474,-6.428571428571428,-166.26984126984127
-179.12698412698413,38.33333333333333,-148.4920634920635,283.57142857142856,-128.8095238095238,33.888888888888886,-112.6190476190476,53.41269841269841,-90.23809523809523,325.0,-168.015873015873,0.23809523809523808,-241.8253968253968,36.269841269841265,-325.0,60.873015873015866,-204.52380952380952,58.17460317460317,325.0,-106.42857142857142,228.015873015873,-4.0476190476190474,-6.428571428571428,-166.26984126984127
-179.12698412698413,38.33333333333333,-148.4920634920635,283.57142857142856,-128.8095238095238,33.888888888888886,-112.6190476190476,53.41269841269841,-90.23809523809523,325.0,-168.015873015873,0.23809523809523808,-241.8253968253968,36.269841269841265,-325.0,60.873015873015866,-204.52380952380952,58.17460317460317,325.0,-106.42857142857142,228.015873015873,-4.0476190476190474,-6.428571428571428,-166.26984126984127
-179.12698412698413,38.33333333333333,-148.4920634920635,283.57142857142856,-128.8095238095238,33.888888888888886,-112.6190476190476,53.41269841269841,-90.23809523809523,325.0,-168.015873015873,0.23809523809523808,-241.8253968253968,36.269841269841265,-325.0,60.873015873015866,-204.52380952380952,58.17460317460317,325.0,-106.42857142857142,228.015873015873,-4.0476190476190474,-6.428571428571428,-166.26984126984127
-179.12698412698413,38.33333333333333,-148.4920634920635,283.57142857142856,-128.8095238095238,33.888888888888886,-112.6190476190476,53.41269841269841,-90.23809523809523,325.0,-168.015873015873,0.23809523809523808,-241.8253968253968,36.269841269841265,-325.0,60.873015873015866,-204.52380952380952,58.17460317460317,325.0,-106.42857142857142,228.015873015873,-4.0476190476190474,-6.428571428571428,-166.26984126984127
-179.12698412698413,38.33333333333333,-148.4920634920635,283.57142857142856,-128.8095238095238,33.888888888888886,-112.6190476190476,53.41269841269841,-90.23809523809523,325.0,-168.015873015873,0.23809523809523808,-241.8253968253968,36.269841269841265,-325.0,60.873015873015866,-204.52380952380952,58.17460317460317,325.0,-106.42857142857142,228.015873015873,-4.0476190476190474,-6.428571428571428,-166.26984126984127
-179.12698412698413,38.33333333333333,-148.4920634920635,283.57142857142856,-128.8095238095238,33.888888888888886,-112.6190476190476,53.41269841269841,-90.23809523809523,325.0,-168.015873015873,0.23809523809523808,-241.8253968253968,36.269841269841265,-325.0,60.873015873015866,-204.52380952380952,58.17460317460317,325.0,-106.42857142857142,228.015873015873,-4.0476190476190474,-6.428571428571428,-321.8253968253968
-179.12698412698413,38.33333333333333,-148.4920634920635,283.57142857142856,-128.8095238095238,33.888888888888886,-112.6190476190476,53.41269841269841,-90.23809523809523,325.0,-168.015873015873,0.23809523809523808,-241.8253968253968,36.269841269841265,-325.0,60.873015873015866,-204.52380952380952,58.17460317460317,325.0,-106.42857142857142,228.015873015873,-4.0476190476190474,-6.428571428571428,-321.8253968253968
-179.12698412698413,38.33333333333333,-148.4920634920635,283.57142857142856,-128.8095238095238,33.888888888888886,-112.6190476190476,53.41269841269841,-90.23809523809523,325.0,-168.015873015873,0.23809523809523808,-241.8253968253968,36.269841269841265,-325.0,60.873015873015866,-204.52380952380952,58.17460317460317,325.0,-106.42857142857142,228.015873015873,-4.0476190476190474,-6.428571428571428,-321.8253968253968
-179.12698412698413,38.33333333333333,-148.4920634920635,283.57142857142856,-128.8095238095238,33.888888888888886,-112.6190476190476,53.41269841269841,-90.23809523809523,325.0,-168.015873015873,0.23809523809523808,-241.8253968253968,36.269841269841265,-325.0,60.873015873015866,-204.52380952380952,58.17460317460317,325.0,-106.42857142857142,228.015873015873,-4.0476190476190474,-6.428571428571428,-321.8253968253968
-179.12698412698413,38.33333333333333,-148.4920634920635,283.57142857142856,-128.8095238095238,33.888888888888886,-112.6190476190476,53.41269841269841,-90.23809523809523,325.0,-168.015873015873,0.23809523809523808,-241.8253968253968,36.269841269841265,-325.0,60.873015873015866,-204.52380952380952,58.17460317460317,325.0,-106.42857142857142,228.015873015873,-4.0476190476190474,-6.428571428571428,-321.8253968253968
-179.12698412698413,38.33333333333333,-148.4920634920635,283.57142857142856,-128.8095238095238,33.888888888888886,-112.6190476190476,53.41269841269841,-90.23809523809523,325.0,-168.015873015873,0.23809523809523808,-241.8253968253968,36.269841269841265,-325.0,60.873015873015866,-204.52380952380952,58.17460317460317,325.0,-106.42857142857142,228.015873015873,-4.0476190476190474,-6.428571428571428,-321.8253968253968
156.11111111111111,3.095238095238095,164.84126984126982,-32.3015873015873,141.34920634920636,52.460317460317455,86.74603174603175,29.126984126984127,56.904761904761905,325.0,20.555555555555554,-5.634920634920634,111.98412698412697,48.17460317460317,-34.84126984126984,39.12698412698413,55.476190476190474,4.523809523809524,255.63492063492063,-40.238095238095234,-163.57142857142856,-8.174603174603174,-9.444444444444445,-321.8253968253968
156.11111111111111,3.095238095238095,164.84126984126982,-32.3015873015873,141.34920634920636,52.460317460317455,86.74603174603175,29.126984126984127,56.904761904761905,325.0,20.555555555555554,-5.634920634920634,111.98412698412697,48.17460317460317,-34.84126984126984,39.12698412698413,55.476190476190474,4.523809523809524,255.63492063492063,-40.238095238095234,-163.57142857142856,-8.174603174603174,-9.444444444444445,-321.8253968253968
-10.238095238095237,-65.31746031746032,7.857142857142857,28.65079365079365,3.253968253968254,-18.80952380952381,-22.619047619047617,-25.0,-26.428571428571427,325.0,-74.04761904761904,-2.7777777777777777,-69.92063492063491,-21.349206349206348,-155.95238095238093,-17.063492063492063,-74.84126984126983,-35.317460317460316,324.5238095238095,21.03174603174603,7.5396825396825395,0.7142857142857142,0.07936507936507936,-321.8253968253968
-10.238095238095237,-65.31746031746032,7.857142857142857,28.65079365079365,3.253968253968254,-18.80952380952381,-22.619047619047617,-25.0,-26.428571428571427,325.0,-74.04761904761904,-2.7777777777777777,-69.92063492063491,-21.349206349206348,-155.95238095238093,-17.063492063492063,-74.84126984126983,-35.317460317460316,324.5238095238095,21.03174603174603,7.5396825396825395,0.7142857142857142,0.07936507936507936,-321.8253968253968
146.26984126984127,3.4126984126984126,159.44444444444443,-56.11111111111111,127.6984126984127,53.73015873015873,80.23809523809523,33.25396825396825,55.63492063492063,325.0,21.03174603174603,-3.4126984126984126,107.38095238095238,53.888888888888886,-40.238095238095234,43.57142857142857,54.2063492063492,8.968253968253968,242.77777777777777,-49.12698412698413,-162.77777777777777,-8.015873015873016,-10.555555555555555,-166.26984126984127
146.26984126984127,3.4126984126984126,159.44444444444443,-56.11111111111111,127.6984126984127,53.73015873015873,80.23809523809523,33.25396825396825,55.63492063492063,325.0,21.03174603174603,-3.4126984126984126,107.38095238095238,53.888888888888886,-40.238095238095234,43.57142857142857,54.2063492063492,8.968253968253968,242.77777777777777,-49.12698412698413,-162.77777777777777,-8.015873015873016,-10.555555555555555,-166.26984126984127
-21.984126984126984,-31.666666666666664,2.142857142857143,66.26984126984127,-4.841269841269841,-5.317460317460317,-26.428571428571427,-8.333333333333332,-22.936507936507937,325.0,-65.79365079365078,-5.317460317460317,-54.841269841269835,-14.682539682539682,-195.79365079365078,-8.015873015873016,-72.3015873015873,-8.492063492063492,325.0,-127.85714285714285,-9.920634920634921,-13.888888888888888,-19.92063492063492,-166.26984126984127
-21.984126984126984,-31.666666666666664,2.142857142857143,66.26984126984127,-4.841269841269841,-5.317460317460317,-26.428571428571427,-8.333333333333332,-22.936507936507937,325.0,-65.79365079365078,-5.317460317460317,-54.841269841269835,-14.682539682539682,-195.79365079365078,-8.015873015873016,-72.3015873015873,-8.492063492063492,325.0,-127.85714285714285,-9.920634920634921,-13.888888888888888,-19.92063492063492,-166.26984126984127
147.06349206349205,-55.15873015873016,168.96825396825395,-115.31746031746032,134.04761904761904,2.46031746031746,84.2063492063492,-4.0476190476190474,66.26984126984127,178.96825396825395,28.49206349206349,-20.396825396825395,117.85714285714285,15.793650793650793,-27.38095238095238,3.095238095238095,71.34920634920634,-38.33333333333333,199.9206349206349,-30.396825396825395,-181.34920634920633,-7.222222222222221,-10.238095238095237,-166.26984126984127
147.06349206349205,-55.15873015873016,168.96825396825395,-115.31746031746032,134.04761904761904,2.46031746031746,84.2063492063492,-4.0476190476190474,66.26984126984127,178.96825396825395,28.49206349206349,-20.396825396825395,117.85714285714285,15.793650793650793,-27.38095238095238,3.095238095238095,71.34920634920634,-38.33333333333333,199.9206349206349,-30.396825396825395,-181.34920634920633,-7.222222222222221,-10.238095238095237,-166.26984126984127
-21.349206349206348,-85.47619047619047,13.095238095238095,28.333333333333332,-0.873015873015873,-44.52380952380952,-25.634920634920633,-31.19047619047619,-18.80952380952381,286.4285714285714,-63.095238095238095,-23.41269841269841,-44.52380952380952,-36.42857142857142,-182.61904761904762,-34.36507936507936,-65.47619047619047,-41.19047619047619,325.0,-113.4126984126984,-37.698412698412696,-13.095238095238095,-19.76190476190476,-166.26984126984127
-21.349206349206348,-85.47619047619047,13.095238095238095,28.333333333333332,-0.873015873015873,-44.52380952380952,-25.634920634920633,-31.19047619047619,-18.80952380952381,286.4285714285714,-63.095238095238095,-23.41269841269841,-44.52380952380952,-36.42857142857142,-182.61904761904762,-34.36507936507936,-65.47619047619047,-41.19047619047619,325.0,-113.4126984126984,-37.698412698412696,-13.095238095238095,-19.76190476190476,-166.26984126984127
-21.349206349206348,-85.47619047619047,13.095238095238095,28.333333333333332,-0.873015873015873,-44.52380952380952,-25.634920634920633,-31.19047619047619,-18.80952380952381,286.4285714285714,-63.095238095238095,-23.41269841269841,-44.52380952380952,-36.42857142857142,-182.61904761904762,-34.36507936507936,-65.47619047619047,-41.19047619047619,325.0,-113.4126984126984,-37.698412698412696,-13.095238095238095,-19.76190476190476,-166.26984126984127
-21.349206349206348,-85.47619047619047,13.095238095238095,28.333333333333332,-0.873015873015873,-44.52380952380952,-25.634920634920633,-31.19047619047619,-18.80952380952381,286.4285714285714,-63.095238095238095,-23.41269841269841,-44.52380952380952,-36.42857142857142,-182.61904761904762,-34.36507936507936,-65.47619047619047,-41.19047619047619,325.0,-113.4126984126984,-37.698412698412696,-13.095238095238095,-19.76190476190476,-166.26984126984127
-68.33333333333333,-95.95238095238095,-60.238095238095234,13.253968253968253,-44.52380952380952,-75.63492063492063,-52.93650793650794,-52.460317460317455,-44.2063492063492,-92.14285714285714,-93.57142857142857,-6.587301587301587,-135.79365079365078,-68.01587301587301,-165.79365079365078,-42.61904761904761,-57.857142857142854,-65.63492063492063,275.0,119.6031746031746,95.0,8.968253968253968,10.396825396825395,-321.8253968253968
-68.33333333333333,-95.95238095238095,-60.238095238095234,13.253968253968253,-44.52380952380952,-75.63492063492063,-52.93650793650794,-52.460317460317455,-44.2063492063492,-92.14285714285714,-93.57142857142857,-6.587301587301587,-135.79365079365078,-68.01587301587301,-165.79365079365078,-42.61904761904761,-57.857142857142854,-65.63492063492063,275.0,119.6031746031746,95.0,8.968253968253968,10.396825396825395,-321.8253968253968
219.60317460317458,-21.349206349206348,201.19047619047618,-215.63492063492063,185.3174603174603,32.460317460317455,122.93650793650794,14.047619047619047,95.47619047619047,-325.0,70.39682539682539,-5.317460317460317,148.96825396825395,50.238095238095234,80.23809523809523,35.63492063492063,215.63492063492063,-41.03174603174603,109.44444444444444,131.5079365079365,-191.19047619047618,5.476190476190476,8.492063492063492,-321.8253968253968
219.60317460317458,-21.349206349206348,201.19047619047618,-215.63492063492063,185.3174603174603,32.460317460317455,122.93650793650794,14.047619047619047,95.47619047619047,-325.0,70.39682539682539,-5.317460317460317,148.96825396825395,50.238095238095234,80.23809523809523,35.63492063492063,215.63492063492063,-41.03174603174603,109.44444444444444,131.5079365079365,-191.19047619047618,5.476190476190476,8.492063492063492,-321.8253968253968
157.38095238095238,-69.28571428571428,163.57142857142856,-203.57142857142856,154.84126984126982,-16.26984126984127,100.39682539682539,-32.3015873015873,83.73015873015872,-325.0,60.238095238095234,-11.825396825396824,143.09523809523807,-12.46031746031746,8.492063492063492,-21.825396825396822,166.9047619047619,-72.14285714285714,102.30158730158729,-7.5396825396825395,-185.15873015873015,-6.904761904761904,-11.031746031746032,-321.8253968253968
157.38095238095238,-69.28571428571428,163.57142857142856,-203.57142857142856,154.84126984126982,-16.26984126984127,100.39682539682539,-32.3015873015873,83.73015873015872,-325.0,60.238095238095234,-11.825396825396824,143.09523809523807,-12.46031746031746,8.492063492063492,-21.825396825396822,166.9047619047619,-72.14285714285714,102.30158730158729,-7.5396825396825395,-185.15873015873015,-6.904761904761904,-11.031746031746032,-321.8253968253968
-50.87301587301587,-227.85714285714283,-46.74603174603175,-141.984126984127,-31.666666666666664,-193.25396825396825,-40.87301587301587,-190.87301587301587,-33.888888888888886,-325.0,-74.68253968253968,-7.3809523809523805,-119.6031746031746,-188.4920634920635,-140.3968253968254,-176.9047619047619,-22.46031746031746,-206.74603174603175,149.6031746031746,199.76190476190476,30.396825396825395,9.126984126984127,10.555555555555555,-321.8253968253968
-50.87301587301587,-227.85714285714283,-46.74603174603175,-141.984126984127,-31.666666666666664,-193.25396825396825,-40.87301587301587,-190.87301587301587,-33.888888888888886,-325.0,-74.68253968253968,-7.3809523809523805,-119.6031746031746,-188.4920634920635,-140.3968253968254,-176.9047619047619,-22.46031746031746,-206.74603174603175,149.6031746031746,199.76190476190476,30.396825396825395,9.126984126984127,10.555555555555555,-321.8253968253968
151.8253968253968,-133.0952380952381,156.58730158730157,-219.28571428571428,131.984126984127,-78.96825396825396,88.01587301587301,-103.4126984126984,71.19047619047619,-325.0,51.82539682539682,-11.507936507936508,130.55555555555554,-78.96825396825396,-3.095238095238095,-91.5079365079365,173.4126984126984,-146.58730158730157,-0.3968253968253968,21.03174603174603,-186.58730158730157,-9.126984126984127,-11.984126984126984,-321.8253968253968
151.8253968253968,-133.0952380952381,156.58730158730157,-219.28571428571428,131.984126984127,-78.96825396825396,88.01587301587301,-103.4126984126984,71.19047619047619,-325.0,51.82539682539682,-11.507936507936508,130.55555555555554,-78.96825396825396,-3.095238095238095,-91.5079365079365,173.4126984126984,-146.58730158730157,-0.3968253968253968,21.03174603174603,-186.58730158730157,-9.126984126984127,-11.984126984126984,-321.8253968253968
51.34920634920635,-172.77777777777777,42.3015873015873,-196.9047619047619,44.84126984126984,-124.04761904761904,11.666666666666666,-134.84126984126982,9.761904761904761,-325.0,-20.71428571428571,-6.26984126984127,-11.984126984126984,-122.14285714285714,-69.92063492063491,-122.77777777777777,100.87301587301587,-164.84126984126982,74.84126984126983,101.98412698412697,-77.22222222222221,-1.0317460317460316,-0.3968253968253968,-166.26984126984127
51.34920634920635,-172.77777777777777,42.3015873015873,-196.9047619047619,44.84126984126984,-124.04761904761904,11.666666666666666,-134.84126984126982,9.761904761904761,-325.0,-20.71428571428571,-6.26984126984127,-11.984126984126984,-122.14285714285714,-69.92063492063491,-122.77777777777777,100.87301587301587,-164.84126984126982,74.84126984126983,101.98412698412697,-77.22222222222221,-1.0317460317460316,-0.3968253968253968,-166.26984126984127
124.04761904761904,-183.88888888888889,94.68253968253968,-280.23809523809524,104.36507936507935,-119.6031746031746,56.58730158730158,-139.12698412698413,45.0,-325.0,16.11111111111111,-3.888888888888889,20.238095238095237,-105.95238095238095,28.809523809523807,-114.84126984126983,179.9206349206349,-179.12698412698413,5.158730158730158,261.1904761904762,-106.42857142857142,12.777777777777777,19.126984126984127,-166.26984126984127
124.04761904761904,-183.88888888888889,94.68253968253968,-280.23809523809524,104.36507936507935,-119.6031746031746,56.58730158730158,-139.12698412698413,45.0,-325.0,16.11111111111111,-3.888888888888889,20.238095238095237,-105.95238095238095,28.809523809523807,-114.84126984126983,179.9206349206349,-179.12698412698413,5.158730158730158,261.1904761904762,-106.42857142857142,12.777777777777777,19.126984126984127,-166.26984126984127
124.04761904761904,-183.88888888888889,94.68253968253968,-280.23809523809524,104.36507936507935,-119.6031746031746,56.58730158730158,-139.12698412698413,45.0,-325.0,16.11111111111111,-3.888888888888889,20.238095238095237,-105.95238095238095,28.809523809523807,-114.84126984126983,179.9206349206349,-179.12698412698413,5.158730158730158,261.1904761904762,-106.42857142857142,12.777777777777777,19.126984126984127,-166.26984126984127
124.04761904761904,-183.88888888888889,94.68253968253968,-280.23809523809524,104.36507936507935,-119.6031746031746,56.58730158730158,-139.12698412698413,45.0,-325.0,16.11111111111111,-3.888888888888889,20.238095238095237,-105.95238095238095,28.809523809523807,-114.84126984126983,179.9206349206349,-179.12698412698413,5.158730158730158,261.1904761904762,-106.42857142857142,12.777777777777777,19.126984126984127,-166.26984126984127
168.65079365079364,-72.14285714285714,155.47619047619048,-186.42857142857142,171.19047619047618,-11.507936507936508,119.76190476190476,-33.41269841269841,104.52380952380952,-325.0,86.9047619047619,-7.857142857142857,95.15873015873015,-1.6666666666666665,97.22222222222221,-6.746031746031746,133.0952380952381,-90.39682539682539,30.555555555555554,242.6190476190476,-139.6031746031746,13.571428571428571,18.174603174603174,-166.26984126984127
168.65079365079364,-72.14285714285714,155.47619047619048,-186.42857142857142,171.19047619047618,-11.507936507936508,119.76190476190476,-33.41269841269841,104.52380952380952,-325.0,86.9047619047619,-7.857142857142857,95.15873015873015,-1.6666666666666665,97.22222222222221,-6.746031746031746,133.0952380952381,-90.39682539682539,30.555555555555554,242.6190476190476,-139.6031746031746,13.571428571428571,18.174603174603174,-166.26984126984127
-45.317460317460316,-58.49206349206349,-12.142857142857142,-53.888888888888886,-9.126984126984127,-20.07936507936508,-39.285714285714285,-14.84126984126984,-25.79365079365079,-325.0,-55.15873015873016,-10.396825396825395,-48.80952380952381,-33.095238095238095,-156.11111111111111,-17.857142857142858,-69.12698412698413,-49.76190476190476,222.93650793650792,-87.22222222222221,6.428571428571428,-12.619047619047619,-20.238095238095237,-166.26984126984127
-45.317460317460316,-58.49206349206349,-12.142857142857142,-53.888888888888886,-9.126984126984127,-20.07936507936508,-39.285714285714285,-14.84126984126984,-25.79365079365079,-325.0,-55.15873015873016,-10.396825396825395,-48.80952380952381,-33.095238095238095,-156.11111111111111,-17.857142857142858,-69.12698412698413,-49.76190476190476,222.93650793650792,-87.22222222222221,6.428571428571428,-12.619047619047619,-20.238095238095237,-166.26984126984127
-1.349206349206349,-153.4126984126984,-3.095238095238095,-248.015873015873,32.3015873015873,-106.26984126984127,16.26984126984127,-98.80952380952381,19.92063492063492,-325.0,-18.80952380952381,-1.1904761904761905,-53.57142857142857,-104.36507936507935,-48.49206349206349,-92.61904761904762,-75.15873015873015,-130.3968253968254,130.55555555555554,209.12698412698413,22.619047619047617,8.174603174603174,12.142857142857142,-321.8253968253968
-1.349206349206349,-153.4126984126984,-3.095238095238095,-248.015873015873,32.3015873015873,-106.26984126984127,16.26984126984127,-98.80952380952381,19.92063492063492,-325.0,-18.80952380952381,-1.1904761904761905,-53.57142857142857,-104.36507936507935,-48.49206349206349,-92.61904761904762,-75.15873015873015,-130.3968253968254,130.55555555555554,209.12698412698413,22.619047619047617,8.174603174603174,12.142857142857142,-321.8253968253968
325.0,32.93650793650794,325.0,-325.0,325.0,118.01587301587301,249.60317460317458,88.96825396825396,218.8095238095238,-212.61904761904762,207.85714285714283,-10.079365079365079,325.0,126.1111111111111,222.93650793650792,99.44444444444444,191.98412698412696,15.634920634920634,-6.904761904761904,30.87301587301587,-325.0,-5.476190476190476,-6.26984126984127,-321.8253968253968
325.0,32.93650793650794,325.0,-325.0,325.0,118.01587301587301,249.60317460317458,88.96825396825396,218.8095238095238,-212.61904761904762,207.85714285714283,-10.079365079365079,325.0,126.1111111111111,222.93650793650792,99.44444444444444,191.98412698412696,15.634920634920634,-6.904761904761904,30.87301587301587,-325.0,-5.476190476190476,-6.26984126984127,-321.8253968253968
273.57142857142856,23.41269841269841,269.44444444444446,-325.0,279.2857142857143,97.53968253968253,221.19047619047618,74.36507936507937,195.0,-215.79365079365078,174.2063492063492,-5.317460317460317,249.28571428571428,106.26984126984127,199.76190476190476,88.01587301587301,129.28571428571428,5.476190476190476,38.01587301587301,130.87301587301587,-229.9206349206349,3.253968253968254,5.476190476190476,-321.8253968253968
273.57142857142856,23.41269841269841,269.44444444444446,-325.0,279.2857142857143,97.53968253968253,221.19047619047618,74.36507936507937,195.0,-215.79365079365078,174.2063492063492,-5.317460317460317,249.28571428571428,106.26984126984127,199.76190476190476,88.01587301587301,129.28571428571428,5.476190476190476,38.01587301587301,130.87301587301587,-229.9206349206349,3.253968253968254,5.476190476190476,-321.8253968253968
84.36507936507937,6.746031746031746,90.87301587301587,-248.65079365079364,110.23809523809523,52.93650793650794,76.9047619047619,50.238095238095234,71.66666666666666,-259.9206349206349,41.98412698412698,-1.507936507936508,62.61904761904761,57.38095238095238,20.71428571428571,56.904761904761905,-32.77777777777778,5.158730158730158,189.44444444444443,73.25396825396825,-44.2063492063492,-0.5555555555555556,-0.3968253968253968,-321.8253968253968
84.36507936507937,6.746031746031746,90.87301587301587,-248.65079365079364,110.23809523809523,52.93650793650794,76.9047619047619,50.238095238095234,71.66666666666666,-259.9206349206349,41.98412698412698,-1.507936507936508,62.61904761904761,57.38095238095238,20.71428571428571,56.904761904761905,-32.77777777777778,5.158730158730158,189.44444444444443,73.25396825396825,-44.2063492063492,-0.5555555555555556,-0.3968253968253968,-321.8253968253968
103.57142857142857,46.11111111111111,101.5079365079365,-248.65079365079364,118.8095238095238,89.92063492063491,88.80952380952381,87.85714285714285,83.09523809523809,-312.9365079365079,58.33333333333333,0.23809523809523808,75.47619047619047,100.07936507936508,35.0,96.58730158730158,-45.476190476190474,37.22222222222222,204.68253968253967,55.95238095238095,-36.269841269841265,-1.1904761904761905,-1.0317460317460316,-321.8253968253968
103.57142857142857,46.11111111111111,101.5079365079365,-248.65079365079364,118.8095238095238,89.92063492063491,88.80952380952381,87.85714285714285,83.09523809523809,-312.9365079365079,58.33333333333333,0.23809523809523808,75.47619047619047,100.07936507936508,35.0,96.58730158730158,-45.476190476190474,37.22222222222222,204.68253968253967,55.95238095238095,-36.269841269841265,-1.1904761904761905,-1.0317460317460316,-321.8253968253968
105.0,61.98412698412698,105.0,-218.4920634920635,116.74603174603173,100.87301587301587,87.53968253968253,99.44444444444444,82.77777777777777,-233.09523809523807,58.96825396825397,-1.984126984126984,75.63492063492063,109.12698412698413,35.79365079365079,105.47619047619047,-50.87301587301587,47.22222222222222,214.84126984126982,50.87301587301587,-21.03174603174603,-1.0317460317460316,-1.1904761904761905,-166.26984126984127
105.0,61.98412698412698,105.0,-218.4920634920635,116.74603174603173,100.87301587301587,87.53968253968253,99.44444444444444,82.77777777777777,-233.09523809523807,58.96825396825397,-1.984126984126984,75.63492063492063,109.12698412698413,35.79365079365079,105.47619047619047,-50.87301587301587,47.22222222222222,214.84126984126982,50.87301587301587,-21.03174603174603,-1.0317460317460316,-1.1904761904761905,-166.26984126984127
35.63492063492063,0.3968253968253968,54.2063492063492,-199.28571428571428,66.74603174603175,29.444444444444443,55.317460317460316,36.269841269841265,56.58730158730158,-325.0,20.07936507936508,-1.8253968253968254,-4.365079365079365,45.0,6.746031746031746,44.68253968253968,-59.44444444444444,-7.222222222222221,185.47619047619045,175.15873015873015,31.19047619047619,8.333333333333332,12.46031746031746,-166.26984126984127
35.63492063492063,0.3968253968253968,54.2063492063492,-199.28571428571428,66.74603174603175,29.444444444444443,55.317460317460316,36.269841269841265,56.58730158730158,-325.0,20.07936507936508,-1.8253968253968254,-4.365079365079365,45.0,6.746031746031746,44.68253968253968,-59.44444444444444,-7.222222222222221,185.47619047619045,175.15873015873015,31.19047619047619,8.333333333333332,12.46031746031746,-166.26984126984127
131.03174603174602,56.58730158730158,147.06349206349205,-229.60317460317458,147.38095238095238,89.12698412698413,121.66666666666666,88.80952380952381,114.04761904761904,-325.0,93.57142857142857,-11.031746031746032,136.26984126984127,90.71428571428571,61.34920634920635,85.95238095238095,31.666666666666664,33.888888888888886,113.25396825396825,-28.174603174603174,-132.14285714285714,-9.126984126984127,-12.46031746031746,-166.26984126984127
131.03174603174602,56.58730158730158,147.06349206349205,-229.60317460317458,147.38095238095238,89.12698412698413,121.66666666666666,88.80952380952381,114.04761904761904,-325.0,93.57142857142857,-11.031746031746032,136.26984126984127,90.71428571428571,61.34920634920635,85.95238095238095,31.666666666666664,33.888888888888886,113.25396825396825,-28.174603174603174,-132.14285714285714,-9.126984126984127,-12.46031746031746,-166.26984126984127
51.82539682539682,96.58730158730158,58.17460317460317,-153.25396825396825,74.36507936507937,121.03174603174602,70.55555555555556,132.46031746031744,67.53968253968253,-325.0,29.76190476190476,-4.682539682539682,5.0,126.26984126984127,21.19047619047619,136.11111111111111,-32.460317460317455,89.28571428571428,232.6190476190476,142.93650793650792,77.06349206349206,7.3809523809523805,11.666666666666666,-166.26984126984127
51.82539682539682,96.58730158730158,58.17460317460317,-153.25396825396825,74.36507936507937,121.03174603174602,70.55555555555556,132.46031746031744,67.53968253968253,-325.0,29.76190476190476,-4.682539682539682,5.0,126.26984126984127,21.19047619047619,136.11111111111111,-32.460317460317455,89.28571428571428,232.6190476190476,142.93650793650792,77.06349206349206,7.3809523809523805,11.666666666666666,-166.26984126984127
130.3968253968254,175.95238095238093,148.65079365079364,-149.44444444444443,152.46031746031744,215.0,131.03174603174602,210.2380952380952,119.28571428571428,-325.0,99.92063492063491,-9.285714285714285,136.9047619047619,208.65079365079364,67.06349206349206,200.7142857142857,41.507936507936506,160.3968253968254,229.60317460317458,-78.80952380952381,-55.79365079365079,-8.333333333333332,-12.777777777777777,-166.26984126984127
130.3968253968254,175.95238095238093,148.65079365079364,-149.44444444444443,152.46031746031744,215.0,131.03174603174602,210.2380952380952,119.28571428571428,-325.0,99.92063492063491,-9.285714285714285,136.9047619047619,208.65079365079364,67.06349206349206,200.7142857142857,41.507936507936506,160.3968253968254,229.60317460317458,-78.80952380952381,-55.79365079365079,-8.333333333333332,-12.777777777777777,-166.26984126984127
-177.85714285714286,-43.095238095238095,-155.47619047619048,-56.74603174603174,-118.49206349206348,-18.174603174603174,-114.84126984126983,11.825396825396824,-96.74603174603175,-325.0,-143.57142857142856,6.111111111111111,-229.60317460317458,-27.063492063492063,-185.15873015873015,-1.507936507936508,-220.2380952380952,-1.8253968253968254,325.0,121.34920634920634,225.3174603174603,8.015873015873016,8.492063492063492,-321.8253968253968
-177.85714285714286,-43.095238095238095,-155.47619047619048,-56.74603174603174,-118.49206349206348,-18.174603174603174,-114.84126984126983,11.825396825396824,-96.74603174603175,-325.0,-143.57142857142856,6.111111111111111,-229.60317460317458,-27.063492063492063,-185.15873015873015,-1.507936507936508,-220.2380952380952,-1.8253968253968254,325.0,121.34920634920634,225.3174603174603,8.015873015873016,8.492063492063492,-321.8253968253968
125.95238095238095,-68.80952380952381,139.28571428571428,-272.77777777777777,146.9047619047619,-31.666666666666664,125.31746031746032,-28.809523809523807,117.06349206349206,-101.98412698412697,93.4126984126984,-9.761904761904761,130.3968253968254,-38.65079365079365,59.44444444444444,-42.460317460317455,-38.65079365079365,-76.42857142857143,37.698412698412696,20.07936507936508,-158.015873015873,-8.174603174603174,-13.412698412698411,-321.8253968253968
125.95238095238095,-68.80952380952381,139.28571428571428,-272.77777777777777,146.9047619047619,-31.666666666666664,125.31746031746032,-28.809523809523807,117.06349206349206,-101.98412698412697,93.4126984126984,-9.761904761904761,130.3968253968254,-38.65079365079365,59.44444444444444,-42.460317460317455,-38.65079365079365,-76.42857142857143,37.698412698412696,20.07936507936508,-158.015873015873,-8.174603174603174,-13.412698412698411,-321.8253968253968
110.71428571428571,-86.42857142857143,126.42857142857142,-272.77777777777777,143.73015873015873,-43.57142857142857,118.01587301587301,-37.53968253968254,112.93650793650794,-208.4920634920635,79.44444444444444,-5.952380952380952,100.55555555555554,-43.25396825396825,58.01587301587301,-44.36507936507936,-71.34920634920634,-82.14285714285714,55.63492063492063,132.14285714285714,-113.09523809523809,-1.349206349206349,-1.8253968253968254,-321.8253968253968
110.71428571428571,-86.42857142857143,126.42857142857142,-272.77777777777777,143.73015873015873,-43.57142857142857,118.01587301587301,-37.53968253968254,112.93650793650794,-208.4920634920635,79.44444444444444,-5.952380952380952,100.55555555555554,-43.25396825396825,58.01587301587301,-44.36507936507936,-71.34920634920634,-82.14285714285714,55.63492063492063,132.14285714285714,-113.09523809523809,-1.349206349206349,-1.8253968253968254,-321.8253968253968
294.5238095238095,-55.15873015873016,299.2857142857143,-325.0,318.6507936507936,18.174603174603174,283.25396825396825,1.8253968253968254,258.968253968254,-325.0,220.87301587301587,-4.2063492063492065,265.3174603174603,36.11111111111111,253.88888888888889,11.19047619047619,13.73015873015873,-64.52380952380952,-68.17460317460318,280.7142857142857,-235.3174603174603,10.079365079365079,15.0,-321.8253968253968
294.5238095238095,-55.15873015873016,299.2857142857143,-325.0,318.6507936507936,18.174603174603174,283.25396825396825,1.8253968253968254,258.968253968254,-325.0,220.87301587301587,-4.2063492063492065,265.3174603174603,36.11111111111111,253.88888888888889,11.19047619047619,13.73015873015873,-64.52380952380952,-68.17460317460318,280.7142857142857,-235.3174603174603,10.079365079365079,15.0,-321.8253968253968
297.85714285714283,-116.42857142857142,286.74603174603175,-325.0,306.58730158730157,-49.285714285714285,270.7142857142857,-61.666666666666664,258.17460317460313,-313.88888888888886,229.44444444444443,0.23809523809523808,259.1269841269841,-36.904761904761905,243.25396825396825,-53.888888888888886,113.57142857142857,-129.6031746031746,-105.63492063492063,294.68253968253964,-280.23809523809524,8.65079365079365,14.523809523809524,-321.8253968253968
297.85714285714283,-116.42857142857142,286.74603174603175,-325.0,306.58730158730157,-49.285714285714285,270.7142857142857,-61.666666666666664,258.17460317460313,-313.88888888888886,229.44444444444443,0.23809523809523808,259.1269841269841,-36.904761904761905,243.25396825396825,-53.888888888888886,113.57142857142857,-129.6031746031746,-105.63492063492063,294.68253968253964,-280.23809523809524,8.65079365079365,14.523809523809524,-321.8253968253968
89.6031746031746,-177.53968253968253,91.03174603174602,-193.57142857142856,100.87301587301587,-148.4920634920635,66.26984126984127,-139.44444444444443,79.92063492063491,159.76190476190476,65.47619047619047,-10.873015873015872,92.14285714285714,-160.55555555555554,-18.65079365079365,-151.5079365079365,33.095238095238095,-176.58730158730157,55.79365079365079,42.93650793650794,-132.93650793650792,-9.603174603174603,-13.095238095238095,-166.26984126984127
89.6031746031746,-177.53968253968253,91.03174603174602,-193.57142857142856,100.87301587301587,-148.4920634920635,66.26984126984127,-139.44444444444443,79.92063492063491,159.76190476190476,65.47619047619047,-10.873015873015872,92.14285714285714,-160.55555555555554,-18.65079365079365,-151.5079365079365,33.095238095238095,-176.58730158730157,55.79365079365079,42.93650793650794,-132.93650793650792,-9.603174603174603,-13.095238095238095,-166.26984126984127
85.15873015873015,-200.7142857142857,60.079365079365076,-206.26984126984127,91.98412698412697,-165.79365079365078,77.6984126984127,-153.09523809523807,94.2063492063492,325.0,67.38095238095238,-0.23809523809523808,19.76190476190476,-164.52380952380952,32.3015873015873,-152.3015873015873,-2.46031746031746,-193.4126984126984,54.36507936507936,258.8095238095238,-83.09523809523809,7.857142857142857,12.46031746031746,-166.26984126984127
85.15873015873015,-200.7142857142857,60.079365079365076,-206.26984126984127,91.98412698412697,-165.79365079365078,77.6984126984127,-153.09523809523807,94.2063492063492,325.0,67.38095238095238,-0.23809523809523808,19.76190476190476,-164.52380952380952,32.3015873015873,-152.3015873015873,-2.46031746031746,-193.4126984126984,54.36507936507936,258.8095238095238,-83.09523809523809,7.857142857142857,12.46031746031746,-166.26984126984127
80.23809523809523,-163.09523809523807,75.47619047619047,-171.5079365079365,88.17460317460316,-146.11111111111111,58.01587301587301,-132.46031746031744,73.57142857142857,325.0,63.57142857142857,-6.428571428571428,83.09523809523809,-151.34920634920633,-26.9047619047619,-143.73015873015873,17.22222222222222,-164.2063492063492,75.79365079365078,39.6031746031746,-118.49206349206348,-8.333333333333332,-13.412698412698411,-166.26984126984127
80.23809523809523,-163.09523809523807,75.47619047619047,-171.5079365079365,88.17460317460316,-146.11111111111111,58.01587301587301,-132.46031746031744,73.57142857142857,325.0,63.57142857142857,-6.428571428571428,83.09523809523809,-151.34920634920633,-26.9047619047619,-143.73015873015873,17.22222222222222,-164.2063492063492,75.79365079365078,39.6031746031746,-118.49206349206348,-8.333333333333332,-13.412698412698411,-166.26984126984127
84.04761904761904,-157.38095238095238,74.68253968253968,-181.34920634920633,90.07936507936508,-136.58730158730157,77.85714285714285,-131.984126984127,101.19047619047619,137.06349206349205,71.82539682539682,-2.142857142857143,27.539682539682538,-136.11111111111111,36.11111111111111,-126.42857142857142,55.317460317460316,-172.93650793650792,67.6984126984127,250.07936507936506,-84.36507936507937,7.857142857142857,12.619047619047619,-166.26984126984127
84.04761904761904,-157.38095238095238,74.68253968253968,-181.34920634920633,90.07936507936508,-136.58730158730157,77.85714285714285,-131.984126984127,101.19047619047619,137.06349206349205,71.82539682539682,-2.142857142857143,27.539682539682538,-136.11111111111111,36.11111111111111,-126.42857142857142,55.317460317460316,-172.93650793650792,67.6984126984127,250.07936507936506,-84.36507936507937,7.857142857142857,12.619047619047619,-166.26984126984127
