Fp1[1],Fp2[2],F3[3],F4[4],C3[5],C4[6],P3[7],P4[8],O1[9],O2[10],F7[11],F8[12],T3[13],T4[14],T5[15],T6[16],Fz[17],Pz[18],Cz[19],Pg1[20],Pg2[21],EOGR[22],EOOGL[23],EMG[24]
289.2857142857143,325.0,-325.0,101.34920634920634,-325.0,210.3968253968254,-325.0,233.57142857142856,-325.0,-325.0,-325.0,37.698412698412696,-325.0,212.3015873015873,-325.0,81.66666666666666,-325.0,-77.22222222222221,-141.03174603174602,-185.15873015873015,42.93650793650794,8.968253968253968,14.523809523809524,-166.26984126984127
289.2857142857143,325.0,-325.0,101.34920634920634,-325.0,210.3968253968254,-325.0,233.57142857142856,-325.0,-325.0,-325.0,37.698412698412696,-325.0,212.3015873015873,-325.0,81.66666666666666,-325.0,-77.22222222222221,-141.03174603174602,-185.15873015873015,42.93650793650794,8.968253968253968,14.523809523809524,-166.26984126984127
274.68253968253964,325.0,-325.0,104.04761904761904,-325.0,200.07936507936506,-325.0,222.3015873015873,-325.0,-325.0,-325.0,31.19047619047619,-325.0,201.34920634920633,-325.0,77.6984126984127,-0.07936507936507936,-73.57142857142857,-110.55555555555554,-175.95238095238093,-45.476190476190474,8.492063492063492,13.253968253968253,-166.26984126984127
274.68253968253964,325.0,-325.0,104.04761904761904,-325.0,200.07936507936506,-325.0,222.3015873015873,-325.0,-325.0,-325.0,31.19047619047619,-325.0,201.34920634920633,-325.0,77.6984126984127,-0.07936507936507936,-73.57142857142857,-110.55555555555554,-175.95238095238093,-45.476190476190474,8.492063492063492,13.253968253968253,-166.26984126984127
255.3174603174603,325.0,-325.0,102.93650793650794,-325.0,186.11111111111111,-325.0,207.38095238095238,-325.0,-325.0,-325.0,19.126984126984127,-325.0,186.74603174603175,-325.0,72.3015873015873,325.0,-68.4920634920635,-74.36507936507937,-163.25396825396825,-229.44444444444443,8.492063492063492,12.3015873015873,-166.26984126984127
255.3174603174603,325.0,-325.0,102.93650793650794,-325.0,186.11111111111111,-325.0,207.38095238095238,-325.0,-325.0,-325.0,19.126984126984127,-325.0,186.74603174603175,-325.0,72.3015873015873,325.0,-68.4920634920635,-74.36507936507937,-163.25396825396825,-229.44444444444443,8.492063492063492,12.3015873015873,-166.26984126984127
248.015873015873,325.0,-325.0,100.07936507936508,-325.0,180.87301587301587,-325.0,201.66666666666666,-325.0,-325.0,-325.0,12.46031746031746,-325.0,181.5079365079365,-321.5079365079365,70.39682539682539,325.0,-66.58730158730158,-63.57142857142857,-158.65079365079364,-325.0,7.5396825396825395,12.46031746031746,-166.26984126984127
248.015873015873,325.0,-325.0,100.07936507936508,-325.0,180.87301587301587,-325.0,201.66666666666666,-325.0,-325.0,-325.0,12.46031746031746,-325.0,181.5079365079365,-321.5079365079365,70.39682539682539,325.0,-66.58730158730158,-63.57142857142857,-158.65079365079364,-325.0,7.5396825396825395,12.46031746031746,-166.26984126984127
242.14285714285714,325.0,-313.4126984126984,92.77777777777777,-325.0,176.42857142857142,-325.0,197.2222222222222,-325.0,-325.0,-325.0,4.841269841269841,-307.06349206349205,176.9047619047619,-293.57142857142856,68.65079365079364,325.0,-65.0,-59.6031746031746,-155.0,-325.0,0.23809523809523808,-0.5555555555555556,-166.26984126984127
242.14285714285714,325.0,-313.4126984126984,92.77777777777777,-325.0,176.42857142857142,-325.0,197.2222222222222,-325.0,-325.0,-325.0,4.841269841269841,-307.06349206349205,176.9047619047619,-293.57142857142856,68.65079365079364,325.0,-65.0,-59.6031746031746,-155.0,-325.0,0.23809523809523808,-0.5555555555555556,-166.26984126984127
238.8095238095238,325.0,-300.55555555555554,94.52380952380952,-325.0,174.2063492063492,-322.9365079365079,194.68253968253967,-325.0,-325.0,-325.0,4.841269841269841,-292.77777777777777,174.2063492063492,-280.7142857142857,67.85714285714285,325.0,-63.888888888888886,-52.14285714285714,-152.46031746031744,-325.0,6.26984126984127,11.19047619047619,-321.8253968253968
238.8095238095238,325.0,-300.55555555555554,94.52380952380952,-325.0,174.2063492063492,-322.9365079365079,194.68253968253967,-325.0,-325.0,-325.0,4.841269841269841,-292.77777777777777,174.2063492063492,-280.7142857142857,67.85714285714285,325.0,-63.888888888888886,-52.14285714285714,-152.46031746031744,-325.0,6.26984126984127,11.19047619047619,-321.8253968253968
235.15873015873015,325.0,-290.07936507936506,94.36507936507935,-325.0,171.66666666666666,-312.46031746031747,191.98412698412696,-325.0,-325.0,-325.0,4.2063492063492065,-282.77777777777777,171.5079365079365,-270.7142857142857,66.9047619047619,325.0,-63.095238095238095,-46.42857142857142,-150.23809523809524,-325.0,7.857142857142857,12.3015873015873,-321.8253968253968
235.15873015873015,325.0,-290.07936507936506,94.36507936507935,-325.0,171.66666666666666,-312.46031746031747,191.98412698412696,-325.0,-325.0,-325.0,4.2063492063492065,-282.77777777777777,171.5079365079365,-270.7142857142857,66.9047619047619,325.0,-63.095238095238095,-46.42857142857142,-150.23809523809524,-325.0,7.857142857142857,12.3015873015873,-321.8253968253968
231.66666666666666,325.0,-279.6031746031746,94.2063492063492,-325.0,169.28571428571428,-301.984126984127,189.28571428571428,-325.0,-325.0,-325.0,3.73015873015873,-272.6190476190476,168.96825396825395,-260.55555555555554,66.11111111111111,325.0,-62.3015873015873,-40.55555555555555,-148.015873015873,-325.0,9.603174603174603,13.571428571428571,-321.8253968253968
231.66666666666666,325.0,-279.6031746031746,94.2063492063492,-325.0,169.28571428571428,-301.984126984127,189.28571428571428,-325.0,-325.0,-325.0,3.73015873015873,-272.6190476190476,168.96825396825395,-260.55555555555554,66.11111111111111,325.0,-62.3015873015873,-40.55555555555555,-148.015873015873,-325.0,9.603174603174603,13.571428571428571,-321.8253968253968
231.66666666666666,325.0,-279.6031746031746,94.2063492063492,-325.0,169.28571428571428,-301.984126984127,189.28571428571428,-325.0,-325.0,-325.0,3.73015873015873,-272.6190476190476,168.96825396825395,-260.55555555555554,66.11111111111111,325.0,-62.3015873015873,-40.55555555555555,-148.015873015873,-325.0,9.603174603174603,13.571428571428571,-321.8253968253968
231.66666666666666,325.0,-279.6031746031746,94.2063492063492,-325.0,169.28571428571428,-301.984126984127,189.28571428571428,-325.0,-325.0,-325.0,3.73015873015873,-272.6190476190476,168.96825396825395,-260.55555555555554,66.11111111111111,325.0,-62.3015873015873,-40.55555555555555,-148.015873015873,-325.0,9.603174603174603,13.571428571428571,-321.8253968253968
231.66666666666666,325.0,-279.6031746031746,94.2063492063492,-325.0,169.28571428571428,-301.984126984127,189.28571428571428,-325.0,-325.0,-325.0,3.73015873015873,-272.6190476190476,168.96825396825395,-260.55555555555554,66.11111111111111,325.0,-62.3015873015873,-40.55555555555555,-148.015873015873,-325.0,9.603174603174603,13.571428571428571,-321.8253968253968
231.66666666666666,325.0,-279.6031746031746,94.2063492063492,-325.0,169.28571428571428,-301.984126984127,189.28571428571428,-325.0,-325.0,-325.0,3.73015873015873,-272.6190476190476,168.96825396825395,-260.55555555555554,66.11111111111111,325.0,-62.3015873015873,-40.55555555555555,-148.015873015873,-325.0,9.603174603174603,13.571428571428571,-321.8253968253968
231.66666666666666,325.0,-279.6031746031746,94.2063492063492,-325.0,169.28571428571428,-301.984126984127,189.28571428571428,-325.0,-325.0,-325.0,3.73015873015873,-272.6190476190476,168.96825396825395,-260.55555555555554,66.11111111111111,325.0,-62.3015873015873,-40.55555555555555,-148.015873015873,-325.0,9.603174603174603,13.571428571428571,-166.26984126984127
231.66666666666666,325.0,-279.6031746031746,94.2063492063492,-325.0,169.28571428571428,-301.984126984127,189.28571428571428,-325.0,-325.0,-325.0,3.73015873015873,-272.6190476190476,168.96825396825395,-260.55555555555554,66.11111111111111,325.0,-62.3015873015873,-40.55555555555555,-148.015873015873,-325.0,9.603174603174603,13.571428571428571,-166.26984126984127
231.66666666666666,325.0,-279.6031746031746,94.2063492063492,-325.0,169.28571428571428,-301.984126984127,189.28571428571428,-325.0,-325.0,-325.0,3.73015873015873,-272.6190476190476,168.96825396825395,-260.55555555555554,66.11111111111111,325.0,-62.3015873015873,-40.55555555555555,-148.015873015873,-325.0,9.603174603174603,13.571428571428571,-166.26984126984127
231.66666666666666,325.0,-279.6031746031746,94.2063492063492,-325.0,169.28571428571428,-301.984126984127,189.28571428571428,-325.0,-325.0,-325.0,3.73015873015873,-272.6190476190476,168.96825396825395,-260.55555555555554,66.11111111111111,325.0,-62.3015873015873,-40.55555555555555,-148.015873015873,-325.0,9.603174603174603,13.571428571428571,-166.26984126984127
219.12698412698413,309.2857142857143,-235.47619047619045,97.38095238095238,-279.9206349206349,160.3968253968254,-257.53968253968253,179.60317460317458,-283.0952380952381,-325.0,-287.85714285714283,5.0,-226.9047619047619,159.76190476190476,-216.42857142857142,-129.44444444444443,325.0,-59.12698412698413,-17.857142857142858,-140.07936507936506,-322.46031746031747,9.444444444444445,13.888888888888888,-166.26984126984127
219.12698412698413,309.2857142857143,-235.47619047619045,97.38095238095238,-279.9206349206349,160.3968253968254,-257.53968253968253,179.60317460317458,-283.0952380952381,-325.0,-287.85714285714283,5.0,-226.9047619047619,159.76190476190476,-216.42857142857142,-129.44444444444443,325.0,-59.12698412698413,-17.857142857142858,-140.07936507936506,-322.46031746031747,9.444444444444445,13.888888888888888,-166.26984126984127
117.85714285714285,-25.476190476190474,-33.41269841269841,40.87301587301587,57.06349206349206,88.01587301587301,-48.96825396825397,99.6031746031746,51.19047619047619,-0.07936507936507936,47.38095238095238,-1.6666666666666665,-30.396825396825395,86.1111111111111,-24.523809523809522,-269.9206349206349,203.57142857142856,-33.25396825396825,21.19047619047619,-75.95238095238095,-184.52380952380952,9.444444444444445,15.0,-166.26984126984127
117.85714285714285,-25.476190476190474,-33.41269841269841,40.87301587301587,57.06349206349206,88.01587301587301,-48.96825396825397,99.6031746031746,51.19047619047619,-0.07936507936507936,47.38095238095238,-1.6666666666666665,-30.396825396825395,86.1111111111111,-24.523809523809522,-269.9206349206349,203.57142857142856,-33.25396825396825,21.19047619047619,-75.95238095238095,-184.52380952380952,9.444444444444445,15.0,-166.26984126984127
44.36507936507936,-325.0,106.58730158730158,-10.238095238095237,325.0,35.476190476190474,97.22222222222221,41.19047619047619,325.0,325.0,325.0,-1.984126984126984,101.98412698412697,32.77777777777778,105.0,-214.68253968253967,82.14285714285714,-14.365079365079364,25.0,-29.76190476190476,-72.3015873015873,9.603174603174603,15.0,-166.26984126984127
44.36507936507936,-325.0,106.58730158730158,-10.238095238095237,325.0,35.476190476190474,97.22222222222221,41.19047619047619,325.0,325.0,325.0,-1.984126984126984,101.98412698412697,32.77777777777778,105.0,-214.68253968253967,82.14285714285714,-14.365079365079364,25.0,-29.76190476190476,-72.3015873015873,9.603174603174603,15.0,-166.26984126984127
40.39682539682539,-325.0,113.25396825396825,-11.349206349206348,325.0,32.460317460317455,105.95238095238095,37.53968253968254,325.0,325.0,307.85714285714283,-1.507936507936508,108.49206349206348,29.76190476190476,112.46031746031746,-197.53968253968253,75.0,-13.412698412698411,22.936507936507937,-27.063492063492063,-65.95238095238095,0.5555555555555556,1.6666666666666665,-321.8253968253968
40.39682539682539,-325.0,113.25396825396825,-11.349206349206348,325.0,32.460317460317455,105.95238095238095,37.53968253968254,325.0,325.0,307.85714285714283,-1.507936507936508,108.49206349206348,29.76190476190476,112.46031746031746,-197.53968253968253,75.0,-13.412698412698411,22.936507936507937,-27.063492063492063,-65.95238095238095,0.5555555555555556,1.6666666666666665,-321.8253968253968
35.95238095238095,-325.0,132.61904761904762,-15.793650793650793,325.0,29.285714285714285,128.17460317460316,33.73015873015873,325.0,325.0,288.6507936507936,-4.365079365079365,130.7142857142857,26.746031746031743,133.4126984126984,-178.96825396825395,67.06349206349206,-11.984126984126984,18.49206349206349,-24.523809523809522,-58.8095238095238,-8.333333333333332,-12.936507936507935,-321.8253968253968
35.95238095238095,-325.0,132.61904761904762,-15.793650793650793,325.0,29.285714285714285,128.17460317460316,33.73015873015873,325.0,325.0,288.6507936507936,-4.365079365079365,130.7142857142857,26.746031746031743,133.4126984126984,-178.96825396825395,67.06349206349206,-11.984126984126984,18.49206349206349,-24.523809523809522,-58.8095238095238,-8.333333333333332,-12.936507936507935,-321.8253968253968
35.0,-325.0,114.68253968253967,-1.0317460317460316,325.0,28.49206349206349,109.92063492063491,-37.53968253968254,325.0,325.0,281.3492063492063,10.873015873015872,110.23809523809523,25.952380952380953,115.15873015873015,-174.52380952380952,65.31746031746032,-11.666666666666666,32.3015873015873,-23.88888888888889,-57.38095238095238,-7.857142857142857,-13.412698412698411,-321.8253968253968
35.0,-325.0,114.68253968253967,-1.0317460317460316,325.0,28.49206349206349,109.92063492063491,-37.53968253968254,325.0,325.0,281.3492063492063,10.873015873015872,110.23809523809523,25.952380952380953,115.15873015873015,-174.52380952380952,65.31746031746032,-11.666666666666666,32.3015873015873,-23.88888888888889,-57.38095238095238,-7.857142857142857,-13.412698412698411,-321.8253968253968
35.0,-325.0,114.68253968253967,-1.0317460317460316,325.0,28.49206349206349,109.92063492063491,-37.53968253968254,325.0,325.0,281.3492063492063,10.873015873015872,110.23809523809523,25.952380952380953,115.15873015873015,-174.52380952380952,65.31746031746032,-11.666666666666666,32.3015873015873,-23.88888888888889,-57.38095238095238,-7.857142857142857,-13.412698412698411,-321.8253968253968
35.0,-325.0,114.68253968253967,-1.0317460317460316,325.0,28.49206349206349,109.92063492063491,-37.53968253968254,325.0,325.0,281.3492063492063,10.873015873015872,110.23809523809523,25.952380952380953,115.15873015873015,-174.52380952380952,65.31746031746032,-11.666666666666666,32.3015873015873,-23.88888888888889,-57.38095238095238,-7.857142857142857,-13.412698412698411,-321.8253968253968
35.0,-325.0,114.68253968253967,-1.0317460317460316,325.0,28.49206349206349,109.92063492063491,-37.53968253968254,325.0,325.0,281.3492063492063,10.873015873015872,110.23809523809523,25.952380952380953,115.15873015873015,-174.52380952380952,65.31746031746032,-11.666666666666666,32.3015873015873,-23.88888888888889,-57.38095238095238,-7.857142857142857,-13.412698412698411,-321.8253968253968
35.0,-325.0,114.68253968253967,-1.0317460317460316,325.0,28.49206349206349,109.92063492063491,-37.53968253968254,325.0,325.0,281.3492063492063,10.873015873015872,110.23809523809523,25.952380952380953,115.15873015873015,-174.52380952380952,65.31746031746032,-11.666666666666666,32.3015873015873,-23.88888888888889,-57.38095238095238,-7.857142857142857,-13.412698412698411,-321.8253968253968
29.285714285714285,-325.0,188.015873015873,-13.412698412698411,325.0,-148.33333333333331,186.11111111111111,-181.34920634920633,282.6190476190476,308.17460317460313,239.9206349206349,-1.8253968253968254,188.96825396825395,-149.6031746031746,190.87301587301587,-149.28571428571428,55.15873015873016,156.58730158730157,16.11111111111111,150.55555555555554,-48.17460317460317,-6.26984126984127,-10.396825396825395,-166.26984126984127
29.285714285714285,-325.0,188.015873015873,-13.412698412698411,325.0,-148.33333333333331,186.11111111111111,-181.34920634920633,282.6190476190476,308.17460317460313,239.9206349206349,-1.8253968253968254,188.96825396825395,-149.6031746031746,190.87301587301587,-149.28571428571428,55.15873015873016,156.58730158730157,16.11111111111111,150.55555555555554,-48.17460317460317,-6.26984126984127,-10.396825396825395,-166.26984126984127
71.82539682539682,-293.0952380952381,124.04761904761904,-55.63492063492063,209.60317460317458,-81.98412698412697,77.22222222222221,-91.34920634920634,232.3015873015873,264.36507936507934,181.8253968253968,-16.904761904761905,229.28571428571428,-325.0,218.33333333333331,-130.07936507936506,-109.28571428571428,325.0,16.26984126984127,325.0,135.0,-4.2063492063492065,155.0,-166.26984126984127
71.82539682539682,-293.0952380952381,124.04761904761904,-55.63492063492063,209.60317460317458,-81.98412698412697,77.22222222222221,-91.34920634920634,232.3015873015873,264.36507936507934,181.8253968253968,-16.904761904761905,229.28571428571428,-325.0,218.33333333333331,-130.07936507936506,-109.28571428571428,325.0,16.26984126984127,325.0,135.0,-4.2063492063492065,155.0,-166.26984126984127
21.507936507936506,-314.36507936507934,208.8095238095238,-13.253968253968253,323.25396825396825,-325.0,210.7142857142857,-325.0,219.76190476190476,110.23809523809523,181.66666666666666,-1.8253968253968254,217.69841269841268,-325.0,216.42857142857142,-112.14285714285714,40.55555555555555,325.0,9.126984126984127,325.0,-35.476190476190474,3.571428571428571,3.888888888888889,-166.26984126984127
21.507936507936506,-314.36507936507934,208.8095238095238,-13.253968253968253,323.25396825396825,-325.0,210.7142857142857,-325.0,219.76190476190476,110.23809523809523,181.66666666666666,-1.8253968253968254,217.69841269841268,-325.0,216.42857142857142,-112.14285714285714,40.55555555555555,325.0,9.126984126984127,325.0,-35.476190476190474,3.571428571428571,3.888888888888889,-166.26984126984127
21.03174603174603,-308.015873015873,235.3174603174603,-15.634920634920634,321.5079365079365,-325.0,237.06349206349205,-325.0,215.0,3.253968253968254,177.85714285714286,-4.523809523809524,244.68253968253967,-325.0,242.46031746031744,-108.33333333333333,39.76190476190476,325.0,6.111111111111111,325.0,-34.52380952380952,10.873015873015872,15.317460317460316,-166.26984126984127
21.03174603174603,-308.015873015873,235.3174603174603,-15.634920634920634,321.5079365079365,-325.0,237.06349206349205,-325.0,215.0,3.253968253968254,177.85714285714286,-4.523809523809524,244.68253968253967,-325.0,242.46031746031744,-108.33333333333333,39.76190476190476,325.0,6.111111111111111,325.0,-34.52380952380952,10.873015873015872,15.317460317460316,-166.26984126984127
21.03174603174603,-308.015873015873,235.3174603174603,-15.634920634920634,321.5079365079365,-325.0,237.06349206349205,-325.0,215.0,3.253968253968254,177.85714285714286,-4.523809523809524,244.68253968253967,-325.0,242.46031746031744,-108.33333333333333,39.76190476190476,325.0,6.111111111111111,325.0,-34.52380952380952,10.873015873015872,15.317460317460316,-166.26984126984127
21.03174603174603,-308.015873015873,235.3174603174603,-15.634920634920634,321.5079365079365,-325.0,237.06349206349205,-325.0,215.0,3.253968253968254,177.85714285714286,-4.523809523809524,244.68253968253967,-325.0,242.46031746031744,-108.33333333333333,39.76190476190476,325.0,6.111111111111111,325.0,-34.52380952380952,10.873015873015872,15.317460317460316,-166.26984126984127
18.96825396825397,-283.73015873015873,137.85714285714286,-6.587301587301587,295.6349206349206,-325.0,139.9206349206349,-325.0,197.06349206349205,212.93650793650792,163.09523809523807,3.253968253968254,147.2222222222222,-325.0,147.06349206349205,-115.95238095238095,35.95238095238095,325.0,14.84126984126984,325.0,-31.507936507936506,0.07936507936507936,-0.23809523809523808,-321.8253968253968
18.96825396825397,-283.73015873015873,137.85714285714286,-6.587301587301587,295.6349206349206,-325.0,139.9206349206349,-325.0,197.06349206349205,212.93650793650792,163.09523809523807,3.253968253968254,147.2222222222222,-325.0,147.06349206349205,-115.95238095238095,35.95238095238095,325.0,14.84126984126984,325.0,-31.507936507936506,0.07936507936507936,-0.23809523809523808,-321.8253968253968
18.49206349206349,-276.74603174603175,127.06349206349206,-7.3809523809523805,288.6507936507936,-325.0,128.4920634920635,-325.0,191.98412698412696,236.1111111111111,158.96825396825395,2.619047619047619,135.0,-325.0,135.47619047619048,-109.28571428571428,35.317460317460316,325.0,13.412698412698411,325.0,-30.87301587301587,2.142857142857143,3.571428571428571,-321.8253968253968
18.49206349206349,-276.74603174603175,127.06349206349206,-7.3809523809523805,288.6507936507936,-325.0,128.4920634920635,-325.0,191.98412698412696,236.1111111111111,158.96825396825395,2.619047619047619,135.0,-325.0,135.47619047619048,-109.28571428571428,35.317460317460316,325.0,13.412698412698411,325.0,-30.87301587301587,2.142857142857143,3.571428571428571,-321.8253968253968
17.22222222222222,-262.3015873015873,169.60317460317458,-20.71428571428571,273.4126984126984,-325.0,171.03174603174602,-325.0,181.66666666666666,109.92063492063491,150.23809523809524,-11.666666666666666,180.07936507936506,-325.0,178.17460317460316,-103.09523809523809,33.095238095238095,325.0,-1.0317460317460316,325.0,-28.96825396825397,3.73015873015873,5.7936507936507935,-321.8253968253968
17.22222222222222,-262.3015873015873,169.60317460317458,-20.71428571428571,273.4126984126984,-325.0,171.03174603174602,-325.0,181.66666666666666,109.92063492063491,150.23809523809524,-11.666666666666666,180.07936507936506,-325.0,178.17460317460316,-103.09523809523809,33.095238095238095,325.0,-1.0317460317460316,325.0,-28.96825396825397,3.73015873015873,5.7936507936507935,-321.8253968253968
16.904761904761905,-258.015873015873,106.58730158730158,-14.206349206349206,268.8095238095238,-325.0,108.33333333333333,-325.0,178.4920634920635,224.84126984126982,147.69841269841268,-5.158730158730158,116.42857142857142,-325.0,117.6984126984127,-101.34920634920634,32.460317460317455,325.0,4.365079365079365,325.0,-28.49206349206349,-4.523809523809524,-7.3809523809523805,-321.8253968253968
16.904761904761905,-258.015873015873,106.58730158730158,-14.206349206349206,268.8095238095238,-325.0,108.33333333333333,-325.0,178.4920634920635,224.84126984126982,147.69841269841268,-5.158730158730158,116.42857142857142,-325.0,117.6984126984127,-101.34920634920634,32.460317460317455,325.0,4.365079365079365,325.0,-28.49206349206349,-4.523809523809524,-7.3809523809523805,-321.8253968253968
16.746031746031743,-252.77777777777777,101.5079365079365,-7.222222222222221,263.25396825396825,-325.0,103.09523809523809,-325.0,174.84126984126982,220.7142857142857,144.52380952380952,1.8253968253968254,112.14285714285714,-325.0,111.82539682539682,-97.53968253968253,31.825396825396822,325.0,11.349206349206348,325.0,-28.015873015873016,-0.5555555555555556,-1.507936507936508,-321.8253968253968
16.746031746031743,-252.77777777777777,101.5079365079365,-7.222222222222221,263.25396825396825,-325.0,103.09523809523809,-325.0,174.84126984126982,220.7142857142857,144.52380952380952,1.8253968253968254,112.14285714285714,-325.0,111.82539682539682,-97.53968253968253,31.825396825396822,325.0,11.349206349206348,325.0,-28.015873015873016,-0.5555555555555556,-1.507936507936508,-321.8253968253968
16.26984126984127,-246.58730158730157,96.26984126984127,-8.65079365079365,256.58730158730157,-325.0,98.17460317460316,-325.0,170.23809523809524,214.36507936507937,140.87301587301587,-0.23809523809523808,107.85714285714285,-325.0,107.22222222222221,-95.31746031746032,31.03174603174603,325.0,9.126984126984127,325.0,-27.22222222222222,-0.873015873015873,-1.1904761904761905,-166.26984126984127
16.26984126984127,-246.58730158730157,96.26984126984127,-8.65079365079365,256.58730158730157,-325.0,98.17460317460316,-325.0,170.23809523809524,214.36507936507937,140.87301587301587,-0.23809523809523808,107.85714285714285,-325.0,107.22222222222221,-95.31746031746032,31.03174603174603,325.0,9.126984126984127,325.0,-27.22222222222222,-0.873015873015873,-1.1904761904761905,-166.26984126984127
15.476190476190474,-237.53968253968253,125.79365079365078,-10.238095238095237,247.2222222222222,-325.0,128.17460317460316,-325.0,163.57142857142856,19.285714285714285,135.47619047619048,-1.984126984126984,135.15873015873015,-325.0,136.74603174603175,-93.25396825396825,29.6031746031746,325.0,5.952380952380952,325.0,-25.952380952380953,-5.7936507936507935,-8.174603174603174,-166.26984126984127
15.476190476190474,-237.53968253968253,125.79365079365078,-10.238095238095237,247.2222222222222,-325.0,128.17460317460316,-325.0,163.57142857142856,19.285714285714285,135.47619047619048,-1.984126984126984,135.15873015873015,-325.0,136.74603174603175,-93.25396825396825,29.6031746031746,325.0,5.952380952380952,325.0,-25.952380952380953,-5.7936507936507935,-8.174603174603174,-166.26984126984127
15.0,-231.8253968253968,145.0,-14.523809523809524,241.03174603174602,-325.0,148.015873015873,-325.0,159.28571428571428,-169.60317460317458,131.984126984127,-6.587301587301587,157.06349206349205,-325.0,156.74603174603175,-90.87301587301587,28.809523809523807,325.0,0.873015873015873,325.0,-25.317460317460316,6.26984126984127,10.396825396825395,-166.26984126984127
15.0,-231.8253968253968,145.0,-14.523809523809524,241.03174603174602,-325.0,148.015873015873,-325.0,159.28571428571428,-169.60317460317458,131.984126984127,-6.587301587301587,157.06349206349205,-325.0,156.74603174603175,-90.87301587301587,28.809523809523807,325.0,0.873015873015873,325.0,-25.317460317460316,6.26984126984127,10.396825396825395,-166.26984126984127
14.682539682539682,-224.2063492063492,151.5079365079365,-13.73015873015873,233.09523809523807,-325.0,152.93650793650792,-325.0,154.04761904761904,57.38095238095238,127.53968253968253,-6.587301587301587,163.88888888888889,-325.0,161.03174603174602,-87.85714285714285,27.857142857142854,325.0,1.507936507936508,325.0,-24.365079365079364,-6.904761904761904,-11.666666666666666,-166.26984126984127
14.682539682539682,-224.2063492063492,151.5079365079365,-13.73015873015873,233.09523809523807,-325.0,152.93650793650792,-325.0,154.04761904761904,57.38095238095238,127.53968253968253,-6.587301587301587,163.88888888888889,-325.0,161.03174603174602,-87.85714285714285,27.857142857142854,325.0,1.507936507936508,325.0,-24.365079365079364,-6.904761904761904,-11.666666666666666,-166.26984126984127
14.206349206349206,-218.8095238095238,103.88888888888889,-8.492063492063492,227.38095238095238,-325.0,108.17460317460316,-325.0,150.07936507936506,5.952380952380952,124.36507936507935,-1.507936507936508,118.17460317460316,-325.0,116.9047619047619,-12.619047619047619,27.063492063492063,325.0,5.634920634920634,325.0,-23.730158730158728,-5.317460317460317,-8.174603174603174,-166.26984126984127
14.206349206349206,-218.8095238095238,103.88888888888889,-8.492063492063492,227.38095238095238,-325.0,108.17460317460316,-325.0,150.07936507936506,5.952380952380952,124.36507936507935,-1.507936507936508,118.17460317460316,-325.0,116.9047619047619,-12.619047619047619,27.063492063492063,325.0,5.634920634920634,325.0,-23.730158730158728,-5.317460317460317,-8.174603174603174,-166.26984126984127
13.73015873015873,-213.57142857142856,71.66666666666666,-9.920634920634921,221.5079365079365,-325.0,72.77777777777777,-325.0,146.26984126984127,182.46031746031744,121.19047619047619,-2.619047619047619,82.61904761904762,-325.0,81.5079365079365,28.809523809523807,26.26984126984127,325.0,4.365079365079365,325.0,-23.253968253968253,5.476190476190476,7.857142857142857,-321.8253968253968
13.73015873015873,-213.57142857142856,71.66666666666666,-9.920634920634921,221.5079365079365,-325.0,72.77777777777777,-325.0,146.26984126984127,182.46031746031744,121.19047619047619,-2.619047619047619,82.61904761904762,-325.0,81.5079365079365,28.809523809523807,26.26984126984127,325.0,4.365079365079365,325.0,-23.253968253968253,5.476190476190476,7.857142857142857,-321.8253968253968
13.412698412698411,-209.9206349206349,100.55555555555554,-12.142857142857142,218.015873015873,-325.0,103.4126984126984,-325.0,143.73015873015873,-77.6984126984127,118.96825396825396,-5.158730158730158,113.73015873015872,-325.0,111.66666666666666,-20.396825396825395,25.952380952380953,325.0,1.984126984126984,325.0,-22.777777777777775,5.952380952380952,8.492063492063492,-321.8253968253968
13.412698412698411,-209.9206349206349,100.55555555555554,-12.142857142857142,218.015873015873,-325.0,103.4126984126984,-325.0,143.73015873015873,-77.6984126984127,118.96825396825396,-5.158730158730158,113.73015873015872,-325.0,111.66666666666666,-20.396825396825395,25.952380952380953,325.0,1.984126984126984,325.0,-22.777777777777775,5.952380952380952,8.492063492063492,-321.8253968253968
12.936507936507935,-202.3015873015873,78.17460317460316,-8.174603174603174,209.76190476190476,-325.0,78.80952380952381,-325.0,138.17460317460316,99.76190476190476,114.52380952380952,-1.6666666666666665,89.44444444444444,-325.0,86.9047619047619,112.93650793650794,24.68253968253968,325.0,7.222222222222221,325.0,-21.507936507936506,-0.7142857142857142,-0.873015873015873,-321.8253968253968
12.936507936507935,-202.3015873015873,78.17460317460316,-8.174603174603174,209.76190476190476,-325.0,78.80952380952381,-325.0,138.17460317460316,99.76190476190476,114.52380952380952,-1.6666666666666665,89.44444444444444,-325.0,86.9047619047619,112.93650793650794,24.68253968253968,325.0,7.222222222222221,325.0,-21.507936507936506,-0.7142857142857142,-0.873015873015873,-321.8253968253968
12.777777777777777,-198.96825396825395,14.84126984126984,1.6666666666666665,206.26984126984127,-325.0,17.063492063492063,-325.0,135.79365079365078,213.88888888888889,112.46031746031746,8.492063492063492,27.063492063492063,-325.0,26.746031746031743,186.58730158730157,24.206349206349206,325.0,17.22222222222222,325.0,-21.349206349206348,-0.5555555555555556,-1.349206349206349,-321.8253968253968
12.777777777777777,-198.96825396825395,14.84126984126984,1.6666666666666665,206.26984126984127,-325.0,17.063492063492063,-325.0,135.79365079365078,213.88888888888889,112.46031746031746,8.492063492063492,27.063492063492063,-325.0,26.746031746031743,186.58730158730157,24.206349206349206,325.0,17.22222222222222,325.0,-21.349206349206348,-0.5555555555555556,-1.349206349206349,-321.8253968253968
12.46031746031746,-195.63492063492063,30.07936507936508,-2.142857142857143,202.93650793650792,-325.0,31.98412698412698,-325.0,133.73015873015873,212.61904761904762,110.55555555555554,3.73015873015873,44.84126984126984,-325.0,39.76190476190476,302.9365079365079,24.047619047619047,325.0,14.047619047619047,325.0,-21.03174603174603,0.3968253968253968,1.8253968253968254,-321.8253968253968
12.46031746031746,-195.63492063492063,30.07936507936508,-2.142857142857143,202.93650793650792,-325.0,31.98412698412698,-325.0,133.73015873015873,212.61904761904762,110.55555555555554,3.73015873015873,44.84126984126984,-325.0,39.76190476190476,302.9365079365079,24.047619047619047,325.0,14.047619047619047,325.0,-21.03174603174603,0.3968253968253968,1.8253968253968254,-321.8253968253968
12.142857142857142,-192.46031746031744,1.1904761904761905,0.23809523809523808,199.60317460317458,-325.0,3.253968253968254,-325.0,131.19047619047618,207.85714285714283,108.49206349206348,6.904761904761904,14.047619047619047,-325.0,12.936507936507935,325.0,23.57142857142857,325.0,15.95238095238095,325.0,-20.873015873015873,-1.0317460317460316,-2.142857142857143,-166.26984126984127
12.142857142857142,-192.46031746031744,1.1904761904761905,0.23809523809523808,199.60317460317458,-325.0,3.253968253968254,-325.0,131.19047619047618,207.85714285714283,108.49206349206348,6.904761904761904,14.047619047619047,-325.0,12.936507936507935,325.0,23.57142857142857,325.0,15.95238095238095,325.0,-20.873015873015873,-1.0317460317460316,-2.142857142857143,-166.26984126984127
11.666666666666666,-183.88888888888889,15.158730158730158,-0.5555555555555556,190.23809523809524,-325.0,17.22222222222222,-325.0,125.0,197.85714285714283,103.4126984126984,5.7936507936507935,28.49206349206349,-325.0,25.952380952380953,306.1111111111111,22.3015873015873,325.0,16.26984126984127,325.0,-19.92063492063492,-5.317460317460317,-8.174603174603174,-166.26984126984127
11.666666666666666,-183.88888888888889,15.158730158730158,-0.5555555555555556,190.23809523809524,-325.0,17.22222222222222,-325.0,125.0,197.85714285714283,103.4126984126984,5.7936507936507935,28.49206349206349,-325.0,25.952380952380953,306.1111111111111,22.3015873015873,325.0,16.26984126984127,325.0,-19.92063492063492,-5.317460317460317,-8.174603174603174,-166.26984126984127
11.507936507936508,-180.07936507936506,20.555555555555554,-1.8253968253968254,186.26984126984127,-325.0,22.142857142857142,-325.0,122.30158730158729,193.57142857142856,101.34920634920634,4.2063492063492065,33.41269841269841,-325.0,30.71428571428571,249.44444444444443,21.984126984126984,325.0,14.523809523809524,325.0,-19.444444444444443,-0.5555555555555556,-1.0317460317460316,-166.26984126984127
11.507936507936508,-180.07936507936506,20.555555555555554,-1.8253968253968254,186.26984126984127,-325.0,22.142857142857142,-325.0,122.30158730158729,193.57142857142856,101.34920634920634,4.2063492063492065,33.41269841269841,-325.0,30.71428571428571,249.44444444444443,21.984126984126984,325.0,14.523809523809524,325.0,-19.444444444444443,-0.5555555555555556,-1.0317460317460316,-166.26984126984127
11.19047619047619,-175.63492063492063,87.06349206349206,-231.34920634920633,181.8253968253968,-325.0,91.19047619047619,-325.0,119.12698412698413,188.4920634920635,98.96825396825396,2.142857142857143,102.93650793650794,-325.0,99.12698412698413,-2.7777777777777777,21.349206349206348,325.0,9.285714285714285,325.0,-18.65079365079365,11.825396825396824,17.22222222222222,-166.26984126984127
11.19047619047619,-175.63492063492063,87.06349206349206,-231.34920634920633,181.8253968253968,-325.0,91.19047619047619,-325.0,119.12698412698413,188.4920634920635,98.96825396825396,2.142857142857143,102.93650793650794,-325.0,99.12698412698413,-2.7777777777777777,21.349206349206348,325.0,9.285714285714285,325.0,-18.65079365079365,11.825396825396824,17.22222222222222,-166.26984126984127
10.873015873015872,-172.14285714285714,50.079365079365076,-138.96825396825395,177.69841269841268,-325.0,51.98412698412698,-319.9206349206349,116.58730158730158,184.2063492063492,96.58730158730158,-3.095238095238095,61.666666666666664,-325.0,59.44444444444444,325.0,20.873015873015873,325.0,6.904761904761904,325.0,-18.49206349206349,-4.682539682539682,-8.174603174603174,-166.26984126984127
10.873015873015872,-172.14285714285714,50.079365079365076,-138.96825396825395,177.69841269841268,-325.0,51.98412698412698,-319.9206349206349,116.58730158730158,184.2063492063492,96.58730158730158,-3.095238095238095,61.666666666666664,-325.0,59.44444444444444,325.0,20.873015873015873,325.0,6.904761904761904,325.0,-18.49206349206349,-4.682539682539682,-8.174603174603174,-166.26984126984127
10.714285714285714,-169.76190476190476,49.92063492063492,-325.0,175.63492063492063,-325.0,52.460317460317455,-316.26984126984127,115.15873015873015,181.984126984127,95.47619047619047,0.3968253968253968,63.73015873015873,-325.0,60.39682539682539,325.0,20.71428571428571,325.0,8.968253968253968,325.0,-18.174603174603174,11.666666666666666,16.428571428571427,-321.8253968253968
10.714285714285714,-169.76190476190476,49.92063492063492,-325.0,175.63492063492063,-325.0,52.460317460317455,-316.26984126984127,115.15873015873015,181.984126984127,95.47619047619047,0.3968253968253968,63.73015873015873,-325.0,60.39682539682539,325.0,20.71428571428571,325.0,8.968253968253968,325.0,-18.174603174603174,11.666666666666666,16.428571428571427,-321.8253968253968
10.396825396825395,-167.06349206349205,64.2063492063492,-246.42857142857142,172.93650793650792,-325.0,67.6984126984127,-310.87301587301585,112.93650793650794,178.8095238095238,93.73015873015872,6.428571428571428,75.79365079365078,-325.0,73.88888888888889,325.0,20.396825396825395,325.0,16.26984126984127,325.0,-17.857142857142858,-11.349206349206348,-17.698412698412696,-321.8253968253968
10.396825396825395,-167.06349206349205,64.2063492063492,-246.42857142857142,172.93650793650792,-325.0,67.6984126984127,-310.87301587301585,112.93650793650794,178.8095238095238,93.73015873015872,6.428571428571428,75.79365079365078,-325.0,73.88888888888889,325.0,20.396825396825395,325.0,16.26984126984127,325.0,-17.857142857142858,-11.349206349206348,-17.698412698412696,-321.8253968253968
10.238095238095237,-164.36507936507937,67.85714285714285,-285.7936507936508,169.76190476190476,-324.5238095238095,71.34920634920634,-306.1111111111111,111.03174603174602,175.63492063492063,92.14285714285714,5.476190476190476,79.76190476190476,-319.9206349206349,78.01587301587301,325.0,19.92063492063492,325.0,15.476190476190474,325.0,-17.698412698412696,-10.873015873015872,-17.539682539682538,-321.8253968253968
10.238095238095237,-164.36507936507937,67.85714285714285,-285.7936507936508,169.76190476190476,-324.5238095238095,71.34920634920634,-306.1111111111111,111.03174603174602,175.63492063492063,92.14285714285714,5.476190476190476,79.76190476190476,-319.9206349206349,78.01587301587301,325.0,19.92063492063492,325.0,15.476190476190474,325.0,-17.698412698412696,-10.873015873015872,-17.539682539682538,-321.8253968253968
10.079365079365079,-161.5079365079365,71.66666666666666,-325.0,166.74603174603175,-324.04761904761904,75.0,-301.3492063492063,109.28571428571428,172.46031746031744,90.71428571428571,4.523809523809524,83.73015873015872,-314.8412698412698,82.14285714285714,325.0,19.444444444444443,325.0,14.682539682539682,325.0,-17.539682539682538,-10.396825396825395,-17.22222222222222,-321.8253968253968
10.079365079365079,-161.5079365079365,71.66666666666666,-325.0,166.74603174603175,-324.04761904761904,75.0,-301.3492063492063,109.28571428571428,172.46031746031744,90.71428571428571,4.523809523809524,83.73015873015872,-314.8412698412698,82.14285714285714,325.0,19.444444444444443,325.0,14.682539682539682,325.0,-17.539682539682538,-10.396825396825395,-17.22222222222222,-321.8253968253968
9.920634920634921,-158.96825396825395,62.77777777777777,-325.0,163.88888888888889,-318.968253968254,66.26984126984127,-296.58730158730157,107.38095238095238,169.44444444444443,89.12698412698413,4.682539682539682,74.68253968253968,-309.4444444444444,73.4126984126984,325.0,18.96825396825397,325.0,15.0,325.0,-17.063492063492063,-10.873015873015872,-17.698412698412696,-321.8253968253968
9.920634920634921,-158.96825396825395,62.77777777777777,-325.0,163.88888888888889,-318.968253968254,66.26984126984127,-296.58730158730157,107.38095238095238,169.44444444444443,89.12698412698413,4.682539682539682,74.68253968253968,-309.4444444444444,73.4126984126984,325.0,18.96825396825397,325.0,15.0,325.0,-17.063492063492063,-10.873015873015872,-17.698412698412696,-321.8253968253968
9.603174603174603,-154.2063492063492,65.63492063492063,-325.0,159.28571428571428,-309.9206349206349,67.85714285714285,-288.3333333333333,103.88888888888889,164.36507936507937,86.26984126984127,4.841269841269841,77.6984126984127,-300.39682539682536,74.36507936507937,325.0,18.65079365079365,325.0,14.523809523809524,325.0,-16.428571428571427,7.063492063492063,10.238095238095237,-166.26984126984127
9.603174603174603,-154.2063492063492,65.63492063492063,-325.0,159.28571428571428,-309.9206349206349,67.85714285714285,-288.3333333333333,103.88888888888889,164.36507936507937,86.26984126984127,4.841269841269841,77.6984126984127,-300.39682539682536,74.36507936507937,325.0,18.65079365079365,325.0,14.523809523809524,325.0,-16.428571428571427,7.063492063492063,10.238095238095237,-166.26984126984127
9.603174603174603,-152.46031746031744,54.047619047619044,-325.0,156.9047619047619,-306.1111111111111,56.42857142857142,-284.8412698412698,102.77777777777777,161.984126984127,85.31746031746032,7.698412698412698,64.68253968253968,-296.4285714285714,64.2063492063492,325.0,18.333333333333332,325.0,17.22222222222222,325.0,-16.11111111111111,-3.73015873015873,-6.904761904761904,-166.26984126984127
9.603174603174603,-152.46031746031744,54.047619047619044,-325.0,156.9047619047619,-306.1111111111111,56.42857142857142,-284.8412698412698,102.77777777777777,161.984126984127,85.31746031746032,7.698412698412698,64.68253968253968,-296.4285714285714,64.2063492063492,325.0,18.333333333333332,325.0,17.22222222222222,325.0,-16.11111111111111,-3.73015873015873,-6.904761904761904,-166.26984126984127
9.603174603174603,-152.46031746031744,54.047619047619044,-325.0,156.9047619047619,-306.1111111111111,56.42857142857142,-284.8412698412698,102.77777777777777,161.984126984127,85.31746031746032,7.698412698412698,64.68253968253968,-296.4285714285714,64.2063492063492,325.0,18.333333333333332,325.0,17.22222222222222,325.0,-16.11111111111111,-3.73015873015873,-6.904761904761904,-166.26984126984127
9.603174603174603,-152.46031746031744,54.047619047619044,-325.0,156.9047619047619,-306.1111111111111,56.42857142857142,-284.8412698412698,102.77777777777777,161.984126984127,85.31746031746032,7.698412698412698,64.68253968253968,-296.4285714285714,64.2063492063492,325.0,18.333333333333332,325.0,17.22222222222222,325.0,-16.11111111111111,-3.73015873015873,-6.904761904761904,-166.26984126984127
9.603174603174603,-152.46031746031744,54.047619047619044,-325.0,156.9047619047619,-306.1111111111111,56.42857142857142,-284.8412698412698,102.77777777777777,161.984126984127,85.31746031746032,7.698412698412698,64.68253968253968,-296.4285714285714,64.2063492063492,325.0,18.333333333333332,325.0,17.22222222222222,325.0,-16.11111111111111,-3.73015873015873,-6.904761904761904,-166.26984126984127
9.603174603174603,-152.46031746031744,54.047619047619044,-325.0,156.9047619047619,-306.1111111111111,56.42857142857142,-284.8412698412698,102.77777777777777,161.984126984127,85.31746031746032,7.698412698412698,64.68253968253968,-296.4285714285714,64.2063492063492,325.0,18.333333333333332,325.0,17.22222222222222,325.0,-16.11111111111111,-3.73015873015873,-6.904761904761904,-166.26984126984127
9.603174603174603,-152.46031746031744,54.047619047619044,-325.0,156.9047619047619,-306.1111111111111,56.42857142857142,-284.8412698412698,102.77777777777777,161.984126984127,85.31746031746032,7.698412698412698,64.68253968253968,-296.4285714285714,64.2063492063492,325.0,18.333333333333332,325.0,17.22222222222222,325.0,-16.11111111111111,-3.73015873015873,-6.904761904761904,-166.26984126984127
9.603174603174603,-152.46031746031744,54.047619047619044,-325.0,156.9047619047619,-306.1111111111111,56.42857142857142,-284.8412698412698,102.77777777777777,161.984126984127,85.31746031746032,7.698412698412698,64.68253968253968,-296.4285714285714,64.2063492063492,325.0,18.333333333333332,325.0,17.22222222222222,325.0,-16.11111111111111,-3.73015873015873,-6.904761904761904,-166.26984126984127
8.809523809523808,-142.46031746031744,45.0,-325.0,146.9047619047619,-286.90476190476187,47.857142857142854,-267.22222222222223,95.95238095238095,151.03174603174602,79.44444444444444,3.095238095238095,58.01587301587301,-276.90476190476187,57.06349206349206,325.0,17.063492063492063,325.0,12.46031746031746,325.0,-15.0,-4.682539682539682,-8.015873015873016,-321.8253968253968
8.809523809523808,-142.46031746031744,45.0,-325.0,146.9047619047619,-286.90476190476187,47.857142857142854,-267.22222222222223,95.95238095238095,151.03174603174602,79.44444444444444,3.095238095238095,58.01587301587301,-276.90476190476187,57.06349206349206,325.0,17.063492063492063,325.0,12.46031746031746,325.0,-15.0,-4.682539682539682,-8.015873015873016,-321.8253968253968
-21.349206349206348,-131.03174603174602,44.84126984126984,-325.0,134.68253968253967,-264.36507936507934,48.17460317460317,-246.42857142857142,87.6984126984127,138.33333333333331,72.77777777777777,1.349206349206349,56.269841269841265,-254.04761904761904,55.79365079365079,325.0,-0.5555555555555556,311.031746031746,11.349206349206348,303.0952380952381,-13.73015873015873,-7.3809523809523805,-12.46031746031746,-321.8253968253968
-21.349206349206348,-131.03174603174602,44.84126984126984,-325.0,134.68253968253967,-264.36507936507934,48.17460317460317,-246.42857142857142,87.6984126984127,138.33333333333331,72.77777777777777,1.349206349206349,56.269841269841265,-254.04761904761904,55.79365079365079,325.0,-0.5555555555555556,311.031746031746,11.349206349206348,303.0952380952381,-13.73015873015873,-7.3809523809523805,-12.46031746031746,-321.8253968253968
-51.34920634920635,-119.6031746031746,44.84126984126984,-325.0,122.6190476190476,-241.66666666666666,48.49206349206349,-225.63492063492063,79.6031746031746,125.63492063492063,66.26984126984127,-0.3968253968253968,54.52380952380952,-231.19047619047618,54.68253968253968,325.0,-18.015873015873016,297.06349206349205,10.238095238095237,281.3492063492063,-12.46031746031746,-10.079365079365079,-16.746031746031743,-321.8253968253968
-51.34920634920635,-119.6031746031746,44.84126984126984,-325.0,122.6190476190476,-241.66666666666666,48.49206349206349,-225.63492063492063,79.6031746031746,125.63492063492063,66.26984126984127,-0.3968253968253968,54.52380952380952,-231.19047619047618,54.68253968253968,325.0,-18.015873015873016,297.06349206349205,10.238095238095237,281.3492063492063,-12.46031746031746,-10.079365079365079,-16.746031746031743,-321.8253968253968
-58.8095238095238,-117.6984126984127,42.77777777777778,-325.0,120.55555555555554,-237.85714285714283,46.11111111111111,-222.14285714285714,78.33333333333333,123.4126984126984,65.0,-1.0317460317460316,51.34920634920635,-227.53968253968253,51.82539682539682,325.0,-26.9047619047619,292.3015873015873,9.285714285714285,276.74603174603175,-12.3015873015873,-9.920634920634921,-15.793650793650793,-321.8253968253968
-58.8095238095238,-117.6984126984127,42.77777777777778,-325.0,120.55555555555554,-237.85714285714283,46.11111111111111,-222.14285714285714,78.33333333333333,123.4126984126984,65.0,-1.0317460317460316,51.34920634920635,-227.53968253968253,51.82539682539682,325.0,-26.9047619047619,292.3015873015873,9.285714285714285,276.74603174603175,-12.3015873015873,-9.920634920634921,-15.793650793650793,-321.8253968253968
288.17460317460313,-160.07936507936506,246.74603174603172,240.7142857142857,-320.07936507936506,239.12698412698413,-20.396825396825395,305.4761904761905,22.619047619047617,-195.95238095238093,-224.68253968253967,-174.52380952380952,-221.98412698412696,131.5079365079365,41.98412698412698,-100.87301587301587,-238.8095238095238,64.04761904761905,-296.4285714285714,272.1428571428571,-32.460317460317455,-9.761904761904761,-35.0,-321.8253968253968
288.17460317460313,-160.07936507936506,246.74603174603172,240.7142857142857,-320.07936507936506,239.12698412698413,-20.396825396825395,305.4761904761905,22.619047619047617,-195.95238095238093,-224.68253968253967,-174.52380952380952,-221.98412698412696,131.5079365079365,41.98412698412698,-100.87301587301587,-238.8095238095238,64.04761904761905,-296.4285714285714,272.1428571428571,-32.460317460317455,-9.761904761904761,-35.0,-321.8253968253968
288.17460317460313,-160.07936507936506,246.74603174603172,240.7142857142857,-320.07936507936506,239.12698412698413,-20.396825396825395,305.4761904761905,22.619047619047617,-195.95238095238093,-224.68253968253967,-174.52380952380952,-221.98412698412696,131.5079365079365,41.98412698412698,-100.87301587301587,-238.8095238095238,64.04761904761905,-296.4285714285714,272.1428571428571,-32.460317460317455,-9.761904761904761,-35.0,-166.26984126984127
288.17460317460313,-160.07936507936506,246.74603174603172,240.7142857142857,-320.07936507936506,239.12698412698413,-20.396825396825395,305.4761904761905,22.619047619047617,-195.95238095238093,-224.68253968253967,-174.52380952380952,-221.98412698412696,131.5079365079365,41.98412698412698,-100.87301587301587,-238.8095238095238,64.04761904761905,-296.4285714285714,272.1428571428571,-32.460317460317455,-9.761904761904761,-35.0,-166.26984126984127
288.17460317460313,-160.07936507936506,246.74603174603172,240.7142857142857,-320.07936507936506,239.12698412698413,-20.396825396825395,305.4761904761905,22.619047619047617,-195.95238095238093,-224.68253968253967,-174.52380952380952,-221.98412698412696,131.5079365079365,41.98412698412698,-100.87301587301587,-238.8095238095238,64.04761904761905,-296.4285714285714,272.1428571428571,-32.460317460317455,-9.761904761904761,-35.0,-166.26984126984127
288.17460317460313,-160.07936507936506,246.74603174603172,240.7142857142857,-320.07936507936506,239.12698412698413,-20.396825396825395,305.4761904761905,22.619047619047617,-195.95238095238093,-224.68253968253967,-174.52380952380952,-221.98412698412696,131.5079365079365,41.98412698412698,-100.87301587301587,-238.8095238095238,64.04761904761905,-296.4285714285714,272.1428571428571,-32.460317460317455,-9.761904761904761,-35.0,-166.26984126984127
288.17460317460313,-160.07936507936506,246.74603174603172,240.7142857142857,-320.07936507936506,239.12698412698413,-20.396825396825395,305.4761904761905,22.619047619047617,-195.95238095238093,-224.68253968253967,-174.52380952380952,-221.98412698412696,131.5079365079365,41.98412698412698,-100.87301587301587,-238.8095238095238,64.04761904761905,-296.4285714285714,272.1428571428571,-32.460317460317455,-9.761904761904761,-35.0,-166.26984126984127
288.17460317460313,-160.07936507936506,246.74603174603172,240.7142857142857,-320.07936507936506,239.12698412698413,-20.396825396825395,305.4761904761905,22.619047619047617,-195.95238095238093,-224.68253968253967,-174.52380952380952,-221.98412698412696,131.5079365079365,41.98412698412698,-100.87301587301587,-238.8095238095238,64.04761904761905,-296.4285714285714,272.1428571428571,-32.460317460317455,-9.761904761904761,-35.0,-166.26984126984127
288.17460317460313,-160.07936507936506,246.74603174603172,240.7142857142857,-320.07936507936506,239.12698412698413,-20.396825396825395,305.4761904761905,22.619047619047617,-195.95238095238093,-224.68253968253967,-174.52380952380952,-221.98412698412696,131.5079365079365,41.98412698412698,-100.87301587301587,-238.8095238095238,64.04761904761905,-296.4285714285714,272.1428571428571,-32.460317460317455,-9.761904761904761,-35.0,-166.26984126984127
288.17460317460313,-160.07936507936506,246.74603174603172,240.7142857142857,-320.07936507936506,239.12698412698413,-20.396825396825395,305.4761904761905,22.619047619047617,-195.95238095238093,-224.68253968253967,-174.52380952380952,-221.98412698412696,131.5079365079365,41.98412698412698,-100.87301587301587,-238.8095238095238,64.04761904761905,-296.4285714285714,272.1428571428571,-32.460317460317455,-9.761904761904761,-35.0,-166.26984126984127
288.17460317460313,-160.07936507936506,246.74603174603172,240.7142857142857,-320.07936507936506,239.12698412698413,-20.396825396825395,305.4761904761905,22.619047619047617,-195.95238095238093,-224.68253968253967,-174.52380952380952,-221.98412698412696,131.5079365079365,41.98412698412698,-100.87301587301587,-238.8095238095238,64.04761904761905,-296.4285714285714,272.1428571428571,-32.460317460317455,-9.761904761904761,-35.0,-166.26984126984127
288.17460317460313,-160.07936507936506,246.74603174603172,240.7142857142857,-320.07936507936506,239.12698412698413,-20.396825396825395,305.4761904761905,22.619047619047617,-195.95238095238093,-224.68253968253967,-174.52380952380952,-221.98412698412696,131.5079365079365,41.98412698412698,-100.87301587301587,-238.8095238095238,64.04761904761905,-296.4285714285714,272.1428571428571,-32.460317460317455,-9.761904761904761,-35.0,-166.26984126984127
288.17460317460313,-160.07936507936506,246.74603174603172,240.7142857142857,-320.07936507936506,239.12698412698413,-20.396825396825395,305.4761904761905,22.619047619047617,-195.95238095238093,-224.68253968253967,-174.52380952380952,-221.98412698412696,131.5079365079365,41.98412698412698,-100.87301587301587,-238.8095238095238,64.04761904761905,-296.4285714285714,272.1428571428571,-32.460317460317455,-9.761904761904761,-35.0,-321.8253968253968
288.17460317460313,-160.07936507936506,246.74603174603172,240.7142857142857,-320.07936507936506,239.12698412698413,-20.396825396825395,305.4761904761905,22.619047619047617,-195.95238095238093,-224.68253968253967,-174.52380952380952,-221.98412698412696,131.5079365079365,41.98412698412698,-100.87301587301587,-238.8095238095238,64.04761904761905,-296.4285714285714,272.1428571428571,-32.460317460317455,-9.761904761904761,-35.0,-321.8253968253968
288.17460317460313,-160.07936507936506,246.74603174603172,240.7142857142857,-320.07936507936506,239.12698412698413,-20.396825396825395,305.4761904761905,22.619047619047617,-195.95238095238093,-224.68253968253967,-174.52380952380952,-221.98412698412696,131.5079365079365,41.98412698412698,-100.87301587301587,-238.8095238095238,64.04761904761905,-296.4285714285714,272.1428571428571,-32.460317460317455,-9.761904761904761,-35.0,-321.8253968253968
288.17460317460313,-160.07936507936506,246.74603174603172,240.7142857142857,-320.07936507936506,239.12698412698413,-20.396825396825395,305.4761904761905,22.619047619047617,-195.95238095238093,-224.68253968253967,-174.52380952380952,-221.98412698412696,131.5079365079365,41.98412698412698,-100.87301587301587,-238.8095238095238,64.04761904761905,-296.4285714285714,272.1428571428571,-32.460317460317455,-9.761904761904761,-35.0,-321.8253968253968
288.17460317460313,-160.07936507936506,246.74603174603172,240.7142857142857,-320.07936507936506,239.12698412698413,-20.396825396825395,305.4761904761905,22.619047619047617,-195.95238095238093,-224.68253968253967,-174.52380952380952,-221.98412698412696,131.5079365079365,41.98412698412698,-100.87301587301587,-238.8095238095238,64.04761904761905,-296.4285714285714,272.1428571428571,-32.460317460317455,-9.761904761904761,-35.0,-321.8253968253968
288.17460317460313,-160.07936507936506,246.74603174603172,240.7142857142857,-320.07936507936506,239.12698412698413,-20.396825396825395,305.4761904761905,22.619047619047617,-195.95238095238093,-224.68253968253967,-174.52380952380952,-221.98412698412696,131.5079365079365,41.98412698412698,-100.87301587301587,-238.8095238095238,64.04761904761905,-296.4285714285714,272.1428571428571,-32.460317460317455,-9.761904761904761,-35.0,-321.8253968253968
288.17460317460313,-160.07936507936506,246.74603174603172,240.7142857142857,-320.07936507936506,239.12698412698413,-20.396825396825395,305.4761904761905,22.619047619047617,-195.95238095238093,-224.68253968253967,-174.52380952380952,-221.98412698412696,131.5079365079365,41.98412698412698,-100.87301587301587,-238.8095238095238,64.04761904761905,-296.4285714285714,272.1428571428571,-32.460317460317455,-9.761904761904761,-35.0,-321.8253968253968
288.17460317460313,-160.07936507936506,246.74603174603172,240.7142857142857,-320.07936507936506,239.12698412698413,-20.396825396825395,305.4761904761905,22.619047619047617,-195.95238095238093,-224.68253968253967,-174.52380952380952,-221.98412698412696,131.5079365079365,41.98412698412698,-100.87301587301587,-238.8095238095238,64.04761904761905,-296.4285714285714,272.1428571428571,-32.460317460317455,-9.761904761904761,-35.0,-321.8253968253968
288.17460317460313,-160.07936507936506,246.74603174603172,240.7142857142857,-320.07936507936506,239.12698412698413,-20.396825396825395,305.4761904761905,22.619047619047617,-195.95238095238093,-224.68253968253967,-174.52380952380952,-221.98412698412696,131.5079365079365,41.98412698412698,-100.87301587301587,-238.8095238095238,64.04761904761905,-296.4285714285714,272.1428571428571,-32.460317460317455,-9.761904761904761,-35.0,-321.8253968253968
288.17460317460313,-160.07936507936506,246.74603174603172,240.7142857142857,-320.07936507936506,239.12698412698413,-20.396825396825395,305.4761904761905,22.619047619047617,-195.95238095238093,-224.68253968253967,-174.52380952380952,-221.98412698412696,131.5079365079365,41.98412698412698,-100.87301587301587,-238.8095238095238,64.04761904761905,-296.4285714285714,272.1428571428571,-32.460317460317455,-9.761904761904761,-35.0,-321.8253968253968
288.17460317460313,-160.07936507936506,246.74603174603172,240.7142857142857,-320.07936507936506,239.12698412698413,-20.396825396825395,305.4761904761905,22.619047619047617,-195.95238095238093,-224.68253968253967,-174.52380952380952,-221.98412698412696,131.5079365079365,41.98412698412698,-100.87301587301587,-238.8095238095238,64.04761904761905,-296.4285714285714,272.1428571428571,-32.460317460317455,-9.761904761904761,-35.0,-166.26984126984127
288.17460317460313,-160.07936507936506,246.74603174603172,240.7142857142857,-320.07936507936506,239.12698412698413,-20.396825396825395,305.4761904761905,22.619047619047617,-195.95238095238093,-224.68253968253967,-174.52380952380952,-221.98412698412696,131.5079365079365,41.98412698412698,-100.87301587301587,-238.8095238095238,64.04761904761905,-296.4285714285714,272.1428571428571,-32.460317460317455,-9.761904761904761,-35.0,-166.26984126984127
288.17460317460313,-160.07936507936506,246.74603174603172,240.7142857142857,-320.07936507936506,239.12698412698413,-20.396825396825395,305.4761904761905,22.619047619047617,-195.95238095238093,-224.68253968253967,-174.52380952380952,-221.98412698412696,131.5079365079365,41.98412698412698,-100.87301587301587,-238.8095238095238,64.04761904761905,-296.4285714285714,272.1428571428571,-32.460317460317455,-9.761904761904761,-35.0,-166.26984126984127
288.17460317460313,-160.07936507936506,246.74603174603172,240.7142857142857,-320.07936507936506,239.12698412698413,-20.396825396825395,305.4761904761905,22.619047619047617,-195.95238095238093,-224.68253968253967,-174.52380952380952,-221.98412698412696,131.5079365079365,41.98412698412698,-100.87301587301587,-238.8095238095238,64.04761904761905,-296.4285714285714,272.1428571428571,-32.460317460317455,-9.761904761904761,-35.0,-166.26984126984127
288.17460317460313,-160.07936507936506,246.74603174603172,240.7142857142857,-320.07936507936506,239.12698412698413,-20.396825396825395,305.4761904761905,22.619047619047617,-195.95238095238093,-224.68253968253967,-174.52380952380952,-221.98412698412696,131.5079365079365,41.98412698412698,-100.87301587301587,-238.8095238095238,64.04761904761905,-296.4285714285714,272.1428571428571,-32.460317460317455,-9.761904761904761,-35.0,-166.26984126984127
288.17460317460313,-160.07936507936506,246.74603174603172,240.7142857142857,-320.07936507936506,239.12698412698413,-20.396825396825395,305.4761904761905,22.619047619047617,-195.95238095238093,-224.68253968253967,-174.52380952380952,-221.98412698412696,131.5079365079365,41.98412698412698,-100.87301587301587,-238.8095238095238,64.04761904761905,-296.4285714285714,272.1428571428571,-32.460317460317455,-9.761904761904761,-35.0,-166.26984126984127
288.17460317460313,-160.07936507936506,246.74603174603172,240.7142857142857,-320.07936507936506,239.12698412698413,-20.396825396825395,305.4761904761905,22.619047619047617,-195.95238095238093,-224.68253968253967,-174.52380952380952,-221.98412698412696,131.5079365079365,41.98412698412698,-100.87301587301587,-238.8095238095238,64.04761904761905,-296.4285714285714,272.1428571428571,-32.460317460317455,-9.761904761904761,-35.0,-166.26984126984127
288.17460317460313,-160.07936507936506,246.74603174603172,240.7142857142857,-320.07936507936506,239.12698412698413,-20.396825396825395,305.4761904761905,22.619047619047617,-195.95238095238093,-224.68253968253967,-174.52380952380952,-221.98412698412696,131.5079365079365,41.98412698412698,-100.87301587301587,-238.8095238095238,64.04761904761905,-296.4285714285714,272.1428571428571,-32.460317460317455,-9.761904761904761,-35.0,-166.26984126984127
288.17460317460313,-160.07936507936506,246.74603174603172,240.7142857142857,-320.07936507936506,239.12698412698413,-20.396825396825395,305.4761904761905,22.619047619047617,-195.95238095238093,-224.68253968253967,-174.52380952380952,-221.98412698412696,131.5079365079365,41.98412698412698,-100.87301587301587,-238.8095238095238,64.04761904761905,-296.4285714285714,272.1428571428571,-32.460317460317455,-9.761904761904761,-35.0,-166.26984126984127
288.17460317460313,-160.07936507936506,246.74603174603172,240.7142857142857,-320.07936507936506,239.12698412698413,-20.396825396825395,305.4761904761905,22.619047619047617,-195.95238095238093,-224.68253968253967,-174.52380952380952,-221.98412698412696,131.5079365079365,41.98412698412698,-100.87301587301587,-238.8095238095238,64.04761904761905,-296.4285714285714,272.1428571428571,-32.460317460317455,-9.761904761904761,-35.0,-166.26984126984127
288.17460317460313,-160.07936507936506,246.74603174603172,240.7142857142857,-320.07936507936506,239.12698412698413,-20.396825396825395,305.4761904761905,22.619047619047617,-195.95238095238093,-224.68253968253967,-174.52380952380952,-221.98412698412696,131.5079365079365,41.98412698412698,-100.87301587301587,-238.8095238095238,64.04761904761905,-296.4285714285714,272.1428571428571,-32.460317460317455,-9.761904761904761,-35.0,-321.8253968253968
288.17460317460313,-160.07936507936506,246.74603174603172,240.7142857142857,-320.07936507936506,239.12698412698413,-20.396825396825395,305.4761904761905,22.619047619047617,-195.95238095238093,-224.68253968253967,-174.52380952380952,-221.98412698412696,131.5079365079365,41.98412698412698,-100.87301587301587,-238.8095238095238,64.04761904761905,-296.4285714285714,272.1428571428571,-32.460317460317455,-9.761904761904761,-35.0,-321.8253968253968
288.17460317460313,-160.07936507936506,246.74603174603172,240.7142857142857,-320.07936507936506,239.12698412698413,-20.396825396825395,305.4761904761905,22.619047619047617,-195.95238095238093,-224.68253968253967,-174.52380952380952,-221.98412698412696,131.5079365079365,41.98412698412698,-100.87301587301587,-238.8095238095238,64.04761904761905,-296.4285714285714,272.1428571428571,-32.460317460317455,-9.761904761904761,-35.0,-321.8253968253968
288.17460317460313,-160.07936507936506,246.74603174603172,240.7142857142857,-320.07936507936506,239.12698412698413,-20.396825396825395,305.4761904761905,22.619047619047617,-195.95238095238093,-224.68253968253967,-174.52380952380952,-221.98412698412696,131.5079365079365,41.98412698412698,-100.87301587301587,-238.8095238095238,64.04761904761905,-296.4285714285714,272.1428571428571,-32.460317460317455,-9.761904761904761,-35.0,-321.8253968253968
65.31746031746032,-120.71428571428571,165.0,-2.46031746031746,-118.96825396825396,36.58730158730159,33.41269841269841,74.84126984126983,37.857142857142854,-260.55555555555554,-90.23809523809523,-90.39682539682539,-66.11111111111111,-11.984126984126984,66.11111111111111,111.98412698412697,-194.52380952380952,134.04761904761904,-149.6031746031746,231.66666666666666,87.38095238095238,-1.1904761904761905,-11.666666666666666,-321.8253968253968
65.31746031746032,-120.71428571428571,165.0,-2.46031746031746,-118.96825396825396,36.58730158730159,33.41269841269841,74.84126984126983,37.857142857142854,-260.55555555555554,-90.23809523809523,-90.39682539682539,-66.11111111111111,-11.984126984126984,66.11111111111111,111.98412698412697,-194.52380952380952,134.04761904761904,-149.6031746031746,231.66666666666666,87.38095238095238,-1.1904761904761905,-11.666666666666666,-321.8253968253968
-158.65079365079364,-80.55555555555556,83.73015873015872,-243.4126984126984,81.66666666666666,-164.36507936507937,88.4920634920635,-154.36507936507937,52.61904761904761,-325.0,43.888888888888886,-9.920634920634921,90.87301587301587,-154.04761904761904,91.34920634920634,325.0,-151.66666666666666,202.61904761904762,-4.682539682539682,189.76190476190476,266.1111111111111,-0.07936507936507936,-0.23809523809523808,-321.8253968253968
-158.65079365079364,-80.55555555555556,83.73015873015872,-243.4126984126984,81.66666666666666,-164.36507936507937,88.4920634920635,-154.36507936507937,52.61904761904761,-325.0,43.888888888888886,-9.920634920634921,90.87301587301587,-154.04761904761904,91.34920634920634,325.0,-151.66666666666666,202.61904761904762,-4.682539682539682,189.76190476190476,266.1111111111111,-0.07936507936507936,-0.23809523809523808,-321.8253968253968
-161.66666666666666,-78.96825396825396,78.80952380952381,-238.17460317460316,79.76190476190476,-161.03174603174602,81.98412698412697,-151.19047619047618,51.666666666666664,-325.0,42.93650793650794,-9.285714285714285,83.57142857142857,-150.7142857142857,82.46031746031746,325.0,-155.47619047619048,198.4920634920635,-4.365079365079365,185.47619047619045,325.0,7.3809523809523805,12.3015873015873,-321.8253968253968
-161.66666666666666,-78.96825396825396,78.80952380952381,-238.17460317460316,79.76190476190476,-161.03174603174602,81.98412698412697,-151.19047619047618,51.666666666666664,-325.0,42.93650793650794,-9.285714285714285,83.57142857142857,-150.7142857142857,82.46031746031746,325.0,-155.47619047619048,198.4920634920635,-4.365079365079365,185.47619047619045,325.0,7.3809523809523805,12.3015873015873,-321.8253968253968
-163.25396825396825,-77.85714285714285,74.68253968253968,-235.15873015873015,78.96825396825396,-158.8095238095238,80.71428571428571,-149.28571428571428,50.87301587301587,-325.0,42.3015873015873,-9.603174603174603,79.76190476190476,-148.8095238095238,84.68253968253968,325.0,-157.53968253968253,196.26984126984127,-5.7936507936507935,183.57142857142856,201.5079365079365,-9.444444444444445,-14.365079365079364,-166.26984126984127
-163.25396825396825,-77.85714285714285,74.68253968253968,-235.15873015873015,78.96825396825396,-158.8095238095238,80.71428571428571,-149.28571428571428,50.87301587301587,-325.0,42.3015873015873,-9.603174603174603,79.76190476190476,-148.8095238095238,84.68253968253968,325.0,-157.53968253968253,196.26984126984127,-5.7936507936507935,183.57142857142856,201.5079365079365,-9.444444444444445,-14.365079365079364,-166.26984126984127
-166.58730158730157,-75.63492063492063,53.57142857142857,-228.015873015873,76.42857142857143,-154.52380952380952,58.17460317460317,-145.3174603174603,49.285714285714285,-325.0,41.03174603174603,-4.523809523809524,57.22222222222222,-144.36507936507937,61.03174603174603,325.0,-161.984126984127,190.55555555555554,-0.7142857142857142,177.85714285714286,250.87301587301585,-1.1904761904761905,-1.6666666666666665,-166.26984126984127
-166.58730158730157,-75.63492063492063,53.57142857142857,-228.015873015873,76.42857142857143,-154.52380952380952,58.17460317460317,-145.3174603174603,49.285714285714285,-325.0,41.03174603174603,-4.523809523809524,57.22222222222222,-144.36507936507937,61.03174603174603,325.0,-161.984126984127,190.55555555555554,-0.7142857142857142,177.85714285714286,250.87301587301585,-1.1904761904761905,-1.6666666666666665,-166.26984126984127
-168.96825396825395,-73.88888888888889,58.17460317460317,-222.93650793650792,74.84126984126983,-151.19047619047618,62.460317460317455,-142.14285714285714,48.33333333333333,-325.0,40.079365079365076,-7.857142857142857,63.25396825396825,-141.34920634920636,63.888888888888886,325.0,-164.84126984126982,186.58730158730157,-3.253968253968254,174.36507936507937,296.74603174603175,-0.5555555555555556,-0.3968253968253968,-166.26984126984127
-168.96825396825395,-73.88888888888889,58.17460317460317,-222.93650793650792,74.84126984126983,-151.19047619047618,62.460317460317455,-142.14285714285714,48.33333333333333,-325.0,40.079365079365076,-7.857142857142857,63.25396825396825,-141.34920634920636,63.888888888888886,325.0,-164.84126984126982,186.58730158730157,-3.253968253968254,174.36507936507937,296.74603174603175,-0.5555555555555556,-0.3968253968253968,-166.26984126984127
-170.55555555555554,-72.61904761904762,47.857142857142854,-218.015873015873,73.09523809523809,-148.17460317460316,53.095238095238095,-139.28571428571428,47.06349206349206,-325.0,39.12698412698413,-3.4126984126984126,52.14285714285714,-138.17460317460316,55.0,325.0,-167.53968253968253,182.93650793650792,1.1904761904761905,170.55555555555554,307.53968253968253,-7.857142857142857,-12.619047619047619,-166.26984126984127
-170.55555555555554,-72.61904761904762,47.857142857142854,-218.015873015873,73.09523809523809,-148.17460317460316,53.095238095238095,-139.28571428571428,47.06349206349206,-325.0,39.12698412698413,-3.4126984126984126,52.14285714285714,-138.17460317460316,55.0,325.0,-167.53968253968253,182.93650793650792,1.1904761904761905,170.55555555555554,307.53968253968253,-7.857142857142857,-12.619047619047619,-166.26984126984127
-172.3015873015873,-71.19047619047619,40.55555555555555,-213.25396825396825,71.34920634920634,-145.0,44.84126984126984,-136.58730158730157,46.269841269841265,-325.0,38.49206349206349,2.619047619047619,42.93650793650794,-135.3174603174603,45.476190476190474,325.0,-169.76190476190476,179.28571428571428,5.476190476190476,167.06349206349205,275.3174603174603,5.0,9.126984126984127,-166.26984126984127
-172.3015873015873,-71.19047619047619,40.55555555555555,-213.25396825396825,71.34920634920634,-145.0,44.84126984126984,-136.58730158730157,46.269841269841265,-325.0,38.49206349206349,2.619047619047619,42.93650793650794,-135.3174603174603,45.476190476190474,325.0,-169.76190476190476,179.28571428571428,5.476190476190476,167.06349206349205,275.3174603174603,5.0,9.126984126984127,-166.26984126984127
-174.84126984126982,-68.96825396825396,42.3015873015873,-206.9047619047619,69.44444444444444,-140.87301587301587,45.79365079365079,-132.61904761904762,44.68253968253968,-325.0,37.38095238095238,-3.73015873015873,45.79365079365079,-131.34920634920636,45.476190476190474,325.0,-173.25396825396825,174.04761904761904,-0.23809523809523808,162.14285714285714,313.88888888888886,7.3809523809523805,11.031746031746032,-321.8253968253968
-174.84126984126982,-68.96825396825396,42.3015873015873,-206.9047619047619,69.44444444444444,-140.87301587301587,45.79365079365079,-132.61904761904762,44.68253968253968,-325.0,37.38095238095238,-3.73015873015873,45.79365079365079,-131.34920634920636,45.476190476190474,325.0,-173.25396825396825,174.04761904761904,-0.23809523809523808,162.14285714285714,313.88888888888886,7.3809523809523805,11.031746031746032,-321.8253968253968
-176.11111111111111,-67.85714285714285,31.349206349206348,-203.09523809523807,68.33333333333333,-138.4920634920635,35.95238095238095,-130.55555555555554,44.047619047619044,-201.66666666666666,36.74603174603175,-5.952380952380952,33.57142857142857,-128.96825396825395,35.95238095238095,325.0,-174.84126984126982,171.19047619047618,-1.349206349206349,159.28571428571428,325.0,-7.5396825396825395,-12.3015873015873,-321.8253968253968
-176.11111111111111,-67.85714285714285,31.349206349206348,-203.09523809523807,68.33333333333333,-138.4920634920635,35.95238095238095,-130.55555555555554,44.047619047619044,-201.66666666666666,36.74603174603175,-5.952380952380952,33.57142857142857,-128.96825396825395,35.95238095238095,325.0,-174.84126984126982,171.19047619047618,-1.349206349206349,159.28571428571428,325.0,-7.5396825396825395,-12.3015873015873,-321.8253968253968
-177.06349206349205,-66.9047619047619,23.095238095238095,-200.55555555555554,67.38095238095238,-136.9047619047619,27.539682539682538,-128.96825396825395,43.41269841269841,-165.0,36.11111111111111,-4.841269841269841,25.79365079365079,-127.38095238095238,27.063492063492063,325.0,-175.95238095238093,169.12698412698413,-1.0317460317460316,157.2222222222222,325.0,-0.07936507936507936,-0.07936507936507936,-321.8253968253968
-177.06349206349205,-66.9047619047619,23.095238095238095,-200.55555555555554,67.38095238095238,-136.9047619047619,27.539682539682538,-128.96825396825395,43.41269841269841,-165.0,36.11111111111111,-4.841269841269841,25.79365079365079,-127.38095238095238,27.063492063492063,325.0,-175.95238095238093,169.12698412698413,-1.0317460317460316,157.2222222222222,325.0,-0.07936507936507936,-0.07936507936507936,-321.8253968253968
-178.17460317460316,-65.47619047619047,16.428571428571427,-196.26984126984127,65.95238095238095,-134.04761904761904,21.984126984126984,-126.26984126984127,42.460317460317455,-325.0,35.317460317460316,-4.0476190476190474,19.92063492063492,-124.68253968253967,21.825396825396822,325.0,-177.85714285714286,165.63492063492063,0.23809523809523808,154.2063492063492,325.0,-7.063492063492063,-12.46031746031746,-321.8253968253968
-178.17460317460316,-65.47619047619047,16.428571428571427,-196.26984126984127,65.95238095238095,-134.04761904761904,21.984126984126984,-126.26984126984127,42.460317460317455,-325.0,35.317460317460316,-4.0476190476190474,19.92063492063492,-124.68253968253967,21.825396825396822,325.0,-177.85714285714286,165.63492063492063,0.23809523809523808,154.2063492063492,325.0,-7.063492063492063,-12.46031746031746,-321.8253968253968
-179.12698412698413,-64.36507936507937,18.65079365079365,-192.77777777777777,65.0,-131.984126984127,24.047619047619047,-124.2063492063492,41.507936507936506,-325.0,34.682539682539684,-4.682539682539682,21.03174603174603,-122.46031746031746,23.095238095238095,325.0,-178.96825396825395,163.09523809523807,-0.5555555555555556,151.66666666666666,325.0,-7.698412698412698,-12.46031746031746,-321.8253968253968
-179.12698412698413,-64.36507936507937,18.65079365079365,-192.77777777777777,65.0,-131.984126984127,24.047619047619047,-124.2063492063492,41.507936507936506,-325.0,34.682539682539684,-4.682539682539682,21.03174603174603,-122.46031746031746,23.095238095238095,325.0,-178.96825396825395,163.09523809523807,-0.5555555555555556,151.66666666666666,325.0,-7.698412698412698,-12.46031746031746,-321.8253968253968
-180.3968253968254,-62.460317460317455,7.222222222222221,-186.9047619047619,62.93650793650793,-128.17460317460316,11.666666666666666,-120.87301587301586,40.55555555555555,-325.0,33.73015873015873,1.349206349206349,9.920634920634921,-118.8095238095238,11.507936507936508,325.0,-180.87301587301587,158.33333333333331,4.523809523809524,147.06349206349205,325.0,0.07936507936507936,-0.23809523809523808,-166.26984126984127
-180.3968253968254,-62.460317460317455,7.222222222222221,-186.9047619047619,62.93650793650793,-128.17460317460316,11.666666666666666,-120.87301587301586,40.55555555555555,-325.0,33.73015873015873,1.349206349206349,9.920634920634921,-118.8095238095238,11.507936507936508,325.0,-180.87301587301587,158.33333333333331,4.523809523809524,147.06349206349205,325.0,0.07936507936507936,-0.23809523809523808,-166.26984126984127
-181.03174603174602,-61.666666666666664,-1.984126984126984,-183.7301587301587,61.666666666666664,-125.95238095238095,2.46031746031746,-118.96825396825396,39.92063492063492,-325.0,33.25396825396825,0.23809523809523808,0.23809523809523808,-116.74603174603173,2.46031746031746,325.0,-181.984126984127,155.79365079365078,3.73015873015873,144.52380952380952,325.0,0.7142857142857142,0.23809523809523808,-166.26984126984127
-181.03174603174602,-61.666666666666664,-1.984126984126984,-183.7301587301587,61.666666666666664,-125.95238095238095,2.46031746031746,-118.96825396825396,39.92063492063492,-325.0,33.25396825396825,0.23809523809523808,0.23809523809523808,-116.74603174603173,2.46031746031746,325.0,-181.984126984127,155.79365079365078,3.73015873015873,144.52380952380952,325.0,0.7142857142857142,0.23809523809523808,-166.26984126984127
-181.8253968253968,-60.238095238095234,-11.507936507936508,-179.76190476190476,60.39682539682539,-123.57142857142857,-8.015873015873016,-116.58730158730158,38.96825396825397,-325.0,32.460317460317455,-0.5555555555555556,-11.031746031746032,-114.36507936507935,-9.444444444444445,325.0,-183.25396825396825,152.61904761904762,1.6666666666666665,141.5079365079365,325.0,8.015873015873016,10.873015873015872,-166.26984126984127
-181.8253968253968,-60.238095238095234,-11.507936507936508,-179.76190476190476,60.39682539682539,-123.57142857142857,-8.015873015873016,-116.58730158730158,38.96825396825397,-325.0,32.460317460317455,-0.5555555555555556,-11.031746031746032,-114.36507936507935,-9.444444444444445,325.0,-183.25396825396825,152.61904761904762,1.6666666666666665,141.5079365079365,325.0,8.015873015873016,10.873015873015872,-166.26984126984127
-182.46031746031744,-59.285714285714285,-30.555555555555554,-176.58730158730157,59.44444444444444,-121.66666666666666,-27.38095238095238,-114.84126984126983,38.33333333333333,-144.52380952380952,31.666666666666664,-4.0476190476190474,-31.03174603174603,-112.30158730158729,-28.809523809523807,325.0,-184.04761904761904,150.07936507936506,-1.8253968253968254,139.12698412698413,325.0,8.174603174603174,11.031746031746032,-166.26984126984127
-182.46031746031744,-59.285714285714285,-30.555555555555554,-176.58730158730157,59.44444444444444,-121.66666666666666,-27.38095238095238,-114.84126984126983,38.33333333333333,-144.52380952380952,31.666666666666664,-4.0476190476190474,-31.03174603174603,-112.30158730158729,-28.809523809523807,325.0,-184.04761904761904,150.07936507936506,-1.8253968253968254,139.12698412698413,325.0,8.174603174603174,11.031746031746032,-166.26984126984127
-182.77777777777777,-58.17460317460317,-53.25396825396825,-172.3015873015873,58.17460317460317,-118.96825396825396,-47.698412698412696,-112.46031746031746,37.53968253968254,-322.6190476190476,31.19047619047619,-3.095238095238095,-52.14285714285714,-109.92063492063491,-46.74603174603175,325.0,-185.0,147.06349206349205,-1.349206349206349,136.42857142857142,325.0,6.746031746031746,7.857142857142857,-166.26984126984127
-182.77777777777777,-58.17460317460317,-53.25396825396825,-172.3015873015873,58.17460317460317,-118.96825396825396,-47.698412698412696,-112.46031746031746,37.53968253968254,-322.6190476190476,31.19047619047619,-3.095238095238095,-52.14285714285714,-109.92063492063491,-46.74603174603175,325.0,-185.0,147.06349206349205,-1.349206349206349,136.42857142857142,325.0,6.746031746031746,7.857142857142857,-166.26984126984127
-183.25396825396825,-56.904761904761905,-14.365079365079364,-168.4920634920635,56.904761904761905,-116.58730158730158,-11.825396825396824,-110.23809523809523,36.74603174603175,-325.0,30.396825396825395,-3.571428571428571,-13.571428571428571,-107.53968253968253,-14.206349206349206,325.0,-185.63492063492063,143.88888888888889,-0.07936507936507936,133.4126984126984,325.0,2.7777777777777777,4.682539682539682,-321.8253968253968
-183.25396825396825,-56.904761904761905,-14.365079365079364,-168.4920634920635,56.904761904761905,-116.58730158730158,-11.825396825396824,-110.23809523809523,36.74603174603175,-325.0,30.396825396825395,-3.571428571428571,-13.571428571428571,-107.53968253968253,-14.206349206349206,325.0,-185.63492063492063,143.88888888888889,-0.07936507936507936,133.4126984126984,325.0,2.7777777777777777,4.682539682539682,-321.8253968253968
-183.25396825396825,-56.74603174603174,-31.349206349206348,-167.69841269841268,56.58730158730158,-115.95238095238095,-31.98412698412698,-109.76190476190476,36.58730158730159,-325.0,30.396825396825395,-0.07936507936507936,-35.0,-107.06349206349206,-34.682539682539684,325.0,-185.79365079365078,143.4126984126984,2.7777777777777777,132.77777777777777,325.0,9.920634920634921,16.11111111111111,-321.8253968253968
-183.25396825396825,-56.74603174603174,-31.349206349206348,-167.69841269841268,56.58730158730158,-115.95238095238095,-31.98412698412698,-109.76190476190476,36.58730158730159,-325.0,30.396825396825395,-0.07936507936507936,-35.0,-107.06349206349206,-34.682539682539684,325.0,-185.79365079365078,143.4126984126984,2.7777777777777777,132.77777777777777,325.0,9.920634920634921,16.11111111111111,-321.8253968253968
-183.57142857142856,-54.52380952380952,-54.841269841269835,-161.5079365079365,54.52380952380952,-111.98412698412697,-53.25396825396825,-105.79365079365078,35.15873015873016,-294.68253968253964,29.126984126984127,1.6666666666666665,-58.01587301587301,-103.09523809523809,-54.841269841269835,320.07936507936506,-186.74603174603175,138.33333333333331,3.4126984126984126,128.015873015873,325.0,8.333333333333332,11.19047619047619,-321.8253968253968
-183.57142857142856,-54.52380952380952,-54.841269841269835,-161.5079365079365,54.52380952380952,-111.98412698412697,-53.25396825396825,-105.79365079365078,35.15873015873016,-294.68253968253964,29.126984126984127,1.6666666666666665,-58.01587301587301,-103.09523809523809,-54.841269841269835,320.07936507936506,-186.74603174603175,138.33333333333331,3.4126984126984126,128.015873015873,325.0,8.333333333333332,11.19047619047619,-321.8253968253968
-183.57142857142856,-54.36507936507936,-64.68253968253968,-160.7142857142857,54.2063492063492,-111.5079365079365,-61.507936507936506,-105.47619047619047,35.15873015873016,-302.46031746031747,28.96825396825397,3.73015873015873,-67.53968253968253,-102.61904761904762,-61.82539682539682,318.8095238095238,-186.74603174603175,137.69841269841268,4.365079365079365,127.53968253968253,325.0,5.158730158730158,6.111111111111111,-321.8253968253968
-183.57142857142856,-54.36507936507936,-64.68253968253968,-160.7142857142857,54.2063492063492,-111.5079365079365,-61.507936507936506,-105.47619047619047,35.15873015873016,-302.46031746031747,28.96825396825397,3.73015873015873,-67.53968253968253,-102.61904761904762,-61.82539682539682,318.8095238095238,-186.74603174603175,137.69841269841268,4.365079365079365,127.53968253968253,325.0,5.158730158730158,6.111111111111111,-321.8253968253968
-183.57142857142856,-52.77777777777777,-139.12698412698413,-155.0,52.14285714285714,-107.6984126984127,-135.95238095238093,-102.14285714285714,33.73015873015873,325.0,28.174603174603174,3.571428571428571,-143.4126984126984,-98.96825396825396,-136.9047619047619,308.4920634920635,-187.2222222222222,133.25396825396825,4.841269841269841,123.09523809523809,325.0,3.888888888888889,5.158730158730158,-321.8253968253968
-183.57142857142856,-52.77777777777777,-139.12698412698413,-155.0,52.14285714285714,-107.6984126984127,-135.95238095238093,-102.14285714285714,33.73015873015873,325.0,28.174603174603174,3.571428571428571,-143.4126984126984,-98.96825396825396,-136.9047619047619,308.4920634920635,-187.2222222222222,133.25396825396825,4.841269841269841,123.09523809523809,325.0,3.888888888888889,5.158730158730158,-321.8253968253968
-183.88888888888889,-51.507936507936506,-118.01587301587301,-151.8253968253968,51.19047619047619,-105.63492063492063,-117.06349206349206,-100.07936507936508,33.095238095238095,325.0,27.38095238095238,-4.365079365079365,-119.44444444444444,-97.22222222222221,-119.92063492063491,301.8253968253968,-187.69841269841268,130.3968253968254,-1.349206349206349,120.39682539682539,325.0,3.888888888888889,5.476190476190476,-166.26984126984127
-183.88888888888889,-51.507936507936506,-118.01587301587301,-151.8253968253968,51.19047619047619,-105.63492063492063,-117.06349206349206,-100.07936507936508,33.095238095238095,325.0,27.38095238095238,-4.365079365079365,-119.44444444444444,-97.22222222222221,-119.92063492063491,301.8253968253968,-187.69841269841268,130.3968253968254,-1.349206349206349,120.39682539682539,325.0,3.888888888888889,5.476190476190476,-166.26984126984127
-183.7301587301587,-50.87301587301587,-114.68253968253967,-149.9206349206349,50.55555555555555,-104.2063492063492,-110.39682539682539,-98.80952380952381,32.3015873015873,325.0,27.063492063492063,-5.952380952380952,-118.65079365079364,-95.79365079365078,-112.14285714285714,298.3333333333333,-187.85714285714283,128.96825396825395,-5.317460317460317,119.12698412698413,325.0,5.158730158730158,5.634920634920634,-166.26984126984127
-183.7301587301587,-50.87301587301587,-114.68253968253967,-149.9206349206349,50.55555555555555,-104.2063492063492,-110.39682539682539,-98.80952380952381,32.3015873015873,325.0,27.063492063492063,-5.952380952380952,-118.65079365079364,-95.79365079365078,-112.14285714285714,298.3333333333333,-187.85714285714283,128.96825396825395,-5.317460317460317,119.12698412698413,325.0,5.158730158730158,5.634920634920634,-166.26984126984127
-209.44444444444443,-49.6031746031746,-116.9047619047619,-145.3174603174603,48.96825396825397,-101.34920634920634,-115.47619047619047,-96.1111111111111,31.507936507936506,307.69841269841265,26.428571428571427,3.73015873015873,-121.82539682539682,-93.09523809523809,-117.53968253968253,289.4444444444444,-187.53968253968253,125.15873015873015,4.682539682539682,115.47619047619047,325.0,7.698412698412698,10.396825396825395,-166.26984126984127
-209.44444444444443,-49.6031746031746,-116.9047619047619,-145.3174603174603,48.96825396825397,-101.34920634920634,-115.47619047619047,-96.1111111111111,31.507936507936506,307.69841269841265,26.428571428571427,3.73015873015873,-121.82539682539682,-93.09523809523809,-117.53968253968253,289.4444444444444,-187.53968253968253,125.15873015873015,4.682539682539682,115.47619047619047,325.0,7.698412698412698,10.396825396825395,-166.26984126984127
-190.23809523809524,-49.285714285714285,-109.76190476190476,-144.36507936507937,48.80952380952381,-100.87301587301587,-106.74603174603175,-95.79365079365078,31.507936507936506,290.55555555555554,26.26984126984127,4.523809523809524,-115.31746031746032,-92.46031746031746,-108.33333333333333,288.17460317460313,-187.38095238095238,124.52380952380952,5.158730158730158,115.0,325.0,4.2063492063492065,4.523809523809524,-166.26984126984127
-190.23809523809524,-49.285714285714285,-109.76190476190476,-144.36507936507937,48.80952380952381,-100.87301587301587,-106.74603174603175,-95.79365079365078,31.507936507936506,290.55555555555554,26.26984126984127,4.523809523809524,-115.31746031746032,-92.46031746031746,-108.33333333333333,288.17460317460313,-187.38095238095238,124.52380952380952,5.158730158730158,115.0,325.0,4.2063492063492065,4.523809523809524,-166.26984126984127
-196.58730158730157,-48.49206349206349,-88.33333333333333,-141.8253968253968,47.857142857142854,-99.12698412698413,-85.31746031746032,-94.2063492063492,31.03174603174603,208.33333333333331,25.79365079365079,1.984126984126984,-93.73015873015872,-90.87301587301587,-86.9047619047619,283.57142857142856,-187.53968253968253,122.46031746031746,2.619047619047619,112.93650793650794,325.0,3.73015873015873,3.73015873015873,-166.26984126984127
-196.58730158730157,-48.49206349206349,-88.33333333333333,-141.8253968253968,47.857142857142854,-99.12698412698413,-85.31746031746032,-94.2063492063492,31.03174603174603,208.33333333333331,25.79365079365079,1.984126984126984,-93.73015873015872,-90.87301587301587,-86.9047619047619,283.57142857142856,-187.53968253968253,122.46031746031746,2.619047619047619,112.93650793650794,325.0,3.73015873015873,3.73015873015873,-166.26984126984127
-202.93650793650792,-47.698412698412696,-66.9047619047619,-139.28571428571428,47.06349206349206,-97.38095238095238,-63.888888888888886,-92.46031746031746,30.555555555555554,126.26984126984127,25.476190476190474,-0.5555555555555556,-71.98412698412697,-89.28571428571428,-65.47619047619047,278.968253968254,-187.69841269841268,120.55555555555554,0.07936507936507936,111.03174603174602,325.0,3.4126984126984126,3.095238095238095,-321.8253968253968
-202.93650793650792,-47.698412698412696,-66.9047619047619,-139.28571428571428,47.06349206349206,-97.38095238095238,-63.888888888888886,-92.46031746031746,30.555555555555554,126.26984126984127,25.476190476190474,-0.5555555555555556,-71.98412698412697,-89.28571428571428,-65.47619047619047,278.968253968254,-187.69841269841268,120.55555555555554,0.07936507936507936,111.03174603174602,325.0,3.4126984126984126,3.095238095238095,-321.8253968253968
-273.57142857142856,-46.42857142857142,-41.03174603174603,-135.15873015873015,45.79365079365079,-94.68253968253968,-38.49206349206349,-89.92063492063491,29.6031746031746,-325.0,24.523809523809522,6.587301587301587,-45.476190476190474,-86.9047619047619,-41.82539682539682,270.87301587301585,-187.06349206349205,117.06349206349206,8.015873015873016,107.85714285714285,325.0,6.587301587301587,10.079365079365079,-321.8253968253968
-273.57142857142856,-46.42857142857142,-41.03174603174603,-135.15873015873015,45.79365079365079,-94.68253968253968,-38.49206349206349,-89.92063492063491,29.6031746031746,-325.0,24.523809523809522,6.587301587301587,-45.476190476190474,-86.9047619047619,-41.82539682539682,270.87301587301585,-187.06349206349205,117.06349206349206,8.015873015873016,107.85714285714285,325.0,6.587301587301587,10.079365079365079,-321.8253968253968
-273.57142857142856,-45.79365079365079,-42.460317460317455,-133.4126984126984,45.15873015873016,-93.4126984126984,-41.507936507936506,-88.80952380952381,29.126984126984127,-0.07936507936507936,24.206349206349206,2.142857142857143,-47.22222222222222,-85.79365079365078,-45.15873015873016,267.38095238095235,-186.9047619047619,115.63492063492063,4.841269841269841,106.42857142857142,325.0,-0.3968253968253968,-0.7142857142857142,-321.8253968253968
-273.57142857142856,-45.79365079365079,-42.460317460317455,-133.4126984126984,45.15873015873016,-93.4126984126984,-41.507936507936506,-88.80952380952381,29.126984126984127,-0.07936507936507936,24.206349206349206,2.142857142857143,-47.22222222222222,-85.79365079365078,-45.15873015873016,267.38095238095235,-186.9047619047619,115.63492063492063,4.841269841269841,106.42857142857142,325.0,-0.3968253968253968,-0.7142857142857142,-321.8253968253968
-283.4126984126984,-45.15873015873016,-81.34920634920634,-131.19047619047618,44.36507936507936,-91.82539682539682,-82.77777777777777,-87.53968253968253,28.65079365079365,325.0,23.88888888888889,-0.07936507936507936,-89.92063492063491,-84.04761904761904,-86.9047619047619,262.9365079365079,-186.58730158730157,113.73015873015872,4.0476190476190474,104.52380952380952,325.0,-0.873015873015873,-0.873015873015873,-321.8253968253968
-283.4126984126984,-45.15873015873016,-81.34920634920634,-131.19047619047618,44.36507936507936,-91.82539682539682,-82.77777777777777,-87.53968253968253,28.65079365079365,325.0,23.88888888888889,-0.07936507936507936,-89.92063492063491,-84.04761904761904,-86.9047619047619,262.9365079365079,-186.58730158730157,113.73015873015872,4.0476190476190474,104.52380952380952,325.0,-0.873015873015873,-0.873015873015873,-321.8253968253968
-241.8253968253968,-44.68253968253968,-115.0,-129.9206349206349,43.888888888888886,-91.19047619047619,-114.84126984126983,-86.9047619047619,28.65079365079365,325.0,23.730158730158728,1.1904761904761905,-126.1111111111111,-83.25396825396825,-117.6984126984127,260.7142857142857,-186.26984126984127,112.77777777777777,4.365079365079365,103.73015873015872,325.0,2.142857142857143,2.9365079365079363,-321.8253968253968
-241.8253968253968,-44.68253968253968,-115.0,-129.9206349206349,43.888888888888886,-91.19047619047619,-114.84126984126983,-86.9047619047619,28.65079365079365,325.0,23.730158730158728,1.1904761904761905,-126.1111111111111,-83.25396825396825,-117.6984126984127,260.7142857142857,-186.26984126984127,112.77777777777777,4.365079365079365,103.73015873015872,325.0,2.142857142857143,2.9365079365079363,-321.8253968253968
-295.6349206349206,-43.41269841269841,-89.92063492063491,-125.95238095238095,42.77777777777778,-88.65079365079364,-89.28571428571428,-84.36507936507937,27.539682539682538,247.85714285714283,22.936507936507937,0.23809523809523808,-97.06349206349206,-81.03174603174602,-92.46031746031746,253.25396825396825,-186.11111111111111,109.6031746031746,4.2063492063492065,100.71428571428571,325.0,6.111111111111111,8.809523809523808,-166.26984126984127
-295.6349206349206,-43.41269841269841,-89.92063492063491,-125.95238095238095,42.77777777777778,-88.65079365079364,-89.28571428571428,-84.36507936507937,27.539682539682538,247.85714285714283,22.936507936507937,0.23809523809523808,-97.06349206349206,-81.03174603174602,-92.46031746031746,253.25396825396825,-186.11111111111111,109.6031746031746,4.2063492063492065,100.71428571428571,325.0,6.111111111111111,8.809523809523808,-166.26984126984127
-295.6349206349206,-42.77777777777778,-87.6984126984127,-124.36507936507935,42.14285714285714,-87.38095238095238,-87.85714285714285,-83.25396825396825,27.38095238095238,247.85714285714283,22.619047619047617,0.07936507936507936,-95.0,-79.92063492063491,-92.30158730158729,250.07936507936506,-185.63492063492063,108.17460317460316,5.0,99.28571428571428,325.0,0.07936507936507936,-0.5555555555555556,-166.26984126984127
-295.6349206349206,-42.77777777777778,-87.6984126984127,-124.36507936507935,42.14285714285714,-87.38095238095238,-87.85714285714285,-83.25396825396825,27.38095238095238,247.85714285714283,22.619047619047617,0.07936507936507936,-95.0,-79.92063492063491,-92.30158730158729,250.07936507936506,-185.63492063492063,108.17460317460316,5.0,99.28571428571428,325.0,0.07936507936507936,-0.5555555555555556,-166.26984126984127
-325.0,-41.98412698412698,-89.6031746031746,-121.66666666666666,41.19047619047619,-85.63492063492063,-88.65079365079364,-81.66666666666666,26.746031746031743,325.0,22.142857142857142,4.0476190476190474,-97.06349206349206,-78.17460317460316,-92.61904761904762,244.68253968253967,-185.0,105.95238095238095,7.698412698412698,97.22222222222221,325.0,7.063492063492063,9.126984126984127,-166.26984126984127
-325.0,-41.98412698412698,-89.6031746031746,-121.66666666666666,41.19047619047619,-85.63492063492063,-88.65079365079364,-81.66666666666666,26.746031746031743,325.0,22.142857142857142,4.0476190476190474,-97.06349206349206,-78.17460317460316,-92.61904761904762,244.68253968253967,-185.0,105.95238095238095,7.698412698412698,97.22222222222221,325.0,7.063492063492063,9.126984126984127,-166.26984126984127
-325.0,-41.507936507936506,-118.01587301587301,-119.92063492063491,40.55555555555555,-84.52380952380952,-119.28571428571428,-80.87301587301587,26.587301587301585,325.0,21.825396825396822,5.476190476190476,-123.25396825396825,-77.06349206349206,-120.39682539682539,241.66666666666666,-184.36507936507937,104.52380952380952,9.603174603174603,95.95238095238095,325.0,-13.095238095238095,-18.96825396825397,-166.26984126984127
-325.0,-41.507936507936506,-118.01587301587301,-119.92063492063491,40.55555555555555,-84.52380952380952,-119.28571428571428,-80.87301587301587,26.587301587301585,325.0,21.825396825396822,5.476190476190476,-123.25396825396825,-77.06349206349206,-120.39682539682539,241.66666666666666,-184.36507936507937,104.52380952380952,9.603174603174603,95.95238095238095,325.0,-13.095238095238095,-18.96825396825397,-166.26984126984127
-325.0,-40.714285714285715,-101.34920634920634,-117.22222222222221,39.76190476190476,-83.09523809523809,-101.34920634920634,-79.28571428571428,25.79365079365079,325.0,19.92063492063492,8.968253968253968,-110.23809523809523,-75.47619047619047,-105.79365079365078,236.58730158730157,-183.57142857142856,102.46031746031746,12.3015873015873,94.04761904761904,325.0,6.111111111111111,9.126984126984127,-166.26984126984127
-325.0,-40.714285714285715,-101.34920634920634,-117.22222222222221,39.76190476190476,-83.09523809523809,-101.34920634920634,-79.28571428571428,25.79365079365079,325.0,19.92063492063492,8.968253968253968,-110.23809523809523,-75.47619047619047,-105.79365079365078,236.58730158730157,-183.57142857142856,102.46031746031746,12.3015873015873,94.04761904761904,325.0,6.111111111111111,9.126984126984127,-166.26984126984127
-325.0,-40.079365079365076,-85.95238095238095,-115.47619047619047,39.285714285714285,-81.98412698412697,-85.63492063492063,-78.17460317460316,25.476190476190474,325.0,13.412698412698411,3.571428571428571,-93.4126984126984,-74.52380952380952,-91.19047619047619,233.7301587301587,-183.25396825396825,101.19047619047619,7.698412698412698,92.93650793650794,325.0,0.23809523809523808,0.07936507936507936,-321.8253968253968
-325.0,-40.079365079365076,-85.95238095238095,-115.47619047619047,39.285714285714285,-81.98412698412697,-85.63492063492063,-78.17460317460316,25.476190476190474,325.0,13.412698412698411,3.571428571428571,-93.4126984126984,-74.52380952380952,-91.19047619047619,233.7301587301587,-183.25396825396825,101.19047619047619,7.698412698412698,92.93650793650794,325.0,0.23809523809523808,0.07936507936507936,-321.8253968253968
-325.0,-39.285714285714285,-96.58730158730158,-113.25396825396825,38.33333333333333,-80.23809523809523,-96.9047619047619,-76.74603174603175,25.0,325.0,1.507936507936508,2.619047619047619,-105.31746031746032,-72.93650793650794,-101.5079365079365,228.65079365079364,-182.61904761904762,99.12698412698413,5.634920634920634,90.87301587301587,325.0,4.841269841269841,8.809523809523808,-321.8253968253968
-325.0,-39.285714285714285,-96.58730158730158,-113.25396825396825,38.33333333333333,-80.23809523809523,-96.9047619047619,-76.74603174603175,25.0,325.0,1.507936507936508,2.619047619047619,-105.31746031746032,-72.93650793650794,-101.5079365079365,228.65079365079364,-182.61904761904762,99.12698412698413,5.634920634920634,90.87301587301587,325.0,4.841269841269841,8.809523809523808,-321.8253968253968
-143.57142857142856,-48.17460317460317,-85.31746031746032,-91.66666666666666,-142.3015873015873,114.04761904761904,-39.12698412698413,-23.88888888888889,113.88888888888889,-115.0,-71.19047619047619,103.57142857142857,33.095238095238095,24.365079365079364,-175.79365079365078,154.04761904761904,61.98412698412698,41.03174603174603,156.26984126984127,20.873015873015873,1.1904761904761905,-24.84126984126984,-171.03174603174602,-321.8253968253968
-143.57142857142856,-48.17460317460317,-85.31746031746032,-91.66666666666666,-142.3015873015873,114.04761904761904,-39.12698412698413,-23.88888888888889,113.88888888888889,-115.0,-71.19047619047619,103.57142857142857,33.095238095238095,24.365079365079364,-175.79365079365078,154.04761904761904,61.98412698412698,41.03174603174603,156.26984126984127,20.873015873015873,1.1904761904761905,-24.84126984126984,-171.03174603174602,-321.8253968253968
-325.0,-36.74603174603175,4.682539682539682,-105.31746031746032,35.63492063492063,-75.0,5.317460317460317,-71.66666666666666,23.253968253968253,-325.0,-33.57142857142857,-1.1904761904761905,-2.9365079365079363,-67.85714285714285,-0.23809523809523808,213.57142857142856,-179.76190476190476,92.77777777777777,1.1904761904761905,84.68253968253968,325.0,5.158730158730158,8.968253968253968,-321.8253968253968
-325.0,-36.74603174603175,4.682539682539682,-105.31746031746032,35.63492063492063,-75.0,5.317460317460317,-71.66666666666666,23.253968253968253,-325.0,-33.57142857142857,-1.1904761904761905,-2.9365079365079363,-67.85714285714285,-0.23809523809523808,213.57142857142856,-179.76190476190476,92.77777777777777,1.1904761904761905,84.68253968253968,325.0,5.158730158730158,8.968253968253968,-321.8253968253968
-325.0,-36.11111111111111,-11.507936507936508,-103.73015873015872,35.15873015873016,-73.73015873015872,-11.825396825396824,-70.39682539682539,20.396825396825395,-325.0,-41.34920634920635,-0.07936507936507936,-16.11111111111111,-66.9047619047619,-16.904761904761905,209.9206349206349,-178.96825396825395,91.19047619047619,3.4126984126984126,83.25396825396825,325.0,-7.063492063492063,-8.809523809523808,-321.8253968253968
-325.0,-36.11111111111111,-11.507936507936508,-103.73015873015872,35.15873015873016,-73.73015873015872,-11.825396825396824,-70.39682539682539,20.396825396825395,-325.0,-41.34920634920635,-0.07936507936507936,-16.11111111111111,-66.9047619047619,-16.904761904761905,209.9206349206349,-178.96825396825395,91.19047619047619,3.4126984126984126,83.25396825396825,325.0,-7.063492063492063,-8.809523809523808,-321.8253968253968
-325.0,-35.476190476190474,-0.7142857142857142,-101.66666666666666,34.52380952380952,-72.46031746031746,-0.3968253968253968,-69.28571428571428,11.19047619047619,-325.0,-48.80952380952381,-1.349206349206349,-5.476190476190476,-65.63492063492063,-6.904761904761904,206.42857142857142,-178.015873015873,89.6031746031746,2.142857142857143,81.82539682539682,325.0,-6.26984126984127,-9.126984126984127,-166.26984126984127
-325.0,-35.476190476190474,-0.7142857142857142,-101.66666666666666,34.52380952380952,-72.46031746031746,-0.3968253968253968,-69.28571428571428,11.19047619047619,-325.0,-48.80952380952381,-1.349206349206349,-5.476190476190476,-65.63492063492063,-6.904761904761904,206.42857142857142,-178.015873015873,89.6031746031746,2.142857142857143,81.82539682539682,325.0,-6.26984126984127,-9.126984126984127,-166.26984126984127
-325.0,-35.0,-7.222222222222221,-99.28571428571428,33.888888888888886,-70.87301587301587,-4.0476190476190474,-67.85714285714285,-1.1904761904761905,171.984126984127,-57.698412698412696,-2.9365079365079363,-13.571428571428571,-64.36507936507937,-16.428571428571427,202.46031746031744,-177.2222222222222,87.85714285714285,1.1904761904761905,80.39682539682539,325.0,0.5555555555555556,0.3968253968253968,-166.26984126984127
-325.0,-35.0,-7.222222222222221,-99.28571428571428,33.888888888888886,-70.87301587301587,-4.0476190476190474,-67.85714285714285,-1.1904761904761905,171.984126984127,-57.698412698412696,-2.9365079365079363,-13.571428571428571,-64.36507936507937,-16.428571428571427,202.46031746031744,-177.2222222222222,87.85714285714285,1.1904761904761905,80.39682539682539,325.0,0.5555555555555556,0.3968253968253968,-166.26984126984127
-325.0,-34.682539682539684,-59.6031746031746,-98.17460317460316,33.41269841269841,-69.92063492063491,-29.285714285714285,-67.22222222222221,-8.015873015873016,248.49206349206347,-62.77777777777777,0.23809523809523808,-64.84126984126983,-63.57142857142857,-66.11111111111111,199.9206349206349,-176.58730158730157,86.74603174603175,3.73015873015873,79.28571428571428,325.0,-5.476190476190476,-8.333333333333332,-166.26984126984127
-325.0,-34.682539682539684,-59.6031746031746,-98.17460317460316,33.41269841269841,-69.92063492063491,-29.285714285714285,-67.22222222222221,-8.015873015873016,248.49206349206347,-62.77777777777777,0.23809523809523808,-64.84126984126983,-63.57142857142857,-66.11111111111111,199.9206349206349,-176.58730158730157,86.74603174603175,3.73015873015873,79.28571428571428,325.0,-5.476190476190476,-8.333333333333332,-166.26984126984127
-325.0,-33.57142857142857,-91.98412698412697,-95.15873015873015,32.460317460317455,-68.01587301587301,65.47619047619047,-65.31746031746032,-23.57142857142857,325.0,-74.36507936507937,1.349206349206349,-98.65079365079364,-61.82539682539682,-98.01587301587301,194.04761904761904,-175.15873015873015,84.2063492063492,3.571428571428571,76.9047619047619,325.0,-0.873015873015873,-0.23809523809523808,-166.26984126984127
-325.0,-33.57142857142857,-91.98412698412697,-95.15873015873015,32.460317460317455,-68.01587301587301,65.47619047619047,-65.31746031746032,-23.57142857142857,325.0,-74.36507936507937,1.349206349206349,-98.65079365079364,-61.82539682539682,-98.01587301587301,194.04761904761904,-175.15873015873015,84.2063492063492,3.571428571428571,76.9047619047619,325.0,-0.873015873015873,-0.23809523809523808,-166.26984126984127
-325.0,-32.93650793650794,-90.55555555555556,-92.93650793650794,31.666666666666664,-66.9047619047619,133.4126984126984,-64.2063492063492,-34.047619047619044,325.0,-82.3015873015873,-4.2063492063492065,-94.84126984126983,-60.39682539682539,-95.47619047619047,189.76190476190476,-173.88888888888889,82.46031746031746,-1.1904761904761905,75.31746031746032,325.0,-5.634920634920634,-7.857142857142857,-166.26984126984127
-325.0,-32.93650793650794,-90.55555555555556,-92.93650793650794,31.666666666666664,-66.9047619047619,133.4126984126984,-64.2063492063492,-34.047619047619044,325.0,-82.3015873015873,-4.2063492063492065,-94.84126984126983,-60.39682539682539,-95.47619047619047,189.76190476190476,-173.88888888888889,82.46031746031746,-1.1904761904761905,75.31746031746032,325.0,-5.634920634920634,-7.857142857142857,-166.26984126984127
-325.0,-31.98412698412698,-94.84126984126983,-90.55555555555556,30.87301587301587,-65.15873015873015,322.1428571428571,-62.61904761904761,-45.79365079365079,325.0,-91.19047619047619,-2.7777777777777777,-101.98412698412697,-58.8095238095238,-100.71428571428571,185.0,-172.61904761904762,80.55555555555556,-1.1904761904761905,73.4126984126984,325.0,-7.5396825396825395,-11.19047619047619,-321.8253968253968
-325.0,-31.98412698412698,-94.84126984126983,-90.55555555555556,30.87301587301587,-65.15873015873015,322.1428571428571,-62.61904761904761,-45.79365079365079,325.0,-91.19047619047619,-2.7777777777777777,-101.98412698412697,-58.8095238095238,-100.71428571428571,185.0,-172.61904761904762,80.55555555555556,-1.1904761904761905,73.4126984126984,325.0,-7.5396825396825395,-11.19047619047619,-321.8253968253968
-162.46031746031744,-31.507936507936506,92.46031746031746,-89.44444444444444,30.396825396825395,-64.2063492063492,173.25396825396825,-61.666666666666664,-51.507936507936506,325.0,-95.0,-2.7777777777777777,-76.58730158730158,-58.01587301587301,-77.22222222222221,182.77777777777777,-171.984126984127,79.44444444444444,0.5555555555555556,72.46031746031746,325.0,1.984126984126984,2.7777777777777777,-321.8253968253968
-162.46031746031744,-31.507936507936506,92.46031746031746,-89.44444444444444,30.396825396825395,-64.2063492063492,173.25396825396825,-61.666666666666664,-51.507936507936506,325.0,-95.0,-2.7777777777777777,-76.58730158730158,-58.01587301587301,-77.22222222222221,182.77777777777777,-171.984126984127,79.44444444444444,0.5555555555555556,72.46031746031746,325.0,1.984126984126984,2.7777777777777777,-321.8253968253968
-325.0,-30.555555555555554,-115.31746031746032,-85.95238095238095,29.444444444444443,-62.14285714285714,293.73015873015873,-59.44444444444444,-67.22222222222221,325.0,-106.74603174603175,1.8253968253968254,-121.5079365079365,-55.95238095238095,-122.14285714285714,175.79365079365078,-169.60317460317458,76.42857142857143,3.888888888888889,69.6031746031746,325.0,6.746031746031746,10.238095238095237,-321.8253968253968
-325.0,-30.555555555555554,-115.31746031746032,-85.95238095238095,29.444444444444443,-62.14285714285714,293.73015873015873,-59.44444444444444,-67.22222222222221,325.0,-106.74603174603175,1.8253968253968254,-121.5079365079365,-55.95238095238095,-122.14285714285714,175.79365079365078,-169.60317460317458,76.42857142857143,3.888888888888889,69.6031746031746,325.0,6.746031746031746,10.238095238095237,-321.8253968253968
-325.0,-30.238095238095237,-126.9047619047619,-84.68253968253968,28.96825396825397,-61.507936507936506,325.0,-58.8095238095238,-72.3015873015873,325.0,-110.39682539682539,1.1904761904761905,-132.77777777777777,-55.15873015873016,-132.14285714285714,173.57142857142856,-168.8095238095238,75.47619047619047,2.619047619047619,68.80952380952381,325.0,-0.07936507936507936,-0.23809523809523808,-321.8253968253968
-325.0,-30.238095238095237,-126.9047619047619,-84.68253968253968,28.96825396825397,-61.507936507936506,325.0,-58.8095238095238,-72.3015873015873,325.0,-110.39682539682539,1.1904761904761905,-132.77777777777777,-55.15873015873016,-132.14285714285714,173.57142857142856,-168.8095238095238,75.47619047619047,2.619047619047619,68.80952380952381,325.0,-0.07936507936507936,-0.23809523809523808,-321.8253968253968
-325.0,-29.6031746031746,-118.49206349206348,-82.93650793650794,28.333333333333332,-60.079365079365076,325.0,-57.698412698412696,-80.39682539682539,325.0,-115.95238095238095,3.4126984126984126,-124.68253968253967,-53.888888888888886,-125.79365079365078,169.9206349206349,-167.38095238095238,74.04761904761904,5.158730158730158,67.38095238095238,325.0,5.7936507936507935,9.920634920634921,-321.8253968253968
-325.0,-29.6031746031746,-118.49206349206348,-82.93650793650794,28.333333333333332,-60.079365079365076,325.0,-57.698412698412696,-80.39682539682539,325.0,-115.95238095238095,3.4126984126984126,-124.68253968253967,-53.888888888888886,-125.79365079365078,169.9206349206349,-167.38095238095238,74.04761904761904,5.158730158730158,67.38095238095238,325.0,5.7936507936507935,9.920634920634921,-321.8253968253968
-325.0,-28.809523809523807,-110.87301587301587,-80.87301587301587,27.698412698412696,-58.650793650793645,325.0,-56.11111111111111,-89.6031746031746,325.0,-122.46031746031746,2.142857142857143,-117.06349206349206,-52.61904761904761,-117.53968253968253,165.79365079365078,-165.79365079365078,72.14285714285714,4.365079365079365,65.63492063492063,325.0,-3.888888888888889,-7.222222222222221,-166.26984126984127
-325.0,-28.809523809523807,-110.87301587301587,-80.87301587301587,27.698412698412696,-58.650793650793645,325.0,-56.11111111111111,-89.6031746031746,325.0,-122.46031746031746,2.142857142857143,-117.06349206349206,-52.61904761904761,-117.53968253968253,165.79365079365078,-165.79365079365078,72.14285714285714,4.365079365079365,65.63492063492063,325.0,-3.888888888888889,-7.222222222222221,-166.26984126984127
-325.0,-28.174603174603174,-122.30158730158729,-78.65079365079364,26.746031746031743,-57.06349206349206,325.0,-54.841269841269835,-97.6984126984127,325.0,-128.65079365079364,4.523809523809524,-130.3968253968254,-51.34920634920635,-128.65079365079364,161.34920634920633,-164.36507936507937,70.39682539682539,5.634920634920634,63.73015873015873,325.0,-7.063492063492063,-11.19047619047619,-166.26984126984127
-325.0,-28.174603174603174,-122.30158730158729,-78.65079365079364,26.746031746031743,-57.06349206349206,325.0,-54.841269841269835,-97.6984126984127,325.0,-128.65079365079364,4.523809523809524,-130.3968253968254,-51.34920634920635,-128.65079365079364,161.34920634920633,-164.36507936507937,70.39682539682539,5.634920634920634,63.73015873015873,325.0,-7.063492063492063,-11.19047619047619,-166.26984126984127
-325.0,-27.698412698412696,-121.34920634920634,-77.22222222222221,26.428571428571427,-56.269841269841265,325.0,-54.047619047619044,-102.93650793650794,325.0,-132.3015873015873,6.587301587301587,-129.76190476190476,-50.55555555555555,-128.17460317460316,158.65079365079364,-163.09523809523807,69.28571428571428,7.3809523809523805,62.77777777777777,325.0,-7.222222222222221,-11.507936507936508,-166.26984126984127
-325.0,-27.698412698412696,-121.34920634920634,-77.22222222222221,26.428571428571427,-56.269841269841265,325.0,-54.047619047619044,-102.93650793650794,325.0,-132.3015873015873,6.587301587301587,-129.76190476190476,-50.55555555555555,-128.17460317460316,158.65079365079364,-163.09523809523807,69.28571428571428,7.3809523809523805,62.77777777777777,325.0,-7.222222222222221,-11.507936507936508,-166.26984126984127
-325.0,-26.26984126984127,-78.01587301587301,-72.93650793650794,14.047619047619047,-53.25396825396825,325.0,-51.34920634920635,-117.85714285714285,325.0,-230.07936507936506,6.26984126984127,-86.1111111111111,-47.857142857142854,-86.9047619047619,150.23809523809524,-243.57142857142856,65.63492063492063,6.904761904761904,59.6031746031746,325.0,-0.5555555555555556,-0.23809523809523808,-166.26984126984127
-325.0,-26.26984126984127,-78.01587301587301,-72.93650793650794,14.047619047619047,-53.25396825396825,325.0,-51.34920634920635,-117.85714285714285,325.0,-230.07936507936506,6.26984126984127,-86.1111111111111,-47.857142857142854,-86.9047619047619,150.23809523809524,-243.57142857142856,65.63492063492063,6.904761904761904,59.6031746031746,325.0,-0.5555555555555556,-0.23809523809523808,-166.26984126984127
-325.0,-24.047619047619047,-11.031746031746032,-66.11111111111111,-23.88888888888889,-48.650793650793645,325.0,-47.06349206349206,-140.87301587301587,317.85714285714283,-325.0,-1.6666666666666665,-15.317460317460316,-43.41269841269841,-20.07936507936508,136.74603174603175,-325.0,59.76190476190476,-0.23809523809523808,54.2063492063492,325.0,3.571428571428571,5.634920634920634,-166.26984126984127
-325.0,-24.047619047619047,-11.031746031746032,-66.11111111111111,-23.88888888888889,-48.650793650793645,325.0,-47.06349206349206,-140.87301587301587,317.85714285714283,-325.0,-1.6666666666666665,-15.317460317460316,-43.41269841269841,-20.07936507936508,136.74603174603175,-325.0,59.76190476190476,-0.23809523809523808,54.2063492063492,325.0,3.571428571428571,5.634920634920634,-166.26984126984127
-325.0,-22.777777777777775,13.888888888888888,-61.98412698412698,-55.63492063492063,-45.63492063492063,325.0,-44.047619047619044,-154.04761904761904,306.74603174603175,-325.0,-4.841269841269841,8.492063492063492,-40.87301587301587,7.698412698412698,128.015873015873,-313.57142857142856,56.11111111111111,-5.317460317460317,50.55555555555555,325.0,1.349206349206349,2.9365079365079363,-321.8253968253968
-325.0,-22.777777777777775,13.888888888888888,-61.98412698412698,-55.63492063492063,-45.63492063492063,325.0,-44.047619047619044,-154.04761904761904,306.74603174603175,-325.0,-4.841269841269841,8.492063492063492,-40.87301587301587,7.698412698412698,128.015873015873,-313.57142857142856,56.11111111111111,-5.317460317460317,50.55555555555555,325.0,1.349206349206349,2.9365079365079363,-321.8253968253968
-325.0,-22.142857142857142,9.920634920634921,-60.71428571428571,-62.93650793650793,-44.84126984126984,324.36507936507934,-43.41269841269841,-164.84126984126982,301.5079365079365,-325.0,-6.746031746031746,8.333333333333332,-39.92063492063492,5.7936507936507935,125.95238095238095,-325.0,55.0,-5.158730158730158,50.079365079365076,325.0,-1.349206349206349,-3.253968253968254,-321.8253968253968
-325.0,-22.142857142857142,9.920634920634921,-60.71428571428571,-62.93650793650793,-44.84126984126984,324.36507936507934,-43.41269841269841,-164.84126984126982,301.5079365079365,-325.0,-6.746031746031746,8.333333333333332,-39.92063492063492,5.7936507936507935,125.95238095238095,-325.0,55.0,-5.158730158730158,50.079365079365076,325.0,-1.349206349206349,-3.253968253968254,-321.8253968253968
-325.0,-21.825396825396822,41.98412698412698,-59.285714285714285,-71.66666666666666,-43.888888888888886,318.17460317460313,-42.460317460317455,-178.17460317460316,291.031746031746,-325.0,-6.746031746031746,40.55555555555555,-39.285714285714285,38.65079365079365,123.25396825396825,-325.0,54.047619047619044,-5.7936507936507935,48.80952380952381,325.0,1.349206349206349,0.7142857142857142,-321.8253968253968
-325.0,-21.825396825396822,41.98412698412698,-59.285714285714285,-71.66666666666666,-43.888888888888886,318.17460317460313,-42.460317460317455,-178.17460317460316,291.031746031746,-325.0,-6.746031746031746,40.55555555555555,-39.285714285714285,38.65079365079365,123.25396825396825,-325.0,54.047619047619044,-5.7936507936507935,48.80952380952381,325.0,1.349206349206349,0.7142857142857142,-321.8253968253968
-325.0,-7.3809523809523805,20.555555555555554,-58.01587301587301,-79.44444444444444,-43.095238095238095,311.5079365079365,-41.82539682539682,-186.26984126984127,237.85714285714283,-325.0,0.3968253968253968,19.285714285714285,-38.49206349206349,15.0,120.71428571428571,-325.0,52.77777777777777,1.0317460317460316,47.857142857142854,325.0,7.222222222222221,11.031746031746032,-321.8253968253968
-325.0,-7.3809523809523805,20.555555555555554,-58.01587301587301,-79.44444444444444,-43.095238095238095,311.5079365079365,-41.82539682539682,-186.26984126984127,237.85714285714283,-325.0,0.3968253968253968,19.285714285714285,-38.49206349206349,15.0,120.71428571428571,-325.0,52.77777777777777,1.0317460317460316,47.857142857142854,325.0,7.222222222222221,11.031746031746032,-321.8253968253968
-325.0,12.777777777777777,70.07936507936508,-57.22222222222222,-84.52380952380952,-42.61904761904761,307.38095238095235,-41.19047619047619,-202.3015873015873,155.79365079365078,-325.0,-12.3015873015873,71.34920634920634,-37.857142857142854,69.12698412698413,119.12698412698413,-325.0,52.14285714285714,-11.19047619047619,47.22222222222222,325.0,1.1904761904761905,0.7142857142857142,-321.8253968253968
-325.0,12.777777777777777,70.07936507936508,-57.22222222222222,-84.52380952380952,-42.61904761904761,307.38095238095235,-41.19047619047619,-202.3015873015873,155.79365079365078,-325.0,-12.3015873015873,71.34920634920634,-37.857142857142854,69.12698412698413,119.12698412698413,-325.0,52.14285714285714,-11.19047619047619,47.22222222222222,325.0,1.1904761904761905,0.7142857142857142,-321.8253968253968
-325.0,81.34920634920634,61.507936507936506,-55.476190476190474,-93.73015873015872,-41.507936507936506,299.6031746031746,-40.39682539682539,-214.2063492063492,-122.14285714285714,-325.0,-11.349206349206348,57.06349206349206,-36.904761904761905,54.52380952380952,116.1111111111111,-295.3174603174603,50.87301587301587,-10.079365079365079,46.11111111111111,325.0,-1.349206349206349,-1.1904761904761905,-166.26984126984127
-325.0,81.34920634920634,61.507936507936506,-55.476190476190474,-93.73015873015872,-41.507936507936506,299.6031746031746,-40.39682539682539,-214.2063492063492,-122.14285714285714,-325.0,-11.349206349206348,57.06349206349206,-36.904761904761905,54.52380952380952,116.1111111111111,-295.3174603174603,50.87301587301587,-10.079365079365079,46.11111111111111,325.0,-1.349206349206349,-1.1904761904761905,-166.26984126984127
-325.0,171.34920634920633,64.52380952380952,-54.68253968253968,-99.12698412698413,-40.714285714285715,294.36507936507934,-39.6031746031746,-221.66666666666666,-230.3968253968254,-325.0,-5.634920634920634,58.650793650793645,-36.42857142857142,56.42857142857142,114.04761904761904,-295.3174603174603,50.079365079365076,-4.2063492063492065,45.317460317460316,325.0,-1.0317460317460316,-1.349206349206349,-166.26984126984127
-325.0,171.34920634920633,64.52380952380952,-54.68253968253968,-99.12698412698413,-40.714285714285715,294.36507936507934,-39.6031746031746,-221.66666666666666,-230.3968253968254,-325.0,-5.634920634920634,58.650793650793645,-36.42857142857142,56.42857142857142,114.04761904761904,-295.3174603174603,50.079365079365076,-4.2063492063492065,45.317460317460316,325.0,-1.0317460317460316,-1.349206349206349,-166.26984126984127
-325.0,325.0,57.06349206349206,-52.93650793650794,-107.22222222222221,-39.76190476190476,287.06349206349205,-38.96825396825397,-237.53968253968253,-158.17460317460316,-325.0,-1.8253968253968254,49.285714285714285,-35.317460317460316,48.80952380952381,111.03174603174602,-258.6507936507936,48.96825396825397,-1.0317460317460316,44.2063492063492,325.0,-7.5396825396825395,-11.666666666666666,-166.26984126984127
-325.0,325.0,57.06349206349206,-52.93650793650794,-107.22222222222221,-39.76190476190476,287.06349206349205,-38.96825396825397,-237.53968253968253,-158.17460317460316,-325.0,-1.8253968253968254,49.285714285714285,-35.317460317460316,48.80952380952381,111.03174603174602,-258.6507936507936,48.96825396825397,-1.0317460317460316,44.2063492063492,325.0,-7.5396825396825395,-11.666666666666666,-166.26984126984127
-325.0,325.0,2.142857142857143,-52.3015873015873,-112.30158730158729,-39.285714285714285,281.984126984127,-38.33333333333333,-248.65079365079364,16.11111111111111,-325.0,0.7142857142857142,-4.841269841269841,-34.84126984126984,-5.0,109.28571428571428,-245.0,48.17460317460317,1.507936507936508,43.41269841269841,324.5238095238095,-7.698412698412698,-11.349206349206348,-166.26984126984127
-325.0,325.0,2.142857142857143,-52.3015873015873,-112.30158730158729,-39.285714285714285,281.984126984127,-38.33333333333333,-248.65079365079364,16.11111111111111,-325.0,0.7142857142857142,-4.841269841269841,-34.84126984126984,-5.0,109.28571428571428,-245.0,48.17460317460317,1.507936507936508,43.41269841269841,324.5238095238095,-7.698412698412698,-11.349206349206348,-166.26984126984127
-325.0,325.0,-0.7142857142857142,-50.55555555555555,-121.82539682539682,-38.17460317460317,273.57142857142856,-37.22222222222222,-287.53968253968253,248.015873015873,-325.0,-2.9365079365079363,-1.349206349206349,-33.73015873015873,-5.0,106.1111111111111,-325.0,46.74603174603175,-0.7142857142857142,42.3015873015873,319.9206349206349,-0.07936507936507936,-1.8253968253968254,-166.26984126984127
-325.0,325.0,-0.7142857142857142,-50.55555555555555,-121.82539682539682,-38.17460317460317,273.57142857142856,-37.22222222222222,-287.53968253968253,248.015873015873,-325.0,-2.9365079365079363,-1.349206349206349,-33.73015873015873,-5.0,106.1111111111111,-325.0,46.74603174603175,-0.7142857142857142,42.3015873015873,319.9206349206349,-0.07936507936507936,-1.8253968253968254,-166.26984126984127
-325.0,325.0,-32.93650793650794,-49.92063492063492,-132.61904761904762,-37.698412698412696,270.07936507936506,-36.904761904761905,-293.57142857142856,173.09523809523807,-325.0,1.349206349206349,-36.269841269841265,-33.41269841269841,-38.49206349206349,104.68253968253968,-276.74603174603175,46.11111111111111,2.46031746031746,41.82539682539682,315.7936507936508,-0.7142857142857142,-1.0317460317460316,-321.8253968253968
-325.0,325.0,-32.93650793650794,-49.92063492063492,-132.61904761904762,-37.698412698412696,270.07936507936506,-36.904761904761905,-293.57142857142856,173.09523809523807,-325.0,1.349206349206349,-36.269841269841265,-33.41269841269841,-38.49206349206349,104.68253968253968,-276.74603174603175,46.11111111111111,2.46031746031746,41.82539682539682,315.7936507936508,-0.7142857142857142,-1.0317460317460316,-321.8253968253968
-325.0,325.0,13.412698412698411,-48.650793650793645,-147.38095238095238,-36.74603174603175,261.984126984127,-35.63492063492063,-294.5238095238095,188.8095238095238,-325.0,-0.3968253968253968,10.079365079365079,-32.460317460317455,6.428571428571428,96.26984126984127,-288.015873015873,44.84126984126984,0.873015873015873,40.39682539682539,306.26984126984127,8.333333333333332,11.666666666666666,-321.8253968253968
