Fp1[1],Fp2[2],F3[3],F4[4],C3[5],C4[6],P3[7],P4[8],O1[9],O2[10],F7[11],F8[12],T3[13],T4[14],T5[15],T6[16],Fz[17],Pz[18],Cz[19],Pg1[20],Pg2[21],EOGR[22],EOOGL[23],EMG[24]
-188.8095238095238,325.0,-189.28571428571428,-5.317460317460317,-190.55555555555554,325.0,-191.5079365079365,325.0,-189.60317460317458,-325.0,-198.96825396825395,-7.5396825396825395,-190.87301587301587,-325.0,-189.60317460317458,325.0,-201.66666666666666,325.0,-140.07936507936506,-325.0,-241.34920634920633,-4.523809523809524,2.142857142857143,-166.26984126984127
-188.8095238095238,325.0,-189.28571428571428,-5.317460317460317,-190.55555555555554,325.0,-191.5079365079365,325.0,-189.60317460317458,-325.0,-198.96825396825395,-7.5396825396825395,-190.87301587301587,-325.0,-189.60317460317458,325.0,-201.66666666666666,325.0,-140.07936507936506,-325.0,-241.34920634920633,-4.523809523809524,2.142857142857143,-166.26984126984127
-162.46031746031744,325.0,-161.34920634920633,-16.746031746031743,-164.2063492063492,325.0,-164.52380952380952,325.0,-163.88888888888889,-325.0,-174.68253968253967,-17.539682539682538,-167.38095238095238,-325.0,-163.57142857142856,325.0,-180.7142857142857,325.0,-131.34920634920636,-325.0,-225.63492063492063,-4.365079365079365,1.984126984126984,-166.26984126984127
-162.46031746031744,325.0,-161.34920634920633,-16.746031746031743,-164.2063492063492,325.0,-164.52380952380952,325.0,-163.88888888888889,-325.0,-174.68253968253967,-17.539682539682538,-167.38095238095238,-325.0,-163.57142857142856,325.0,-180.7142857142857,325.0,-131.34920634920636,-325.0,-225.63492063492063,-4.365079365079365,1.984126984126984,-166.26984126984127
-162.46031746031744,325.0,-161.34920634920633,-16.746031746031743,-164.2063492063492,325.0,-164.52380952380952,325.0,-163.88888888888889,-325.0,-174.68253968253967,-17.539682539682538,-167.38095238095238,-325.0,-163.57142857142856,325.0,-180.7142857142857,325.0,-131.34920634920636,-325.0,-225.63492063492063,-4.365079365079365,1.984126984126984,-166.26984126984127
-162.46031746031744,325.0,-161.34920634920633,-16.746031746031743,-164.2063492063492,325.0,-164.52380952380952,325.0,-163.88888888888889,-325.0,-174.68253968253967,-17.539682539682538,-167.38095238095238,-325.0,-163.57142857142856,325.0,-180.7142857142857,325.0,-131.34920634920636,-325.0,-225.63492063492063,-4.365079365079365,1.984126984126984,-166.26984126984127
-175.47619047619045,325.0,-172.93650793650792,0.7142857142857142,-178.015873015873,325.0,-178.96825396825395,325.0,-180.7142857142857,-325.0,-193.7301587301587,2.9365079365079363,-179.28571428571428,-325.0,-177.69841269841268,325.0,-197.53968253968253,325.0,-38.01587301587301,-325.0,-68.01587301587301,1.507936507936508,-4.365079365079365,-166.26984126984127
-175.47619047619045,325.0,-172.93650793650792,0.7142857142857142,-178.015873015873,325.0,-178.96825396825395,325.0,-180.7142857142857,-325.0,-193.7301587301587,2.9365079365079363,-179.28571428571428,-325.0,-177.69841269841268,325.0,-197.53968253968253,325.0,-38.01587301587301,-325.0,-68.01587301587301,1.507936507936508,-4.365079365079365,-166.26984126984127
-175.47619047619045,325.0,-172.93650793650792,0.7142857142857142,-178.015873015873,325.0,-178.96825396825395,325.0,-180.7142857142857,-325.0,-193.7301587301587,2.9365079365079363,-179.28571428571428,-325.0,-177.69841269841268,325.0,-197.53968253968253,325.0,-38.01587301587301,-325.0,-68.01587301587301,1.507936507936508,-4.365079365079365,-166.26984126984127
-175.47619047619045,325.0,-172.93650793650792,0.7142857142857142,-178.015873015873,325.0,-178.96825396825395,325.0,-180.7142857142857,-325.0,-193.7301587301587,2.9365079365079363,-179.28571428571428,-325.0,-177.69841269841268,325.0,-197.53968253968253,325.0,-38.01587301587301,-325.0,-68.01587301587301,1.507936507936508,-4.365079365079365,-166.26984126984127
-175.47619047619045,325.0,-172.93650793650792,0.7142857142857142,-178.015873015873,325.0,-178.96825396825395,325.0,-180.7142857142857,-325.0,-193.7301587301587,2.9365079365079363,-179.28571428571428,-325.0,-177.69841269841268,325.0,-197.53968253968253,325.0,-38.01587301587301,-325.0,-68.01587301587301,1.507936507936508,-4.365079365079365,-321.8253968253968
-175.47619047619045,325.0,-172.93650793650792,0.7142857142857142,-178.015873015873,325.0,-178.96825396825395,325.0,-180.7142857142857,-325.0,-193.7301587301587,2.9365079365079363,-179.28571428571428,-325.0,-177.69841269841268,325.0,-197.53968253968253,325.0,-38.01587301587301,-325.0,-68.01587301587301,1.507936507936508,-4.365079365079365,-321.8253968253968
-182.77777777777777,325.0,-179.28571428571428,6.26984126984127,-184.84126984126982,325.0,-186.42857142857142,325.0,-188.65079365079364,-325.0,-200.87301587301587,8.492063492063492,-185.0,-325.0,-184.2063492063492,325.0,-203.57142857142856,325.0,-13.571428571428571,-325.0,-20.07936507936508,3.4126984126984126,-3.4126984126984126,-321.8253968253968
-182.77777777777777,325.0,-179.28571428571428,6.26984126984127,-184.84126984126982,325.0,-186.42857142857142,325.0,-188.65079365079364,-325.0,-200.87301587301587,8.492063492063492,-185.0,-325.0,-184.2063492063492,325.0,-203.57142857142856,325.0,-13.571428571428571,-325.0,-20.07936507936508,3.4126984126984126,-3.4126984126984126,-321.8253968253968
-166.9047619047619,325.0,-164.04761904761904,5.317460317460317,-169.28571428571428,325.0,-169.76190476190476,325.0,-172.3015873015873,-325.0,-184.36507936507937,7.222222222222221,-168.8095238095238,-325.0,-167.38095238095238,325.0,-186.26984126984127,325.0,-9.285714285714285,-325.0,-9.126984126984127,2.7777777777777777,-3.095238095238095,-321.8253968253968
-166.9047619047619,325.0,-164.04761904761904,5.317460317460317,-169.28571428571428,325.0,-169.76190476190476,325.0,-172.3015873015873,-325.0,-184.36507936507937,7.222222222222221,-168.8095238095238,-325.0,-167.38095238095238,325.0,-186.26984126984127,325.0,-9.285714285714285,-325.0,-9.126984126984127,2.7777777777777777,-3.095238095238095,-321.8253968253968
-163.57142857142856,318.17460317460313,-160.07936507936506,21.984126984126984,-166.58730158730157,309.4444444444444,-166.42857142857142,312.77777777777777,-170.7142857142857,-325.0,-179.44444444444443,15.793650793650793,-165.3174603174603,-325.0,-162.46031746031744,325.0,-175.63492063492063,311.19047619047615,28.333333333333332,-310.39682539682536,65.15873015873015,1.349206349206349,-0.7142857142857142,-321.8253968253968
-163.57142857142856,318.17460317460313,-160.07936507936506,21.984126984126984,-166.58730158730157,309.4444444444444,-166.42857142857142,312.77777777777777,-170.7142857142857,-325.0,-179.44444444444443,15.793650793650793,-165.3174603174603,-325.0,-162.46031746031744,325.0,-175.63492063492063,311.19047619047615,28.333333333333332,-310.39682539682536,65.15873015873015,1.349206349206349,-0.7142857142857142,-321.8253968253968
-142.93650793650792,311.5079365079365,-139.9206349206349,27.539682539682538,-146.74603174603175,294.04761904761904,-145.0,300.55555555555554,-149.9206349206349,-325.0,-157.38095238095238,15.317460317460316,-144.84126984126982,-325.0,-140.7142857142857,325.0,-149.12698412698413,297.53968253968253,38.96825396825397,-295.6349206349206,88.80952380952381,6.587301587301587,-3.095238095238095,-321.8253968253968
-142.93650793650792,311.5079365079365,-139.9206349206349,27.539682539682538,-146.74603174603175,294.04761904761904,-145.0,300.55555555555554,-149.9206349206349,-325.0,-157.38095238095238,15.317460317460316,-144.84126984126982,-325.0,-140.7142857142857,325.0,-149.12698412698413,297.53968253968253,38.96825396825397,-295.6349206349206,88.80952380952381,6.587301587301587,-3.095238095238095,-321.8253968253968
-142.93650793650792,311.5079365079365,-139.9206349206349,27.539682539682538,-146.74603174603175,294.04761904761904,-145.0,300.55555555555554,-149.9206349206349,-325.0,-157.38095238095238,15.317460317460316,-144.84126984126982,-325.0,-140.7142857142857,325.0,-149.12698412698413,297.53968253968253,38.96825396825397,-295.6349206349206,88.80952380952381,6.587301587301587,-3.095238095238095,-166.26984126984127
-142.93650793650792,311.5079365079365,-139.9206349206349,27.539682539682538,-146.74603174603175,294.04761904761904,-145.0,300.55555555555554,-149.9206349206349,-325.0,-157.38095238095238,15.317460317460316,-144.84126984126982,-325.0,-140.7142857142857,325.0,-149.12698412698413,297.53968253968253,38.96825396825397,-295.6349206349206,88.80952380952381,6.587301587301587,-3.095238095238095,-166.26984126984127
-105.31746031746032,268.015873015873,-102.61904761904762,39.285714285714285,-110.87301587301587,252.14285714285714,-107.6984126984127,258.8095238095238,-113.57142857142857,-305.95238095238096,-116.58730158730158,20.555555555555554,-106.26984126984127,-325.0,-104.04761904761904,287.38095238095235,-103.57142857142857,255.95238095238093,53.73015873015873,-253.57142857142856,110.87301587301587,1.0317460317460316,-0.873015873015873,-166.26984126984127
-105.31746031746032,268.015873015873,-102.61904761904762,39.285714285714285,-110.87301587301587,252.14285714285714,-107.6984126984127,258.8095238095238,-113.57142857142857,-305.95238095238096,-116.58730158730158,20.555555555555554,-106.26984126984127,-325.0,-104.04761904761904,287.38095238095235,-103.57142857142857,255.95238095238093,53.73015873015873,-253.57142857142856,110.87301587301587,1.0317460317460316,-0.873015873015873,-166.26984126984127
-97.22222222222221,244.2063492063492,-94.36507936507935,39.12698412698413,-101.98412698412697,229.60317460317458,-98.80952380952381,236.1111111111111,-103.57142857142857,-283.25396825396825,-104.2063492063492,17.539682539682538,-95.63492063492063,-325.0,-93.09523809523809,261.984126984127,-88.33333333333333,233.4126984126984,54.36507936507936,-230.7142857142857,111.82539682539682,2.7777777777777777,-2.9365079365079363,-166.26984126984127
-97.22222222222221,244.2063492063492,-94.36507936507935,39.12698412698413,-101.98412698412697,229.60317460317458,-98.80952380952381,236.1111111111111,-103.57142857142857,-283.25396825396825,-104.2063492063492,17.539682539682538,-95.63492063492063,-325.0,-93.09523809523809,261.984126984127,-88.33333333333333,233.4126984126984,54.36507936507936,-230.7142857142857,111.82539682539682,2.7777777777777777,-2.9365079365079363,-166.26984126984127
-28.174603174603174,205.79365079365078,-26.26984126984127,34.047619047619044,-34.047619047619044,192.93650793650792,-29.285714285714285,198.96825396825395,-33.57142857142857,-238.65079365079364,-29.126984126984127,12.142857142857142,-26.587301587301585,-283.0952380952381,-25.317460317460316,220.7142857142857,-21.19047619047619,196.58730158730157,46.269841269841265,-193.88888888888889,92.77777777777777,2.9365079365079363,-2.619047619047619,-166.26984126984127
-28.174603174603174,205.79365079365078,-26.26984126984127,34.047619047619044,-34.047619047619044,192.93650793650792,-29.285714285714285,198.96825396825395,-33.57142857142857,-238.65079365079364,-29.126984126984127,12.142857142857142,-26.587301587301585,-283.0952380952381,-25.317460317460316,220.7142857142857,-21.19047619047619,196.58730158730157,46.269841269841265,-193.88888888888889,92.77777777777777,2.9365079365079363,-2.619047619047619,-166.26984126984127
-12.142857142857142,165.3174603174603,-8.492063492063492,35.79365079365079,-17.38095238095238,154.84126984126982,-14.682539682539682,160.23809523809524,-18.333333333333332,-191.66666666666666,-7.3809523809523805,12.936507936507935,-11.825396825396824,-237.06349206349205,-11.825396825396824,177.53968253968253,-11.666666666666666,158.015873015873,43.73015873015873,-155.47619047619048,80.71428571428571,-6.26984126984127,3.095238095238095,-166.26984126984127
-12.142857142857142,165.3174603174603,-8.492063492063492,35.79365079365079,-17.38095238095238,154.84126984126982,-14.682539682539682,160.23809523809524,-18.333333333333332,-191.66666666666666,-7.3809523809523805,12.936507936507935,-11.825396825396824,-237.06349206349205,-11.825396825396824,177.53968253968253,-11.666666666666666,158.015873015873,43.73015873015873,-155.47619047619048,80.71428571428571,-6.26984126984127,3.095238095238095,-166.26984126984127
-12.142857142857142,165.3174603174603,-8.492063492063492,35.79365079365079,-17.38095238095238,154.84126984126982,-14.682539682539682,160.23809523809524,-18.333333333333332,-191.66666666666666,-7.3809523809523805,12.936507936507935,-11.825396825396824,-237.06349206349205,-11.825396825396824,177.53968253968253,-11.666666666666666,158.015873015873,43.73015873015873,-155.47619047619048,80.71428571428571,-6.26984126984127,3.095238095238095,-321.8253968253968
-12.142857142857142,165.3174603174603,-8.492063492063492,35.79365079365079,-17.38095238095238,154.84126984126982,-14.682539682539682,160.23809523809524,-18.333333333333332,-191.66666666666666,-7.3809523809523805,12.936507936507935,-11.825396825396824,-237.06349206349205,-11.825396825396824,177.53968253968253,-11.666666666666666,158.015873015873,43.73015873015873,-155.47619047619048,80.71428571428571,-6.26984126984127,3.095238095238095,-321.8253968253968
129.28571428571428,-325.0,128.65079365079364,15.95238095238095,123.88888888888889,126.58730158730158,131.34920634920636,131.5079365079365,129.28571428571428,-157.2222222222222,138.17460317460316,-1.6666666666666665,134.04761904761904,-193.7301587301587,134.2063492063492,145.79365079365078,131.34920634920636,129.28571428571428,22.936507936507937,-127.06349206349206,45.15873015873016,-2.46031746031746,1.8253968253968254,-321.8253968253968
129.28571428571428,-325.0,128.65079365079364,15.95238095238095,123.88888888888889,126.58730158730158,131.34920634920636,131.5079365079365,129.28571428571428,-157.2222222222222,138.17460317460316,-1.6666666666666665,134.04761904761904,-193.7301587301587,134.2063492063492,145.79365079365078,131.34920634920636,129.28571428571428,22.936507936507937,-127.06349206349206,45.15873015873016,-2.46031746031746,1.8253968253968254,-321.8253968253968
129.28571428571428,-325.0,128.65079365079364,15.95238095238095,123.88888888888889,126.58730158730158,131.34920634920636,131.5079365079365,129.28571428571428,-157.2222222222222,138.17460317460316,-1.6666666666666665,134.04761904761904,-193.7301587301587,134.2063492063492,145.79365079365078,131.34920634920636,129.28571428571428,22.936507936507937,-127.06349206349206,45.15873015873016,-2.46031746031746,1.8253968253968254,-321.8253968253968
129.28571428571428,-325.0,128.65079365079364,15.95238095238095,123.88888888888889,126.58730158730158,131.34920634920636,131.5079365079365,129.28571428571428,-157.2222222222222,138.17460317460316,-1.6666666666666665,134.04761904761904,-193.7301587301587,134.2063492063492,145.79365079365078,131.34920634920636,129.28571428571428,22.936507936507937,-127.06349206349206,45.15873015873016,-2.46031746031746,1.8253968253968254,-321.8253968253968
129.28571428571428,-325.0,128.65079365079364,15.95238095238095,123.88888888888889,126.58730158730158,131.34920634920636,131.5079365079365,129.28571428571428,-157.2222222222222,138.17460317460316,-1.6666666666666665,134.04761904761904,-193.7301587301587,134.2063492063492,145.79365079365078,131.34920634920636,129.28571428571428,22.936507936507937,-127.06349206349206,45.15873015873016,-2.46031746031746,1.8253968253968254,-321.8253968253968
129.28571428571428,-325.0,128.65079365079364,15.95238095238095,123.88888888888889,126.58730158730158,131.34920634920636,131.5079365079365,129.28571428571428,-157.2222222222222,138.17460317460316,-1.6666666666666665,134.04761904761904,-193.7301587301587,134.2063492063492,145.79365079365078,131.34920634920636,129.28571428571428,22.936507936507937,-127.06349206349206,45.15873015873016,-2.46031746031746,1.8253968253968254,-321.8253968253968
92.61904761904762,-164.2063492063492,89.12698412698413,-2.142857142857143,178.96825396825395,95.63492063492063,15.317460317460316,109.76190476190476,189.76190476190476,314.8412698412698,29.920634920634917,-24.365079365079364,193.7301587301587,-138.4920634920635,19.444444444444443,110.23809523809523,17.539682539682538,108.17460317460316,-162.3015873015873,-95.95238095238095,-215.79365079365078,-13.73015873015873,-148.17460317460316,-321.8253968253968
92.61904761904762,-164.2063492063492,89.12698412698413,-2.142857142857143,178.96825396825395,95.63492063492063,15.317460317460316,109.76190476190476,189.76190476190476,314.8412698412698,29.920634920634917,-24.365079365079364,193.7301587301587,-138.4920634920635,19.444444444444443,110.23809523809523,17.539682539682538,108.17460317460316,-162.3015873015873,-95.95238095238095,-215.79365079365078,-13.73015873015873,-148.17460317460316,-321.8253968253968
99.44444444444444,-164.2063492063492,95.95238095238095,-3.888888888888889,185.95238095238093,93.88888888888889,21.666666666666664,108.17460317460316,195.95238095238093,314.8412698412698,35.317460317460316,-25.158730158730158,198.33333333333331,-139.28571428571428,24.68253968253968,108.65079365079364,21.03174603174603,106.58730158730158,-163.25396825396825,-94.2063492063492,-269.44444444444446,-13.888888888888888,-148.8095238095238,-166.26984126984127
99.44444444444444,-164.2063492063492,95.95238095238095,-3.888888888888889,185.95238095238093,93.88888888888889,21.666666666666664,108.17460317460316,195.95238095238093,314.8412698412698,35.317460317460316,-25.158730158730158,198.33333333333331,-139.28571428571428,24.68253968253968,108.65079365079364,21.03174603174603,106.58730158730158,-163.25396825396825,-94.2063492063492,-269.44444444444446,-13.888888888888888,-148.8095238095238,-166.26984126984127
196.42857142857142,-325.0,193.25396825396825,-10.079365079365079,192.93650793650792,92.30158730158729,200.87301587301587,96.58730158730158,202.14285714285714,325.0,203.4126984126984,-15.634920634920634,202.93650793650792,-139.9206349206349,202.77777777777777,107.06349206349206,197.38095238095238,95.0,-1.6666666666666665,-92.46031746031746,-312.77777777777777,-3.888888888888889,3.095238095238095,-166.26984126984127
196.42857142857142,-325.0,193.25396825396825,-10.079365079365079,192.93650793650792,92.30158730158729,200.87301587301587,96.58730158730158,202.14285714285714,325.0,203.4126984126984,-15.634920634920634,202.93650793650792,-139.9206349206349,202.77777777777777,107.06349206349206,197.38095238095238,95.0,-1.6666666666666665,-92.46031746031746,-312.77777777777777,-3.888888888888889,3.095238095238095,-166.26984126984127
138.8095238095238,-325.0,138.96825396825395,-1.984126984126984,137.53968253968253,89.44444444444444,141.5079365079365,93.25396825396825,143.4126984126984,325.0,145.15873015873015,-6.26984126984127,143.25396825396825,-106.42857142857142,144.2063492063492,103.73015873015872,136.42857142857142,91.82539682539682,7.063492063492063,-89.92063492063491,-325.0,-0.7142857142857142,-0.3968253968253968,-166.26984126984127
138.8095238095238,-325.0,138.96825396825395,-1.984126984126984,137.53968253968253,89.44444444444444,141.5079365079365,93.25396825396825,143.4126984126984,325.0,145.15873015873015,-6.26984126984127,143.25396825396825,-106.42857142857142,144.2063492063492,103.73015873015872,136.42857142857142,91.82539682539682,7.063492063492063,-89.92063492063491,-325.0,-0.7142857142857142,-0.3968253968253968,-166.26984126984127
216.26984126984127,-325.0,214.36507936507937,-6.428571428571428,212.3015873015873,87.85714285714285,217.69841269841268,91.82539682539682,219.60317460317458,325.0,220.2380952380952,-10.714285714285714,222.46031746031744,102.93650793650794,218.96825396825395,-171.19047619047618,213.88888888888889,90.39682539682539,1.6666666666666665,-88.17460317460316,-325.0,0.3968253968253968,-0.23809523809523808,-166.26984126984127
216.26984126984127,-325.0,214.36507936507937,-6.428571428571428,212.3015873015873,87.85714285714285,217.69841269841268,91.82539682539682,219.60317460317458,325.0,220.2380952380952,-10.714285714285714,222.46031746031744,102.93650793650794,218.96825396825395,-171.19047619047618,213.88888888888889,90.39682539682539,1.6666666666666665,-88.17460317460316,-325.0,0.3968253968253968,-0.23809523809523808,-166.26984126984127
186.74603174603175,-325.0,187.53968253968253,-1.1904761904761905,185.63492063492063,87.38095238095238,188.4920634920635,91.5079365079365,191.98412698412696,325.0,194.2063492063492,-5.317460317460317,196.9047619047619,128.015873015873,192.77777777777777,-319.1269841269841,188.4920634920635,89.92063492063491,6.26984126984127,-87.85714285714285,-325.0,4.0476190476190474,-2.7777777777777777,-166.26984126984127
186.74603174603175,-325.0,187.53968253968253,-1.1904761904761905,185.63492063492063,87.38095238095238,188.4920634920635,91.5079365079365,191.98412698412696,325.0,194.2063492063492,-5.317460317460317,196.9047619047619,128.015873015873,192.77777777777777,-319.1269841269841,188.4920634920635,89.92063492063491,6.26984126984127,-87.85714285714285,-325.0,4.0476190476190474,-2.7777777777777777,-166.26984126984127
188.33333333333331,-325.0,188.4920634920635,-3.571428571428571,188.8095238095238,75.31746031746032,189.60317460317458,78.96825396825396,194.2063492063492,325.0,191.03174603174602,-0.3968253968253968,192.61904761904762,325.0,190.23809523809524,-325.0,185.15873015873015,77.6984126984127,7.5396825396825395,-75.47619047619047,-325.0,0.07936507936507936,-4.523809523809524,-321.8253968253968
188.33333333333331,-325.0,188.4920634920635,-3.571428571428571,188.8095238095238,75.31746031746032,189.60317460317458,78.96825396825396,194.2063492063492,325.0,191.03174603174602,-0.3968253968253968,192.61904761904762,325.0,190.23809523809524,-325.0,185.15873015873015,77.6984126984127,7.5396825396825395,-75.47619047619047,-325.0,0.07936507936507936,-4.523809523809524,-321.8253968253968
178.8095238095238,-325.0,178.17460317460316,-3.4126984126984126,179.28571428571428,72.46031746031746,180.55555555555554,75.79365079365078,185.63492063492063,325.0,180.7142857142857,0.07936507936507936,182.77777777777777,325.0,181.19047619047618,-325.0,176.11111111111111,74.52380952380952,7.698412698412698,-72.61904761904762,-325.0,-3.4126984126984126,-1.0317460317460316,-321.8253968253968
178.8095238095238,-325.0,178.17460317460316,-3.4126984126984126,179.28571428571428,72.46031746031746,180.55555555555554,75.79365079365078,185.63492063492063,325.0,180.7142857142857,0.07936507936507936,182.77777777777777,325.0,181.19047619047618,-325.0,176.11111111111111,74.52380952380952,7.698412698412698,-72.61904761904762,-325.0,-3.4126984126984126,-1.0317460317460316,-321.8253968253968
217.53968253968253,-325.0,212.93650793650792,-9.444444444444445,214.84126984126982,69.28571428571428,219.60317460317458,72.3015873015873,224.2063492063492,325.0,215.0,-6.904761904761904,220.07936507936506,325.0,218.33333333333331,-325.0,213.09523809523807,71.03174603174602,0.23809523809523808,-68.96825396825396,-325.0,-1.1904761904761905,2.619047619047619,-321.8253968253968
217.53968253968253,-325.0,212.93650793650792,-9.444444444444445,214.84126984126982,69.28571428571428,219.60317460317458,72.3015873015873,224.2063492063492,325.0,215.0,-6.904761904761904,220.07936507936506,325.0,218.33333333333331,-325.0,213.09523809523807,71.03174603174602,0.23809523809523808,-68.96825396825396,-325.0,-1.1904761904761905,2.619047619047619,-321.8253968253968
209.28571428571428,-325.0,206.42857142857142,-11.825396825396824,208.17460317460316,67.53968253968253,211.98412698412696,70.71428571428571,216.58730158730157,325.0,208.8095238095238,-6.746031746031746,212.3015873015873,193.09523809523807,211.03174603174602,-325.0,206.58730158730157,69.6031746031746,-0.3968253968253968,-67.6984126984127,-325.0,-1.984126984126984,-0.3968253968253968,-321.8253968253968
209.28571428571428,-325.0,206.42857142857142,-11.825396825396824,208.17460317460316,67.53968253968253,211.98412698412696,70.71428571428571,216.58730158730157,325.0,208.8095238095238,-6.746031746031746,212.3015873015873,193.09523809523807,211.03174603174602,-325.0,206.58730158730157,69.6031746031746,-0.3968253968253968,-67.6984126984127,-325.0,-1.984126984126984,-0.3968253968253968,-321.8253968253968
203.25396825396825,-325.0,199.9206349206349,-9.761904761904761,202.77777777777777,66.42857142857143,204.84126984126982,69.6031746031746,210.87301587301587,325.0,202.3015873015873,-5.476190476190476,208.4920634920635,204.2063492063492,205.0,-325.0,201.8253968253968,17.38095238095238,0.5555555555555556,-66.42857142857143,-325.0,1.507936507936508,-0.5555555555555556,-321.8253968253968
203.25396825396825,-325.0,199.9206349206349,-9.761904761904761,202.77777777777777,66.42857142857143,204.84126984126982,69.6031746031746,210.87301587301587,325.0,202.3015873015873,-5.476190476190476,208.4920634920635,204.2063492063492,205.0,-325.0,201.8253968253968,17.38095238095238,0.5555555555555556,-66.42857142857143,-325.0,1.507936507936508,-0.5555555555555556,-321.8253968253968
276.26984126984127,-325.0,270.87301587301585,-17.857142857142858,274.8412698412698,62.61904761904761,279.76190476190476,42.3015873015873,285.1587301587301,325.0,275.4761904761905,-11.984126984126984,280.7142857142857,325.0,278.3333333333333,-325.0,275.3174603174603,-325.0,-6.746031746031746,-62.77777777777777,-325.0,1.507936507936508,0.5555555555555556,-166.26984126984127
276.26984126984127,-325.0,270.87301587301585,-17.857142857142858,274.8412698412698,62.61904761904761,279.76190476190476,42.3015873015873,285.1587301587301,325.0,275.4761904761905,-11.984126984126984,280.7142857142857,325.0,278.3333333333333,-325.0,275.3174603174603,-325.0,-6.746031746031746,-62.77777777777777,-325.0,1.507936507936508,0.5555555555555556,-166.26984126984127
277.06349206349205,-325.0,273.25396825396825,-12.936507936507935,276.74603174603175,40.714285714285715,279.6031746031746,-171.03174603174602,285.1587301587301,325.0,276.58730158730157,-5.476190476190476,282.77777777777777,301.5079365079365,278.3333333333333,-325.0,277.53968253968253,-325.0,-1.507936507936508,-61.19047619047619,-325.0,2.9365079365079363,-2.142857142857143,-166.26984126984127
277.06349206349205,-325.0,273.25396825396825,-12.936507936507935,276.74603174603175,40.714285714285715,279.6031746031746,-171.03174603174602,285.1587301587301,325.0,276.58730158730157,-5.476190476190476,282.77777777777777,301.5079365079365,278.3333333333333,-325.0,277.53968253968253,-325.0,-1.507936507936508,-61.19047619047619,-325.0,2.9365079365079363,-2.142857142857143,-166.26984126984127
262.6190476190476,-325.0,258.015873015873,-10.555555555555555,262.77777777777777,-108.01587301587301,265.1587301587301,-323.88888888888886,271.3492063492063,325.0,261.66666666666663,-3.73015873015873,267.6984126984127,278.6507936507936,264.2063492063492,-325.0,262.46031746031747,-325.0,-0.23809523809523808,-59.76190476190476,-325.0,2.46031746031746,-0.873015873015873,-166.26984126984127
262.6190476190476,-325.0,258.015873015873,-10.555555555555555,262.77777777777777,-108.01587301587301,265.1587301587301,-323.88888888888886,271.3492063492063,325.0,261.66666666666663,-3.73015873015873,267.6984126984127,278.6507936507936,264.2063492063492,-325.0,262.46031746031747,-325.0,-0.23809523809523808,-59.76190476190476,-325.0,2.46031746031746,-0.873015873015873,-166.26984126984127
313.88888888888886,-325.0,311.5079365079365,-17.698412698412696,313.73015873015873,-313.73015873015873,316.26984126984127,-325.0,318.968253968254,325.0,314.5238095238095,-9.603174603174603,316.90476190476187,260.87301587301585,315.6349206349206,-325.0,315.1587301587301,-325.0,-6.111111111111111,-58.49206349206349,-325.0,0.23809523809523808,-0.5555555555555556,-166.26984126984127
313.88888888888886,-325.0,311.5079365079365,-17.698412698412696,313.73015873015873,-313.73015873015873,316.26984126984127,-325.0,318.968253968254,325.0,314.5238095238095,-9.603174603174603,316.90476190476187,260.87301587301585,315.6349206349206,-325.0,315.1587301587301,-325.0,-6.111111111111111,-58.49206349206349,-325.0,0.23809523809523808,-0.5555555555555556,-166.26984126984127
325.0,-325.0,325.0,-18.80952380952381,325.0,-325.0,325.0,-325.0,325.0,325.0,325.0,-9.285714285714285,325.0,92.30158730158729,325.0,-325.0,325.0,-325.0,-7.5396825396825395,-56.74603174603174,-325.0,-0.23809523809523808,-0.07936507936507936,-166.26984126984127
325.0,-325.0,325.0,-18.80952380952381,325.0,-325.0,325.0,-325.0,325.0,325.0,325.0,-9.285714285714285,325.0,92.30158730158729,325.0,-325.0,325.0,-325.0,-7.5396825396825395,-56.74603174603174,-325.0,-0.23809523809523808,-0.07936507936507936,-166.26984126984127
325.0,-325.0,325.0,-22.777777777777775,325.0,-325.0,325.0,-325.0,325.0,325.0,325.0,-12.936507936507935,325.0,156.58730158730157,325.0,-325.0,325.0,-325.0,-11.19047619047619,-55.476190476190474,-325.0,2.619047619047619,-1.0317460317460316,-321.8253968253968
325.0,-325.0,325.0,-22.777777777777775,325.0,-325.0,325.0,-325.0,325.0,325.0,325.0,-12.936507936507935,325.0,156.58730158730157,325.0,-325.0,325.0,-325.0,-11.19047619047619,-55.476190476190474,-325.0,2.619047619047619,-1.0317460317460316,-321.8253968253968
325.0,-325.0,325.0,-19.92063492063492,325.0,-325.0,325.0,-325.0,325.0,325.0,325.0,-8.492063492063492,325.0,100.55555555555554,325.0,-325.0,325.0,-325.0,-7.857142857142857,-54.68253968253968,-325.0,-3.4126984126984126,0.5555555555555556,-321.8253968253968
325.0,-325.0,325.0,-19.92063492063492,325.0,-325.0,325.0,-325.0,325.0,325.0,325.0,-8.492063492063492,325.0,100.55555555555554,325.0,-325.0,325.0,-325.0,-7.857142857142857,-54.68253968253968,-325.0,-3.4126984126984126,0.5555555555555556,-321.8253968253968
325.0,-325.0,324.2063492063492,-21.349206349206348,325.0,-325.0,325.0,-325.0,325.0,325.0,325.0,-8.968253968253968,325.0,312.6190476190476,325.0,-325.0,325.0,-325.0,-8.809523809523808,-53.41269841269841,-325.0,3.095238095238095,-3.4126984126984126,-321.8253968253968
325.0,-325.0,324.2063492063492,-21.349206349206348,325.0,-325.0,325.0,-325.0,325.0,325.0,325.0,-8.968253968253968,325.0,312.6190476190476,325.0,-325.0,325.0,-325.0,-8.809523809523808,-53.41269841269841,-325.0,3.095238095238095,-3.4126984126984126,-321.8253968253968
325.0,-324.04761904761904,325.0,-26.11111111111111,325.0,-325.0,325.0,-325.0,325.0,-325.0,325.0,-10.873015873015872,325.0,325.0,325.0,-325.0,325.0,-325.0,-13.571428571428571,-48.80952380952381,-305.3174603174603,-5.0,0.7142857142857142,-321.8253968253968
325.0,-324.04761904761904,325.0,-26.11111111111111,325.0,-325.0,325.0,-325.0,325.0,-325.0,325.0,-10.873015873015872,325.0,325.0,325.0,-325.0,325.0,-325.0,-13.571428571428571,-48.80952380952381,-305.3174603174603,-5.0,0.7142857142857142,-321.8253968253968
319.4444444444444,-319.2857142857143,316.58730158730157,-16.904761904761905,320.7142857142857,-325.0,321.8253968253968,-325.0,324.68253968253964,-325.0,320.55555555555554,-1.349206349206349,322.9365079365079,325.0,321.3492063492063,-325.0,320.39682539682536,-325.0,-5.317460317460317,-48.33333333333333,-299.9206349206349,2.7777777777777777,-1.349206349206349,-321.8253968253968
319.4444444444444,-319.2857142857143,316.58730158730157,-16.904761904761905,320.7142857142857,-325.0,321.8253968253968,-325.0,324.68253968253964,-325.0,320.55555555555554,-1.349206349206349,322.9365079365079,325.0,321.3492063492063,-325.0,320.39682539682536,-325.0,-5.317460317460317,-48.33333333333333,-299.9206349206349,2.7777777777777777,-1.349206349206349,-321.8253968253968
318.015873015873,-314.04761904761904,313.0952380952381,-21.03174603174603,319.2857142857143,-325.0,320.39682539682536,-325.0,322.9365079365079,-325.0,318.8095238095238,-4.841269841269841,321.66666666666663,325.0,319.6031746031746,-325.0,318.6507936507936,-325.0,-8.492063492063492,-47.38095238095238,-294.68253968253964,-3.888888888888889,0.7142857142857142,-166.26984126984127
318.015873015873,-314.04761904761904,313.0952380952381,-21.03174603174603,319.2857142857143,-325.0,320.39682539682536,-325.0,322.9365079365079,-325.0,318.8095238095238,-4.841269841269841,321.66666666666663,325.0,319.6031746031746,-325.0,318.6507936507936,-325.0,-8.492063492063492,-47.38095238095238,-294.68253968253964,-3.888888888888889,0.7142857142857142,-166.26984126984127
304.8412698412698,-310.23809523809524,299.6031746031746,-21.666666666666664,307.06349206349205,-325.0,309.1269841269841,-325.0,313.88888888888886,-281.031746031746,305.7936507936508,-5.317460317460317,310.55555555555554,325.0,306.90476190476187,-325.0,304.36507936507934,-325.0,-9.920634920634921,-46.904761904761905,-290.7142857142857,-0.5555555555555556,-0.07936507936507936,-166.26984126984127
304.8412698412698,-310.23809523809524,299.6031746031746,-21.666666666666664,307.06349206349205,-325.0,309.1269841269841,-325.0,313.88888888888886,-281.031746031746,305.7936507936508,-5.317460317460317,310.55555555555554,325.0,306.90476190476187,-325.0,304.36507936507934,-325.0,-9.920634920634921,-46.904761904761905,-290.7142857142857,-0.5555555555555556,-0.07936507936507936,-166.26984126984127
246.42857142857142,-304.04761904761904,241.66666666666666,-18.174603174603174,249.9206349206349,-325.0,249.76190476190476,-325.0,254.52380952380952,205.47619047619045,247.06349206349205,-0.7142857142857142,251.8253968253968,325.0,247.53968253968253,-325.0,245.3174603174603,-325.0,-5.7936507936507935,211.19047619047618,-284.36507936507934,-4.0476190476190474,0.23809523809523808,-166.26984126984127
246.42857142857142,-304.04761904761904,241.66666666666666,-18.174603174603174,249.9206349206349,-325.0,249.76190476190476,-325.0,254.52380952380952,205.47619047619045,247.06349206349205,-0.7142857142857142,251.8253968253968,325.0,247.53968253968253,-325.0,245.3174603174603,-325.0,-5.7936507936507935,211.19047619047618,-284.36507936507934,-4.0476190476190474,0.23809523809523808,-166.26984126984127
245.79365079365078,-300.55555555555554,239.12698412698413,-21.03174603174603,246.74603174603172,-325.0,249.60317460317458,-325.0,253.4126984126984,171.8253968253968,243.4126984126984,-4.682539682539682,248.17460317460316,325.0,246.26984126984127,-325.0,241.19047619047618,-325.0,-9.761904761904761,48.650793650793645,-280.39682539682536,1.349206349206349,1.1904761904761905,-166.26984126984127
245.79365079365078,-300.55555555555554,239.12698412698413,-21.03174603174603,246.74603174603172,-325.0,249.60317460317458,-325.0,253.4126984126984,171.8253968253968,243.4126984126984,-4.682539682539682,248.17460317460316,325.0,246.26984126984127,-325.0,241.19047619047618,-325.0,-9.761904761904761,48.650793650793645,-280.39682539682536,1.349206349206349,1.1904761904761905,-166.26984126984127
245.79365079365078,-300.55555555555554,239.12698412698413,-21.03174603174603,246.74603174603172,-325.0,249.60317460317458,-325.0,253.4126984126984,171.8253968253968,243.4126984126984,-4.682539682539682,248.17460317460316,325.0,246.26984126984127,-325.0,241.19047619047618,-325.0,-9.761904761904761,48.650793650793645,-280.39682539682536,1.349206349206349,1.1904761904761905,-166.26984126984127
245.79365079365078,-300.55555555555554,239.12698412698413,-21.03174603174603,246.74603174603172,-325.0,249.60317460317458,-325.0,253.4126984126984,171.8253968253968,243.4126984126984,-4.682539682539682,248.17460317460316,325.0,246.26984126984127,-325.0,241.19047619047618,-325.0,-9.761904761904761,48.650793650793645,-280.39682539682536,1.349206349206349,1.1904761904761905,-166.26984126984127
242.6190476190476,-289.4444444444444,237.06349206349205,-23.41269841269841,245.47619047619045,-325.0,246.42857142857142,-325.0,250.2380952380952,-271.984126984127,242.6190476190476,-5.634920634920634,245.63492063492063,325.0,244.36507936507934,-325.0,241.19047619047618,-325.0,-11.825396825396824,325.0,-269.44444444444446,4.365079365079365,-2.142857142857143,-321.8253968253968
242.6190476190476,-289.4444444444444,237.06349206349205,-23.41269841269841,245.47619047619045,-325.0,246.42857142857142,-325.0,250.2380952380952,-271.984126984127,242.6190476190476,-5.634920634920634,245.63492063492063,325.0,244.36507936507934,-325.0,241.19047619047618,-325.0,-11.825396825396824,325.0,-269.44444444444446,4.365079365079365,-2.142857142857143,-321.8253968253968
256.58730158730157,-284.5238095238095,250.87301587301585,-21.666666666666664,259.2857142857143,-325.0,259.44444444444446,-325.0,263.0952380952381,-325.0,255.95238095238093,-2.7777777777777777,260.23809523809524,325.0,256.58730158730157,-325.0,255.3174603174603,-325.0,-8.968253968253968,325.0,-264.8412698412698,-4.682539682539682,-0.07936507936507936,-321.8253968253968
256.58730158730157,-284.5238095238095,250.87301587301585,-21.666666666666664,259.2857142857143,-325.0,259.44444444444446,-325.0,263.0952380952381,-325.0,255.95238095238093,-2.7777777777777777,260.23809523809524,325.0,256.58730158730157,-325.0,255.3174603174603,-325.0,-8.968253968253968,325.0,-264.8412698412698,-4.682539682539682,-0.07936507936507936,-321.8253968253968
240.7142857142857,-279.76190476190476,234.52380952380952,-23.095238095238095,243.25396825396825,-325.0,245.0,-325.0,248.65079365079364,-325.0,240.55555555555554,-4.682539682539682,244.2063492063492,325.0,242.77777777777777,-325.0,239.28571428571428,-325.0,-11.349206349206348,325.0,-260.07936507936506,3.888888888888889,-1.349206349206349,-321.8253968253968
240.7142857142857,-279.76190476190476,234.52380952380952,-23.095238095238095,243.25396825396825,-325.0,245.0,-325.0,248.65079365079364,-325.0,240.55555555555554,-4.682539682539682,244.2063492063492,325.0,242.77777777777777,-325.0,239.28571428571428,-325.0,-11.349206349206348,325.0,-260.07936507936506,3.888888888888889,-1.349206349206349,-321.8253968253968
200.3968253968254,-275.4761904761905,194.84126984126982,-25.79365079365079,204.2063492063492,-325.0,202.3015873015873,-325.0,206.42857142857142,91.03174603174602,199.44444444444443,-6.26984126984127,203.88888888888889,325.0,199.60317460317458,-325.0,198.33333333333331,-325.0,-13.095238095238095,325.0,-255.47619047619045,-5.158730158730158,0.3968253968253968,-321.8253968253968
200.3968253968254,-275.4761904761905,194.84126984126982,-25.79365079365079,204.2063492063492,-325.0,202.3015873015873,-325.0,206.42857142857142,91.03174603174602,199.44444444444443,-6.26984126984127,203.88888888888889,325.0,199.60317460317458,-325.0,198.33333333333331,-325.0,-13.095238095238095,325.0,-255.47619047619045,-5.158730158730158,0.3968253968253968,-321.8253968253968
220.3968253968254,-270.87301587301585,213.09523809523807,-28.809523809523807,223.25396825396825,-325.0,223.88888888888889,-325.0,228.015873015873,-58.8095238095238,220.7142857142857,-9.444444444444445,225.79365079365078,325.0,221.8253968253968,-325.0,222.46031746031744,-325.0,-16.587301587301585,325.0,-251.03174603174602,-3.571428571428571,1.1904761904761905,-321.8253968253968
220.3968253968254,-270.87301587301585,213.09523809523807,-28.809523809523807,223.25396825396825,-325.0,223.88888888888889,-325.0,228.015873015873,-58.8095238095238,220.7142857142857,-9.444444444444445,225.79365079365078,325.0,221.8253968253968,-325.0,222.46031746031744,-325.0,-16.587301587301585,325.0,-251.03174603174602,-3.571428571428571,1.1904761904761905,-321.8253968253968
206.1111111111111,-263.0952380952381,198.8095238095238,-23.253968253968253,208.65079365079364,-325.0,208.33333333333331,-325.0,211.8253968253968,-325.0,205.47619047619045,-2.9365079365079363,208.8095238095238,301.984126984127,205.47619047619045,-325.0,205.79365079365078,-325.0,-10.238095238095237,325.0,-243.09523809523807,-1.8253968253968254,-1.1904761904761905,-166.26984126984127
206.1111111111111,-263.0952380952381,198.8095238095238,-23.253968253968253,208.65079365079364,-325.0,208.33333333333331,-325.0,211.8253968253968,-325.0,205.47619047619045,-2.9365079365079363,208.8095238095238,301.984126984127,205.47619047619045,-325.0,205.79365079365078,-325.0,-10.238095238095237,325.0,-243.09523809523807,-1.8253968253968254,-1.1904761904761905,-166.26984126984127
222.93650793650792,-256.4285714285714,215.0,-19.285714285714285,225.79365079365078,-325.0,226.9047619047619,-325.0,230.2380952380952,-325.0,223.4126984126984,0.07936507936507936,228.17460317460316,246.26984126984127,225.0,-325.0,225.63492063492063,-325.0,-8.015873015873016,325.0,-236.9047619047619,-5.952380952380952,3.4126984126984126,-166.26984126984127
222.93650793650792,-256.4285714285714,215.0,-19.285714285714285,225.79365079365078,-325.0,226.9047619047619,-325.0,230.2380952380952,-325.0,223.4126984126984,0.07936507936507936,228.17460317460316,246.26984126984127,225.0,-325.0,225.63492063492063,-325.0,-8.015873015873016,325.0,-236.9047619047619,-5.952380952380952,3.4126984126984126,-166.26984126984127
222.93650793650792,-256.4285714285714,215.0,-19.285714285714285,225.79365079365078,-325.0,226.9047619047619,-325.0,230.2380952380952,-325.0,223.4126984126984,0.07936507936507936,228.17460317460316,246.26984126984127,225.0,-325.0,225.63492063492063,-325.0,-8.015873015873016,325.0,-236.9047619047619,-5.952380952380952,3.4126984126984126,-166.26984126984127
222.93650793650792,-256.4285714285714,215.0,-19.285714285714285,225.79365079365078,-325.0,226.9047619047619,-325.0,230.2380952380952,-325.0,223.4126984126984,0.07936507936507936,228.17460317460316,246.26984126984127,225.0,-325.0,225.63492063492063,-325.0,-8.015873015873016,325.0,-236.9047619047619,-5.952380952380952,3.4126984126984126,-166.26984126984127
183.25396825396825,-245.95238095238093,177.85714285714286,-20.555555555555554,188.8095238095238,-325.0,187.38095238095238,-325.0,190.55555555555554,-325.0,184.36507936507937,-1.1904761904761905,187.53968253968253,147.53968253968253,185.95238095238093,-325.0,183.09523809523807,-325.0,-9.603174603174603,325.0,-226.58730158730157,2.46031746031746,-0.23809523809523808,-166.26984126984127
183.25396825396825,-245.95238095238093,177.85714285714286,-20.555555555555554,188.8095238095238,-325.0,187.38095238095238,-325.0,190.55555555555554,-325.0,184.36507936507937,-1.1904761904761905,187.53968253968253,147.53968253968253,185.95238095238093,-325.0,183.09523809523807,-325.0,-9.603174603174603,325.0,-226.58730158730157,2.46031746031746,-0.23809523809523808,-166.26984126984127
183.25396825396825,-245.95238095238093,177.85714285714286,-20.555555555555554,188.8095238095238,-325.0,187.38095238095238,-325.0,190.55555555555554,-325.0,184.36507936507937,-1.1904761904761905,187.53968253968253,147.53968253968253,185.95238095238093,-325.0,183.09523809523807,-325.0,-9.603174603174603,325.0,-226.58730158730157,2.46031746031746,-0.23809523809523808,-166.26984126984127
183.25396825396825,-245.95238095238093,177.85714285714286,-20.555555555555554,188.8095238095238,-325.0,187.38095238095238,-325.0,190.55555555555554,-325.0,184.36507936507937,-1.1904761904761905,187.53968253968253,147.53968253968253,185.95238095238093,-325.0,183.09523809523807,-325.0,-9.603174603174603,325.0,-226.58730158730157,2.46031746031746,-0.23809523809523808,-166.26984126984127
179.12698412698413,-241.03174603174602,173.25396825396825,-22.936507936507937,184.2063492063492,-325.0,183.7301587301587,-325.0,186.42857142857142,-325.0,180.3968253968254,-3.253968253968254,182.77777777777777,234.52380952380952,181.8253968253968,-325.0,179.44444444444443,-325.0,-11.349206349206348,325.0,-221.66666666666666,4.841269841269841,-1.8253968253968254,-321.8253968253968
179.12698412698413,-241.03174603174602,173.25396825396825,-22.936507936507937,184.2063492063492,-325.0,183.7301587301587,-325.0,186.42857142857142,-325.0,180.3968253968254,-3.253968253968254,182.77777777777777,234.52380952380952,181.8253968253968,-325.0,179.44444444444443,-325.0,-11.349206349206348,325.0,-221.66666666666666,4.841269841269841,-1.8253968253968254,-321.8253968253968
89.28571428571428,-232.46031746031744,86.26984126984127,-19.126984126984127,97.6984126984127,-325.0,92.46031746031746,-325.0,96.74603174603175,-0.07936507936507936,93.09523809523809,0.873015873015873,95.0,308.3333333333333,93.25396825396825,-325.0,137.38095238095238,-325.0,-7.857142857142857,325.0,-212.61904761904762,-0.5555555555555556,-0.873015873015873,-321.8253968253968
89.28571428571428,-232.46031746031744,86.26984126984127,-19.126984126984127,97.6984126984127,-325.0,92.46031746031746,-325.0,96.74603174603175,-0.07936507936507936,93.09523809523809,0.873015873015873,95.0,308.3333333333333,93.25396825396825,-325.0,137.38095238095238,-325.0,-7.857142857142857,325.0,-212.61904761904762,-0.5555555555555556,-0.873015873015873,-321.8253968253968
40.39682539682539,-227.85714285714283,36.269841269841265,-24.047619047619047,47.06349206349206,-325.0,42.3015873015873,-325.0,44.84126984126984,325.0,39.44444444444444,-3.4126984126984126,39.12698412698413,325.0,39.12698412698413,-325.0,128.8095238095238,-325.0,-11.349206349206348,325.0,-207.69841269841268,1.6666666666666665,-2.3015873015873014,-321.8253968253968
40.39682539682539,-227.85714285714283,36.269841269841265,-24.047619047619047,47.06349206349206,-325.0,42.3015873015873,-325.0,44.84126984126984,325.0,39.44444444444444,-3.4126984126984126,39.12698412698413,325.0,39.12698412698413,-325.0,128.8095238095238,-325.0,-11.349206349206348,325.0,-207.69841269841268,1.6666666666666665,-2.3015873015873014,-321.8253968253968
30.555555555555554,-223.88888888888889,25.79365079365079,-21.666666666666664,37.22222222222222,-325.0,31.98412698412698,-325.0,35.63492063492063,325.0,31.03174603174603,-1.984126984126984,35.0,325.0,32.3015873015873,-325.0,325.0,-325.0,-10.873015873015872,325.0,-204.2063492063492,-2.142857142857143,0.5555555555555556,-321.8253968253968
30.555555555555554,-223.88888888888889,25.79365079365079,-21.666666666666664,37.22222222222222,-325.0,31.98412698412698,-325.0,35.63492063492063,325.0,31.03174603174603,-1.984126984126984,35.0,325.0,32.3015873015873,-325.0,325.0,-325.0,-10.873015873015872,325.0,-204.2063492063492,-2.142857142857143,0.5555555555555556,-321.8253968253968
46.11111111111111,-220.87301587301587,41.03174603174603,-18.96825396825397,52.14285714285714,-325.0,49.285714285714285,-325.0,51.98412698412698,325.0,46.74603174603175,1.8253968253968254,48.17460317460317,322.46031746031747,47.06349206349206,-325.0,325.0,-325.0,-6.587301587301587,325.0,-201.5079365079365,6.26984126984127,-3.73015873015873,-321.8253968253968
46.11111111111111,-220.87301587301587,41.03174603174603,-18.96825396825397,52.14285714285714,-325.0,49.285714285714285,-325.0,51.98412698412698,325.0,46.74603174603175,1.8253968253968254,48.17460317460317,322.46031746031747,47.06349206349206,-325.0,325.0,-325.0,-6.587301587301587,325.0,-201.5079365079365,6.26984126984127,-3.73015873015873,-321.8253968253968
0.5555555555555556,-218.33333333333331,-4.365079365079365,-12.142857142857142,6.904761904761904,-325.0,2.3015873015873014,-325.0,5.317460317460317,325.0,0.07936507936507936,7.857142857142857,3.095238095238095,323.73015873015873,0.873015873015873,-325.0,325.0,-325.0,-1.0317460317460316,325.0,-198.8095238095238,3.888888888888889,-2.619047619047619,-166.26984126984127
0.5555555555555556,-218.33333333333331,-4.365079365079365,-12.142857142857142,6.904761904761904,-325.0,2.3015873015873014,-325.0,5.317460317460317,325.0,0.07936507936507936,7.857142857142857,3.095238095238095,323.73015873015873,0.873015873015873,-325.0,325.0,-325.0,-1.0317460317460316,325.0,-198.8095238095238,3.888888888888889,-2.619047619047619,-166.26984126984127
-21.984126984126984,-213.09523809523807,-25.952380952380953,-11.666666666666666,-14.206349206349206,-325.0,-20.555555555555554,-325.0,-16.587301587301585,325.0,-20.396825396825395,7.3809523809523805,-15.95238095238095,325.0,-19.285714285714285,-325.0,325.0,-325.0,-1.8253968253968254,325.0,-193.4126984126984,-2.3015873015873014,0.5555555555555556,-166.26984126984127
-21.984126984126984,-213.09523809523807,-25.952380952380953,-11.666666666666666,-14.206349206349206,-325.0,-20.555555555555554,-325.0,-16.587301587301585,325.0,-20.396825396825395,7.3809523809523805,-15.95238095238095,325.0,-19.285714285714285,-325.0,325.0,-325.0,-1.8253968253968254,325.0,-193.4126984126984,-2.3015873015873014,0.5555555555555556,-166.26984126984127
-29.920634920634917,-207.85714285714283,-33.888888888888886,-14.206349206349206,-21.666666666666664,-325.0,-28.333333333333332,-325.0,-24.206349206349206,325.0,-27.22222222222222,5.317460317460317,-24.84126984126984,325.0,-26.9047619047619,-321.031746031746,325.0,-325.0,-3.253968253968254,325.0,-188.33333333333331,-4.365079365079365,1.6666666666666665,-166.26984126984127
-29.920634920634917,-207.85714285714283,-33.888888888888886,-14.206349206349206,-21.666666666666664,-325.0,-28.333333333333332,-325.0,-24.206349206349206,325.0,-27.22222222222222,5.317460317460317,-24.84126984126984,325.0,-26.9047619047619,-321.031746031746,325.0,-325.0,-3.253968253968254,325.0,-188.33333333333331,-4.365079365079365,1.6666666666666665,-166.26984126984127
-68.65079365079364,-201.19047619047618,-72.3015873015873,-4.841269841269841,-62.3015873015873,-325.0,-68.33333333333333,-325.0,-66.42857142857143,325.0,-70.23809523809524,15.0,-69.92063492063491,325.0,-69.76190476190476,-310.87301587301585,325.0,-325.0,6.587301587301587,325.0,-181.984126984127,4.2063492063492065,-3.253968253968254,-166.26984126984127
-68.65079365079364,-201.19047619047618,-72.3015873015873,-4.841269841269841,-62.3015873015873,-325.0,-68.33333333333333,-325.0,-66.42857142857143,325.0,-70.23809523809524,15.0,-69.92063492063491,325.0,-69.76190476190476,-310.87301587301585,325.0,-325.0,6.587301587301587,325.0,-181.984126984127,4.2063492063492065,-3.253968253968254,-166.26984126984127
-56.904761904761905,-197.69841269841268,-61.666666666666664,-12.777777777777777,-50.55555555555555,-325.0,-55.95238095238095,-325.0,-53.095238095238095,325.0,-56.269841269841265,6.428571428571428,-53.888888888888886,325.0,-56.269841269841265,-305.6349206349206,325.0,-325.0,-2.142857142857143,325.0,-178.8095238095238,-3.888888888888889,1.6666666666666665,-166.26984126984127
-56.904761904761905,-197.69841269841268,-61.666666666666664,-12.777777777777777,-50.55555555555555,-325.0,-55.95238095238095,-325.0,-53.095238095238095,325.0,-56.269841269841265,6.428571428571428,-53.888888888888886,325.0,-56.269841269841265,-305.6349206349206,325.0,-325.0,-2.142857142857143,325.0,-178.8095238095238,-3.888888888888889,1.6666666666666665,-166.26984126984127
-69.76190476190476,-194.52380952380952,-72.93650793650794,-7.063492063492063,-63.095238095238095,-325.0,-69.44444444444444,-325.0,-68.01587301587301,325.0,-70.87301587301587,12.936507936507935,-71.34920634920634,293.88888888888886,-71.19047619047619,-300.7142857142857,325.0,-325.0,4.682539682539682,325.0,-175.47619047619045,3.888888888888889,-3.571428571428571,-321.8253968253968
-69.76190476190476,-194.52380952380952,-72.93650793650794,-7.063492063492063,-63.095238095238095,-325.0,-69.44444444444444,-325.0,-68.01587301587301,325.0,-70.87301587301587,12.936507936507935,-71.34920634920634,293.88888888888886,-71.19047619047619,-300.7142857142857,325.0,-325.0,4.682539682539682,325.0,-175.47619047619045,3.888888888888889,-3.571428571428571,-321.8253968253968
-36.74603174603175,-192.14285714285714,-42.460317460317455,-8.492063492063492,-31.349206349206348,-325.0,-36.269841269841265,-325.0,-33.888888888888886,325.0,-37.22222222222222,11.031746031746032,-36.42857142857142,270.39682539682536,-38.17460317460317,-296.58730158730157,325.0,-325.0,3.571428571428571,325.0,-172.77777777777777,-4.365079365079365,0.5555555555555556,-321.8253968253968
-36.74603174603175,-192.14285714285714,-42.460317460317455,-8.492063492063492,-31.349206349206348,-325.0,-36.269841269841265,-325.0,-33.888888888888886,325.0,-37.22222222222222,11.031746031746032,-36.42857142857142,270.39682539682536,-38.17460317460317,-296.58730158730157,325.0,-325.0,3.571428571428571,325.0,-172.77777777777777,-4.365079365079365,0.5555555555555556,-321.8253968253968
-60.238095238095234,-186.58730158730157,-64.84126984126983,-8.333333333333332,-54.68253968253968,-325.0,-60.238095238095234,-325.0,-58.49206349206349,325.0,-60.55555555555555,11.666666666666666,-61.34920634920635,288.015873015873,-62.14285714285714,-288.6507936507936,325.0,-325.0,3.571428571428571,325.0,-167.85714285714286,0.07936507936507936,-2.46031746031746,-321.8253968253968
-60.238095238095234,-186.58730158730157,-64.84126984126983,-8.333333333333332,-54.68253968253968,-325.0,-60.238095238095234,-325.0,-58.49206349206349,325.0,-60.55555555555555,11.666666666666666,-61.34920634920635,288.015873015873,-62.14285714285714,-288.6507936507936,325.0,-325.0,3.571428571428571,325.0,-167.85714285714286,0.07936507936507936,-2.46031746031746,-321.8253968253968
-80.55555555555556,-184.36507936507937,-83.57142857142857,-5.7936507936507935,-72.77777777777777,-325.0,-79.44444444444444,-325.0,-77.22222222222221,325.0,-78.17460317460316,11.984126984126984,-76.1111111111111,307.85714285714283,-78.4920634920635,-284.68253968253964,325.0,-325.0,3.571428571428571,325.0,-165.47619047619045,-5.634920634920634,2.46031746031746,-321.8253968253968
-80.55555555555556,-184.36507936507937,-83.57142857142857,-5.7936507936507935,-72.77777777777777,-325.0,-79.44444444444444,-325.0,-77.22222222222221,325.0,-78.17460317460316,11.984126984126984,-76.1111111111111,307.85714285714283,-78.4920634920635,-284.68253968253964,325.0,-325.0,3.571428571428571,325.0,-165.47619047619045,-5.634920634920634,2.46031746031746,-321.8253968253968
-55.79365079365079,-180.55555555555554,-59.92063492063492,-13.412698412698411,-50.079365079365076,-325.0,-55.63492063492063,-325.0,-54.047619047619044,325.0,-55.476190476190474,5.317460317460317,-56.58730158730158,65.0,-57.22222222222222,-278.8095238095238,325.0,-325.0,-2.142857142857143,325.0,-161.66666666666666,0.3968253968253968,-2.619047619047619,-321.8253968253968
-55.79365079365079,-180.55555555555554,-59.92063492063492,-13.412698412698411,-50.079365079365076,-325.0,-55.63492063492063,-325.0,-54.047619047619044,325.0,-55.476190476190474,5.317460317460317,-56.58730158730158,65.0,-57.22222222222222,-278.8095238095238,325.0,-325.0,-2.142857142857143,325.0,-161.66666666666666,0.3968253968253968,-2.619047619047619,-321.8253968253968
-93.25396825396825,-177.53968253968253,-94.84126984126983,-7.5396825396825395,-85.31746031746032,-325.0,-92.93650793650794,-325.0,-91.66666666666666,325.0,-91.98412698412697,10.396825396825395,-92.14285714285714,151.8253968253968,-92.46031746031746,-274.5238095238095,325.0,-325.0,2.142857142857143,325.0,-159.12698412698413,-0.873015873015873,0.23809523809523808,-166.26984126984127
-93.25396825396825,-177.53968253968253,-94.84126984126983,-7.5396825396825395,-85.31746031746032,-325.0,-92.93650793650794,-325.0,-91.66666666666666,325.0,-91.98412698412697,10.396825396825395,-92.14285714285714,151.8253968253968,-92.46031746031746,-274.5238095238095,325.0,-325.0,2.142857142857143,325.0,-159.12698412698413,-0.873015873015873,0.23809523809523808,-166.26984126984127
-71.66666666666666,-174.68253968253967,-75.79365079365078,-8.492063492063492,-66.11111111111111,-325.0,-71.98412698412697,-325.0,-71.03174603174602,325.0,-71.82539682539682,10.873015873015872,-73.09523809523809,189.44444444444443,-74.2063492063492,-269.9206349206349,325.0,-325.0,3.4126984126984126,325.0,-156.11111111111111,-0.3968253968253968,-2.619047619047619,-166.26984126984127
-71.66666666666666,-174.68253968253967,-75.79365079365078,-8.492063492063492,-66.11111111111111,-325.0,-71.98412698412697,-325.0,-71.03174603174602,325.0,-71.82539682539682,10.873015873015872,-73.09523809523809,189.44444444444443,-74.2063492063492,-269.9206349206349,325.0,-325.0,3.4126984126984126,325.0,-156.11111111111111,-0.3968253968253968,-2.619047619047619,-166.26984126984127
-69.76190476190476,-167.53968253968253,-71.34920634920634,-6.904761904761904,-62.14285714285714,-325.0,-68.80952380952381,-325.0,-68.17460317460318,204.04761904761904,-67.53968253968253,11.031746031746032,-70.07936507936508,257.85714285714283,-69.44444444444444,-227.2222222222222,321.19047619047615,-325.0,3.095238095238095,325.0,-149.44444444444443,4.0476190476190474,-2.46031746031746,-166.26984126984127
-69.76190476190476,-167.53968253968253,-71.34920634920634,-6.904761904761904,-62.14285714285714,-325.0,-68.80952380952381,-325.0,-68.17460317460318,204.04761904761904,-67.53968253968253,11.031746031746032,-70.07936507936508,257.85714285714283,-69.44444444444444,-227.2222222222222,321.19047619047615,-325.0,3.095238095238095,325.0,-149.44444444444443,4.0476190476190474,-2.46031746031746,-166.26984126984127
1.349206349206349,-161.19047619047618,-1.984126984126984,-11.507936507936508,7.222222222222221,-325.0,3.253968253968254,-325.0,3.73015873015873,-59.76190476190476,4.841269841269841,5.158730158730158,3.73015873015873,193.25396825396825,4.2063492063492065,-251.34920634920633,311.8253968253968,-325.0,-2.142857142857143,325.0,-143.25396825396825,1.0317460317460316,0.07936507936507936,-166.26984126984127
1.349206349206349,-161.19047619047618,-1.984126984126984,-11.507936507936508,7.222222222222221,-325.0,3.253968253968254,-325.0,3.73015873015873,-59.76190476190476,4.841269841269841,5.158730158730158,3.73015873015873,193.25396825396825,4.2063492063492065,-251.34920634920633,311.8253968253968,-325.0,-2.142857142857143,325.0,-143.25396825396825,1.0317460317460316,0.07936507936507936,-166.26984126984127
-8.174603174603174,-156.58730158730157,-8.333333333333332,-12.936507936507935,0.3968253968253968,-325.0,-7.063492063492063,-325.0,-7.3809523809523805,33.41269841269841,-3.888888888888889,4.365079365079365,-7.857142857142857,228.96825396825395,-6.904761904761904,-244.04761904761904,302.6190476190476,-325.0,-3.253968253968254,325.0,-138.8095238095238,-5.158730158730158,1.349206349206349,-166.26984126984127
-8.174603174603174,-156.58730158730157,-8.333333333333332,-12.936507936507935,0.3968253968253968,-325.0,-7.063492063492063,-325.0,-7.3809523809523805,33.41269841269841,-3.888888888888889,4.365079365079365,-7.857142857142857,228.96825396825395,-6.904761904761904,-244.04761904761904,302.6190476190476,-325.0,-3.253968253968254,325.0,-138.8095238095238,-5.158730158730158,1.349206349206349,-166.26984126984127
-75.0,-153.4126984126984,-77.06349206349206,-4.682539682539682,-68.17460317460318,-325.0,-76.1111111111111,-325.0,-77.06349206349206,227.2222222222222,-74.52380952380952,12.142857142857142,-76.74603174603175,178.65079365079364,-77.6984126984127,-239.12698412698413,295.95238095238096,-325.0,5.634920634920634,325.0,-135.79365079365078,-0.7142857142857142,-0.23809523809523808,-321.8253968253968
-75.0,-153.4126984126984,-77.06349206349206,-4.682539682539682,-68.17460317460318,-325.0,-76.1111111111111,-325.0,-77.06349206349206,227.2222222222222,-74.52380952380952,12.142857142857142,-76.74603174603175,178.65079365079364,-77.6984126984127,-239.12698412698413,295.95238095238096,-325.0,5.634920634920634,325.0,-135.79365079365078,-0.7142857142857142,-0.23809523809523808,-321.8253968253968
-48.650793650793645,72.46031746031746,88.01587301587301,-41.34920634920635,-172.61904761904762,-150.3968253968254,-15.476190476190474,-172.61904761904762,105.15873015873015,-54.68253968253968,-54.68253968253968,10.873015873015872,95.31746031746032,280.7142857142857,94.2063492063492,-234.04761904761904,137.22222222222223,-311.19047619047615,15.158730158730158,314.8412698412698,-142.93650793650792,-1.349206349206349,-1.0317460317460316,-321.8253968253968
-48.650793650793645,72.46031746031746,88.01587301587301,-41.34920634920635,-172.61904761904762,-150.3968253968254,-15.476190476190474,-172.61904761904762,105.15873015873015,-54.68253968253968,-54.68253968253968,10.873015873015872,95.31746031746032,280.7142857142857,94.2063492063492,-234.04761904761904,137.22222222222223,-311.19047619047615,15.158730158730158,314.8412698412698,-142.93650793650792,-1.349206349206349,-1.0317460317460316,-321.8253968253968
-46.58730158730158,-146.11111111111111,-48.80952380952381,-8.492063492063492,-40.87301587301587,-325.0,-47.22222222222222,-324.2063492063492,-48.80952380952381,-325.0,-45.63492063492063,8.015873015873016,-48.33333333333333,325.0,-48.650793650793645,-227.38095238095238,280.55555555555554,-312.77777777777777,1.507936507936508,325.0,-128.4920634920635,-0.873015873015873,-0.3968253968253968,-321.8253968253968
-46.58730158730158,-146.11111111111111,-48.80952380952381,-8.492063492063492,-40.87301587301587,-325.0,-47.22222222222222,-324.2063492063492,-48.80952380952381,-325.0,-45.63492063492063,8.015873015873016,-48.33333333333333,325.0,-48.650793650793645,-227.38095238095238,280.55555555555554,-312.77777777777777,1.507936507936508,325.0,-128.4920634920635,-0.873015873015873,-0.3968253968253968,-321.8253968253968
-35.15873015873016,-143.25396825396825,-38.01587301587301,-8.968253968253968,-30.396825396825395,-325.0,-35.63492063492063,-320.87301587301585,-37.698412698412696,-325.0,-34.682539682539684,8.015873015873016,-37.857142857142854,325.0,-38.49206349206349,-223.57142857142856,276.1111111111111,-307.69841269841265,2.142857142857143,325.0,-126.26984126984127,4.2063492063492065,-3.73015873015873,-321.8253968253968
-35.15873015873016,-143.25396825396825,-38.01587301587301,-8.968253968253968,-30.396825396825395,-325.0,-35.63492063492063,-320.87301587301585,-37.698412698412696,-325.0,-34.682539682539684,8.015873015873016,-37.857142857142854,325.0,-38.49206349206349,-223.57142857142856,276.1111111111111,-307.69841269841265,2.142857142857143,325.0,-126.26984126984127,4.2063492063492065,-3.73015873015873,-321.8253968253968
-35.15873015873016,-143.25396825396825,-38.01587301587301,-8.968253968253968,-30.396825396825395,-325.0,-35.63492063492063,-320.87301587301585,-37.698412698412696,-325.0,-34.682539682539684,8.015873015873016,-37.857142857142854,325.0,-38.49206349206349,-223.57142857142856,276.1111111111111,-307.69841269841265,2.142857142857143,325.0,-126.26984126984127,4.2063492063492065,-3.73015873015873,-321.8253968253968
-35.15873015873016,-143.25396825396825,-38.01587301587301,-8.968253968253968,-30.396825396825395,-325.0,-35.63492063492063,-320.87301587301585,-37.698412698412696,-325.0,-34.682539682539684,8.015873015873016,-37.857142857142854,325.0,-38.49206349206349,-223.57142857142856,276.1111111111111,-307.69841269841265,2.142857142857143,325.0,-126.26984126984127,4.2063492063492065,-3.73015873015873,-321.8253968253968
-37.698412698412696,-138.8095238095238,-41.34920634920635,-8.333333333333332,-33.57142857142857,-315.0,-37.53968253968254,-310.87301587301585,-39.92063492063492,-325.0,-36.904761904761905,7.3809523809523805,-40.55555555555555,325.0,-40.238095238095234,-216.1111111111111,266.4285714285714,-298.015873015873,1.6666666666666665,325.0,-121.66666666666666,4.0476190476190474,-3.4126984126984126,-166.26984126984127
-37.698412698412696,-138.8095238095238,-41.34920634920635,-8.333333333333332,-33.57142857142857,-315.0,-37.53968253968254,-310.87301587301585,-39.92063492063492,-325.0,-36.904761904761905,7.3809523809523805,-40.55555555555555,325.0,-40.238095238095234,-216.1111111111111,266.4285714285714,-298.015873015873,1.6666666666666665,325.0,-121.66666666666666,4.0476190476190474,-3.4126984126984126,-166.26984126984127
-37.698412698412696,-138.8095238095238,-41.34920634920635,-8.333333333333332,-33.57142857142857,-315.0,-37.53968253968254,-310.87301587301585,-39.92063492063492,-325.0,-36.904761904761905,7.3809523809523805,-40.55555555555555,325.0,-40.238095238095234,-216.1111111111111,266.4285714285714,-298.015873015873,1.6666666666666665,325.0,-121.66666666666666,4.0476190476190474,-3.4126984126984126,-166.26984126984127
-37.698412698412696,-138.8095238095238,-41.34920634920635,-8.333333333333332,-33.57142857142857,-315.0,-37.53968253968254,-310.87301587301585,-39.92063492063492,-325.0,-36.904761904761905,7.3809523809523805,-40.55555555555555,325.0,-40.238095238095234,-216.1111111111111,266.4285714285714,-298.015873015873,1.6666666666666665,325.0,-121.66666666666666,4.0476190476190474,-3.4126984126984126,-166.26984126984127
-37.698412698412696,-138.8095238095238,-41.34920634920635,-8.333333333333332,-33.57142857142857,-315.0,-37.53968253968254,-310.87301587301585,-39.92063492063492,-325.0,-36.904761904761905,7.3809523809523805,-40.55555555555555,325.0,-40.238095238095234,-216.1111111111111,266.4285714285714,-298.015873015873,1.6666666666666665,325.0,-121.66666666666666,4.0476190476190474,-3.4126984126984126,-166.26984126984127
-37.698412698412696,-138.8095238095238,-41.34920634920635,-8.333333333333332,-33.57142857142857,-315.0,-37.53968253968254,-310.87301587301585,-39.92063492063492,-325.0,-36.904761904761905,7.3809523809523805,-40.55555555555555,325.0,-40.238095238095234,-216.1111111111111,266.4285714285714,-298.015873015873,1.6666666666666665,325.0,-121.66666666666666,4.0476190476190474,-3.4126984126984126,-166.26984126984127
-53.095238095238095,-130.55555555555554,-55.317460317460316,-7.3809523809523805,-48.650793650793645,-297.06349206349205,-54.2063492063492,-293.25396825396825,-56.74603174603174,-81.5079365079365,-52.61904761904761,7.3809523809523805,-55.95238095238095,325.0,-56.58730158730158,-203.4126984126984,249.9206349206349,-281.19047619047615,1.8253968253968254,325.0,-114.04761904761904,4.2063492063492065,-2.9365079365079363,-166.26984126984127
-53.095238095238095,-130.55555555555554,-55.317460317460316,-7.3809523809523805,-48.650793650793645,-297.06349206349205,-54.2063492063492,-293.25396825396825,-56.74603174603174,-81.5079365079365,-52.61904761904761,7.3809523809523805,-55.95238095238095,325.0,-56.58730158730158,-203.4126984126984,249.9206349206349,-281.19047619047615,1.8253968253968254,325.0,-114.04761904761904,4.2063492063492065,-2.9365079365079363,-166.26984126984127
-176.11111111111111,-121.03174603174602,-174.84126984126982,5.0,-168.8095238095238,-275.6349206349206,-177.38095238095238,-272.46031746031747,-177.85714285714286,325.0,-172.61904761904762,19.444444444444443,-177.85714285714286,302.77777777777777,-176.74603174603175,-188.4920634920635,230.55555555555554,-261.1904761904762,14.523809523809524,325.0,-105.15873015873015,-1.8253968253968254,-1.0317460317460316,-166.26984126984127
-176.11111111111111,-121.03174603174602,-174.84126984126982,5.0,-168.8095238095238,-275.6349206349206,-177.38095238095238,-272.46031746031747,-177.85714285714286,325.0,-172.61904761904762,19.444444444444443,-177.85714285714286,302.77777777777777,-176.74603174603175,-188.4920634920635,230.55555555555554,-261.1904761904762,14.523809523809524,325.0,-105.15873015873015,-1.8253968253968254,-1.0317460317460316,-166.26984126984127
-86.1111111111111,-118.96825396825396,-91.5079365079365,-0.07936507936507936,-85.79365079365078,-271.984126984127,-86.42857142857143,-269.1269841269841,-90.39682539682539,60.71428571428571,-87.38095238095238,12.46031746031746,-90.87301587301587,278.4920634920635,-88.4920634920635,-186.11111111111111,227.69841269841268,-257.85714285714283,7.222222222222221,325.0,-103.73015873015872,-1.507936507936508,4.0476190476190474,-321.8253968253968
-86.1111111111111,-118.96825396825396,-91.5079365079365,-0.07936507936507936,-85.79365079365078,-271.984126984127,-86.42857142857143,-269.1269841269841,-90.39682539682539,60.71428571428571,-87.38095238095238,12.46031746031746,-90.87301587301587,278.4920634920635,-88.4920634920635,-186.11111111111111,227.69841269841268,-257.85714285714283,7.222222222222221,325.0,-103.73015873015872,-1.507936507936508,4.0476190476190474,-321.8253968253968
-103.73015873015872,-116.9047619047619,-101.34920634920634,3.888888888888889,-97.53968253968253,-266.74603174603175,-104.2063492063492,-263.73015873015873,-105.95238095238095,-325.0,-99.12698412698413,17.698412698412696,-104.36507936507935,289.76190476190476,-104.04761904761904,-182.14285714285714,222.77777777777777,-253.25396825396825,12.936507936507935,325.0,-101.19047619047619,-2.3015873015873014,-2.619047619047619,-321.8253968253968
-103.73015873015872,-116.9047619047619,-101.34920634920634,3.888888888888889,-97.53968253968253,-266.74603174603175,-104.2063492063492,-263.73015873015873,-105.95238095238095,-325.0,-99.12698412698413,17.698412698412696,-104.36507936507935,289.76190476190476,-104.04761904761904,-182.14285714285714,222.77777777777777,-253.25396825396825,12.936507936507935,325.0,-101.19047619047619,-2.3015873015873014,-2.619047619047619,-321.8253968253968
-120.71428571428571,-114.04761904761904,-121.98412698412697,5.7936507936507935,-116.42857142857142,-260.07936507936506,-122.6190476190476,-257.6984126984127,-123.25396825396825,59.285714285714285,-117.38095238095238,18.333333333333332,-118.17460317460316,230.7142857142857,-121.34920634920634,-177.53968253968253,216.74603174603175,-246.9047619047619,13.253968253968253,325.0,-98.65079365079364,2.46031746031746,-3.4126984126984126,-321.8253968253968
-120.71428571428571,-114.04761904761904,-121.98412698412697,5.7936507936507935,-116.42857142857142,-260.07936507936506,-122.6190476190476,-257.6984126984127,-123.25396825396825,59.285714285714285,-117.38095238095238,18.333333333333332,-118.17460317460316,230.7142857142857,-121.34920634920634,-177.53968253968253,216.74603174603175,-246.9047619047619,13.253968253968253,325.0,-98.65079365079364,2.46031746031746,-3.4126984126984126,-321.8253968253968
-78.96825396825396,-111.98412698412697,-78.4920634920635,-2.46031746031746,-75.0,-256.1111111111111,-78.96825396825396,-253.4126984126984,-81.19047619047619,-286.26984126984127,-75.31746031746032,10.079365079365079,-81.5079365079365,295.6349206349206,-78.01587301587301,-174.52380952380952,212.93650793650792,-242.93650793650792,5.317460317460317,324.2063492063492,-96.9047619047619,-3.4126984126984126,1.6666666666666665,-321.8253968253968
-78.96825396825396,-111.98412698412697,-78.4920634920635,-2.46031746031746,-75.0,-256.1111111111111,-78.96825396825396,-253.4126984126984,-81.19047619047619,-286.26984126984127,-75.31746031746032,10.079365079365079,-81.5079365079365,295.6349206349206,-78.01587301587301,-174.52380952380952,212.93650793650792,-242.93650793650792,5.317460317460317,324.2063492063492,-96.9047619047619,-3.4126984126984126,1.6666666666666665,-321.8253968253968
-125.95238095238095,-109.76190476190476,-125.47619047619047,3.253968253968254,-121.03174603174602,-250.87301587301585,-128.33333333333331,-248.33333333333331,-129.28571428571428,-0.07936507936507936,-122.77777777777777,15.476190476190474,-126.42857142857142,301.984126984127,-127.38095238095238,-171.19047619047618,208.4920634920635,-238.17460317460316,10.714285714285714,317.85714285714283,-94.68253968253968,-1.349206349206349,-1.349206349206349,-321.8253968253968
-125.95238095238095,-109.76190476190476,-125.47619047619047,3.253968253968254,-121.03174603174602,-250.87301587301585,-128.33333333333331,-248.33333333333331,-129.28571428571428,-0.07936507936507936,-122.77777777777777,15.476190476190474,-126.42857142857142,301.984126984127,-127.38095238095238,-171.19047619047618,208.4920634920635,-238.17460317460316,10.714285714285714,317.85714285714283,-94.68253968253968,-1.349206349206349,-1.349206349206349,-321.8253968253968
-74.84126984126983,-104.04761904761904,-75.31746031746032,-7.063492063492063,-72.77777777777777,-238.015873015873,-75.47619047619047,-235.79365079365078,-78.33333333333333,-248.17460317460316,-72.77777777777777,3.888888888888889,-76.74603174603175,287.53968253968253,-75.95238095238095,-161.984126984127,196.74603174603175,-225.95238095238093,-0.23809523809523808,301.19047619047615,-89.28571428571428,1.984126984126984,-1.507936507936508,-166.26984126984127
-74.84126984126983,-104.04761904761904,-75.31746031746032,-7.063492063492063,-72.77777777777777,-238.015873015873,-75.47619047619047,-235.79365079365078,-78.33333333333333,-248.17460317460316,-72.77777777777777,3.888888888888889,-76.74603174603175,287.53968253968253,-75.95238095238095,-161.984126984127,196.74603174603175,-225.95238095238093,-0.23809523809523808,301.19047619047615,-89.28571428571428,1.984126984126984,-1.507936507936508,-166.26984126984127
-146.42857142857142,-97.06349206349206,-144.68253968253967,8.015873015873016,-142.61904761904762,-222.3015873015873,-148.8095238095238,-220.3968253968254,-149.44444444444443,-178.33333333333331,-142.93650793650792,19.444444444444443,-149.28571428571428,267.06349206349205,-147.53968253968253,-151.03174603174602,182.77777777777777,-211.34920634920633,15.476190476190474,281.031746031746,-82.77777777777777,-0.5555555555555556,-1.0317460317460316,-166.26984126984127
-146.42857142857142,-97.06349206349206,-144.68253968253967,8.015873015873016,-142.61904761904762,-222.3015873015873,-148.8095238095238,-220.3968253968254,-149.44444444444443,-178.33333333333331,-142.93650793650792,19.444444444444443,-149.28571428571428,267.06349206349205,-147.53968253968253,-151.03174603174602,182.77777777777777,-211.34920634920633,15.476190476190474,281.031746031746,-82.77777777777777,-0.5555555555555556,-1.0317460317460316,-166.26984126984127
-130.7142857142857,-91.19047619047619,-129.44444444444443,9.920634920634921,-128.65079365079364,-209.44444444444443,-132.46031746031744,-208.015873015873,-133.73015873015873,-325.0,-127.85714285714285,19.6031746031746,-132.93650793650792,250.55555555555554,-131.8253968253968,-142.14285714285714,171.5079365079365,-199.60317460317458,15.476190476190474,264.68253968253964,-77.38095238095238,-1.507936507936508,2.3015873015873014,-166.26984126984127
-130.7142857142857,-91.19047619047619,-129.44444444444443,9.920634920634921,-128.65079365079364,-209.44444444444443,-132.46031746031744,-208.015873015873,-133.73015873015873,-325.0,-127.85714285714285,19.6031746031746,-132.93650793650792,250.55555555555554,-131.8253968253968,-142.14285714285714,171.5079365079365,-199.60317460317458,15.476190476190474,264.68253968253964,-77.38095238095238,-1.507936507936508,2.3015873015873014,-166.26984126984127
-130.7142857142857,-91.19047619047619,-129.44444444444443,9.920634920634921,-128.65079365079364,-209.44444444444443,-132.46031746031744,-208.015873015873,-133.73015873015873,-325.0,-127.85714285714285,19.6031746031746,-132.93650793650792,250.55555555555554,-131.8253968253968,-142.14285714285714,171.5079365079365,-199.60317460317458,15.476190476190474,264.68253968253964,-77.38095238095238,-1.507936507936508,2.3015873015873014,-166.26984126984127
-130.7142857142857,-91.19047619047619,-129.44444444444443,9.920634920634921,-128.65079365079364,-209.44444444444443,-132.46031746031744,-208.015873015873,-133.73015873015873,-325.0,-127.85714285714285,19.6031746031746,-132.93650793650792,250.55555555555554,-131.8253968253968,-142.14285714285714,171.5079365079365,-199.60317460317458,15.476190476190474,264.68253968253964,-77.38095238095238,-1.507936507936508,2.3015873015873014,-166.26984126984127
-144.52380952380952,-88.80952380952381,-142.77777777777777,4.365079365079365,-142.61904761904762,-203.7301587301587,-146.58730158730157,-202.46031746031744,-147.2222222222222,-0.07936507936507936,-141.34920634920636,13.73015873015873,-146.9047619047619,242.93650793650792,-146.11111111111111,-138.17460317460316,166.26984126984127,-194.2063492063492,10.396825396825395,256.90476190476187,-75.15873015873015,-4.365079365079365,2.142857142857143,-166.26984126984127
-144.52380952380952,-88.80952380952381,-142.77777777777777,4.365079365079365,-142.61904761904762,-203.7301587301587,-146.58730158730157,-202.46031746031744,-147.2222222222222,-0.07936507936507936,-141.34920634920636,13.73015873015873,-146.9047619047619,242.93650793650792,-146.11111111111111,-138.17460317460316,166.26984126984127,-194.2063492063492,10.396825396825395,256.90476190476187,-75.15873015873015,-4.365079365079365,2.142857142857143,-166.26984126984127
-145.3174603174603,-83.73015873015872,-143.73015873015873,-0.873015873015873,-143.73015873015873,-192.46031746031744,-147.69841269841268,-191.34920634920633,-147.06349206349205,273.4126984126984,-141.34920634920636,8.174603174603174,-146.11111111111111,190.87301587301587,-146.9047619047619,-130.23809523809524,156.26984126984127,-183.4126984126984,5.634920634920634,242.3015873015873,-70.71428571428571,-3.888888888888889,-0.23809523809523808,-321.8253968253968
-145.3174603174603,-83.73015873015872,-143.73015873015873,-0.873015873015873,-143.73015873015873,-192.46031746031744,-147.69841269841268,-191.34920634920633,-147.06349206349205,273.4126984126984,-141.34920634920636,8.174603174603174,-146.11111111111111,190.87301587301587,-146.9047619047619,-130.23809523809524,156.26984126984127,-183.4126984126984,5.634920634920634,242.3015873015873,-70.71428571428571,-3.888888888888889,-0.23809523809523808,-321.8253968253968
-121.98412698412697,-80.23809523809523,-120.71428571428571,-1.6666666666666665,-122.14285714285714,-184.52380952380952,-122.77777777777777,-183.57142857142856,-124.04761904761904,-18.65079365079365,-118.96825396825396,6.428571428571428,-125.31746031746032,197.53968253968253,-122.93650793650794,-124.68253968253967,149.28571428571428,-176.11111111111111,4.0476190476190474,232.46031746031744,-67.53968253968253,-3.73015873015873,1.8253968253968254,-321.8253968253968
-121.98412698412697,-80.23809523809523,-120.71428571428571,-1.6666666666666665,-122.14285714285714,-184.52380952380952,-122.77777777777777,-183.57142857142856,-124.04761904761904,-18.65079365079365,-118.96825396825396,6.428571428571428,-125.31746031746032,197.53968253968253,-122.93650793650794,-124.68253968253967,149.28571428571428,-176.11111111111111,4.0476190476190474,232.46031746031744,-67.53968253968253,-3.73015873015873,1.8253968253968254,-321.8253968253968
-118.96825396825396,-78.96825396825396,-118.17460317460316,-2.7777777777777777,-119.76190476190476,-181.66666666666666,-119.76190476190476,-180.7142857142857,-121.03174603174602,155.47619047619048,-116.42857142857142,5.0,-123.09523809523809,207.06349206349205,-120.55555555555554,-122.77777777777777,146.74603174603175,-173.25396825396825,2.46031746031746,228.65079365079364,-66.42857142857143,-3.253968253968254,2.46031746031746,-321.8253968253968
-118.96825396825396,-78.96825396825396,-118.17460317460316,-2.7777777777777777,-119.76190476190476,-181.66666666666666,-119.76190476190476,-180.7142857142857,-121.03174603174602,155.47619047619048,-116.42857142857142,5.0,-123.09523809523809,207.06349206349205,-120.55555555555554,-122.77777777777777,146.74603174603175,-173.25396825396825,2.46031746031746,228.65079365079364,-66.42857142857143,-3.253968253968254,2.46031746031746,-321.8253968253968
-159.76190476190476,-77.38095238095238,-158.65079365079364,3.095238095238095,-159.9206349206349,-178.015873015873,-162.14285714285714,-177.2222222222222,-161.8253968253968,325.0,-157.06349206349205,10.714285714285714,-162.93650793650792,212.61904761904762,-161.66666666666666,-120.07936507936508,143.4126984126984,-169.9206349206349,8.333333333333332,223.7301587301587,-64.84126984126983,0.07936507936507936,0.07936507936507936,-321.8253968253968
-159.76190476190476,-77.38095238095238,-158.65079365079364,3.095238095238095,-159.9206349206349,-178.015873015873,-162.14285714285714,-177.2222222222222,-161.8253968253968,325.0,-157.06349206349205,10.714285714285714,-162.93650793650792,212.61904761904762,-161.66666666666666,-120.07936507936508,143.4126984126984,-169.9206349206349,8.333333333333332,223.7301587301587,-64.84126984126983,0.07936507936507936,0.07936507936507936,-321.8253968253968
-188.33333333333331,-74.84126984126983,-186.11111111111111,12.619047619047619,-188.4920634920635,-172.14285714285714,-190.7142857142857,-171.66666666666666,-190.23809523809524,325.0,-173.73015873015873,20.238095238095237,-191.03174603174602,205.3174603174603,-189.12698412698413,-116.26984126984127,138.4920634920635,-164.52380952380952,17.857142857142858,216.1111111111111,-62.61904761904761,0.23809523809523808,-0.07936507936507936,-321.8253968253968
-188.33333333333331,-74.84126984126983,-186.11111111111111,12.619047619047619,-188.4920634920635,-172.14285714285714,-190.7142857142857,-171.66666666666666,-190.23809523809524,325.0,-173.73015873015873,20.238095238095237,-191.03174603174602,205.3174603174603,-189.12698412698413,-116.26984126984127,138.4920634920635,-164.52380952380952,17.857142857142858,216.1111111111111,-62.61904761904761,0.23809523809523808,-0.07936507936507936,-321.8253968253968
-163.88888888888889,-73.4126984126984,-163.25396825396825,4.365079365079365,-165.79365079365078,-168.65079365079364,-167.06349206349205,-168.015873015873,-166.58730158730157,325.0,-32.14285714285714,11.666666666666666,-166.42857142857142,200.55555555555554,-166.58730158730157,-113.73015873015872,135.3174603174603,-161.19047619047618,9.920634920634921,211.8253968253968,-61.03174603174603,-3.4126984126984126,-0.23809523809523808,-166.26984126984127
-163.88888888888889,-73.4126984126984,-163.25396825396825,4.365079365079365,-165.79365079365078,-168.65079365079364,-167.06349206349205,-168.015873015873,-166.58730158730157,325.0,-32.14285714285714,11.666666666666666,-166.42857142857142,200.55555555555554,-166.58730158730157,-113.73015873015872,135.3174603174603,-161.19047619047618,9.920634920634921,211.8253968253968,-61.03174603174603,-3.4126984126984126,-0.23809523809523808,-166.26984126984127
-185.47619047619045,-72.14285714285714,-183.09523809523807,11.031746031746032,-186.42857142857142,-165.95238095238093,-188.17460317460316,-165.3174603174603,-188.17460317460316,325.0,-31.19047619047619,18.174603174603174,-189.76190476190476,197.06349206349205,-187.06349206349205,-111.98412698412697,132.93650793650792,-158.4920634920635,16.11111111111111,208.17460317460316,-60.238095238095234,3.73015873015873,-0.7142857142857142,-166.26984126984127
-185.47619047619045,-72.14285714285714,-183.09523809523807,11.031746031746032,-186.42857142857142,-165.95238095238093,-188.17460317460316,-165.3174603174603,-188.17460317460316,325.0,-31.19047619047619,18.174603174603174,-189.76190476190476,197.06349206349205,-187.06349206349205,-111.98412698412697,132.93650793650792,-158.4920634920635,16.11111111111111,208.17460317460316,-60.238095238095234,3.73015873015873,-0.7142857142857142,-166.26984126984127
-148.8095238095238,-70.87301587301587,-147.85714285714286,14.047619047619047,-150.87301587301587,-163.09523809523807,-152.46031746031744,-162.77777777777777,-151.66666666666666,303.57142857142856,78.65079365079364,21.349206349206348,-151.5079365079365,193.57142857142856,-151.66666666666666,-110.07936507936508,130.7142857142857,-155.95238095238093,19.6031746031746,204.84126984126982,-59.12698412698413,-3.73015873015873,0.23809523809523808,-166.26984126984127
-148.8095238095238,-70.87301587301587,-147.85714285714286,14.047619047619047,-150.87301587301587,-163.09523809523807,-152.46031746031744,-162.77777777777777,-151.66666666666666,303.57142857142856,78.65079365079364,21.349206349206348,-151.5079365079365,193.57142857142856,-151.66666666666666,-110.07936507936508,130.7142857142857,-155.95238095238093,19.6031746031746,204.84126984126982,-59.12698412698413,-3.73015873015873,0.23809523809523808,-166.26984126984127
-156.74603174603175,-69.12698412698413,-154.84126984126982,9.444444444444445,-158.015873015873,-159.12698412698413,-159.44444444444443,-158.96825396825395,-157.69841269841268,31.03174603174603,116.9047619047619,16.11111111111111,-160.3968253968254,188.33333333333331,-157.06349206349205,-107.22222222222221,127.06349206349206,-152.3015873015873,14.682539682539682,199.60317460317458,-57.22222222222222,2.46031746031746,-2.9365079365079363,-166.26984126984127
-156.74603174603175,-69.12698412698413,-154.84126984126982,9.444444444444445,-158.015873015873,-159.12698412698413,-159.44444444444443,-158.96825396825395,-157.69841269841268,31.03174603174603,116.9047619047619,16.11111111111111,-160.3968253968254,188.33333333333331,-157.06349206349205,-107.22222222222221,127.06349206349206,-152.3015873015873,14.682539682539682,199.60317460317458,-57.22222222222222,2.46031746031746,-2.9365079365079363,-166.26984126984127
-121.98412698412697,-68.65079365079364,-122.14285714285714,4.841269841269841,-125.15873015873015,-158.33333333333331,-124.84126984126983,-158.015873015873,-123.57142857142857,-229.28571428571428,5.0,11.825396825396824,-126.42857142857142,187.53968253968253,-123.88888888888889,-106.58730158730158,126.42857142857142,-151.5079365079365,10.714285714285714,198.8095238095238,-56.904761904761905,-0.5555555555555556,-1.507936507936508,-166.26984126984127
-121.98412698412697,-68.65079365079364,-122.14285714285714,4.841269841269841,-125.15873015873015,-158.33333333333331,-124.84126984126983,-158.015873015873,-123.57142857142857,-229.28571428571428,5.0,11.825396825396824,-126.42857142857142,187.53968253968253,-123.88888888888889,-106.58730158730158,126.42857142857142,-151.5079365079365,10.714285714285714,198.8095238095238,-56.904761904761905,-0.5555555555555556,-1.507936507936508,-166.26984126984127
-134.04761904761904,-66.9047619047619,-128.015873015873,-5.634920634920634,-131.8253968253968,-154.68253968253967,-136.74603174603175,-154.2063492063492,-134.52380952380952,325.0,325.0,1.1904761904761905,-134.68253968253967,182.46031746031744,-132.93650793650792,-104.04761904761904,123.4126984126984,-148.015873015873,-1.0317460317460316,194.04761904761904,-55.63492063492063,5.317460317460317,-5.317460317460317,-321.8253968253968
-134.04761904761904,-66.9047619047619,-128.015873015873,-5.634920634920634,-131.8253968253968,-154.68253968253967,-136.74603174603175,-154.2063492063492,-134.52380952380952,325.0,325.0,1.1904761904761905,-134.68253968253967,182.46031746031744,-132.93650793650792,-104.04761904761904,123.4126984126984,-148.015873015873,-1.0317460317460316,194.04761904761904,-55.63492063492063,5.317460317460317,-5.317460317460317,-321.8253968253968
-120.07936507936508,-65.15873015873015,-119.76190476190476,-2.9365079365079363,-123.73015873015872,-150.23809523809524,-122.46031746031746,-150.07936507936506,-121.66666666666666,130.07936507936506,325.0,2.46031746031746,-121.82539682539682,177.06349206349205,-121.66666666666666,-101.03174603174602,119.6031746031746,-143.88888888888889,0.873015873015873,188.33333333333331,-53.888888888888886,3.253968253968254,-1.0317460317460316,-321.8253968253968
-120.07936507936508,-65.15873015873015,-119.76190476190476,-2.9365079365079363,-123.73015873015872,-150.23809523809524,-122.46031746031746,-150.07936507936506,-121.66666666666666,130.07936507936506,325.0,2.46031746031746,-121.82539682539682,177.06349206349205,-121.66666666666666,-101.03174603174602,119.6031746031746,-143.88888888888889,0.873015873015873,188.33333333333331,-53.888888888888886,3.253968253968254,-1.0317460317460316,-321.8253968253968
-132.61904761904762,-64.36507936507937,-129.28571428571428,-1.507936507936508,-133.4126984126984,-148.4920634920635,-134.84126984126982,-148.33333333333331,-132.46031746031744,9.920634920634921,325.0,4.0476190476190474,-132.46031746031744,174.84126984126982,-131.66666666666666,-99.92063492063491,118.01587301587301,-142.14285714285714,2.3015873015873014,185.79365079365078,-53.41269841269841,-0.3968253968253968,-0.5555555555555556,-321.8253968253968
-132.61904761904762,-64.36507936507937,-129.28571428571428,-1.507936507936508,-133.4126984126984,-148.4920634920635,-134.84126984126982,-148.33333333333331,-132.46031746031744,9.920634920634921,325.0,4.0476190476190474,-132.46031746031744,174.84126984126982,-131.66666666666666,-99.92063492063491,118.01587301587301,-142.14285714285714,2.3015873015873014,185.79365079365078,-53.41269841269841,-0.3968253968253968,-0.5555555555555556,-321.8253968253968
-137.53968253968253,-63.73015873015873,-132.77777777777777,0.7142857142857142,-137.38095238095238,-147.38095238095238,-140.7142857142857,-147.06349206349205,-138.015873015873,84.68253968253968,325.0,6.746031746031746,-138.65079365079364,173.25396825396825,-137.22222222222223,-99.28571428571428,116.9047619047619,-141.03174603174602,4.682539682539682,184.2063492063492,-53.095238095238095,-6.428571428571428,2.142857142857143,-321.8253968253968
-137.53968253968253,-63.73015873015873,-132.77777777777777,0.7142857142857142,-137.38095238095238,-147.38095238095238,-140.7142857142857,-147.06349206349205,-138.015873015873,84.68253968253968,325.0,6.746031746031746,-138.65079365079364,173.25396825396825,-137.22222222222223,-99.28571428571428,116.9047619047619,-141.03174603174602,4.682539682539682,184.2063492063492,-53.095238095238095,-6.428571428571428,2.142857142857143,-321.8253968253968
-97.38095238095238,-61.98412698412698,-94.68253968253968,-3.095238095238095,-98.49206349206348,-142.14285714285714,-98.80952380952381,-142.14285714285714,-96.26984126984127,-91.82539682539682,325.0,2.3015873015873014,-95.47619047619047,167.06349206349205,-95.31746031746032,-95.63492063492063,112.46031746031746,-136.42857142857142,0.873015873015873,178.015873015873,-50.71428571428571,-6.587301587301587,2.9365079365079363,-321.8253968253968
-97.38095238095238,-61.98412698412698,-94.68253968253968,-3.095238095238095,-98.49206349206348,-142.14285714285714,-98.80952380952381,-142.14285714285714,-96.26984126984127,-91.82539682539682,325.0,2.3015873015873014,-95.47619047619047,167.06349206349205,-95.31746031746032,-95.63492063492063,112.46031746031746,-136.42857142857142,0.873015873015873,178.015873015873,-50.71428571428571,-6.587301587301587,2.9365079365079363,-321.8253968253968
-113.57142857142857,-60.39682539682539,-110.87301587301587,4.2063492063492065,-115.95238095238095,-139.44444444444443,-115.95238095238095,-139.6031746031746,-114.68253968253967,-219.44444444444443,314.5238095238095,10.238095238095237,-118.65079365079364,163.4126984126984,-115.79365079365078,-93.73015873015872,110.23809523809523,-133.57142857142856,9.444444444444445,174.36507936507937,-46.58730158730158,2.46031746031746,-2.3015873015873014,-166.26984126984127
-113.57142857142857,-60.39682539682539,-110.87301587301587,4.2063492063492065,-115.95238095238095,-139.44444444444443,-115.95238095238095,-139.6031746031746,-114.68253968253967,-219.44444444444443,314.5238095238095,10.238095238095237,-118.65079365079364,163.4126984126984,-115.79365079365078,-93.73015873015872,110.23809523809523,-133.57142857142856,9.444444444444445,174.36507936507937,-46.58730158730158,2.46031746031746,-2.3015873015873014,-166.26984126984127
-113.09523809523809,-58.96825396825397,-109.44444444444444,9.444444444444445,-114.84126984126983,-136.58730158730157,-115.47619047619047,-136.58730158730157,-113.57142857142857,-325.0,325.0,15.476190476190474,-115.15873015873015,159.76190476190476,-113.88888888888889,-91.98412698412697,107.85714285714285,-131.19047619047618,13.888888888888888,170.87301587301587,-45.15873015873016,-0.5555555555555556,-0.873015873015873,-166.26984126984127
-113.09523809523809,-58.96825396825397,-109.44444444444444,9.444444444444445,-114.84126984126983,-136.58730158730157,-115.47619047619047,-136.58730158730157,-113.57142857142857,-325.0,325.0,15.476190476190474,-115.15873015873015,159.76190476190476,-113.88888888888889,-91.98412698412697,107.85714285714285,-131.19047619047618,13.888888888888888,170.87301587301587,-45.15873015873016,-0.5555555555555556,-0.873015873015873,-166.26984126984127
-110.87301587301587,-58.17460317460317,-108.65079365079364,8.015873015873016,-113.09523809523809,-133.57142857142856,-112.93650793650794,-134.04761904761904,-110.71428571428571,-225.79365079365078,325.0,13.412698412698411,-112.46031746031746,156.26984126984127,-111.82539682539682,-89.92063492063491,105.31746031746032,-128.4920634920635,12.3015873015873,167.06349206349205,-46.42857142857142,-4.0476190476190474,1.349206349206349,-166.26984126984127
-110.87301587301587,-58.17460317460317,-108.65079365079364,8.015873015873016,-113.09523809523809,-133.57142857142856,-112.93650793650794,-134.04761904761904,-110.71428571428571,-225.79365079365078,325.0,13.412698412698411,-112.46031746031746,156.26984126984127,-111.82539682539682,-89.92063492063491,105.31746031746032,-128.4920634920635,12.3015873015873,167.06349206349205,-46.42857142857142,-4.0476190476190474,1.349206349206349,-166.26984126984127
-142.61904761904762,-57.06349206349206,-138.96825396825395,5.7936507936507935,-145.15873015873015,-131.8253968253968,-145.0,-131.984126984127,-143.57142857142856,263.73015873015873,325.0,10.714285714285714,-146.26984126984127,153.57142857142856,-144.04761904761904,-88.4920634920635,103.57142857142857,-126.42857142857142,9.603174603174603,164.36507936507937,-38.96825396825397,3.888888888888889,-2.142857142857143,-166.26984126984127
-142.61904761904762,-57.06349206349206,-138.96825396825395,5.7936507936507935,-145.15873015873015,-131.8253968253968,-145.0,-131.984126984127,-143.57142857142856,263.73015873015873,325.0,10.714285714285714,-146.26984126984127,153.57142857142856,-144.04761904761904,-88.4920634920635,103.57142857142857,-126.42857142857142,9.603174603174603,164.36507936507937,-38.96825396825397,3.888888888888889,-2.142857142857143,-166.26984126984127
-116.9047619047619,-55.63492063492063,-115.31746031746032,-2.142857142857143,-121.19047619047619,-128.96825396825395,-119.6031746031746,-129.28571428571428,-117.53968253968253,105.0,325.0,2.9365079365079363,-117.6984126984127,150.07936507936506,-118.17460317460316,-86.58730158730158,101.34920634920634,-123.88888888888889,1.6666666666666665,160.87301587301587,-46.42857142857142,-6.111111111111111,3.095238095238095,-166.26984126984127
-116.9047619047619,-55.63492063492063,-115.31746031746032,-2.142857142857143,-121.19047619047619,-128.96825396825395,-119.6031746031746,-129.28571428571428,-117.53968253968253,105.0,325.0,2.9365079365079363,-117.6984126984127,150.07936507936506,-118.17460317460316,-86.58730158730158,101.34920634920634,-123.88888888888889,1.6666666666666665,160.87301587301587,-46.42857142857142,-6.111111111111111,3.095238095238095,-166.26984126984127
-112.93650793650794,-54.841269841269835,-110.23809523809523,8.333333333333332,-116.1111111111111,-126.26984126984127,-114.84126984126983,-126.42857142857142,-113.25396825396825,-292.3015873015873,325.0,14.047619047619047,-117.06349206349206,146.58730158730157,-114.52380952380952,-84.68253968253968,98.96825396825396,-121.5079365079365,13.095238095238095,157.53968253968253,-22.936507936507937,2.46031746031746,-1.6666666666666665,-321.8253968253968
-112.93650793650794,-54.841269841269835,-110.23809523809523,8.333333333333332,-116.1111111111111,-126.26984126984127,-114.84126984126983,-126.42857142857142,-113.25396825396825,-292.3015873015873,325.0,14.047619047619047,-117.06349206349206,146.58730158730157,-114.52380952380952,-84.68253968253968,98.96825396825396,-121.5079365079365,13.095238095238095,157.53968253968253,-22.936507936507937,2.46031746031746,-1.6666666666666665,-321.8253968253968
-76.42857142857143,-52.77777777777777,-74.52380952380952,4.682539682539682,-80.71428571428571,-121.66666666666666,-78.65079365079364,-122.14285714285714,-76.9047619047619,-325.0,325.0,9.761904761904761,-79.76190476190476,141.03174603174602,-79.28571428571428,-81.66666666666666,95.15873015873015,-117.22222222222221,9.444444444444445,151.66666666666666,-25.476190476190474,-2.3015873015873014,-0.5555555555555556,-321.8253968253968
-76.42857142857143,-52.77777777777777,-74.52380952380952,4.682539682539682,-80.71428571428571,-121.66666666666666,-78.65079365079364,-122.14285714285714,-76.9047619047619,-325.0,325.0,9.761904761904761,-79.76190476190476,141.03174603174602,-79.28571428571428,-81.66666666666666,95.15873015873015,-117.22222222222221,9.444444444444445,151.66666666666666,-25.476190476190474,-2.3015873015873014,-0.5555555555555556,-321.8253968253968
-71.98412698412697,-50.238095238095234,-69.44444444444444,1.984126984126984,-76.1111111111111,-116.26984126984127,-74.04761904761904,-116.74603174603173,-72.46031746031746,-191.5079365079365,325.0,6.587301587301587,-75.15873015873015,134.2063492063492,-74.68253968253968,-78.01587301587301,90.55555555555556,-112.14285714285714,6.428571428571428,144.68253968253967,35.95238095238095,1.8253968253968254,-2.3015873015873014,-321.8253968253968
-71.98412698412697,-50.238095238095234,-69.44444444444444,1.984126984126984,-76.1111111111111,-116.26984126984127,-74.04761904761904,-116.74603174603173,-72.46031746031746,-191.5079365079365,325.0,6.587301587301587,-75.15873015873015,134.2063492063492,-74.68253968253968,-78.01587301587301,90.55555555555556,-112.14285714285714,6.428571428571428,144.68253968253967,35.95238095238095,1.8253968253968254,-2.3015873015873014,-321.8253968253968
-73.09523809523809,-49.12698412698413,-70.39682539682539,2.46031746031746,-76.9047619047619,-113.4126984126984,-74.2063492063492,-113.88888888888889,-72.14285714285714,-205.0,325.0,6.746031746031746,-73.73015873015872,130.55555555555554,-73.88888888888889,-75.79365079365078,88.01587301587301,-109.28571428571428,6.428571428571428,141.03174603174602,-15.95238095238095,-4.523809523809524,1.1904761904761905,-321.8253968253968
-73.09523809523809,-49.12698412698413,-70.39682539682539,2.46031746031746,-76.9047619047619,-113.4126984126984,-74.2063492063492,-113.88888888888889,-72.14285714285714,-205.0,325.0,6.746031746031746,-73.73015873015872,130.55555555555554,-73.88888888888889,-75.79365079365078,88.01587301587301,-109.28571428571428,6.428571428571428,141.03174603174602,-15.95238095238095,-4.523809523809524,1.1904761904761905,-321.8253968253968
-117.85714285714285,-48.650793650793645,-112.30158730158729,8.968253968253968,-120.39682539682539,-111.98412698412697,-119.76190476190476,-112.93650793650794,-117.6984126984127,246.9047619047619,325.0,12.777777777777777,-120.71428571428571,129.12698412698413,-118.17460317460316,-75.0,86.9047619047619,-108.01587301587301,11.825396825396824,139.28571428571428,-16.428571428571427,2.46031746031746,-1.1904761904761905,-321.8253968253968
-117.85714285714285,-48.650793650793645,-112.30158730158729,8.968253968253968,-120.39682539682539,-111.98412698412697,-119.76190476190476,-112.93650793650794,-117.6984126984127,246.9047619047619,325.0,12.777777777777777,-120.71428571428571,129.12698412698413,-118.17460317460316,-75.0,86.9047619047619,-108.01587301587301,11.825396825396824,139.28571428571428,-16.428571428571427,2.46031746031746,-1.1904761904761905,-321.8253968253968
-79.92063492063491,-47.857142857142854,-75.63492063492063,4.365079365079365,-83.88888888888889,-110.23809523809523,-81.19047619047619,-110.71428571428571,-79.76190476190476,-39.12698412698413,325.0,8.333333333333332,-82.77777777777777,126.58730158730158,-80.71428571428571,-73.88888888888889,85.31746031746032,-106.26984126984127,7.222222222222221,136.74603174603175,-8.333333333333332,3.095238095238095,-0.3968253968253968,-166.26984126984127
-79.92063492063491,-47.857142857142854,-75.63492063492063,4.365079365079365,-83.88888888888889,-110.23809523809523,-81.19047619047619,-110.71428571428571,-79.76190476190476,-39.12698412698413,325.0,8.333333333333332,-82.77777777777777,126.58730158730158,-80.71428571428571,-73.88888888888889,85.31746031746032,-106.26984126984127,7.222222222222221,136.74603174603175,-8.333333333333332,3.095238095238095,-0.3968253968253968,-166.26984126984127
-66.58730158730158,-46.58730158730158,-63.095238095238095,-1.8253968253968254,-69.44444444444444,-106.74603174603175,-67.6984126984127,-107.53968253968253,-64.84126984126983,-325.0,325.0,2.3015873015873014,-68.33333333333333,122.6190476190476,-66.74603174603175,-71.66666666666666,82.46031746031746,-103.4126984126984,2.619047619047619,132.61904761904762,108.17460317460316,1.984126984126984,-2.3015873015873014,-166.26984126984127
-66.58730158730158,-46.58730158730158,-63.095238095238095,-1.8253968253968254,-69.44444444444444,-106.74603174603175,-67.6984126984127,-107.53968253968253,-64.84126984126983,-325.0,325.0,2.3015873015873014,-68.33333333333333,122.6190476190476,-66.74603174603175,-71.66666666666666,82.46031746031746,-103.4126984126984,2.619047619047619,132.61904761904762,108.17460317460316,1.984126984126984,-2.3015873015873014,-166.26984126984127
-54.36507936507936,-45.317460317460316,-50.71428571428571,-2.3015873015873014,-58.17460317460317,-104.84126984126983,-55.476190476190474,-105.47619047619047,-53.41269841269841,-156.58730158730157,325.0,1.8253968253968254,-56.269841269841265,94.04761904761904,-55.15873015873016,-70.07936507936508,80.87301587301587,-101.03174603174602,1.507936507936508,130.07936507936506,121.82539682539682,-0.7142857142857142,-1.1904761904761905,-166.26984126984127
-54.36507936507936,-45.317460317460316,-50.71428571428571,-2.3015873015873014,-58.17460317460317,-104.84126984126983,-55.476190476190474,-105.47619047619047,-53.41269841269841,-156.58730158730157,325.0,1.8253968253968254,-56.269841269841265,94.04761904761904,-55.15873015873016,-70.07936507936508,80.87301587301587,-101.03174603174602,1.507936507936508,130.07936507936506,121.82539682539682,-0.7142857142857142,-1.1904761904761905,-166.26984126984127
-55.79365079365079,-44.68253968253968,-51.82539682539682,-5.0,-60.079365079365076,-103.09523809523809,-57.857142857142854,-103.88888888888889,-56.58730158730158,168.33333333333331,325.0,-1.349206349206349,-59.92063492063492,69.12698412698413,-58.8095238095238,-68.96825396825396,79.44444444444444,-99.44444444444444,-0.7142857142857142,127.6984126984127,140.07936507936506,-1.6666666666666665,-1.0317460317460316,-166.26984126984127
-55.79365079365079,-44.68253968253968,-51.82539682539682,-5.0,-60.079365079365076,-103.09523809523809,-57.857142857142854,-103.88888888888889,-56.58730158730158,168.33333333333331,325.0,-1.349206349206349,-59.92063492063492,69.12698412698413,-58.8095238095238,-68.96825396825396,79.44444444444444,-99.44444444444444,-0.7142857142857142,127.6984126984127,140.07936507936506,-1.6666666666666665,-1.0317460317460316,-166.26984126984127
-107.6984126984127,-43.73015873015873,-104.2063492063492,1.1904761904761905,-110.87301587301587,-101.03174603174602,-108.65079365079364,-101.82539682539682,-105.79365079365078,325.0,325.0,5.0,-109.44444444444444,107.06349206349206,-107.06349206349206,-67.53968253968253,77.6984126984127,-97.6984126984127,5.158730158730158,125.0,160.07936507936506,3.73015873015873,-2.619047619047619,-166.26984126984127
-107.6984126984127,-43.73015873015873,-104.2063492063492,1.1904761904761905,-110.87301587301587,-101.03174603174602,-108.65079365079364,-101.82539682539682,-105.79365079365078,325.0,325.0,5.0,-109.44444444444444,107.06349206349206,-107.06349206349206,-67.53968253968253,77.6984126984127,-97.6984126984127,5.158730158730158,125.0,160.07936507936506,3.73015873015873,-2.619047619047619,-166.26984126984127
-124.52380952380952,-43.095238095238095,-121.03174603174602,3.888888888888889,-127.6984126984127,-99.44444444444444,-125.31746031746032,-100.39682539682539,-122.14285714285714,325.0,325.0,7.063492063492063,-125.31746031746032,109.44444444444444,-122.77777777777777,-66.26984126984127,76.26984126984127,-96.26984126984127,7.698412698412698,122.93650793650794,174.04761904761904,4.841269841269841,-2.619047619047619,-321.8253968253968
-124.52380952380952,-43.095238095238095,-121.03174603174602,3.888888888888889,-127.6984126984127,-99.44444444444444,-125.31746031746032,-100.39682539682539,-122.14285714285714,325.0,325.0,7.063492063492063,-125.31746031746032,109.44444444444444,-122.77777777777777,-66.26984126984127,76.26984126984127,-96.26984126984127,7.698412698412698,122.93650793650794,174.04761904761904,4.841269841269841,-2.619047619047619,-321.8253968253968
-131.5079365079365,-42.14285714285714,-128.015873015873,-1.8253968253968254,-134.2063492063492,-97.38095238095238,-132.46031746031744,-98.01587301587301,-128.015873015873,325.0,325.0,1.507936507936508,-129.6031746031746,113.09523809523809,-128.33333333333331,-65.0,74.68253968253968,-94.04761904761904,2.142857142857143,120.39682539682539,297.38095238095235,5.317460317460317,-3.095238095238095,-321.8253968253968
-131.5079365079365,-42.14285714285714,-128.015873015873,-1.8253968253968254,-134.2063492063492,-97.38095238095238,-132.46031746031744,-98.01587301587301,-128.015873015873,325.0,325.0,1.507936507936508,-129.6031746031746,113.09523809523809,-128.33333333333331,-65.0,74.68253968253968,-94.04761904761904,2.142857142857143,120.39682539682539,297.38095238095235,5.317460317460317,-3.095238095238095,-321.8253968253968
-119.6031746031746,-41.666666666666664,-116.1111111111111,-1.507936507936508,-122.77777777777777,-96.26984126984127,-119.76190476190476,-96.74603174603175,-116.1111111111111,325.0,325.0,1.6666666666666665,-118.96825396825396,111.34920634920634,-116.42857142857142,-64.2063492063492,73.57142857142857,-92.93650793650794,2.3015873015873014,118.8095238095238,207.38095238095238,5.634920634920634,-1.6666666666666665,-321.8253968253968
-119.6031746031746,-41.666666666666664,-116.1111111111111,-1.507936507936508,-122.77777777777777,-96.26984126984127,-119.76190476190476,-96.74603174603175,-116.1111111111111,325.0,325.0,1.6666666666666665,-118.96825396825396,111.34920634920634,-116.42857142857142,-64.2063492063492,73.57142857142857,-92.93650793650794,2.3015873015873014,118.8095238095238,207.38095238095238,5.634920634920634,-1.6666666666666665,-321.8253968253968
-102.14285714285714,-40.55555555555555,-98.49206349206348,-23.88888888888889,-105.79365079365078,-93.4126984126984,-103.25396825396825,-94.36507936507935,-100.39682539682539,325.0,325.0,7.063492063492063,-102.77777777777777,104.68253968253968,-101.5079365079365,-62.3015873015873,71.34920634920634,-90.55555555555556,9.126984126984127,115.47619047619047,233.4126984126984,0.07936507936507936,-0.3968253968253968,-321.8253968253968
-102.14285714285714,-40.55555555555555,-98.49206349206348,-23.88888888888889,-105.79365079365078,-93.4126984126984,-103.25396825396825,-94.36507936507935,-100.39682539682539,325.0,325.0,7.063492063492063,-102.77777777777777,104.68253968253968,-101.5079365079365,-62.3015873015873,71.34920634920634,-90.55555555555556,9.126984126984127,115.47619047619047,233.4126984126984,0.07936507936507936,-0.3968253968253968,-321.8253968253968
-67.53968253968253,-39.92063492063492,-63.888888888888886,-37.53968253968254,-71.03174603174602,-91.82539682539682,-67.53968253968253,-92.77777777777777,-64.2063492063492,232.77777777777777,324.2063492063492,5.634920634920634,-66.11111111111111,105.79365079365078,-64.68253968253968,-61.34920634920635,70.07936507936508,-88.80952380952381,7.5396825396825395,113.4126984126984,233.4126984126984,0.07936507936507936,-0.5555555555555556,-321.8253968253968
-67.53968253968253,-39.92063492063492,-63.888888888888886,-37.53968253968254,-71.03174603174602,-91.82539682539682,-67.53968253968253,-92.77777777777777,-64.2063492063492,232.77777777777777,324.2063492063492,5.634920634920634,-66.11111111111111,105.79365079365078,-64.68253968253968,-61.34920634920635,70.07936507936508,-88.80952380952381,7.5396825396825395,113.4126984126984,233.4126984126984,0.07936507936507936,-0.5555555555555556,-321.8253968253968
-34.047619047619044,-39.285714285714285,-29.76190476190476,-142.77777777777777,-36.904761904761905,-90.39682539682539,-34.047619047619044,-91.19047619047619,-30.87301587301587,222.14285714285714,320.7142857142857,-0.3968253968253968,-31.825396825396822,104.2063492063492,-31.19047619047619,-60.238095238095234,68.65079365079364,-87.38095238095238,1.984126984126984,111.34920634920634,245.0,-0.7142857142857142,-0.873015873015873,-166.26984126984127
-34.047619047619044,-39.285714285714285,-29.76190476190476,-142.77777777777777,-36.904761904761905,-90.39682539682539,-34.047619047619044,-91.19047619047619,-30.87301587301587,222.14285714285714,320.7142857142857,-0.3968253968253968,-31.825396825396822,104.2063492063492,-31.19047619047619,-60.238095238095234,68.65079365079364,-87.38095238095238,1.984126984126984,111.34920634920634,245.0,-0.7142857142857142,-0.873015873015873,-166.26984126984127
-86.1111111111111,-38.33333333333333,-83.25396825396825,-183.7301587301587,-88.96825396825396,-87.53968253968253,-87.85714285714285,-88.65079365079364,-84.04761904761904,325.0,311.3492063492063,3.095238095238095,-87.38095238095238,101.03174603174602,-86.1111111111111,-58.49206349206349,66.58730158730158,-85.0,6.111111111111111,108.17460317460316,293.4126984126984,0.7142857142857142,-1.1904761904761905,-166.26984126984127
-86.1111111111111,-38.33333333333333,-83.25396825396825,-183.7301587301587,-88.96825396825396,-87.53968253968253,-87.85714285714285,-88.65079365079364,-84.04761904761904,325.0,311.3492063492063,3.095238095238095,-87.38095238095238,101.03174603174602,-86.1111111111111,-58.49206349206349,66.58730158730158,-85.0,6.111111111111111,108.17460317460316,293.4126984126984,0.7142857142857142,-1.1904761904761905,-166.26984126984127
-18.174603174603174,-37.53968253968254,-15.476190476190474,-325.0,-23.253968253968253,-86.26984126984127,-17.539682539682538,-87.38095238095238,-15.476190476190474,325.0,306.1111111111111,-7.5396825396825395,-16.11111111111111,98.96825396825396,-15.95238095238095,-57.53968253968254,65.47619047619047,-83.57142857142857,-4.523809523809524,106.26984126984127,209.76190476190476,-0.23809523809523808,0.7142857142857142,-166.26984126984127
-18.174603174603174,-37.53968253968254,-15.476190476190474,-325.0,-23.253968253968253,-86.26984126984127,-17.539682539682538,-87.38095238095238,-15.476190476190474,325.0,306.1111111111111,-7.5396825396825395,-16.11111111111111,98.96825396825396,-15.95238095238095,-57.53968253968254,65.47619047619047,-83.57142857142857,-4.523809523809524,106.26984126984127,209.76190476190476,-0.23809523809523808,0.7142857142857142,-166.26984126984127
-38.80952380952381,-37.06349206349206,-35.317460317460316,-319.2857142857143,-42.460317460317455,-85.31746031746032,-39.12698412698413,-86.42857142857143,-35.95238095238095,325.0,302.46031746031747,-1.349206349206349,-38.01587301587301,97.53968253968253,-37.06349206349206,-56.904761904761905,64.52380952380952,-82.61904761904762,2.142857142857143,105.0,271.031746031746,-0.5555555555555556,-1.1904761904761905,-166.26984126984127
-38.80952380952381,-37.06349206349206,-35.317460317460316,-319.2857142857143,-42.460317460317455,-85.31746031746032,-39.12698412698413,-86.42857142857143,-35.95238095238095,325.0,302.46031746031747,-1.349206349206349,-38.01587301587301,97.53968253968253,-37.06349206349206,-56.904761904761905,64.52380952380952,-82.61904761904762,2.142857142857143,105.0,271.031746031746,-0.5555555555555556,-1.1904761904761905,-166.26984126984127
-22.777777777777775,-36.42857142857142,-21.507936507936506,-325.0,-28.174603174603174,-83.73015873015872,-23.095238095238095,-84.68253968253968,-20.555555555555554,325.0,297.38095238095235,-0.5555555555555556,-21.507936507936506,96.1111111111111,-21.984126984126984,-55.95238095238095,63.41269841269841,-81.19047619047619,3.095238095238095,103.09523809523809,220.07936507936506,-4.841269841269841,3.253968253968254,-166.26984126984127
-22.777777777777775,-36.42857142857142,-21.507936507936506,-325.0,-28.174603174603174,-83.73015873015872,-23.095238095238095,-84.68253968253968,-20.555555555555554,325.0,297.38095238095235,-0.5555555555555556,-21.507936507936506,96.1111111111111,-21.984126984126984,-55.95238095238095,63.41269841269841,-81.19047619047619,3.095238095238095,103.09523809523809,220.07936507936506,-4.841269841269841,3.253968253968254,-166.26984126984127
-22.777777777777775,-36.42857142857142,-21.507936507936506,-325.0,-28.174603174603174,-83.73015873015872,-23.095238095238095,-84.68253968253968,-20.555555555555554,325.0,297.38095238095235,-0.5555555555555556,-21.507936507936506,96.1111111111111,-21.984126984126984,-55.95238095238095,63.41269841269841,-81.19047619047619,3.095238095238095,103.09523809523809,220.07936507936506,-4.841269841269841,3.253968253968254,-321.8253968253968
-22.777777777777775,-36.42857142857142,-21.507936507936506,-325.0,-28.174603174603174,-83.73015873015872,-23.095238095238095,-84.68253968253968,-20.555555555555554,325.0,297.38095238095235,-0.5555555555555556,-21.507936507936506,96.1111111111111,-21.984126984126984,-55.95238095238095,63.41269841269841,-81.19047619047619,3.095238095238095,103.09523809523809,220.07936507936506,-4.841269841269841,3.253968253968254,-321.8253968253968
0.23809523809523808,-34.52380952380952,2.142857142857143,-325.0,-4.365079365079365,-79.44444444444444,1.0317460317460316,-80.55555555555556,3.253968253968254,325.0,281.5079365079365,-3.4126984126984126,-0.07936507936507936,23.253968253968253,2.3015873015873014,-52.77777777777777,59.92063492063492,-77.06349206349206,0.873015873015873,97.53968253968253,265.4761904761905,1.0317460317460316,1.349206349206349,-321.8253968253968
0.23809523809523808,-34.52380952380952,2.142857142857143,-325.0,-4.365079365079365,-79.44444444444444,1.0317460317460316,-80.55555555555556,3.253968253968254,325.0,281.5079365079365,-3.4126984126984126,-0.07936507936507936,23.253968253968253,2.3015873015873014,-52.77777777777777,59.92063492063492,-77.06349206349206,0.873015873015873,97.53968253968253,265.4761904761905,1.0317460317460316,1.349206349206349,-321.8253968253968
-9.920634920634921,-33.57142857142857,-7.063492063492063,-325.0,-12.46031746031746,-77.38095238095238,-9.285714285714285,-78.4920634920635,-5.634920634920634,325.0,274.5238095238095,5.0,-8.333333333333332,-261.1904761904762,-5.952380952380952,-51.82539682539682,58.33333333333333,-75.15873015873015,8.968253968253968,95.15873015873015,315.7936507936508,5.158730158730158,-2.7777777777777777,-321.8253968253968
-9.920634920634921,-33.57142857142857,-7.063492063492063,-325.0,-12.46031746031746,-77.38095238095238,-9.285714285714285,-78.4920634920635,-5.634920634920634,325.0,274.5238095238095,5.0,-8.333333333333332,-261.1904761904762,-5.952380952380952,-51.82539682539682,58.33333333333333,-75.15873015873015,8.968253968253968,95.15873015873015,315.7936507936508,5.158730158730158,-2.7777777777777777,-321.8253968253968
52.14285714285714,-33.25396825396825,53.25396825396825,-325.0,47.857142857142854,-76.42857142857143,53.25396825396825,-77.53968253968253,56.269841269841265,112.46031746031746,271.031746031746,-1.984126984126984,54.841269841269835,-307.69841269841265,55.0,-51.03174603174603,57.53968253968254,-74.2063492063492,1.984126984126984,93.88888888888889,289.1269841269841,1.0317460317460316,0.3968253968253968,-321.8253968253968
52.14285714285714,-33.25396825396825,53.25396825396825,-325.0,47.857142857142854,-76.42857142857143,53.25396825396825,-77.53968253968253,56.269841269841265,112.46031746031746,271.031746031746,-1.984126984126984,54.841269841269835,-307.69841269841265,55.0,-51.03174603174603,57.53968253968254,-74.2063492063492,1.984126984126984,93.88888888888889,289.1269841269841,1.0317460317460316,0.3968253968253968,-321.8253968253968
144.52380952380952,-32.14285714285714,146.42857142857142,-325.0,141.03174603174602,-74.2063492063492,145.3174603174603,-75.15873015873015,148.015873015873,-325.0,263.0952380952381,-16.428571428571427,146.9047619047619,-325.0,146.74603174603175,-49.285714285714285,55.63492063492063,-71.98412698412697,-11.666666666666666,91.03174603174602,325.0,-0.7142857142857142,-2.142857142857143,-321.8253968253968
144.52380952380952,-32.14285714285714,146.42857142857142,-325.0,141.03174603174602,-74.2063492063492,145.3174603174603,-75.15873015873015,148.015873015873,-325.0,263.0952380952381,-16.428571428571427,146.9047619047619,-325.0,146.74603174603175,-49.285714285714285,55.63492063492063,-71.98412698412697,-11.666666666666666,91.03174603174602,325.0,-0.7142857142857142,-2.142857142857143,-321.8253968253968
168.65079365079364,-31.666666666666664,169.60317460317458,-325.0,164.04761904761904,-72.93650793650794,168.96825396825395,-73.88888888888889,170.23809523809524,-325.0,258.8095238095238,-16.746031746031743,169.60317460317458,-325.0,168.65079365079364,-48.33333333333333,54.52380952380952,-70.87301587301587,-12.142857142857142,89.6031746031746,292.77777777777777,-0.07936507936507936,-0.7142857142857142,-166.26984126984127
168.65079365079364,-31.666666666666664,169.60317460317458,-325.0,164.04761904761904,-72.93650793650794,168.96825396825395,-73.88888888888889,170.23809523809524,-325.0,258.8095238095238,-16.746031746031743,169.60317460317458,-325.0,168.65079365079364,-48.33333333333333,54.52380952380952,-70.87301587301587,-12.142857142857142,89.6031746031746,292.77777777777777,-0.07936507936507936,-0.7142857142857142,-166.26984126984127
133.25396825396825,-31.03174603174603,131.984126984127,-325.0,128.015873015873,-71.5079365079365,133.25396825396825,-72.46031746031746,135.0,-182.93650793650792,253.4126984126984,-9.761904761904761,132.77777777777777,-325.0,132.14285714285714,-47.53968253968254,53.57142857142857,-69.6031746031746,-5.0,87.6984126984127,290.39682539682536,0.23809523809523808,-0.07936507936507936,-166.26984126984127
133.25396825396825,-31.03174603174603,131.984126984127,-325.0,128.015873015873,-71.5079365079365,133.25396825396825,-72.46031746031746,135.0,-182.93650793650792,253.4126984126984,-9.761904761904761,132.77777777777777,-325.0,132.14285714285714,-47.53968253968254,53.57142857142857,-69.6031746031746,-5.0,87.6984126984127,290.39682539682536,0.23809523809523808,-0.07936507936507936,-166.26984126984127
-58.01587301587301,-50.079365079365076,-46.74603174603175,-270.87301587301585,173.09523809523807,-44.52380952380952,-49.92063492063492,-197.85714285714283,-57.38095238095238,-195.63492063492063,-13.253968253968253,-39.12698412698413,36.42857142857142,-110.07936507936508,43.25396825396825,-25.317460317460316,-136.26984126984127,-38.33333333333333,-154.2063492063492,37.22222222222222,325.0,13.412698412698411,148.4920634920635,-166.26984126984127
-58.01587301587301,-50.079365079365076,-46.74603174603175,-270.87301587301585,173.09523809523807,-44.52380952380952,-49.92063492063492,-197.85714285714283,-57.38095238095238,-195.63492063492063,-13.253968253968253,-39.12698412698413,36.42857142857142,-110.07936507936508,43.25396825396825,-25.317460317460316,-136.26984126984127,-38.33333333333333,-154.2063492063492,37.22222222222222,325.0,13.412698412698411,148.4920634920635,-166.26984126984127
-198.96825396825395,-69.92063492063491,-178.4920634920635,-216.58730158730157,265.0,-19.285714285714285,-183.09523809523807,-325.0,-201.98412698412696,-66.26984126984127,-273.4126984126984,-67.22222222222221,-13.888888888888888,104.84126984126983,-0.07936507936507936,-4.365079365079365,-324.68253968253964,-8.65079365079365,-302.46031746031747,-10.873015873015872,325.0,23.57142857142857,300.87301587301585,-166.26984126984127
-198.96825396825395,-69.92063492063491,-178.4920634920635,-216.58730158730157,265.0,-19.285714285714285,-183.09523809523807,-325.0,-201.98412698412696,-66.26984126984127,-273.4126984126984,-67.22222222222221,-13.888888888888888,104.84126984126983,-0.07936507936507936,-4.365079365079365,-324.68253968253964,-8.65079365079365,-302.46031746031747,-10.873015873015872,325.0,23.57142857142857,300.87301587301585,-166.26984126984127
-9.126984126984127,-49.285714285714285,-0.5555555555555556,-270.87301587301585,219.60317460317458,-42.77777777777778,0.07936507936507936,-196.11111111111111,-8.968253968253968,-195.63492063492063,-19.444444444444443,-41.19047619047619,84.36507936507937,-110.07936507936508,90.71428571428571,-24.206349206349206,-137.69841269841268,-36.58730158730159,-156.58730158730157,35.15873015873016,292.46031746031747,11.19047619047619,152.14285714285714,-166.26984126984127
-9.126984126984127,-49.285714285714285,-0.5555555555555556,-270.87301587301585,219.60317460317458,-42.77777777777778,0.07936507936507936,-196.11111111111111,-8.968253968253968,-195.63492063492063,-19.444444444444443,-41.19047619047619,84.36507936507937,-110.07936507936508,90.71428571428571,-24.206349206349206,-137.69841269841268,-36.58730158730159,-156.58730158730157,35.15873015873016,292.46031746031747,11.19047619047619,152.14285714285714,-166.26984126984127
91.03174603174602,-28.174603174603174,94.36507936507935,-325.0,89.12698412698413,-64.04761904761905,90.55555555555556,-65.31746031746032,91.5079365079365,-325.0,227.06349206349205,-1.8253968253968254,88.96825396825396,-325.0,88.80952380952381,-42.61904761904761,47.38095238095238,-62.61904761904761,3.4126984126984126,78.33333333333333,325.0,-1.984126984126984,-1.507936507936508,-321.8253968253968
91.03174603174602,-28.174603174603174,94.36507936507935,-325.0,89.12698412698413,-64.04761904761905,90.55555555555556,-65.31746031746032,91.5079365079365,-325.0,227.06349206349205,-1.8253968253968254,88.96825396825396,-325.0,88.80952380952381,-42.61904761904761,47.38095238095238,-62.61904761904761,3.4126984126984126,78.33333333333333,325.0,-1.984126984126984,-1.507936507936508,-321.8253968253968
