Fp1[1],Fp2[2],F3[3],F4[4],C3[5],C4[6],P3[7],P4[8],O1[9],O2[10],F7[11],F8[12],T3[13],T4[14],T5[15],T6[16],Fz[17],Pz[18],Cz[19],Pg1[20],Pg2[21],EOGR[22],EOOGL[23],EMG[24]
12.777777777777777,64.68253968253968,-228.015873015873,-27.22222222222222,-210.55555555555554,206.9047619047619,-65.79365079365078,104.04761904761904,-75.63492063492063,-161.19047619047618,-98.01587301587301,87.6984126984127,-102.61904761904762,-226.74603174603175,-103.09523809523809,166.26984126984127,-55.79365079365079,2.46031746031746,8.65079365079365,-238.65079365079364,-111.98412698412697,-39.92063492063492,153.88888888888889,-166.26984126984127
12.777777777777777,64.68253968253968,-228.015873015873,-27.22222222222222,-210.55555555555554,206.9047619047619,-65.79365079365078,104.04761904761904,-75.63492063492063,-161.19047619047618,-98.01587301587301,87.6984126984127,-102.61904761904762,-226.74603174603175,-103.09523809523809,166.26984126984127,-55.79365079365079,2.46031746031746,8.65079365079365,-238.65079365079364,-111.98412698412697,-39.92063492063492,153.88888888888889,-166.26984126984127
-167.38095238095238,325.0,-168.015873015873,-15.95238095238095,-170.07936507936506,325.0,-168.65079365079364,325.0,-168.4920634920635,-325.0,-173.09523809523807,-25.79365079365079,-170.55555555555554,-245.79365079365078,-168.96825396825395,325.0,-172.77777777777777,325.0,-143.73015873015873,-325.0,-213.4126984126984,8.333333333333332,-2.9365079365079363,-166.26984126984127
-167.38095238095238,325.0,-168.015873015873,-15.95238095238095,-170.07936507936506,325.0,-168.65079365079364,325.0,-168.4920634920635,-325.0,-173.09523809523807,-25.79365079365079,-170.55555555555554,-245.79365079365078,-168.96825396825395,325.0,-172.77777777777777,325.0,-143.73015873015873,-325.0,-213.4126984126984,8.333333333333332,-2.9365079365079363,-166.26984126984127
-174.84126984126982,325.0,-174.36507936507937,-13.888888888888888,-176.58730158730157,325.0,-175.79365079365078,325.0,-175.3174603174603,-325.0,-179.60317460317458,-22.142857142857142,-176.9047619047619,-241.34920634920633,-175.3174603174603,325.0,-179.60317460317458,325.0,-131.03174603174602,-325.0,-197.53968253968253,7.698412698412698,-3.095238095238095,-166.26984126984127
-174.84126984126982,325.0,-174.36507936507937,-13.888888888888888,-176.58730158730157,325.0,-175.79365079365078,325.0,-175.3174603174603,-325.0,-179.60317460317458,-22.142857142857142,-176.9047619047619,-241.34920634920633,-175.3174603174603,325.0,-179.60317460317458,325.0,-131.03174603174602,-325.0,-197.53968253968253,7.698412698412698,-3.095238095238095,-166.26984126984127
-186.42857142857142,325.0,-184.52380952380952,-6.904761904761904,-187.69841269841268,325.0,-188.17460317460316,325.0,-188.015873015873,-325.0,-191.8253968253968,-12.777777777777777,-187.69841269841268,-234.52380952380952,-187.53968253968253,325.0,-192.3015873015873,325.0,-108.49206349206348,-325.0,-170.7142857142857,-0.07936507936507936,-0.3968253968253968,-166.26984126984127
-186.42857142857142,325.0,-184.52380952380952,-6.904761904761904,-187.69841269841268,325.0,-188.17460317460316,325.0,-188.015873015873,-325.0,-191.8253968253968,-12.777777777777777,-187.69841269841268,-234.52380952380952,-187.53968253968253,325.0,-192.3015873015873,325.0,-108.49206349206348,-325.0,-170.7142857142857,-0.07936507936507936,-0.3968253968253968,-166.26984126984127
-166.26984126984127,325.0,-164.52380952380952,-7.063492063492063,-168.17460317460316,325.0,-167.06349206349205,325.0,-167.38095238095238,-325.0,-172.46031746031744,-11.507936507936508,-168.33333333333331,-228.96825396825395,-166.9047619047619,325.0,-173.88888888888889,325.0,-96.58730158730158,-325.0,-156.11111111111111,5.317460317460317,-2.9365079365079363,-166.26984126984127
-166.26984126984127,325.0,-164.52380952380952,-7.063492063492063,-168.17460317460316,325.0,-167.06349206349205,325.0,-167.38095238095238,-325.0,-172.46031746031744,-11.507936507936508,-168.33333333333331,-228.96825396825395,-166.9047619047619,325.0,-173.88888888888889,325.0,-96.58730158730158,-325.0,-156.11111111111111,5.317460317460317,-2.9365079365079363,-166.26984126984127
-187.53968253968253,325.0,-184.52380952380952,-4.523809523809524,-188.65079365079364,325.0,-189.9206349206349,325.0,-189.9206349206349,-325.0,-194.36507936507937,-8.015873015873016,-188.015873015873,-224.84126984126982,-189.12698412698413,325.0,-195.3174603174603,325.0,-85.63492063492063,-325.0,-142.46031746031744,-6.111111111111111,0.873015873015873,-321.8253968253968
-187.53968253968253,325.0,-184.52380952380952,-4.523809523809524,-188.65079365079364,325.0,-189.9206349206349,325.0,-189.9206349206349,-325.0,-194.36507936507937,-8.015873015873016,-188.015873015873,-224.84126984126982,-189.12698412698413,325.0,-195.3174603174603,325.0,-85.63492063492063,-325.0,-142.46031746031744,-6.111111111111111,0.873015873015873,-321.8253968253968
-168.65079365079364,325.0,-166.58730158730157,-6.26984126984127,-170.23809523809524,325.0,-169.12698412698413,325.0,-169.60317460317458,-325.0,-175.15873015873015,-8.968253968253968,-169.44444444444443,-220.7142857142857,-168.8095238095238,325.0,-176.42857142857142,325.0,-78.96825396825396,-325.0,-133.0952380952381,5.158730158730158,-1.8253968253968254,-321.8253968253968
-168.65079365079364,325.0,-166.58730158730157,-6.26984126984127,-170.23809523809524,325.0,-169.12698412698413,325.0,-169.60317460317458,-325.0,-175.15873015873015,-8.968253968253968,-169.44444444444443,-220.7142857142857,-168.8095238095238,325.0,-176.42857142857142,325.0,-78.96825396825396,-325.0,-133.0952380952381,5.158730158730158,-1.8253968253968254,-321.8253968253968
-188.65079365079364,325.0,-185.79365079365078,2.3015873015873014,-189.9206349206349,325.0,-190.55555555555554,325.0,-191.34920634920633,-325.0,-196.9047619047619,0.7142857142857142,-190.3968253968254,-216.58730158730157,-190.55555555555554,325.0,-198.96825396825395,325.0,-61.507936507936506,-325.0,-112.93650793650794,-5.634920634920634,0.3968253968253968,-321.8253968253968
-188.65079365079364,325.0,-185.79365079365078,2.3015873015873014,-189.9206349206349,325.0,-190.55555555555554,325.0,-191.34920634920633,-325.0,-196.9047619047619,0.7142857142857142,-190.3968253968254,-216.58730158730157,-190.55555555555554,325.0,-198.96825396825395,325.0,-61.507936507936506,-325.0,-112.93650793650794,-5.634920634920634,0.3968253968253968,-321.8253968253968
-181.5079365079365,325.0,-178.96825396825395,4.0476190476190474,-182.77777777777777,325.0,-182.3015873015873,325.0,-182.46031746031744,-325.0,-188.4920634920635,2.9365079365079363,-181.19047619047618,-212.61904761904762,-180.7142857142857,325.0,-188.96825396825395,325.0,-52.93650793650794,-325.0,-102.61904761904762,5.317460317460317,-2.3015873015873014,-321.8253968253968
-181.5079365079365,325.0,-178.96825396825395,4.0476190476190474,-182.77777777777777,325.0,-182.3015873015873,325.0,-182.46031746031744,-325.0,-188.4920634920635,2.9365079365079363,-181.19047619047618,-212.61904761904762,-180.7142857142857,325.0,-188.96825396825395,325.0,-52.93650793650794,-325.0,-102.61904761904762,5.317460317460317,-2.3015873015873014,-321.8253968253968
-180.7142857142857,325.0,-177.69841269841268,2.7777777777777777,-182.77777777777777,325.0,-182.3015873015873,325.0,-183.88888888888889,-325.0,-190.07936507936506,2.7777777777777777,-182.93650793650792,-208.8095238095238,-182.77777777777777,325.0,-192.3015873015873,323.0952380952381,-46.74603174603175,-325.0,-93.25396825396825,-5.0,0.873015873015873,-321.8253968253968
-180.7142857142857,325.0,-177.69841269841268,2.7777777777777777,-182.77777777777777,325.0,-182.3015873015873,325.0,-183.88888888888889,-325.0,-190.07936507936506,2.7777777777777777,-182.93650793650792,-208.8095238095238,-182.77777777777777,325.0,-192.3015873015873,323.0952380952381,-46.74603174603175,-325.0,-93.25396825396825,-5.0,0.873015873015873,-321.8253968253968
-177.38095238095238,325.0,-174.2063492063492,0.7142857142857142,-178.33333333333331,325.0,-177.85714285714286,325.0,-178.33333333333331,-325.0,-184.36507936507937,1.1904761904761905,-175.95238095238093,-205.15873015873015,-176.26984126984127,325.0,-184.68253968253967,317.69841269841265,-42.460317460317455,-325.0,-86.42857142857143,4.841269841269841,-2.619047619047619,-166.26984126984127
-177.38095238095238,325.0,-174.2063492063492,0.7142857142857142,-178.33333333333331,325.0,-177.85714285714286,325.0,-178.33333333333331,-325.0,-184.36507936507937,1.1904761904761905,-175.95238095238093,-205.15873015873015,-176.26984126984127,325.0,-184.68253968253967,317.69841269841265,-42.460317460317455,-325.0,-86.42857142857143,4.841269841269841,-2.619047619047619,-166.26984126984127
-172.14285714285714,325.0,-168.65079365079364,7.063492063492063,-174.04761904761904,325.0,-173.09523809523807,325.0,-174.68253968253967,-325.0,-181.66666666666666,8.333333333333332,-174.36507936507937,-201.5079365079365,-173.4126984126984,325.0,-184.52380952380952,312.6190476190476,-28.96825396825397,-325.0,-70.23809523809524,-5.317460317460317,1.0317460317460316,-166.26984126984127
-172.14285714285714,325.0,-168.65079365079364,7.063492063492063,-174.04761904761904,325.0,-173.09523809523807,325.0,-174.68253968253967,-325.0,-181.66666666666666,8.333333333333332,-174.36507936507937,-201.5079365079365,-173.4126984126984,325.0,-184.52380952380952,312.6190476190476,-28.96825396825397,-325.0,-70.23809523809524,-5.317460317460317,1.0317460317460316,-166.26984126984127
-189.9206349206349,325.0,-185.63492063492063,12.619047619047619,-190.7142857142857,325.0,-191.66666666666666,325.0,-192.93650793650792,-325.0,-198.65079365079364,13.888888888888888,-188.8095238095238,-197.06349206349205,-191.03174603174602,325.0,-199.60317460317458,306.26984126984127,-17.063492063492063,-325.0,-54.841269841269835,3.888888888888889,-3.253968253968254,-166.26984126984127
-189.9206349206349,325.0,-185.63492063492063,12.619047619047619,-190.7142857142857,325.0,-191.66666666666666,325.0,-192.93650793650792,-325.0,-198.65079365079364,13.888888888888888,-188.8095238095238,-197.06349206349205,-191.03174603174602,325.0,-199.60317460317458,306.26984126984127,-17.063492063492063,-325.0,-54.841269841269835,3.888888888888889,-3.253968253968254,-166.26984126984127
-181.03174603174602,325.0,-176.58730158730157,15.476190476190474,-182.3015873015873,325.0,-182.14285714285714,325.0,-184.36507936507937,-325.0,-191.03174603174602,17.698412698412696,-181.66666666666666,-186.26984126984127,-181.984126984127,325.0,-192.61904761904762,290.7142857142857,1.507936507936508,-325.0,-23.88888888888889,-0.5555555555555556,-1.507936507936508,-166.26984126984127
-181.03174603174602,325.0,-176.58730158730157,15.476190476190474,-182.3015873015873,325.0,-182.14285714285714,325.0,-184.36507936507937,-325.0,-191.03174603174602,17.698412698412696,-181.66666666666666,-186.26984126984127,-181.984126984127,325.0,-192.61904761904762,290.7142857142857,1.507936507936508,-325.0,-23.88888888888889,-0.5555555555555556,-1.507936507936508,-166.26984126984127
-172.14285714285714,325.0,-167.38095238095238,18.333333333333332,-173.88888888888889,325.0,-172.46031746031744,325.0,-175.79365079365078,-325.0,-183.25396825396825,21.666666666666664,-174.52380952380952,-175.47619047619045,-172.77777777777777,325.0,-185.63492063492063,275.3174603174603,20.07936507936508,-325.0,7.222222222222221,-5.0,0.3968253968253968,-166.26984126984127
-172.14285714285714,325.0,-167.38095238095238,18.333333333333332,-173.88888888888889,325.0,-172.46031746031744,325.0,-175.79365079365078,-325.0,-183.25396825396825,21.666666666666664,-174.52380952380952,-175.47619047619045,-172.77777777777777,325.0,-185.63492063492063,275.3174603174603,20.07936507936508,-325.0,7.222222222222221,-5.0,0.3968253968253968,-166.26984126984127
-172.14285714285714,325.0,-167.38095238095238,18.333333333333332,-173.88888888888889,325.0,-172.46031746031744,325.0,-175.79365079365078,-325.0,-183.25396825396825,21.666666666666664,-174.52380952380952,-175.47619047619045,-172.77777777777777,325.0,-185.63492063492063,275.3174603174603,20.07936507936508,-325.0,7.222222222222221,-5.0,0.3968253968253968,-321.8253968253968
-172.14285714285714,325.0,-167.38095238095238,18.333333333333332,-173.88888888888889,325.0,-172.46031746031744,325.0,-175.79365079365078,-325.0,-183.25396825396825,21.666666666666664,-174.52380952380952,-175.47619047619045,-172.77777777777777,325.0,-185.63492063492063,275.3174603174603,20.07936507936508,-325.0,7.222222222222221,-5.0,0.3968253968253968,-321.8253968253968
-78.17460317460316,248.17460317460316,-70.71428571428571,15.634920634920634,-77.6984126984127,244.84126984126982,-75.63492063492063,247.06349206349205,-80.07936507936508,-249.28571428571428,-82.3015873015873,11.349206349206348,-75.31746031746032,-126.1111111111111,-74.52380952380952,242.46031746031744,-77.6984126984127,201.19047619047618,27.22222222222222,-239.28571428571428,44.68253968253968,-3.253968253968254,0.7142857142857142,-321.8253968253968
-78.17460317460316,248.17460317460316,-70.71428571428571,15.634920634920634,-77.6984126984127,244.84126984126982,-75.63492063492063,247.06349206349205,-80.07936507936508,-249.28571428571428,-82.3015873015873,11.349206349206348,-75.31746031746032,-126.1111111111111,-74.52380952380952,242.46031746031744,-77.6984126984127,201.19047619047618,27.22222222222222,-239.28571428571428,44.68253968253968,-3.253968253968254,0.7142857142857142,-321.8253968253968
11.984126984126984,169.12698412698413,21.19047619047619,13.571428571428571,13.888888888888888,162.61904761904762,16.746031746031743,166.9047619047619,11.349206349206348,-171.5079365079365,14.206349206349206,1.984126984126984,19.126984126984127,-75.79365079365078,18.80952380952381,158.015873015873,25.158730158730158,125.63492063492063,35.15873015873016,-151.5079365079365,81.19047619047619,-4.523809523809524,1.8253968253968254,-321.8253968253968
11.984126984126984,169.12698412698413,21.19047619047619,13.571428571428571,13.888888888888888,162.61904761904762,16.746031746031743,166.9047619047619,11.349206349206348,-171.5079365079365,14.206349206349206,1.984126984126984,19.126984126984127,-75.79365079365078,18.80952380952381,158.015873015873,25.158730158730158,125.63492063492063,35.15873015873016,-151.5079365079365,81.19047619047619,-4.523809523809524,1.8253968253968254,-321.8253968253968
8.333333333333332,167.06349206349205,16.428571428571427,14.206349206349206,9.285714285714285,160.3968253968254,12.46031746031746,164.84126984126982,7.222222222222221,-169.44444444444443,9.603174603174603,2.7777777777777777,14.365079365079364,-74.84126984126983,13.888888888888888,156.11111111111111,20.07936507936508,124.04761904761904,35.95238095238095,-149.44444444444443,80.23809523809523,-7.698412698412698,2.619047619047619,-321.8253968253968
8.333333333333332,167.06349206349205,16.428571428571427,14.206349206349206,9.285714285714285,160.3968253968254,12.46031746031746,164.84126984126982,7.222222222222221,-169.44444444444443,9.603174603174603,2.7777777777777777,14.365079365079364,-74.84126984126983,13.888888888888888,156.11111111111111,20.07936507936508,124.04761904761904,35.95238095238095,-149.44444444444443,80.23809523809523,-7.698412698412698,2.619047619047619,-321.8253968253968
-73.09523809523809,150.87301587301587,95.15873015873015,8.174603174603174,87.22222222222221,155.3174603174603,93.4126984126984,159.44444444444443,85.79365079365078,-163.57142857142856,87.53968253968253,-3.253968253968254,92.14285714285714,-72.14285714285714,90.39682539682539,150.87301587301587,96.74603174603175,119.92063492063491,29.6031746031746,-144.36507936507937,72.93650793650794,-8.333333333333332,2.142857142857143,-321.8253968253968
-73.09523809523809,150.87301587301587,95.15873015873015,8.174603174603174,87.22222222222221,155.3174603174603,93.4126984126984,159.44444444444443,85.79365079365078,-163.57142857142856,87.53968253968253,-3.253968253968254,92.14285714285714,-72.14285714285714,90.39682539682539,150.87301587301587,96.74603174603175,119.92063492063491,29.6031746031746,-144.36507936507937,72.93650793650794,-8.333333333333332,2.142857142857143,-321.8253968253968
215.15873015873015,-325.0,213.88888888888889,-1.6666666666666665,212.77777777777777,78.65079365079364,218.96825396825395,81.66666666666666,215.95238095238093,-84.04761904761904,224.2063492063492,-11.349206349206348,219.44444444444443,325.0,216.9047619047619,-325.0,211.8253968253968,-325.0,-2.3015873015873014,-72.93650793650794,5.476190476190476,4.365079365079365,-2.46031746031746,-166.26984126984127
215.15873015873015,-325.0,213.88888888888889,-1.6666666666666665,212.77777777777777,78.65079365079364,218.96825396825395,81.66666666666666,215.95238095238093,-84.04761904761904,224.2063492063492,-11.349206349206348,219.44444444444443,325.0,216.9047619047619,-325.0,211.8253968253968,-325.0,-2.3015873015873014,-72.93650793650794,5.476190476190476,4.365079365079365,-2.46031746031746,-166.26984126984127
223.88888888888889,-325.0,221.98412698412696,-3.571428571428571,220.87301587301587,77.22222222222221,226.9047619047619,80.39682539682539,224.04761904761904,-82.61904761904762,232.14285714285714,-12.619047619047619,227.85714285714283,325.0,224.52380952380952,-325.0,220.3968253968254,-325.0,-3.888888888888889,-71.98412698412697,1.8253968253968254,-5.317460317460317,0.7142857142857142,-166.26984126984127
223.88888888888889,-325.0,221.98412698412696,-3.571428571428571,220.87301587301587,77.22222222222221,226.9047619047619,80.39682539682539,224.04761904761904,-82.61904761904762,232.14285714285714,-12.619047619047619,227.85714285714283,325.0,224.52380952380952,-325.0,220.3968253968254,-325.0,-3.888888888888889,-71.98412698412697,1.8253968253968254,-5.317460317460317,0.7142857142857142,-166.26984126984127
266.74603174603175,-325.0,262.3015873015873,-10.396825396825395,261.5079365079365,75.95238095238095,272.1428571428571,79.12698412698413,268.3333333333333,-81.34920634920634,275.1587301587301,-21.03174603174603,271.19047619047615,325.0,268.8095238095238,-325.0,263.73015873015873,-325.0,-12.619047619047619,-70.71428571428571,-5.7936507936507935,3.4126984126984126,0.5555555555555556,-166.26984126984127
266.74603174603175,-325.0,262.3015873015873,-10.396825396825395,261.5079365079365,75.95238095238095,272.1428571428571,79.12698412698413,268.3333333333333,-81.34920634920634,275.1587301587301,-21.03174603174603,271.19047619047615,325.0,268.8095238095238,-325.0,263.73015873015873,-325.0,-12.619047619047619,-70.71428571428571,-5.7936507936507935,3.4126984126984126,0.5555555555555556,-166.26984126984127
221.66666666666666,-325.0,219.28571428571428,-5.317460317460317,218.65079365079364,74.36507936507937,224.36507936507934,77.6984126984127,221.98412698412696,-79.76190476190476,229.60317460317458,-13.888888888888888,225.0,325.0,221.98412698412696,-325.0,216.42857142857142,-325.0,-6.428571428571428,-69.44444444444444,-1.8253968253968254,-5.158730158730158,0.3968253968253968,-166.26984126984127
221.66666666666666,-325.0,219.28571428571428,-5.317460317460317,218.65079365079364,74.36507936507937,224.36507936507934,77.6984126984127,221.98412698412696,-79.76190476190476,229.60317460317458,-13.888888888888888,225.0,325.0,221.98412698412696,-325.0,216.42857142857142,-325.0,-6.428571428571428,-69.44444444444444,-1.8253968253968254,-5.158730158730158,0.3968253968253968,-166.26984126984127
174.36507936507937,-325.0,175.0,4.2063492063492065,173.4126984126984,74.2063492063492,175.79365079365078,77.22222222222221,173.73015873015873,-79.44444444444444,183.09523809523807,-5.317460317460317,177.06349206349205,325.0,174.52380952380952,-325.0,166.9047619047619,-325.0,2.142857142857143,-69.12698412698413,7.5396825396825395,-8.809523809523808,0.873015873015873,-166.26984126984127
174.36507936507937,-325.0,175.0,4.2063492063492065,173.4126984126984,74.2063492063492,175.79365079365078,77.22222222222221,173.73015873015873,-79.44444444444444,183.09523809523807,-5.317460317460317,177.06349206349205,325.0,174.52380952380952,-325.0,166.9047619047619,-325.0,2.142857142857143,-69.12698412698413,7.5396825396825395,-8.809523809523808,0.873015873015873,-166.26984126984127
196.9047619047619,-325.0,194.52380952380952,-0.07936507936507936,194.2063492063492,71.98412698412697,199.60317460317458,74.84126984126983,197.38095238095238,-77.06349206349206,205.0,-8.333333333333332,200.55555555555554,325.0,197.2222222222222,-325.0,191.03174603174602,-325.0,-1.507936507936508,-66.9047619047619,1.8253968253968254,-5.317460317460317,-0.3968253968253968,-321.8253968253968
196.9047619047619,-325.0,194.52380952380952,-0.07936507936507936,194.2063492063492,71.98412698412697,199.60317460317458,74.84126984126983,197.38095238095238,-77.06349206349206,205.0,-8.333333333333332,200.55555555555554,325.0,197.2222222222222,-325.0,191.03174603174602,-325.0,-1.507936507936508,-66.9047619047619,1.8253968253968254,-5.317460317460317,-0.3968253968253968,-321.8253968253968
182.3015873015873,-325.0,179.44444444444443,4.365079365079365,179.44444444444443,70.71428571428571,185.3174603174603,73.4126984126984,183.4126984126984,-75.63492063492063,190.7142857142857,-4.0476190476190474,186.11111111111111,325.0,183.7301587301587,-325.0,175.47619047619045,-325.0,1.984126984126984,-65.79365079365078,5.634920634920634,4.682539682539682,-2.7777777777777777,-321.8253968253968
182.3015873015873,-325.0,179.44444444444443,4.365079365079365,179.44444444444443,70.71428571428571,185.3174603174603,73.4126984126984,183.4126984126984,-75.63492063492063,190.7142857142857,-4.0476190476190474,186.11111111111111,325.0,183.7301587301587,-325.0,175.47619047619045,-325.0,1.984126984126984,-65.79365079365078,5.634920634920634,4.682539682539682,-2.7777777777777777,-321.8253968253968
178.015873015873,-325.0,175.47619047619045,9.444444444444445,175.47619047619045,69.44444444444444,181.03174603174602,72.14285714285714,179.60317460317458,-74.36507936507937,186.26984126984127,1.1904761904761905,182.46031746031744,325.0,179.44444444444443,-325.0,170.87301587301587,-325.0,6.904761904761904,-64.52380952380952,8.809523809523808,-5.476190476190476,0.5555555555555556,-321.8253968253968
178.015873015873,-325.0,175.47619047619045,9.444444444444445,175.47619047619045,69.44444444444444,181.03174603174602,72.14285714285714,179.60317460317458,-74.36507936507937,186.26984126984127,1.1904761904761905,182.46031746031744,325.0,179.44444444444443,-325.0,170.87301587301587,-325.0,6.904761904761904,-64.52380952380952,8.809523809523808,-5.476190476190476,0.5555555555555556,-321.8253968253968
192.3015873015873,-325.0,188.4920634920635,2.619047619047619,189.44444444444443,2.619047619047619,196.9047619047619,-61.507936507936506,196.42857142857142,-73.57142857142857,201.19047619047618,-7.063492063492063,198.17460317460316,325.0,196.74603174603175,-325.0,188.8095238095238,-325.0,-0.873015873015873,-63.57142857142857,1.0317460317460316,0.7142857142857142,0.5555555555555556,-321.8253968253968
192.3015873015873,-325.0,188.4920634920635,2.619047619047619,189.44444444444443,2.619047619047619,196.9047619047619,-61.507936507936506,196.42857142857142,-73.57142857142857,201.19047619047618,-7.063492063492063,198.17460317460316,325.0,196.74603174603175,-325.0,188.8095238095238,-325.0,-0.873015873015873,-63.57142857142857,1.0317460317460316,0.7142857142857142,0.5555555555555556,-321.8253968253968
273.88888888888886,-325.0,272.77777777777777,-11.19047619047619,272.77777777777777,-278.6507936507936,274.5238095238095,-325.0,274.2063492063492,-71.82539682539682,277.53968253968253,-22.3015873015873,275.95238095238096,325.0,274.04761904761904,-325.0,270.55555555555554,-325.0,-14.84126984126984,-62.460317460317455,-12.936507936507935,-5.7936507936507935,1.1904761904761905,-321.8253968253968
273.88888888888886,-325.0,272.77777777777777,-11.19047619047619,272.77777777777777,-278.6507936507936,274.5238095238095,-325.0,274.2063492063492,-71.82539682539682,277.53968253968253,-22.3015873015873,275.95238095238096,325.0,274.04761904761904,-325.0,270.55555555555554,-325.0,-14.84126984126984,-62.460317460317455,-12.936507936507935,-5.7936507936507935,1.1904761904761905,-321.8253968253968
282.9365079365079,-325.0,281.66666666666663,3.4126984126984126,282.1428571428571,-325.0,287.53968253968253,-325.0,286.1111111111111,-70.55555555555556,293.73015873015873,-8.015873015873016,287.38095238095235,306.90476190476187,285.7936507936508,-325.0,274.8412698412698,-325.0,-0.5555555555555556,-61.03174603174603,1.6666666666666665,3.888888888888889,-1.8253968253968254,-166.26984126984127
282.9365079365079,-325.0,281.66666666666663,3.4126984126984126,282.1428571428571,-325.0,287.53968253968253,-325.0,286.1111111111111,-70.55555555555556,293.73015873015873,-8.015873015873016,287.38095238095235,306.90476190476187,285.7936507936508,-325.0,274.8412698412698,-325.0,-0.5555555555555556,-61.03174603174603,1.6666666666666665,3.888888888888889,-1.8253968253968254,-166.26984126984127
258.968253968254,-325.0,256.4285714285714,10.079365079365079,258.015873015873,-325.0,263.4126984126984,-325.0,262.77777777777777,-69.76190476190476,269.2857142857143,-1.349206349206349,264.36507936507934,306.90476190476187,261.5079365079365,-325.0,251.5079365079365,-325.0,5.634920634920634,-60.238095238095234,7.063492063492063,-0.3968253968253968,-0.3968253968253968,-166.26984126984127
258.968253968254,-325.0,256.4285714285714,10.079365079365079,258.015873015873,-325.0,263.4126984126984,-325.0,262.77777777777777,-69.76190476190476,269.2857142857143,-1.349206349206349,264.36507936507934,306.90476190476187,261.5079365079365,-325.0,251.5079365079365,-325.0,5.634920634920634,-60.238095238095234,7.063492063492063,-0.3968253968253968,-0.3968253968253968,-166.26984126984127
262.6190476190476,-325.0,259.44444444444446,4.841269841269841,260.7142857142857,-325.0,267.22222222222223,-325.0,266.4285714285714,-68.01587301587301,272.46031746031747,-6.26984126984127,268.4920634920635,275.3174603174603,265.1587301587301,-325.0,255.63492063492063,-325.0,-0.07936507936507936,-58.96825396825397,0.7142857142857142,5.476190476190476,-0.873015873015873,-166.26984126984127
262.6190476190476,-325.0,259.44444444444446,4.841269841269841,260.7142857142857,-325.0,267.22222222222223,-325.0,266.4285714285714,-68.01587301587301,272.46031746031747,-6.26984126984127,268.4920634920635,275.3174603174603,265.1587301587301,-325.0,255.63492063492063,-325.0,-0.07936507936507936,-58.96825396825397,0.7142857142857142,5.476190476190476,-0.873015873015873,-166.26984126984127
248.96825396825395,-325.0,246.1111111111111,1.6666666666666665,248.015873015873,-325.0,253.57142857142856,-325.0,253.57142857142856,-65.79365079365078,258.8095238095238,-8.65079365079365,254.68253968253967,325.0,251.66666666666666,-325.0,241.03174603174602,-325.0,-3.571428571428571,-56.904761904761905,-3.4126984126984126,5.0,-1.349206349206349,-166.26984126984127
248.96825396825395,-325.0,246.1111111111111,1.6666666666666665,248.015873015873,-325.0,253.57142857142856,-325.0,253.57142857142856,-65.79365079365078,258.8095238095238,-8.65079365079365,254.68253968253967,325.0,251.66666666666666,-325.0,241.03174603174602,-325.0,-3.571428571428571,-56.904761904761905,-3.4126984126984126,5.0,-1.349206349206349,-166.26984126984127
244.2063492063492,-325.0,241.5079365079365,1.8253968253968254,243.4126984126984,-325.0,248.33333333333331,-325.0,248.49206349206347,-65.47619047619047,253.57142857142856,-7.5396825396825395,249.60317460317458,325.0,246.58730158730157,-325.0,236.26984126984127,-325.0,-2.619047619047619,-56.74603174603174,-3.571428571428571,6.111111111111111,-2.619047619047619,-166.26984126984127
244.2063492063492,-325.0,241.5079365079365,1.8253968253968254,243.4126984126984,-325.0,248.33333333333331,-325.0,248.49206349206347,-65.47619047619047,253.57142857142856,-7.5396825396825395,249.60317460317458,325.0,246.58730158730157,-325.0,236.26984126984127,-325.0,-2.619047619047619,-56.74603174603174,-3.571428571428571,6.111111111111111,-2.619047619047619,-166.26984126984127
226.26984126984127,-325.0,223.7301587301587,4.2063492063492065,225.3174603174603,-325.0,229.44444444444443,-325.0,230.07936507936506,-63.41269841269841,235.0,-3.888888888888889,230.7142857142857,325.0,227.69841269841268,-325.0,216.9047619047619,-325.0,0.07936507936507936,-54.841269841269835,-3.253968253968254,6.111111111111111,-3.571428571428571,-321.8253968253968
226.26984126984127,-325.0,223.7301587301587,4.2063492063492065,225.3174603174603,-325.0,229.44444444444443,-325.0,230.07936507936506,-63.41269841269841,235.0,-3.888888888888889,230.7142857142857,325.0,227.69841269841268,-325.0,216.9047619047619,-325.0,0.07936507936507936,-54.841269841269835,-3.253968253968254,6.111111111111111,-3.571428571428571,-321.8253968253968
230.07936507936506,-325.0,226.74603174603175,1.0317460317460316,228.49206349206347,-325.0,233.88888888888889,-325.0,234.84126984126982,-62.61904761904761,238.49206349206347,-7.857142857142857,234.36507936507934,325.0,231.66666666666666,-325.0,220.7142857142857,-325.0,-4.0476190476190474,-54.2063492063492,-6.26984126984127,5.476190476190476,-2.142857142857143,-321.8253968253968
230.07936507936506,-325.0,226.74603174603175,1.0317460317460316,228.49206349206347,-325.0,233.88888888888889,-325.0,234.84126984126982,-62.61904761904761,238.49206349206347,-7.857142857142857,234.36507936507934,325.0,231.66666666666666,-325.0,220.7142857142857,-325.0,-4.0476190476190474,-54.2063492063492,-6.26984126984127,5.476190476190476,-2.142857142857143,-321.8253968253968
204.84126984126982,-325.0,200.87301587301587,-0.5555555555555556,203.88888888888889,-325.0,208.015873015873,-325.0,210.07936507936506,-60.873015873015866,212.93650793650792,-7.857142857142857,209.76190476190476,325.0,206.42857142857142,-325.0,197.2222222222222,-325.0,-4.682539682539682,-52.61904761904761,-8.968253968253968,1.349206349206349,-0.873015873015873,-321.8253968253968
204.84126984126982,-325.0,200.87301587301587,-0.5555555555555556,203.88888888888889,-325.0,208.015873015873,-325.0,210.07936507936506,-60.873015873015866,212.93650793650792,-7.857142857142857,209.76190476190476,325.0,206.42857142857142,-325.0,197.2222222222222,-325.0,-4.682539682539682,-52.61904761904761,-8.968253968253968,1.349206349206349,-0.873015873015873,-321.8253968253968
200.55555555555554,-325.0,196.9047619047619,2.46031746031746,199.44444444444443,-325.0,204.84126984126982,-325.0,206.9047619047619,-60.079365079365076,209.12698412698413,-5.7936507936507935,205.63492063492063,325.0,203.25396825396825,-325.0,192.3015873015873,-325.0,-2.9365079365079363,-51.82539682539682,-5.317460317460317,-1.0317460317460316,1.349206349206349,-321.8253968253968
200.55555555555554,-325.0,196.9047619047619,2.46031746031746,199.44444444444443,-325.0,204.84126984126982,-325.0,206.9047619047619,-60.079365079365076,209.12698412698413,-5.7936507936507935,205.63492063492063,325.0,203.25396825396825,-325.0,192.3015873015873,-325.0,-2.9365079365079363,-51.82539682539682,-5.317460317460317,-1.0317460317460316,1.349206349206349,-321.8253968253968
218.65079365079364,-325.0,214.36507936507937,-0.7142857142857142,217.38095238095238,-325.0,222.14285714285714,-325.0,224.04761904761904,-58.8095238095238,225.79365079365078,-7.222222222222221,222.77777777777777,325.0,219.12698412698413,-325.0,210.3968253968254,-325.0,-4.682539682539682,-50.71428571428571,-10.238095238095237,0.7142857142857142,-1.349206349206349,-321.8253968253968
218.65079365079364,-325.0,214.36507936507937,-0.7142857142857142,217.38095238095238,-325.0,222.14285714285714,-325.0,224.04761904761904,-58.8095238095238,225.79365079365078,-7.222222222222221,222.77777777777777,325.0,219.12698412698413,-325.0,210.3968253968254,-325.0,-4.682539682539682,-50.71428571428571,-10.238095238095237,0.7142857142857142,-1.349206349206349,-321.8253968253968
186.74603174603175,-325.0,183.4126984126984,1.349206349206349,186.58730158730157,-325.0,191.5079365079365,-325.0,194.52380952380952,-57.857142857142854,195.79365079365078,-6.587301587301587,192.46031746031744,325.0,190.55555555555554,-325.0,179.60317460317458,-325.0,-4.365079365079365,-49.92063492063492,-7.698412698412698,-0.23809523809523808,1.0317460317460316,-166.26984126984127
186.74603174603175,-325.0,183.4126984126984,1.349206349206349,186.58730158730157,-325.0,191.5079365079365,-325.0,194.52380952380952,-57.857142857142854,195.79365079365078,-6.587301587301587,192.46031746031744,325.0,190.55555555555554,-325.0,179.60317460317458,-325.0,-4.365079365079365,-49.92063492063492,-7.698412698412698,-0.23809523809523808,1.0317460317460316,-166.26984126984127
177.2222222222222,-324.2063492063492,172.77777777777777,7.222222222222221,175.79365079365078,-325.0,179.12698412698413,-325.0,181.66666666666666,-57.06349206349206,182.46031746031744,1.6666666666666665,178.96825396825395,325.0,176.11111111111111,-325.0,165.79365079365078,-325.0,4.0476190476190474,-49.12698412698413,-1.507936507936508,5.634920634920634,-3.095238095238095,-166.26984126984127
177.2222222222222,-324.2063492063492,172.77777777777777,7.222222222222221,175.79365079365078,-325.0,179.12698412698413,-325.0,181.66666666666666,-57.06349206349206,182.46031746031744,1.6666666666666665,178.96825396825395,325.0,176.11111111111111,-325.0,165.79365079365078,-325.0,4.0476190476190474,-49.12698412698413,-1.507936507936508,5.634920634920634,-3.095238095238095,-166.26984126984127
222.46031746031744,-317.53968253968253,218.65079365079364,-3.253968253968254,221.19047619047618,-325.0,225.95238095238093,-325.0,228.65079365079364,-55.95238095238095,229.12698412698413,-10.079365079365079,226.26984126984127,325.0,223.57142857142856,-325.0,211.98412698412696,-325.0,-8.015873015873016,-48.17460317460317,-12.619047619047619,-1.1904761904761905,0.3968253968253968,-166.26984126984127
222.46031746031744,-317.53968253968253,218.65079365079364,-3.253968253968254,221.19047619047618,-325.0,225.95238095238093,-325.0,228.65079365079364,-55.95238095238095,229.12698412698413,-10.079365079365079,226.26984126984127,325.0,223.57142857142856,-325.0,211.98412698412696,-325.0,-8.015873015873016,-48.17460317460317,-12.619047619047619,-1.1904761904761905,0.3968253968253968,-166.26984126984127
179.44444444444443,-313.4126984126984,177.53968253968253,-2.9365079365079363,180.07936507936506,-325.0,181.66666666666666,-325.0,185.15873015873015,-55.15873015873016,187.06349206349205,-6.904761904761904,182.46031746031744,325.0,180.23809523809524,-325.0,168.17460317460316,-325.0,-4.841269841269841,-47.53968253968254,-12.777777777777777,5.317460317460317,-3.73015873015873,-166.26984126984127
179.44444444444443,-313.4126984126984,177.53968253968253,-2.9365079365079363,180.07936507936506,-325.0,181.66666666666666,-325.0,185.15873015873015,-55.15873015873016,187.06349206349205,-6.904761904761904,182.46031746031744,325.0,180.23809523809524,-325.0,168.17460317460316,-325.0,-4.841269841269841,-47.53968253968254,-12.777777777777777,5.317460317460317,-3.73015873015873,-166.26984126984127
218.8095238095238,-303.57142857142856,213.25396825396825,-15.793650793650793,218.015873015873,-325.0,225.15873015873015,-325.0,229.12698412698413,-53.095238095238095,227.69841269841268,-20.555555555555554,226.1111111111111,325.0,223.88888888888889,-325.0,215.15873015873015,-325.0,-19.126984126984127,-45.79365079365079,-26.9047619047619,7.222222222222221,-1.984126984126984,-166.26984126984127
218.8095238095238,-303.57142857142856,213.25396825396825,-15.793650793650793,218.015873015873,-325.0,225.15873015873015,-325.0,229.12698412698413,-53.095238095238095,227.69841269841268,-20.555555555555554,226.1111111111111,325.0,223.88888888888889,-325.0,215.15873015873015,-325.0,-19.126984126984127,-45.79365079365079,-26.9047619047619,7.222222222222221,-1.984126984126984,-166.26984126984127
240.87301587301587,-298.3333333333333,234.52380952380952,-16.428571428571427,238.49206349206347,-325.0,245.15873015873015,-325.0,248.33333333333331,-52.460317460317455,245.63492063492063,-22.142857142857142,244.68253968253967,325.0,241.98412698412696,-325.0,233.4126984126984,-325.0,-20.555555555555554,-45.15873015873016,-27.22222222222222,-5.317460317460317,1.349206349206349,-321.8253968253968
240.87301587301587,-298.3333333333333,234.52380952380952,-16.428571428571427,238.49206349206347,-325.0,245.15873015873015,-325.0,248.33333333333331,-52.460317460317455,245.63492063492063,-22.142857142857142,244.68253968253967,325.0,241.98412698412696,-325.0,233.4126984126984,-325.0,-20.555555555555554,-45.15873015873016,-27.22222222222222,-5.317460317460317,1.349206349206349,-321.8253968253968
185.3174603174603,-292.3015873015873,181.19047619047618,-7.698412698412698,185.63492063492063,-325.0,189.76190476190476,-325.0,193.88888888888889,-51.19047619047619,192.93650793650792,-11.031746031746032,190.7142857142857,325.0,188.17460317460316,-325.0,178.96825396825395,-325.0,-10.555555555555555,-44.047619047619044,-19.92063492063492,0.3968253968253968,-1.984126984126984,-321.8253968253968
185.3174603174603,-292.3015873015873,181.19047619047618,-7.698412698412698,185.63492063492063,-325.0,189.76190476190476,-325.0,193.88888888888889,-51.19047619047619,192.93650793650792,-11.031746031746032,190.7142857142857,325.0,188.17460317460316,-325.0,178.96825396825395,-325.0,-10.555555555555555,-44.047619047619044,-19.92063492063492,0.3968253968253968,-1.984126984126984,-321.8253968253968
178.33333333333331,-287.53968253968253,173.88888888888889,-7.063492063492063,177.69841269841268,-325.0,182.61904761904762,-325.0,186.26984126984127,-50.39682539682539,183.7301587301587,-11.19047619047619,181.984126984127,325.0,179.60317460317458,-325.0,168.8095238095238,-325.0,-10.873015873015872,-43.25396825396825,-18.015873015873016,-1.0317460317460316,0.5555555555555556,-321.8253968253968
178.33333333333331,-287.53968253968253,173.88888888888889,-7.063492063492063,177.69841269841268,-325.0,182.61904761904762,-325.0,186.26984126984127,-50.39682539682539,183.7301587301587,-11.19047619047619,181.984126984127,325.0,179.60317460317458,-325.0,168.8095238095238,-325.0,-10.873015873015872,-43.25396825396825,-18.015873015873016,-1.0317460317460316,0.5555555555555556,-321.8253968253968
177.06349206349205,-282.9365079365079,173.73015873015873,-8.809523809523808,177.38095238095238,-325.0,180.23809523809524,-325.0,184.04761904761904,-49.44444444444444,182.3015873015873,-11.031746031746032,180.7142857142857,325.0,178.17460317460316,-325.0,168.96825396825395,-325.0,-11.031746031746032,-42.460317460317455,-35.15873015873016,-0.7142857142857142,-1.984126984126984,-321.8253968253968
177.06349206349205,-282.9365079365079,173.73015873015873,-8.809523809523808,177.38095238095238,-325.0,180.23809523809524,-325.0,184.04761904761904,-49.44444444444444,182.3015873015873,-11.031746031746032,180.7142857142857,325.0,178.17460317460316,-325.0,168.96825396825395,-325.0,-11.031746031746032,-42.460317460317455,-35.15873015873016,-0.7142857142857142,-1.984126984126984,-321.8253968253968
144.04761904761904,-278.3333333333333,142.3015873015873,-3.571428571428571,145.95238095238093,-325.0,148.4920634920635,-325.0,153.57142857142856,-48.80952380952381,151.8253968253968,-6.746031746031746,150.23809523809524,325.0,148.015873015873,-325.0,137.38095238095238,-325.0,-7.222222222222221,-42.14285714285714,-112.93650793650794,-1.349206349206349,0.07936507936507936,-321.8253968253968
144.04761904761904,-278.3333333333333,142.3015873015873,-3.571428571428571,145.95238095238093,-325.0,148.4920634920635,-325.0,153.57142857142856,-48.80952380952381,151.8253968253968,-6.746031746031746,150.23809523809524,325.0,148.015873015873,-325.0,137.38095238095238,-325.0,-7.222222222222221,-42.14285714285714,-112.93650793650794,-1.349206349206349,0.07936507936507936,-321.8253968253968
162.93650793650792,-273.73015873015873,158.96825396825395,-8.333333333333332,164.04761904761904,-325.0,168.33333333333331,-325.0,173.25396825396825,-47.698412698412696,170.87301587301587,-10.238095238095237,170.07936507936506,325.0,168.17460317460316,-325.0,160.3968253968254,-325.0,-11.19047619047619,-41.03174603174603,-117.06349206349206,0.3968253968253968,-0.3968253968253968,-166.26984126984127
162.93650793650792,-273.73015873015873,158.96825396825395,-8.333333333333332,164.04761904761904,-325.0,168.33333333333331,-325.0,173.25396825396825,-47.698412698412696,170.87301587301587,-10.238095238095237,170.07936507936506,325.0,168.17460317460316,-325.0,160.3968253968254,-325.0,-11.19047619047619,-41.03174603174603,-117.06349206349206,0.3968253968253968,-0.3968253968253968,-166.26984126984127
212.77777777777777,-270.23809523809524,208.65079365079364,-13.571428571428571,211.98412698412696,-325.0,215.95238095238093,-325.0,218.33333333333331,-47.06349206349206,215.15873015873015,-15.634920634920634,214.52380952380952,325.0,212.14285714285714,-325.0,203.09523809523807,-325.0,-16.11111111111111,-40.238095238095234,-242.6190476190476,-5.634920634920634,0.873015873015873,-166.26984126984127
212.77777777777777,-270.23809523809524,208.65079365079364,-13.571428571428571,211.98412698412696,-325.0,215.95238095238093,-325.0,218.33333333333331,-47.06349206349206,215.15873015873015,-15.634920634920634,214.52380952380952,325.0,212.14285714285714,-325.0,203.09523809523807,-325.0,-16.11111111111111,-40.238095238095234,-242.6190476190476,-5.634920634920634,0.873015873015873,-166.26984126984127
151.984126984127,-264.8412698412698,147.53968253968253,-11.349206349206348,152.14285714285714,-325.0,155.79365079365078,-325.0,159.9206349206349,-46.11111111111111,156.9047619047619,-11.507936507936508,154.68253968253967,325.0,153.25396825396825,-325.0,143.09523809523807,-325.0,-12.777777777777777,-39.76190476190476,-255.47619047619045,0.5555555555555556,-1.1904761904761905,-166.26984126984127
151.984126984127,-264.8412698412698,147.53968253968253,-11.349206349206348,152.14285714285714,-325.0,155.79365079365078,-325.0,159.9206349206349,-46.11111111111111,156.9047619047619,-11.507936507936508,154.68253968253967,325.0,153.25396825396825,-325.0,143.09523809523807,-325.0,-12.777777777777777,-39.76190476190476,-255.47619047619045,0.5555555555555556,-1.1904761904761905,-166.26984126984127
160.07936507936506,-260.39682539682536,156.9047619047619,-8.015873015873016,161.34920634920633,-325.0,164.2063492063492,-325.0,168.8095238095238,-45.317460317460316,165.95238095238093,-9.761904761904761,166.42857142857142,325.0,163.57142857142856,-325.0,155.79365079365078,-325.0,-11.507936507936508,-38.80952380952381,-325.0,-0.873015873015873,0.7142857142857142,-166.26984126984127
160.07936507936506,-260.39682539682536,156.9047619047619,-8.015873015873016,161.34920634920633,-325.0,164.2063492063492,-325.0,168.8095238095238,-45.317460317460316,165.95238095238093,-9.761904761904761,166.42857142857142,325.0,163.57142857142856,-325.0,155.79365079365078,-325.0,-11.507936507936508,-38.80952380952381,-325.0,-0.873015873015873,0.7142857142857142,-166.26984126984127
204.36507936507937,-257.22222222222223,199.28571428571428,-16.904761904761905,205.3174603174603,-325.0,211.5079365079365,-325.0,216.42857142857142,-45.0,212.14285714285714,-17.539682539682538,211.98412698412696,325.0,211.03174603174602,-325.0,204.36507936507937,-325.0,-18.96825396825397,-38.65079365079365,-325.0,6.746031746031746,-1.349206349206349,-166.26984126984127
204.36507936507937,-257.22222222222223,199.28571428571428,-16.904761904761905,205.3174603174603,-325.0,211.5079365079365,-325.0,216.42857142857142,-45.0,212.14285714285714,-17.539682539682538,211.98412698412696,325.0,211.03174603174602,-325.0,204.36507936507937,-325.0,-18.96825396825397,-38.65079365079365,-325.0,6.746031746031746,-1.349206349206349,-166.26984126984127
202.3015873015873,-248.8095238095238,197.38095238095238,-24.206349206349206,201.66666666666666,-325.0,206.9047619047619,-325.0,209.9206349206349,-43.095238095238095,205.63492063492063,-22.936507936507937,204.52380952380952,325.0,203.4126984126984,-325.0,195.0,-325.0,-25.317460317460316,24.84126984126984,-325.0,5.634920634920634,-2.3015873015873014,-321.8253968253968
202.3015873015873,-248.8095238095238,197.38095238095238,-24.206349206349206,201.66666666666666,-325.0,206.9047619047619,-325.0,209.9206349206349,-43.095238095238095,205.63492063492063,-22.936507936507937,204.52380952380952,325.0,203.4126984126984,-325.0,195.0,-325.0,-25.317460317460316,24.84126984126984,-325.0,5.634920634920634,-2.3015873015873014,-321.8253968253968
148.65079365079364,-243.57142857142856,145.3174603174603,-14.206349206349206,150.3968253968254,-325.0,152.61904761904762,-325.0,157.38095238095238,-42.3015873015873,153.25396825396825,-14.365079365079364,154.2063492063492,325.0,151.984126984127,-325.0,144.36507936507937,-325.0,-16.746031746031743,325.0,-325.0,0.3968253968253968,0.5555555555555556,-321.8253968253968
148.65079365079364,-243.57142857142856,145.3174603174603,-14.206349206349206,150.3968253968254,-325.0,152.61904761904762,-325.0,157.38095238095238,-42.3015873015873,153.25396825396825,-14.365079365079364,154.2063492063492,325.0,151.984126984127,-325.0,144.36507936507937,-325.0,-16.746031746031743,325.0,-325.0,0.3968253968253968,0.5555555555555556,-321.8253968253968
149.12698412698413,-239.76190476190476,144.84126984126982,-13.412698412698411,150.07936507936506,-325.0,153.57142857142856,-325.0,158.4920634920635,-41.82539682539682,154.36507936507937,-11.666666666666666,154.52380952380952,325.0,153.25396825396825,-325.0,145.79365079365078,-325.0,-14.365079365079364,325.0,-325.0,0.5555555555555556,-0.873015873015873,-321.8253968253968
149.12698412698413,-239.76190476190476,144.84126984126982,-13.412698412698411,150.07936507936506,-325.0,153.57142857142856,-325.0,158.4920634920635,-41.82539682539682,154.36507936507937,-11.666666666666666,154.52380952380952,325.0,153.25396825396825,-325.0,145.79365079365078,-325.0,-14.365079365079364,325.0,-325.0,0.5555555555555556,-0.873015873015873,-321.8253968253968
145.63492063492063,-235.95238095238093,140.7142857142857,-11.19047619047619,145.3174603174603,-325.0,148.4920634920635,-325.0,152.46031746031744,-37.38095238095238,147.2222222222222,-10.555555555555555,148.33333333333331,325.0,145.79365079365078,-325.0,136.9047619047619,-325.0,-12.936507936507935,325.0,-325.0,0.7142857142857142,-0.07936507936507936,-321.8253968253968
145.63492063492063,-235.95238095238093,140.7142857142857,-11.19047619047619,145.3174603174603,-325.0,148.4920634920635,-325.0,152.46031746031744,-37.38095238095238,147.2222222222222,-10.555555555555555,148.33333333333331,325.0,145.79365079365078,-325.0,136.9047619047619,-325.0,-12.936507936507935,325.0,-325.0,0.7142857142857142,-0.07936507936507936,-321.8253968253968
70.55555555555556,-232.77777777777777,69.76190476190476,-2.3015873015873014,74.04761904761904,-325.0,71.98412698412697,-325.0,76.9047619047619,-16.11111111111111,73.88888888888889,0.873015873015873,72.93650793650794,325.0,71.19047619047619,-325.0,62.93650793650793,-325.0,-1.984126984126984,325.0,-325.0,2.9365079365079363,-3.571428571428571,-321.8253968253968
70.55555555555556,-232.77777777777777,69.76190476190476,-2.3015873015873014,74.04761904761904,-325.0,71.98412698412697,-325.0,76.9047619047619,-16.11111111111111,73.88888888888889,0.873015873015873,72.93650793650794,325.0,71.19047619047619,-325.0,62.93650793650793,-325.0,-1.984126984126984,325.0,-325.0,2.9365079365079363,-3.571428571428571,-321.8253968253968
75.95238095238095,-228.17460317460316,73.57142857142857,-5.158730158730158,78.01587301587301,-325.0,78.4920634920635,-325.0,83.57142857142857,-40.55555555555555,78.96825396825396,-3.571428571428571,80.87301587301587,325.0,77.6984126984127,-325.0,70.23809523809524,-325.0,-7.063492063492063,325.0,-325.0,-0.873015873015873,-0.873015873015873,-166.26984126984127
75.95238095238095,-228.17460317460316,73.57142857142857,-5.158730158730158,78.01587301587301,-325.0,78.4920634920635,-325.0,83.57142857142857,-40.55555555555555,78.96825396825396,-3.571428571428571,80.87301587301587,325.0,77.6984126984127,-325.0,70.23809523809524,-325.0,-7.063492063492063,325.0,-325.0,-0.873015873015873,-0.873015873015873,-166.26984126984127
77.06349206349206,-224.52380952380952,73.25396825396825,-10.396825396825395,78.65079365079364,-325.0,81.98412698412697,-325.0,87.22222222222221,-39.44444444444444,81.82539682539682,-7.698412698412698,82.46031746031746,325.0,81.82539682539682,-325.0,75.0,-325.0,-11.031746031746032,325.0,-325.0,-0.07936507936507936,-0.873015873015873,-166.26984126984127
77.06349206349206,-224.52380952380952,73.25396825396825,-10.396825396825395,78.65079365079364,-325.0,81.98412698412697,-325.0,87.22222222222221,-39.44444444444444,81.82539682539682,-7.698412698412698,82.46031746031746,325.0,81.82539682539682,-325.0,75.0,-325.0,-11.031746031746032,325.0,-325.0,-0.07936507936507936,-0.873015873015873,-166.26984126984127
114.36507936507935,-220.7142857142857,109.92063492063491,-14.206349206349206,114.2063492063492,-325.0,117.38095238095238,-325.0,121.82539682539682,-26.746031746031743,115.31746031746032,-12.3015873015873,118.96825396825396,325.0,114.84126984126983,-325.0,108.01587301587301,-325.0,-15.634920634920634,325.0,-325.0,-0.5555555555555556,0.07936507936507936,-166.26984126984127
114.36507936507935,-220.7142857142857,109.92063492063491,-14.206349206349206,114.2063492063492,-325.0,117.38095238095238,-325.0,121.82539682539682,-26.746031746031743,115.31746031746032,-12.3015873015873,118.96825396825396,325.0,114.84126984126983,-325.0,108.01587301587301,-325.0,-15.634920634920634,325.0,-325.0,-0.5555555555555556,0.07936507936507936,-166.26984126984127
71.03174603174602,-217.06349206349205,67.6984126984127,-12.142857142857142,72.46031746031746,-325.0,74.04761904761904,-325.0,78.01587301587301,280.23809523809524,71.98412698412697,-8.015873015873016,71.03174603174602,325.0,71.66666666666666,-325.0,63.57142857142857,-325.0,-11.507936507936508,325.0,-325.0,-0.7142857142857142,-1.1904761904761905,-166.26984126984127
71.03174603174602,-217.06349206349205,67.6984126984127,-12.142857142857142,72.46031746031746,-325.0,74.04761904761904,-325.0,78.01587301587301,280.23809523809524,71.98412698412697,-8.015873015873016,71.03174603174602,325.0,71.66666666666666,-325.0,63.57142857142857,-325.0,-11.507936507936508,325.0,-325.0,-0.7142857142857142,-1.1904761904761905,-166.26984126984127
97.53968253968253,-213.4126984126984,95.15873015873015,-20.555555555555554,100.07936507936508,-325.0,100.23809523809523,-325.0,105.47619047619047,325.0,99.92063492063491,-18.174603174603174,103.4126984126984,325.0,100.71428571428571,-325.0,96.58730158730158,-223.7301587301587,-21.984126984126984,325.0,-325.0,-0.3968253968253968,-0.23809523809523808,-166.26984126984127
97.53968253968253,-213.4126984126984,95.15873015873015,-20.555555555555554,100.07936507936508,-325.0,100.23809523809523,-325.0,105.47619047619047,325.0,99.92063492063491,-18.174603174603174,103.4126984126984,325.0,100.71428571428571,-325.0,96.58730158730158,-223.7301587301587,-21.984126984126984,325.0,-325.0,-0.3968253968253968,-0.23809523809523808,-166.26984126984127
35.63492063492063,-209.9206349206349,33.888888888888886,-16.428571428571427,38.96825396825397,-325.0,39.76190476190476,-325.0,45.0,325.0,39.12698412698413,-12.3015873015873,38.33333333333333,325.0,39.6031746031746,-325.0,30.07936507936508,1.8253968253968254,-16.428571428571427,325.0,-325.0,-0.3968253968253968,-1.349206349206349,-321.8253968253968
35.63492063492063,-209.9206349206349,33.888888888888886,-16.428571428571427,38.96825396825397,-325.0,39.76190476190476,-325.0,45.0,325.0,39.12698412698413,-12.3015873015873,38.33333333333333,325.0,39.6031746031746,-325.0,30.07936507936508,1.8253968253968254,-16.428571428571427,325.0,-325.0,-0.3968253968253968,-1.349206349206349,-321.8253968253968
-16.746031746031743,-209.12698412698413,-17.063492063492063,-9.603174603174603,-12.142857142857142,-325.0,-14.047619047619047,-325.0,-8.174603174603174,325.0,-13.571428571428571,-5.0,-15.793650793650793,325.0,-13.095238095238095,-325.0,-24.206349206349206,127.53968253968253,-9.603174603174603,325.0,-325.0,-5.7936507936507935,-0.07936507936507936,-321.8253968253968
-16.746031746031743,-209.12698412698413,-17.063492063492063,-9.603174603174603,-12.142857142857142,-325.0,-14.047619047619047,-325.0,-8.174603174603174,325.0,-13.571428571428571,-5.0,-15.793650793650793,325.0,-13.095238095238095,-325.0,-24.206349206349206,127.53968253968253,-9.603174603174603,325.0,-325.0,-5.7936507936507935,-0.07936507936507936,-321.8253968253968
-16.746031746031743,-209.12698412698413,-17.063492063492063,-9.603174603174603,-12.142857142857142,-325.0,-14.047619047619047,-325.0,-8.174603174603174,325.0,-13.571428571428571,-5.0,-15.793650793650793,325.0,-13.095238095238095,-325.0,-24.206349206349206,127.53968253968253,-9.603174603174603,325.0,-325.0,-5.7936507936507935,-0.07936507936507936,-321.8253968253968
-16.746031746031743,-209.12698412698413,-17.063492063492063,-9.603174603174603,-12.142857142857142,-325.0,-14.047619047619047,-325.0,-8.174603174603174,325.0,-13.571428571428571,-5.0,-15.793650793650793,325.0,-13.095238095238095,-325.0,-24.206349206349206,127.53968253968253,-9.603174603174603,325.0,-325.0,-5.7936507936507935,-0.07936507936507936,-321.8253968253968
-1.8253968253968254,-204.04761904761904,-3.253968253968254,-9.920634920634921,1.0317460317460316,-325.0,-0.7142857142857142,-325.0,4.523809523809524,325.0,-1.507936507936508,-5.317460317460317,1.1904761904761905,325.0,-1.507936507936508,-324.36507936507934,-9.126984126984127,101.66666666666666,-9.920634920634921,325.0,-325.0,-1.349206349206349,-1.507936507936508,-321.8253968253968
-1.8253968253968254,-204.04761904761904,-3.253968253968254,-9.920634920634921,1.0317460317460316,-325.0,-0.7142857142857142,-325.0,4.523809523809524,325.0,-1.507936507936508,-5.317460317460317,1.1904761904761905,325.0,-1.507936507936508,-324.36507936507934,-9.126984126984127,101.66666666666666,-9.920634920634921,325.0,-325.0,-1.349206349206349,-1.507936507936508,-321.8253968253968
13.253968253968253,-198.96825396825395,10.714285714285714,-10.079365079365079,14.365079365079364,-325.0,12.619047619047619,-325.0,17.22222222222222,325.0,10.714285714285714,-5.476190476190476,18.333333333333332,325.0,10.079365079365079,-323.73015873015873,5.952380952380952,75.95238095238095,-10.079365079365079,325.0,-325.0,3.095238095238095,-2.9365079365079363,-321.8253968253968
13.253968253968253,-198.96825396825395,10.714285714285714,-10.079365079365079,14.365079365079364,-325.0,12.619047619047619,-325.0,17.22222222222222,325.0,10.714285714285714,-5.476190476190476,18.333333333333332,325.0,10.079365079365079,-323.73015873015873,5.952380952380952,75.95238095238095,-10.079365079365079,325.0,-325.0,3.095238095238095,-2.9365079365079363,-321.8253968253968
133.88888888888889,-193.09523809523807,128.33333333333331,-32.77777777777778,133.57142857142856,-325.0,135.79365079365078,-325.0,139.28571428571428,325.0,131.8253968253968,-28.49206349206349,137.38095238095238,325.0,133.57142857142856,-314.2063492063492,131.34920634920636,-6.587301587301587,-33.41269841269841,325.0,-325.0,0.7142857142857142,-0.5555555555555556,-166.26984126984127
133.88888888888889,-193.09523809523807,128.33333333333331,-32.77777777777778,133.57142857142856,-325.0,135.79365079365078,-325.0,139.28571428571428,325.0,131.8253968253968,-28.49206349206349,137.38095238095238,325.0,133.57142857142856,-314.2063492063492,131.34920634920636,-6.587301587301587,-33.41269841269841,325.0,-325.0,0.7142857142857142,-0.5555555555555556,-166.26984126984127
33.888888888888886,-190.07936507936506,32.77777777777778,-14.523809523809524,37.06349206349206,-325.0,35.95238095238095,-325.0,39.92063492063492,325.0,33.73015873015873,-7.857142857142857,32.14285714285714,325.0,34.2063492063492,-309.1269841269841,25.158730158730158,-234.84126984126982,-12.46031746031746,325.0,-325.0,-1.8253968253968254,-1.8253968253968254,-166.26984126984127
33.888888888888886,-190.07936507936506,32.77777777777778,-14.523809523809524,37.06349206349206,-325.0,35.95238095238095,-325.0,39.92063492063492,325.0,33.73015873015873,-7.857142857142857,32.14285714285714,325.0,34.2063492063492,-309.1269841269841,25.158730158730158,-234.84126984126982,-12.46031746031746,325.0,-325.0,-1.8253968253968254,-1.8253968253968254,-166.26984126984127
52.77777777777777,-186.74603174603175,46.74603174603175,-7.222222222222221,53.41269841269841,-325.0,55.63492063492063,-325.0,61.19047619047619,290.39682539682536,52.93650793650794,-2.619047619047619,60.39682539682539,325.0,56.11111111111111,-304.04761904761904,55.0,-325.0,-8.174603174603174,325.0,-325.0,2.142857142857143,1.1904761904761905,-166.26984126984127
52.77777777777777,-186.74603174603175,46.74603174603175,-7.222222222222221,53.41269841269841,-325.0,55.63492063492063,-325.0,61.19047619047619,290.39682539682536,52.93650793650794,-2.619047619047619,60.39682539682539,325.0,56.11111111111111,-304.04761904761904,55.0,-325.0,-8.174603174603174,325.0,-325.0,2.142857142857143,1.1904761904761905,-166.26984126984127
46.74603174603175,-184.68253968253967,44.68253968253968,-11.031746031746032,47.53968253968254,-325.0,47.698412698412696,-325.0,50.71428571428571,325.0,44.84126984126984,-3.888888888888889,47.698412698412696,321.984126984127,44.68253968253968,-300.23809523809524,39.76190476190476,-325.0,-9.444444444444445,325.0,-325.0,1.8253968253968254,-3.888888888888889,-166.26984126984127
46.74603174603175,-184.68253968253967,44.68253968253968,-11.031746031746032,47.53968253968254,-325.0,47.698412698412696,-325.0,50.71428571428571,325.0,44.84126984126984,-3.888888888888889,47.698412698412696,321.984126984127,44.68253968253968,-300.23809523809524,39.76190476190476,-325.0,-9.444444444444445,325.0,-325.0,1.8253968253968254,-3.888888888888889,-166.26984126984127
19.126984126984127,-180.7142857142857,13.73015873015873,-8.968253968253968,20.238095238095237,-325.0,21.507936507936506,-325.0,27.539682539682538,325.0,18.65079365079365,-4.365079365079365,25.317460317460316,315.1587301587301,22.936507936507937,-294.04761904761904,20.396825396825395,-325.0,-10.238095238095237,325.0,-325.0,2.7777777777777777,0.07936507936507936,-166.26984126984127
19.126984126984127,-180.7142857142857,13.73015873015873,-8.968253968253968,20.238095238095237,-325.0,21.507936507936506,-325.0,27.539682539682538,325.0,18.65079365079365,-4.365079365079365,25.317460317460316,315.1587301587301,22.936507936507937,-294.04761904761904,20.396825396825395,-325.0,-10.238095238095237,325.0,-325.0,2.7777777777777777,0.07936507936507936,-166.26984126984127
57.857142857142854,-178.65079365079364,54.52380952380952,-12.936507936507935,57.22222222222222,-325.0,58.17460317460317,-325.0,60.079365079365076,325.0,53.25396825396825,-5.7936507936507935,57.22222222222222,311.3492063492063,53.41269841269841,-290.39682539682536,49.44444444444444,-323.73015873015873,-10.714285714285714,325.0,-325.0,1.984126984126984,-3.4126984126984126,-321.8253968253968
57.857142857142854,-178.65079365079364,54.52380952380952,-12.936507936507935,57.22222222222222,-325.0,58.17460317460317,-325.0,60.079365079365076,325.0,53.25396825396825,-5.7936507936507935,57.22222222222222,311.3492063492063,53.41269841269841,-290.39682539682536,49.44444444444444,-323.73015873015873,-10.714285714285714,325.0,-325.0,1.984126984126984,-3.4126984126984126,-321.8253968253968
-1.6666666666666665,-175.0,-4.523809523809524,-8.65079365079365,0.3968253968253968,-325.0,-0.5555555555555556,-325.0,4.0476190476190474,325.0,-4.0476190476190474,-3.095238095238095,0.07936507936507936,304.5238095238095,-1.1904761904761905,-284.5238095238095,-6.587301587301587,-317.22222222222223,-8.968253968253968,325.0,-325.0,0.873015873015873,-1.349206349206349,-321.8253968253968
-1.6666666666666665,-175.0,-4.523809523809524,-8.65079365079365,0.3968253968253968,-325.0,-0.5555555555555556,-325.0,4.0476190476190474,325.0,-4.0476190476190474,-3.095238095238095,0.07936507936507936,304.5238095238095,-1.1904761904761905,-284.5238095238095,-6.587301587301587,-317.22222222222223,-8.968253968253968,325.0,-325.0,0.873015873015873,-1.349206349206349,-321.8253968253968
25.476190476190474,-171.984126984127,22.46031746031746,-14.206349206349206,27.38095238095238,-325.0,28.015873015873016,-325.0,32.61904761904762,325.0,25.0,-7.063492063492063,29.126984126984127,299.1269841269841,27.539682539682538,-279.9206349206349,24.206349206349206,-311.984126984127,-13.095238095238095,325.0,-325.0,-2.142857142857143,-1.0317460317460316,-321.8253968253968
25.476190476190474,-171.984126984127,22.46031746031746,-14.206349206349206,27.38095238095238,-325.0,28.015873015873016,-325.0,32.61904761904762,325.0,25.0,-7.063492063492063,29.126984126984127,299.1269841269841,27.539682539682538,-279.9206349206349,24.206349206349206,-311.984126984127,-13.095238095238095,325.0,-325.0,-2.142857142857143,-1.0317460317460316,-321.8253968253968
37.38095238095238,-168.96825396825395,33.095238095238095,-15.793650793650793,38.17460317460317,-325.0,39.44444444444444,-325.0,44.047619047619044,325.0,35.15873015873016,-9.126984126984127,40.079365079365076,293.88888888888886,38.96825396825397,-275.3174603174603,34.682539682539684,-306.90476190476187,-15.158730158730158,325.0,-325.0,1.984126984126984,0.7142857142857142,-321.8253968253968
37.38095238095238,-168.96825396825395,33.095238095238095,-15.793650793650793,38.17460317460317,-325.0,39.44444444444444,-325.0,44.047619047619044,325.0,35.15873015873016,-9.126984126984127,40.079365079365076,293.88888888888886,38.96825396825397,-275.3174603174603,34.682539682539684,-306.90476190476187,-15.158730158730158,325.0,-325.0,1.984126984126984,0.7142857142857142,-321.8253968253968
-32.14285714285714,-167.06349206349205,-33.888888888888886,-1.507936507936508,-29.126984126984127,-325.0,-32.460317460317455,-325.0,-27.38095238095238,325.0,-33.73015873015873,6.904761904761904,-29.6031746031746,290.07936507936506,-32.61904761904762,-271.8253968253968,-35.0,-303.25396825396825,0.873015873015873,325.0,-325.0,0.873015873015873,-3.095238095238095,-321.8253968253968
-32.14285714285714,-167.06349206349205,-33.888888888888886,-1.507936507936508,-29.126984126984127,-325.0,-32.460317460317455,-325.0,-27.38095238095238,325.0,-33.73015873015873,6.904761904761904,-29.6031746031746,290.07936507936506,-32.61904761904762,-271.8253968253968,-35.0,-303.25396825396825,0.873015873015873,325.0,-325.0,0.873015873015873,-3.095238095238095,-321.8253968253968
-32.14285714285714,-167.06349206349205,-33.888888888888886,-1.507936507936508,-29.126984126984127,-325.0,-32.460317460317455,-325.0,-27.38095238095238,325.0,-33.73015873015873,6.904761904761904,-29.6031746031746,290.07936507936506,-32.61904761904762,-271.8253968253968,-35.0,-303.25396825396825,0.873015873015873,325.0,-325.0,0.873015873015873,-3.095238095238095,-166.26984126984127
-32.14285714285714,-167.06349206349205,-33.888888888888886,-1.507936507936508,-29.126984126984127,-325.0,-32.460317460317455,-325.0,-27.38095238095238,325.0,-33.73015873015873,6.904761904761904,-29.6031746031746,290.07936507936506,-32.61904761904762,-271.8253968253968,-35.0,-303.25396825396825,0.873015873015873,325.0,-325.0,0.873015873015873,-3.095238095238095,-166.26984126984127
-19.126984126984127,-152.46031746031744,-22.619047619047617,-4.682539682539682,-17.857142857142858,-308.015873015873,-18.80952380952381,-307.38095238095235,-15.476190476190474,325.0,-23.41269841269841,5.317460317460317,-18.80952380952381,263.57142857142856,-20.71428571428571,-248.17460317460316,-23.41269841269841,-277.53968253968253,-1.984126984126984,325.0,-307.69841269841265,5.0,-2.46031746031746,-166.26984126984127
-19.126984126984127,-152.46031746031744,-22.619047619047617,-4.682539682539682,-17.857142857142858,-308.015873015873,-18.80952380952381,-307.38095238095235,-15.476190476190474,325.0,-23.41269841269841,5.317460317460317,-18.80952380952381,263.57142857142856,-20.71428571428571,-248.17460317460316,-23.41269841269841,-277.53968253968253,-1.984126984126984,325.0,-307.69841269841265,5.0,-2.46031746031746,-166.26984126984127
-5.952380952380952,-137.69841269841268,-11.349206349206348,-7.857142857142857,-6.428571428571428,-291.031746031746,-5.158730158730158,-289.76190476190476,-3.571428571428571,325.0,-12.936507936507935,3.888888888888889,-8.015873015873016,237.2222222222222,-8.809523809523808,-224.36507936507934,-11.666666666666666,-251.66666666666666,-4.841269841269841,325.0,-290.39682539682536,9.285714285714285,-1.6666666666666665,-166.26984126984127
-5.952380952380952,-137.69841269841268,-11.349206349206348,-7.857142857142857,-6.428571428571428,-291.031746031746,-5.158730158730158,-289.76190476190476,-3.571428571428571,325.0,-12.936507936507935,3.888888888888889,-8.015873015873016,237.2222222222222,-8.809523809523808,-224.36507936507934,-11.666666666666666,-251.66666666666666,-4.841269841269841,325.0,-290.39682539682536,9.285714285714285,-1.6666666666666665,-166.26984126984127
-5.952380952380952,-137.69841269841268,-11.349206349206348,-7.857142857142857,-6.428571428571428,-291.031746031746,-5.158730158730158,-289.76190476190476,-3.571428571428571,325.0,-12.936507936507935,3.888888888888889,-8.015873015873016,237.2222222222222,-8.809523809523808,-224.36507936507934,-11.666666666666666,-251.66666666666666,-4.841269841269841,325.0,-290.39682539682536,9.285714285714285,-1.6666666666666665,-166.26984126984127
-5.952380952380952,-137.69841269841268,-11.349206349206348,-7.857142857142857,-6.428571428571428,-291.031746031746,-5.158730158730158,-289.76190476190476,-3.571428571428571,325.0,-12.936507936507935,3.888888888888889,-8.015873015873016,237.2222222222222,-8.809523809523808,-224.36507936507934,-11.666666666666666,-251.66666666666666,-4.841269841269841,325.0,-290.39682539682536,9.285714285714285,-1.6666666666666665,-166.26984126984127
-5.952380952380952,-137.69841269841268,-11.349206349206348,-7.857142857142857,-6.428571428571428,-291.031746031746,-5.158730158730158,-289.76190476190476,-3.571428571428571,325.0,-12.936507936507935,3.888888888888889,-8.015873015873016,237.2222222222222,-8.809523809523808,-224.36507936507934,-11.666666666666666,-251.66666666666666,-4.841269841269841,325.0,-290.39682539682536,9.285714285714285,-1.6666666666666665,-166.26984126984127
-5.952380952380952,-137.69841269841268,-11.349206349206348,-7.857142857142857,-6.428571428571428,-291.031746031746,-5.158730158730158,-289.76190476190476,-3.571428571428571,325.0,-12.936507936507935,3.888888888888889,-8.015873015873016,237.2222222222222,-8.809523809523808,-224.36507936507934,-11.666666666666666,-251.66666666666666,-4.841269841269841,325.0,-290.39682539682536,9.285714285714285,-1.6666666666666665,-166.26984126984127
-77.85714285714285,-129.44444444444443,-79.6031746031746,1.1904761904761905,-73.88888888888889,-273.88888888888886,-76.74603174603175,-273.0952380952381,-72.61904761904762,325.0,-79.92063492063491,13.73015873015873,-74.2063492063492,221.98412698412696,-74.84126984126983,-211.03174603174602,-75.95238095238095,-236.74603174603175,3.095238095238095,325.0,-271.8253968253968,2.142857142857143,0.3968253968253968,-321.8253968253968
-77.85714285714285,-129.44444444444443,-79.6031746031746,1.1904761904761905,-73.88888888888889,-273.88888888888886,-76.74603174603175,-273.0952380952381,-72.61904761904762,325.0,-79.92063492063491,13.73015873015873,-74.2063492063492,221.98412698412696,-74.84126984126983,-211.03174603174602,-75.95238095238095,-236.74603174603175,3.095238095238095,325.0,-271.8253968253968,2.142857142857143,0.3968253968253968,-321.8253968253968
-57.22222222222222,-127.22222222222221,-60.71428571428571,-1.6666666666666665,-55.63492063492063,-269.6031746031746,-57.06349206349206,-268.4920634920635,-54.52380952380952,325.0,-62.3015873015873,12.142857142857142,-58.8095238095238,218.17460317460316,-58.49206349206349,-207.38095238095238,-60.238095238095234,-232.77777777777777,2.619047619047619,325.0,-266.90476190476187,-3.253968253968254,-0.5555555555555556,-321.8253968253968
-57.22222222222222,-127.22222222222221,-60.71428571428571,-1.6666666666666665,-55.63492063492063,-269.6031746031746,-57.06349206349206,-268.4920634920635,-54.52380952380952,325.0,-62.3015873015873,12.142857142857142,-58.8095238095238,218.17460317460316,-58.49206349206349,-207.38095238095238,-60.238095238095234,-232.77777777777777,2.619047619047619,325.0,-266.90476190476187,-3.253968253968254,-0.5555555555555556,-321.8253968253968
-99.92063492063491,-125.15873015873015,-100.71428571428571,3.73015873015873,-95.63492063492063,-265.1587301587301,-100.23809523809523,-264.2063492063492,-97.06349206349206,325.0,-103.73015873015872,17.063492063492063,-98.01587301587301,214.36507936507937,-99.28571428571428,-204.04761904761904,-100.39682539682539,-228.96825396825395,6.587301587301587,325.0,-262.3015873015873,1.984126984126984,-1.8253968253968254,-321.8253968253968
-99.92063492063491,-125.15873015873015,-100.71428571428571,3.73015873015873,-95.63492063492063,-265.1587301587301,-100.23809523809523,-264.2063492063492,-97.06349206349206,325.0,-103.73015873015872,17.063492063492063,-98.01587301587301,214.36507936507937,-99.28571428571428,-204.04761904761904,-100.39682539682539,-228.96825396825395,6.587301587301587,325.0,-262.3015873015873,1.984126984126984,-1.8253968253968254,-321.8253968253968
-99.44444444444444,-123.57142857142857,-100.23809523809523,2.46031746031746,-95.0,-261.8253968253968,-99.44444444444444,-261.031746031746,-96.1111111111111,325.0,-102.14285714285714,16.428571428571427,-97.6984126984127,211.34920634920633,-98.33333333333333,-201.66666666666666,-98.49206349206348,-226.1111111111111,6.111111111111111,325.0,-258.8095238095238,-0.3968253968253968,-1.507936507936508,-321.8253968253968
-99.44444444444444,-123.57142857142857,-100.23809523809523,2.46031746031746,-95.0,-261.8253968253968,-99.44444444444444,-261.031746031746,-96.1111111111111,325.0,-102.14285714285714,16.428571428571427,-97.6984126984127,211.34920634920633,-98.33333333333333,-201.66666666666666,-98.49206349206348,-226.1111111111111,6.111111111111111,325.0,-258.8095238095238,-0.3968253968253968,-1.507936507936508,-321.8253968253968
-78.65079365079364,-121.03174603174602,-80.87301587301587,7.5396825396825395,-75.95238095238095,-256.58730158730157,-79.76190476190476,-256.1111111111111,-77.85714285714285,325.0,-85.31746031746032,21.03174603174603,-80.55555555555556,206.74603174603175,-81.5079365079365,-197.38095238095238,-82.3015873015873,-221.66666666666666,10.555555555555555,325.0,-253.09523809523807,2.619047619047619,-1.507936507936508,-321.8253968253968
-78.65079365079364,-121.03174603174602,-80.87301587301587,7.5396825396825395,-75.95238095238095,-256.58730158730157,-79.76190476190476,-256.1111111111111,-77.85714285714285,325.0,-85.31746031746032,21.03174603174603,-80.55555555555556,206.74603174603175,-81.5079365079365,-197.38095238095238,-82.3015873015873,-221.66666666666666,10.555555555555555,325.0,-253.09523809523807,2.619047619047619,-1.507936507936508,-321.8253968253968
-110.23809523809523,-118.96825396825396,-111.19047619047619,15.0,-105.31746031746032,-252.6190476190476,-110.23809523809523,-251.8253968253968,-105.95238095238095,325.0,-111.66666666666666,29.444444444444443,-107.53968253968253,203.25396825396825,-107.85714285714285,-194.2063492063492,-105.47619047619047,-218.015873015873,19.126984126984127,325.0,-248.65079365079364,-3.4126984126984126,-0.23809523809523808,-166.26984126984127
-110.23809523809523,-118.96825396825396,-111.19047619047619,15.0,-105.31746031746032,-252.6190476190476,-110.23809523809523,-251.8253968253968,-105.95238095238095,325.0,-111.66666666666666,29.444444444444443,-107.53968253968253,203.25396825396825,-107.85714285714285,-194.2063492063492,-105.47619047619047,-218.015873015873,19.126984126984127,325.0,-248.65079365079364,-3.4126984126984126,-0.23809523809523808,-166.26984126984127
-74.36507936507937,-116.9047619047619,-77.53968253968253,12.3015873015873,-71.98412698412697,-248.17460317460316,-74.52380952380952,-247.69841269841268,-72.93650793650794,325.0,-80.39682539682539,26.11111111111111,-75.79365079365078,199.76190476190476,-75.79365079365078,-190.87301587301587,-75.31746031746032,-214.36507936507937,15.95238095238095,325.0,-244.2063492063492,3.253968253968254,-0.23809523809523808,-166.26984126984127
-74.36507936507937,-116.9047619047619,-77.53968253968253,12.3015873015873,-71.98412698412697,-248.17460317460316,-74.52380952380952,-247.69841269841268,-72.93650793650794,325.0,-80.39682539682539,26.11111111111111,-75.79365079365078,199.76190476190476,-75.79365079365078,-190.87301587301587,-75.31746031746032,-214.36507936507937,15.95238095238095,325.0,-244.2063492063492,3.253968253968254,-0.23809523809523808,-166.26984126984127
-114.52380952380952,-115.15873015873015,-115.47619047619047,9.761904761904761,-110.07936507936508,-244.36507936507934,-115.95238095238095,-243.88888888888889,-112.6190476190476,325.0,-117.38095238095238,23.88888888888889,-113.73015873015872,196.26984126984127,-114.68253968253967,-187.85714285714283,-111.66666666666666,-211.19047619047618,13.571428571428571,325.0,-239.76190476190476,-3.73015873015873,-0.5555555555555556,-166.26984126984127
-114.52380952380952,-115.15873015873015,-115.47619047619047,9.761904761904761,-110.07936507936508,-244.36507936507934,-115.95238095238095,-243.88888888888889,-112.6190476190476,325.0,-117.38095238095238,23.88888888888889,-113.73015873015872,196.26984126984127,-114.68253968253967,-187.85714285714283,-111.66666666666666,-211.19047619047618,13.571428571428571,325.0,-239.76190476190476,-3.73015873015873,-0.5555555555555556,-166.26984126984127
-77.53968253968253,-113.09523809523809,-79.92063492063491,2.7777777777777777,-73.4126984126984,-240.3968253968254,-76.9047619047619,-240.2380952380952,-74.04761904761904,325.0,-80.39682539682539,16.26984126984127,-75.95238095238095,192.77777777777777,-75.31746031746032,-184.84126984126982,-73.09523809523809,-207.85714285714283,5.634920634920634,325.0,-235.63492063492063,4.682539682539682,-0.23809523809523808,-166.26984126984127
-77.53968253968253,-113.09523809523809,-79.92063492063491,2.7777777777777777,-73.4126984126984,-240.3968253968254,-76.9047619047619,-240.2380952380952,-74.04761904761904,325.0,-80.39682539682539,16.26984126984127,-75.95238095238095,192.77777777777777,-75.31746031746032,-184.84126984126982,-73.09523809523809,-207.85714285714283,5.634920634920634,325.0,-235.63492063492063,4.682539682539682,-0.23809523809523808,-166.26984126984127
-98.96825396825396,-111.19047619047619,-101.03174603174602,5.317460317460317,-96.1111111111111,-236.74603174603175,-101.66666666666666,-236.1111111111111,-100.07936507936508,325.0,-105.31746031746032,20.238095238095237,-102.61904761904762,189.44444444444443,-103.25396825396825,-181.66666666666666,-101.82539682539682,-204.36507936507937,10.555555555555555,325.0,-231.5079365079365,-3.73015873015873,-0.3968253968253968,-166.26984126984127
-98.96825396825396,-111.19047619047619,-101.03174603174602,5.317460317460317,-96.1111111111111,-236.74603174603175,-101.66666666666666,-236.1111111111111,-100.07936507936508,325.0,-105.31746031746032,20.238095238095237,-102.61904761904762,189.44444444444443,-103.25396825396825,-181.66666666666666,-101.82539682539682,-204.36507936507937,10.555555555555555,325.0,-231.5079365079365,-3.73015873015873,-0.3968253968253968,-166.26984126984127
-99.6031746031746,-109.92063492063491,-102.30158730158729,5.7936507936507935,-95.47619047619047,-233.57142857142856,-98.96825396825396,-233.25396825396825,-96.42857142857142,325.0,-102.93650793650794,18.80952380952381,-98.49206349206348,187.06349206349205,-97.22222222222221,-179.44444444444443,-96.1111111111111,-201.66666666666666,8.174603174603174,325.0,-228.33333333333331,0.3968253968253968,1.507936507936508,-321.8253968253968
-99.6031746031746,-109.92063492063491,-102.30158730158729,5.7936507936507935,-95.47619047619047,-233.57142857142856,-98.96825396825396,-233.25396825396825,-96.42857142857142,325.0,-102.93650793650794,18.80952380952381,-98.49206349206348,187.06349206349205,-97.22222222222221,-179.44444444444443,-96.1111111111111,-201.66666666666666,8.174603174603174,325.0,-228.33333333333331,0.3968253968253968,1.507936507936508,-321.8253968253968
-99.6031746031746,-109.92063492063491,-102.30158730158729,5.7936507936507935,-95.47619047619047,-233.57142857142856,-98.96825396825396,-233.25396825396825,-96.42857142857142,325.0,-102.93650793650794,18.80952380952381,-98.49206349206348,187.06349206349205,-97.22222222222221,-179.44444444444443,-96.1111111111111,-201.66666666666666,8.174603174603174,325.0,-228.33333333333331,0.3968253968253968,1.507936507936508,-321.8253968253968
-99.6031746031746,-109.92063492063491,-102.30158730158729,5.7936507936507935,-95.47619047619047,-233.57142857142856,-98.96825396825396,-233.25396825396825,-96.42857142857142,325.0,-102.93650793650794,18.80952380952381,-98.49206349206348,187.06349206349205,-97.22222222222221,-179.44444444444443,-96.1111111111111,-201.66666666666666,8.174603174603174,325.0,-228.33333333333331,0.3968253968253968,1.507936507936508,-321.8253968253968
-116.42857142857142,-105.79365079365078,-118.17460317460316,1.6666666666666665,-111.34920634920634,-225.15873015873015,-116.9047619047619,-225.15873015873015,-114.04761904761904,325.0,-119.12698412698413,15.0,-114.04761904761904,179.76190476190476,-114.68253968253967,-172.93650793650792,-111.19047619047619,-194.52380952380952,4.841269841269841,325.0,-219.44444444444443,4.0476190476190474,-1.984126984126984,-321.8253968253968
-116.42857142857142,-105.79365079365078,-118.17460317460316,1.6666666666666665,-111.34920634920634,-225.15873015873015,-116.9047619047619,-225.15873015873015,-114.04761904761904,325.0,-119.12698412698413,15.0,-114.04761904761904,179.76190476190476,-114.68253968253967,-172.93650793650792,-111.19047619047619,-194.52380952380952,4.841269841269841,325.0,-219.44444444444443,4.0476190476190474,-1.984126984126984,-321.8253968253968
-104.2063492063492,-104.04761904761904,-106.1111111111111,-3.571428571428571,-101.34920634920634,-221.5079365079365,-106.26984126984127,-221.34920634920633,-105.15873015873015,325.0,-109.6031746031746,11.349206349206348,-108.01587301587301,176.58730158730157,-107.53968253968253,-170.07936507936506,-105.0,-191.34920634920633,1.507936507936508,325.0,-215.63492063492063,-4.523809523809524,-1.1904761904761905,-321.8253968253968
-104.2063492063492,-104.04761904761904,-106.1111111111111,-3.571428571428571,-101.34920634920634,-221.5079365079365,-106.26984126984127,-221.34920634920633,-105.15873015873015,325.0,-109.6031746031746,11.349206349206348,-108.01587301587301,176.58730158730157,-107.53968253968253,-170.07936507936506,-105.0,-191.34920634920633,1.507936507936508,325.0,-215.63492063492063,-4.523809523809524,-1.1904761904761905,-321.8253968253968
-124.68253968253967,-102.46031746031746,-125.79365079365078,-3.571428571428571,-119.12698412698413,-217.85714285714283,-125.0,-217.85714285714283,-122.30158730158729,325.0,-126.58730158730158,9.920634920634921,-121.98412698412697,173.25396825396825,-122.46031746031746,-167.2222222222222,-117.85714285714285,-188.33333333333331,-0.5555555555555556,325.0,-211.66666666666666,2.9365079365079363,0.3968253968253968,-321.8253968253968
-124.68253968253967,-102.46031746031746,-125.79365079365078,-3.571428571428571,-119.12698412698413,-217.85714285714283,-125.0,-217.85714285714283,-122.30158730158729,325.0,-126.58730158730158,9.920634920634921,-121.98412698412697,173.25396825396825,-122.46031746031746,-167.2222222222222,-117.85714285714285,-188.33333333333331,-0.5555555555555556,325.0,-211.66666666666666,2.9365079365079363,0.3968253968253968,-321.8253968253968
-109.12698412698413,-100.71428571428571,-111.03174603174602,0.5555555555555556,-105.79365079365078,-214.2063492063492,-111.19047619047619,-214.36507936507937,-110.23809523809523,325.0,-114.36507936507935,15.158730158730158,-112.93650793650794,170.3968253968254,-112.46031746031746,-164.36507936507937,-109.6031746031746,-185.3174603174603,5.952380952380952,325.0,-207.85714285714283,-4.2063492063492065,-0.873015873015873,-166.26984126984127
-109.12698412698413,-100.71428571428571,-111.03174603174602,0.5555555555555556,-105.79365079365078,-214.2063492063492,-111.19047619047619,-214.36507936507937,-110.23809523809523,325.0,-114.36507936507935,15.158730158730158,-112.93650793650794,170.3968253968254,-112.46031746031746,-164.36507936507937,-109.6031746031746,-185.3174603174603,5.952380952380952,325.0,-207.85714285714283,-4.2063492063492065,-0.873015873015873,-166.26984126984127
-132.46031746031744,-98.96825396825396,-133.57142857142856,9.761904761904761,-127.06349206349206,-210.87301587301587,-133.4126984126984,-211.03174603174602,-130.87301587301587,325.0,-134.84126984126982,23.095238095238095,-130.55555555555554,167.38095238095238,-131.03174603174602,-161.66666666666666,-126.42857142857142,-182.3015873015873,12.936507936507935,325.0,-204.2063492063492,3.4126984126984126,-1.6666666666666665,-166.26984126984127
-132.46031746031744,-98.96825396825396,-133.57142857142856,9.761904761904761,-127.06349206349206,-210.87301587301587,-133.4126984126984,-211.03174603174602,-130.87301587301587,325.0,-134.84126984126982,23.095238095238095,-130.55555555555554,167.38095238095238,-131.03174603174602,-161.66666666666666,-126.42857142857142,-182.3015873015873,12.936507936507935,325.0,-204.2063492063492,3.4126984126984126,-1.6666666666666665,-166.26984126984127
-118.01587301587301,-97.6984126984127,-119.76190476190476,3.571428571428571,-113.88888888888889,-208.17460317460316,-119.44444444444444,-208.4920634920635,-117.6984126984127,325.0,-121.34920634920634,17.063492063492063,-118.33333333333333,165.15873015873015,-118.49206349206348,-159.76190476190476,-113.88888888888889,-180.07936507936506,7.222222222222221,325.0,-201.66666666666666,-0.07936507936507936,-0.3968253968253968,-166.26984126984127
-118.01587301587301,-97.6984126984127,-119.76190476190476,3.571428571428571,-113.88888888888889,-208.17460317460316,-119.44444444444444,-208.4920634920635,-117.6984126984127,325.0,-121.34920634920634,17.063492063492063,-118.33333333333333,165.15873015873015,-118.49206349206348,-159.76190476190476,-113.88888888888889,-180.07936507936506,7.222222222222221,325.0,-201.66666666666666,-0.07936507936507936,-0.3968253968253968,-166.26984126984127
-100.23809523809523,-96.26984126984127,-101.82539682539682,-8.333333333333332,-94.68253968253968,-204.68253968253967,-99.28571428571428,-205.0,-97.38095238095238,325.0,-100.71428571428571,3.888888888888889,-95.95238095238095,162.14285714285714,-96.58730158730158,-156.74603174603175,-90.55555555555556,-177.06349206349205,-5.7936507936507935,325.0,-197.85714285714283,0.07936507936507936,1.507936507936508,-166.26984126984127
-100.23809523809523,-96.26984126984127,-101.82539682539682,-8.333333333333332,-94.68253968253968,-204.68253968253967,-99.28571428571428,-205.0,-97.38095238095238,325.0,-100.71428571428571,3.888888888888889,-95.95238095238095,162.14285714285714,-96.58730158730158,-156.74603174603175,-90.55555555555556,-177.06349206349205,-5.7936507936507935,325.0,-197.85714285714283,0.07936507936507936,1.507936507936508,-166.26984126984127
-98.49206349206348,-95.0,-100.55555555555554,-3.73015873015873,-93.57142857142857,-202.3015873015873,-98.49206349206348,-202.46031746031744,-96.58730158730158,325.0,-99.92063492063491,9.285714285714285,-96.74603174603175,160.07936507936506,-96.58730158730158,-154.84126984126982,-91.19047619047619,-175.0,-0.07936507936507936,325.0,-195.3174603174603,-4.0476190476190474,0.873015873015873,-166.26984126984127
-98.49206349206348,-95.0,-100.55555555555554,-3.73015873015873,-93.57142857142857,-202.3015873015873,-98.49206349206348,-202.46031746031744,-96.58730158730158,325.0,-99.92063492063491,9.285714285714285,-96.74603174603175,160.07936507936506,-96.58730158730158,-154.84126984126982,-91.19047619047619,-175.0,-0.07936507936507936,325.0,-195.3174603174603,-4.0476190476190474,0.873015873015873,-166.26984126984127
-119.6031746031746,-92.93650793650794,-120.55555555555554,6.111111111111111,-115.0,-198.33333333333331,-121.5079365079365,-198.4920634920635,-120.23809523809523,325.0,-122.93650793650794,19.92063492063492,-121.34920634920634,156.74603174603175,-121.19047619047619,-151.66666666666666,-116.74603174603173,-171.5079365079365,11.031746031746032,325.0,-191.03174603174602,-1.507936507936508,-1.6666666666666665,-321.8253968253968
-119.6031746031746,-92.93650793650794,-120.55555555555554,6.111111111111111,-115.0,-198.33333333333331,-121.5079365079365,-198.4920634920635,-120.23809523809523,325.0,-122.93650793650794,19.92063492063492,-121.34920634920634,156.74603174603175,-121.19047619047619,-151.66666666666666,-116.74603174603173,-171.5079365079365,11.031746031746032,325.0,-191.03174603174602,-1.507936507936508,-1.6666666666666665,-321.8253968253968
-64.04761904761905,-91.19047619047619,-67.22222222222221,-8.174603174603174,-62.77777777777777,-195.0,-65.15873015873015,-195.15873015873015,-65.63492063492063,325.0,-68.80952380952381,6.428571428571428,-69.12698412698413,153.73015873015873,-68.01587301587301,-149.12698412698413,-63.57142857142857,-168.33333333333331,-1.984126984126984,325.0,-187.53968253968253,-1.0317460317460316,-1.984126984126984,-321.8253968253968
-64.04761904761905,-91.19047619047619,-67.22222222222221,-8.174603174603174,-62.77777777777777,-195.0,-65.15873015873015,-195.15873015873015,-65.63492063492063,325.0,-68.80952380952381,6.428571428571428,-69.12698412698413,153.73015873015873,-68.01587301587301,-149.12698412698413,-63.57142857142857,-168.33333333333331,-1.984126984126984,325.0,-187.53968253968253,-1.0317460317460316,-1.984126984126984,-321.8253968253968
-101.82539682539682,-89.6031746031746,-102.14285714285714,-7.063492063492063,-97.53968253968253,-191.03174603174602,-104.36507936507935,-191.5079365079365,-104.52380952380952,325.0,-106.42857142857142,6.746031746031746,-105.31746031746032,150.3968253968254,-105.63492063492063,-146.26984126984127,-102.30158730158729,-165.15873015873015,-1.984126984126984,319.1269841269841,-183.4126984126984,3.4126984126984126,-2.7777777777777777,-321.8253968253968
-101.82539682539682,-89.6031746031746,-102.14285714285714,-7.063492063492063,-97.53968253968253,-191.03174603174602,-104.36507936507935,-191.5079365079365,-104.52380952380952,325.0,-106.42857142857142,6.746031746031746,-105.31746031746032,150.3968253968254,-105.63492063492063,-146.26984126984127,-102.30158730158729,-165.15873015873015,-1.984126984126984,319.1269841269841,-183.4126984126984,3.4126984126984126,-2.7777777777777777,-321.8253968253968
-133.4126984126984,-88.17460317460316,-133.4126984126984,6.428571428571428,-127.85714285714285,-188.015873015873,-135.15873015873015,-188.65079365079364,-132.46031746031744,325.0,-133.57142857142856,20.555555555555554,-132.93650793650792,147.85714285714286,-132.61904761904762,-143.73015873015873,-100.07936507936508,-162.46031746031744,11.666666666666666,313.73015873015873,-180.23809523809524,-5.0,-1.349206349206349,-321.8253968253968
-133.4126984126984,-88.17460317460316,-133.4126984126984,6.428571428571428,-127.85714285714285,-188.015873015873,-135.15873015873015,-188.65079365079364,-132.46031746031744,325.0,-133.57142857142856,20.555555555555554,-132.93650793650792,147.85714285714286,-132.61904761904762,-143.73015873015873,-100.07936507936508,-162.46031746031744,11.666666666666666,313.73015873015873,-180.23809523809524,-5.0,-1.349206349206349,-321.8253968253968
-132.14285714285714,-87.06349206349206,-132.3015873015873,7.5396825396825395,-126.9047619047619,-185.63492063492063,-134.04761904761904,-186.26984126984127,-132.14285714285714,325.0,-133.25396825396825,21.19047619047619,-132.14285714285714,145.79365079365078,-132.14285714285714,-141.984126984127,-86.26984126984127,-160.55555555555554,12.142857142857142,309.76190476190476,-177.69841269841268,-1.507936507936508,-1.507936507936508,-321.8253968253968
-132.14285714285714,-87.06349206349206,-132.3015873015873,7.5396825396825395,-126.9047619047619,-185.63492063492063,-134.04761904761904,-186.26984126984127,-132.14285714285714,325.0,-133.25396825396825,21.19047619047619,-132.14285714285714,145.79365079365078,-132.14285714285714,-141.984126984127,-86.26984126984127,-160.55555555555554,12.142857142857142,309.76190476190476,-177.69841269841268,-1.507936507936508,-1.507936507936508,-321.8253968253968
-139.44444444444443,-85.15873015873015,-138.96825396825395,1.349206349206349,-134.52380952380952,-181.984126984127,-141.984126984127,-182.46031746031744,-140.55555555555554,325.0,-140.87301587301587,15.158730158730158,-141.19047619047618,142.61904761904762,-140.87301587301587,-138.96825396825395,19.444444444444443,-157.38095238095238,6.587301587301587,303.57142857142856,-173.88888888888889,-5.476190476190476,-1.8253968253968254,-166.26984126984127
-139.44444444444443,-85.15873015873015,-138.96825396825395,1.349206349206349,-134.52380952380952,-181.984126984127,-141.984126984127,-182.46031746031744,-140.55555555555554,325.0,-140.87301587301587,15.158730158730158,-141.19047619047618,142.61904761904762,-140.87301587301587,-138.96825396825395,19.444444444444443,-157.38095238095238,6.587301587301587,303.57142857142856,-173.88888888888889,-5.476190476190476,-1.8253968253968254,-166.26984126984127
-112.30158730158729,-83.73015873015872,-113.09523809523809,-0.873015873015873,-108.33333333333333,-178.96825396825395,-114.52380952380952,-179.60317460317458,-114.04761904761904,325.0,-115.47619047619047,12.46031746031746,-114.84126984126983,140.07936507936506,-115.0,-136.58730158730157,84.52380952380952,-154.68253968253967,4.2063492063492065,298.6507936507936,-170.7142857142857,3.73015873015873,-1.349206349206349,-166.26984126984127
-112.30158730158729,-83.73015873015872,-113.09523809523809,-0.873015873015873,-108.33333333333333,-178.96825396825395,-114.52380952380952,-179.60317460317458,-114.04761904761904,325.0,-115.47619047619047,12.46031746031746,-114.84126984126983,140.07936507936506,-115.0,-136.58730158730157,84.52380952380952,-154.68253968253967,4.2063492063492065,298.6507936507936,-170.7142857142857,3.73015873015873,-1.349206349206349,-166.26984126984127
-152.14285714285714,-82.3015873015873,-151.03174603174602,3.888888888888889,-146.9047619047619,-176.11111111111111,-154.36507936507937,-176.58730158730157,-153.25396825396825,325.0,-152.93650793650792,17.22222222222222,-153.88888888888889,137.69841269841268,-152.77777777777777,-134.36507936507937,85.95238095238095,-152.14285714285714,8.968253968253968,293.73015873015873,-167.69841269841268,-5.7936507936507935,-0.23809523809523808,-166.26984126984127
-152.14285714285714,-82.3015873015873,-151.03174603174602,3.888888888888889,-146.9047619047619,-176.11111111111111,-154.36507936507937,-176.58730158730157,-153.25396825396825,325.0,-152.93650793650792,17.22222222222222,-153.88888888888889,137.69841269841268,-152.77777777777777,-134.36507936507937,85.95238095238095,-152.14285714285714,8.968253968253968,293.73015873015873,-167.69841269841268,-5.7936507936507935,-0.23809523809523808,-166.26984126984127
-93.09523809523809,-81.03174603174602,-94.52380952380952,-5.7936507936507935,-89.6031746031746,-173.09523809523807,-95.31746031746032,-173.88888888888889,-95.47619047619047,325.0,-96.1111111111111,6.904761904761904,-93.88888888888889,135.15873015873015,-95.31746031746032,-132.14285714285714,313.57142857142856,-149.76190476190476,-1.349206349206349,288.8095238095238,-164.68253968253967,4.2063492063492065,-0.7142857142857142,-166.26984126984127
-93.09523809523809,-81.03174603174602,-94.52380952380952,-5.7936507936507935,-89.6031746031746,-173.09523809523807,-95.31746031746032,-173.88888888888889,-95.47619047619047,325.0,-96.1111111111111,6.904761904761904,-93.88888888888889,135.15873015873015,-95.31746031746032,-132.14285714285714,313.57142857142856,-149.76190476190476,-1.349206349206349,288.8095238095238,-164.68253968253967,4.2063492063492065,-0.7142857142857142,-166.26984126984127
-169.9206349206349,-79.6031746031746,-168.96825396825395,5.7936507936507935,-164.84126984126982,-170.55555555555554,-173.4126984126984,-171.19047619047618,-173.09523809523807,325.0,-172.93650793650792,19.444444444444443,-174.68253968253967,132.77777777777777,-173.09523809523807,-130.07936507936506,247.85714285714283,-147.38095238095238,11.984126984126984,284.2063492063492,-161.984126984127,-5.317460317460317,-0.07936507936507936,-166.26984126984127
-169.9206349206349,-79.6031746031746,-168.96825396825395,5.7936507936507935,-164.84126984126982,-170.55555555555554,-173.4126984126984,-171.19047619047618,-173.09523809523807,325.0,-172.93650793650792,19.444444444444443,-174.68253968253967,132.77777777777777,-173.09523809523807,-130.07936507936506,247.85714285714283,-147.38095238095238,11.984126984126984,284.2063492063492,-161.984126984127,-5.317460317460317,-0.07936507936507936,-166.26984126984127
-125.15873015873015,-78.17460317460316,-127.6984126984127,-0.7142857142857142,-122.6190476190476,-167.53968253968253,-127.6984126984127,-168.33333333333331,-127.85714285714285,325.0,-129.28571428571428,11.507936507936508,-126.1111111111111,130.3968253968254,-126.74603174603173,-127.85714285714285,325.0,-144.84126984126982,3.571428571428571,279.44444444444446,-158.8095238095238,5.0,0.5555555555555556,-321.8253968253968
-125.15873015873015,-78.17460317460316,-127.6984126984127,-0.7142857142857142,-122.6190476190476,-167.53968253968253,-127.6984126984127,-168.33333333333331,-127.85714285714285,325.0,-129.28571428571428,11.507936507936508,-126.1111111111111,130.3968253968254,-126.74603174603173,-127.85714285714285,325.0,-144.84126984126982,3.571428571428571,279.44444444444446,-158.8095238095238,5.0,0.5555555555555556,-321.8253968253968
-140.23809523809524,-77.85714285714285,-141.03174603174602,-0.873015873015873,-135.79365079365078,-166.9047619047619,-142.3015873015873,-167.69841269841268,-141.03174603174602,325.0,-140.87301587301587,11.507936507936508,-136.58730158730157,129.9206349206349,-138.4920634920635,-127.38095238095238,325.0,-144.2063492063492,3.253968253968254,278.3333333333333,-158.33333333333331,7.857142857142857,-1.1904761904761905,-321.8253968253968
-140.23809523809524,-77.85714285714285,-141.03174603174602,-0.873015873015873,-135.79365079365078,-166.9047619047619,-142.3015873015873,-167.69841269841268,-141.03174603174602,325.0,-140.87301587301587,11.507936507936508,-136.58730158730157,129.9206349206349,-138.4920634920635,-127.38095238095238,325.0,-144.2063492063492,3.253968253968254,278.3333333333333,-158.33333333333331,7.857142857142857,-1.1904761904761905,-321.8253968253968
-188.33333333333331,-75.79365079365078,-189.76190476190476,1.8253968253968254,-184.2063492063492,-162.14285714285714,-191.03174603174602,-162.93650793650792,-191.34920634920633,325.0,-192.3015873015873,13.73015873015873,-189.9206349206349,125.95238095238095,-189.12698412698413,-123.57142857142857,325.0,-140.3968253968254,6.746031746031746,270.23809523809524,-153.4126984126984,6.428571428571428,1.0317460317460316,-321.8253968253968
-188.33333333333331,-75.79365079365078,-189.76190476190476,1.8253968253968254,-184.2063492063492,-162.14285714285714,-191.03174603174602,-162.93650793650792,-191.34920634920633,325.0,-192.3015873015873,13.73015873015873,-189.9206349206349,125.95238095238095,-189.12698412698413,-123.57142857142857,325.0,-140.3968253968254,6.746031746031746,270.23809523809524,-153.4126984126984,6.428571428571428,1.0317460317460316,-321.8253968253968
-181.03174603174602,-75.47619047619047,-182.77777777777777,-1.507936507936508,-177.06349206349205,-161.34920634920633,-183.57142857142856,-162.14285714285714,-183.25396825396825,325.0,-184.04761904761904,10.714285714285714,-180.23809523809524,125.31746031746032,-181.03174603174602,-122.93650793650794,325.0,-139.6031746031746,4.2063492063492065,269.1269841269841,-152.61904761904762,9.126984126984127,0.3968253968253968,-321.8253968253968
-181.03174603174602,-75.47619047619047,-182.77777777777777,-1.507936507936508,-177.06349206349205,-161.34920634920633,-183.57142857142856,-162.14285714285714,-183.25396825396825,325.0,-184.04761904761904,10.714285714285714,-180.23809523809524,125.31746031746032,-181.03174603174602,-122.93650793650794,325.0,-139.6031746031746,4.2063492063492065,269.1269841269841,-152.61904761904762,9.126984126984127,0.3968253968253968,-321.8253968253968
-196.58730158730157,-73.4126984126984,-196.58730158730157,-0.07936507936507936,-191.98412698412696,-157.53968253968253,-198.8095238095238,-158.33333333333331,-200.55555555555554,325.0,-201.34920634920633,11.825396825396824,-200.07936507936506,122.14285714285714,-196.74603174603175,-120.07936507936508,325.0,-136.26984126984127,5.317460317460317,262.6190476190476,-148.65079365079364,4.682539682539682,3.571428571428571,-321.8253968253968
-196.58730158730157,-73.4126984126984,-196.58730158730157,-0.07936507936507936,-191.98412698412696,-157.53968253968253,-198.8095238095238,-158.33333333333331,-200.55555555555554,325.0,-201.34920634920633,11.825396825396824,-200.07936507936506,122.14285714285714,-196.74603174603175,-120.07936507936508,325.0,-136.26984126984127,5.317460317460317,262.6190476190476,-148.65079365079364,4.682539682539682,3.571428571428571,-321.8253968253968
-178.015873015873,-71.98412698412697,-178.8095238095238,-0.7142857142857142,-174.2063492063492,-154.2063492063492,-180.3968253968254,-155.15873015873015,-182.3015873015873,325.0,-182.77777777777777,11.19047619047619,-180.07936507936506,119.44444444444444,-178.8095238095238,-117.53968253968253,325.0,-133.57142857142856,5.317460317460317,257.06349206349205,-145.3174603174603,7.063492063492063,1.349206349206349,-166.26984126984127
-178.015873015873,-71.98412698412697,-178.8095238095238,-0.7142857142857142,-174.2063492063492,-154.2063492063492,-180.3968253968254,-155.15873015873015,-182.3015873015873,325.0,-182.77777777777777,11.19047619047619,-180.07936507936506,119.44444444444444,-178.8095238095238,-117.53968253968253,325.0,-133.57142857142856,5.317460317460317,257.06349206349205,-145.3174603174603,7.063492063492063,1.349206349206349,-166.26984126984127
-185.3174603174603,-69.76190476190476,-183.4126984126984,1.984126984126984,-180.23809523809524,-149.44444444444443,-188.015873015873,-150.55555555555554,-189.76190476190476,325.0,-188.4920634920635,13.888888888888888,-185.47619047619045,115.31746031746032,-185.95238095238093,-113.88888888888889,325.0,-129.28571428571428,8.492063492063492,248.49206349206347,-140.23809523809524,-4.841269841269841,0.23809523809523808,-166.26984126984127
-185.3174603174603,-69.76190476190476,-183.4126984126984,1.984126984126984,-180.23809523809524,-149.44444444444443,-188.015873015873,-150.55555555555554,-189.76190476190476,325.0,-188.4920634920635,13.888888888888888,-185.47619047619045,115.31746031746032,-185.95238095238093,-113.88888888888889,325.0,-129.28571428571428,8.492063492063492,248.49206349206347,-140.23809523809524,-4.841269841269841,0.23809523809523808,-166.26984126984127
-188.015873015873,-68.4920634920635,-188.33333333333331,8.174603174603174,-184.68253968253967,-147.06349206349205,-191.19047619047618,-148.015873015873,-193.7301587301587,325.0,-193.4126984126984,19.6031746031746,-191.8253968253968,113.25396825396825,-189.76190476190476,-111.66666666666666,325.0,-127.06349206349206,14.365079365079364,244.36507936507934,-137.69841269841268,5.7936507936507935,-1.1904761904761905,-166.26984126984127
-188.015873015873,-68.4920634920635,-188.33333333333331,8.174603174603174,-184.68253968253967,-147.06349206349205,-191.19047619047618,-148.015873015873,-193.7301587301587,325.0,-193.4126984126984,19.6031746031746,-191.8253968253968,113.25396825396825,-189.76190476190476,-111.66666666666666,325.0,-127.06349206349206,14.365079365079364,244.36507936507934,-137.69841269841268,5.7936507936507935,-1.1904761904761905,-166.26984126984127
-185.0,-67.6984126984127,-184.52380952380952,8.492063492063492,-181.34920634920633,-145.3174603174603,-188.015873015873,-146.11111111111111,-190.07936507936506,325.0,-188.96825396825395,20.238095238095237,-186.9047619047619,111.66666666666666,-186.26984126984127,-110.55555555555554,325.0,-125.63492063492063,14.523809523809524,241.34920634920633,-135.95238095238093,-0.3968253968253968,-0.7142857142857142,-166.26984126984127
-185.0,-67.6984126984127,-184.52380952380952,8.492063492063492,-181.34920634920633,-145.3174603174603,-188.015873015873,-146.11111111111111,-190.07936507936506,325.0,-188.96825396825395,20.238095238095237,-186.9047619047619,111.66666666666666,-186.26984126984127,-110.55555555555554,325.0,-125.63492063492063,14.523809523809524,241.34920634920633,-135.95238095238093,-0.3968253968253968,-0.7142857142857142,-166.26984126984127
-192.61904761904762,-66.74603174603175,-191.03174603174602,8.174603174603174,-188.8095238095238,-142.46031746031744,-195.3174603174603,-143.88888888888889,-198.96825396825395,325.0,-197.69841269841268,19.126984126984127,-198.8095238095238,109.76190476190476,-194.68253968253967,-108.65079365079364,325.0,-123.73015873015872,14.047619047619047,237.2222222222222,-133.25396825396825,2.142857142857143,-0.23809523809523808,-166.26984126984127
-192.61904761904762,-66.74603174603175,-191.03174603174602,8.174603174603174,-188.8095238095238,-142.46031746031744,-195.3174603174603,-143.88888888888889,-198.96825396825395,325.0,-197.69841269841268,19.126984126984127,-198.8095238095238,109.76190476190476,-194.68253968253967,-108.65079365079364,325.0,-123.73015873015872,14.047619047619047,237.2222222222222,-133.25396825396825,2.142857142857143,-0.23809523809523808,-166.26984126984127
-191.8253968253968,-65.95238095238095,-189.76190476190476,8.65079365079365,-187.85714285714283,-140.87301587301587,-194.52380952380952,-142.14285714285714,-197.38095238095238,325.0,-195.63492063492063,19.444444444444443,-195.63492063492063,108.33333333333333,-193.25396825396825,-107.38095238095238,325.0,-122.14285714285714,14.365079365079364,234.2063492063492,-131.66666666666666,-2.9365079365079363,0.7142857142857142,-321.8253968253968
-191.8253968253968,-65.95238095238095,-189.76190476190476,8.65079365079365,-187.85714285714283,-140.87301587301587,-194.52380952380952,-142.14285714285714,-197.38095238095238,325.0,-195.63492063492063,19.444444444444443,-195.63492063492063,108.33333333333333,-193.25396825396825,-107.38095238095238,325.0,-122.14285714285714,14.365079365079364,234.2063492063492,-131.66666666666666,-2.9365079365079363,0.7142857142857142,-321.8253968253968
-200.55555555555554,-64.2063492063492,-199.76190476190476,13.73015873015873,-197.2222222222222,-137.53968253968253,-203.88888888888889,-138.65079365079364,-206.1111111111111,325.0,-204.68253968253967,24.84126984126984,-205.15873015873015,105.47619047619047,-202.61904761904762,-104.68253968253968,325.0,-119.12698412698413,19.444444444444443,228.49206349206347,-128.17460317460316,5.952380952380952,-0.07936507936507936,-321.8253968253968
-200.55555555555554,-64.2063492063492,-199.76190476190476,13.73015873015873,-197.2222222222222,-137.53968253968253,-203.88888888888889,-138.65079365079364,-206.1111111111111,325.0,-204.68253968253967,24.84126984126984,-205.15873015873015,105.47619047619047,-202.61904761904762,-104.68253968253968,325.0,-119.12698412698413,19.444444444444443,228.49206349206347,-128.17460317460316,5.952380952380952,-0.07936507936507936,-321.8253968253968
-178.33333333333331,-63.41269841269841,-177.53968253968253,11.825396825396824,-175.15873015873015,-135.95238095238093,-181.19047619047618,-137.06349206349205,-182.61904761904762,325.0,-181.03174603174602,22.619047619047617,-179.9206349206349,103.88888888888889,-179.44444444444443,-103.4126984126984,325.0,-117.6984126984127,16.26984126984127,225.79365079365078,-126.42857142857142,1.1904761904761905,0.5555555555555556,-321.8253968253968
-178.33333333333331,-63.41269841269841,-177.53968253968253,11.825396825396824,-175.15873015873015,-135.95238095238093,-181.19047619047618,-137.06349206349205,-182.61904761904762,325.0,-181.03174603174602,22.619047619047617,-179.9206349206349,103.88888888888889,-179.44444444444443,-103.4126984126984,325.0,-117.6984126984127,16.26984126984127,225.79365079365078,-126.42857142857142,1.1904761904761905,0.5555555555555556,-321.8253968253968
-161.34920634920633,-61.98412698412698,-159.76190476190476,4.682539682539682,-158.4920634920635,-132.93650793650792,-164.68253968253967,-134.36507936507937,-166.74603174603175,321.5079365079365,-164.84126984126982,15.158730158730158,-166.11111111111111,101.82539682539682,-163.73015873015873,-101.19047619047619,325.0,-115.31746031746032,8.809523809523808,220.87301587301587,-123.57142857142857,6.587301587301587,-0.5555555555555556,-321.8253968253968
-161.34920634920633,-61.98412698412698,-159.76190476190476,4.682539682539682,-158.4920634920635,-132.93650793650792,-164.68253968253967,-134.36507936507937,-166.74603174603175,321.5079365079365,-164.84126984126982,15.158730158730158,-166.11111111111111,101.82539682539682,-163.73015873015873,-101.19047619047619,325.0,-115.31746031746032,8.809523809523808,220.87301587301587,-123.57142857142857,6.587301587301587,-0.5555555555555556,-321.8253968253968
-133.0952380952381,-61.03174603174603,-132.77777777777777,-0.07936507936507936,-130.87301587301587,-131.03174603174602,-136.26984126984127,-132.14285714285714,-137.53968253968253,315.95238095238096,-135.15873015873015,9.761904761904761,-133.57142857142856,99.92063492063491,-134.68253968253967,-99.44444444444444,325.0,-113.4126984126984,3.571428571428571,217.38095238095238,-121.5079365079365,-3.73015873015873,1.349206349206349,-321.8253968253968
-133.0952380952381,-61.03174603174603,-132.77777777777777,-0.07936507936507936,-130.87301587301587,-131.03174603174602,-136.26984126984127,-132.14285714285714,-137.53968253968253,315.95238095238096,-135.15873015873015,9.761904761904761,-133.57142857142856,99.92063492063491,-134.68253968253967,-99.44444444444444,325.0,-113.4126984126984,3.571428571428571,217.38095238095238,-121.5079365079365,-3.73015873015873,1.349206349206349,-321.8253968253968
-154.04761904761904,-60.238095238095234,-151.66666666666666,3.73015873015873,-151.03174603174602,-129.28571428571428,-157.69841269841268,-130.23809523809524,-161.03174603174602,312.3015873015873,-157.69841269841268,13.73015873015873,-158.96825396825395,98.49206349206348,-156.9047619047619,-98.33333333333333,325.0,-111.82539682539682,7.063492063492063,214.52380952380952,-119.76190476190476,4.841269841269841,1.6666666666666665,-166.26984126984127
-154.04761904761904,-60.238095238095234,-151.66666666666666,3.73015873015873,-151.03174603174602,-129.28571428571428,-157.69841269841268,-130.23809523809524,-161.03174603174602,312.3015873015873,-157.69841269841268,13.73015873015873,-158.96825396825395,98.49206349206348,-156.9047619047619,-98.33333333333333,325.0,-111.82539682539682,7.063492063492063,214.52380952380952,-119.76190476190476,4.841269841269841,1.6666666666666665,-166.26984126984127
-157.2222222222222,-58.8095238095238,-155.79365079365078,5.476190476190476,-154.36507936507937,-126.1111111111111,-161.34920634920633,-127.38095238095238,-163.25396825396825,313.4126984126984,-160.23809523809524,15.476190476190474,-162.14285714285714,95.95238095238095,-160.07936507936506,-95.95238095238095,325.0,-109.28571428571428,9.285714285714285,209.28571428571428,-116.74603174603173,2.142857142857143,0.7142857142857142,-166.26984126984127
-157.2222222222222,-58.8095238095238,-155.79365079365078,5.476190476190476,-154.36507936507937,-126.1111111111111,-161.34920634920633,-127.38095238095238,-163.25396825396825,313.4126984126984,-160.23809523809524,15.476190476190474,-162.14285714285714,95.95238095238095,-160.07936507936506,-95.95238095238095,325.0,-109.28571428571428,9.285714285714285,209.28571428571428,-116.74603174603173,2.142857142857143,0.7142857142857142,-166.26984126984127
-160.3968253968254,-57.22222222222222,-159.76190476190476,7.222222222222221,-157.69841269841268,-122.93650793650794,-164.84126984126982,-124.36507936507935,-165.47619047619045,314.5238095238095,-162.77777777777777,17.22222222222222,-165.15873015873015,93.4126984126984,-163.09523809523807,-93.4126984126984,325.0,-106.58730158730158,11.666666666666666,204.04761904761904,-113.57142857142857,-0.3968253968253968,-0.07936507936507936,-166.26984126984127
-160.3968253968254,-57.22222222222222,-159.76190476190476,7.222222222222221,-157.69841269841268,-122.93650793650794,-164.84126984126982,-124.36507936507935,-165.47619047619045,314.5238095238095,-162.77777777777777,17.22222222222222,-165.15873015873015,93.4126984126984,-163.09523809523807,-93.4126984126984,325.0,-106.58730158730158,11.666666666666666,204.04761904761904,-113.57142857142857,-0.3968253968253968,-0.07936507936507936,-166.26984126984127
-132.14285714285714,-55.79365079365079,-131.66666666666666,-1.507936507936508,-131.34920634920636,-119.44444444444444,-135.95238095238093,-120.87301587301586,-138.17460317460316,295.3174603174603,-135.47619047619048,7.5396825396825395,-137.38095238095238,90.55555555555556,-135.63492063492063,-90.87301587301587,325.0,-103.57142857142857,2.7777777777777777,198.015873015873,-110.07936507936508,3.095238095238095,0.3968253968253968,-166.26984126984127
-132.14285714285714,-55.79365079365079,-131.66666666666666,-1.507936507936508,-131.34920634920636,-119.44444444444444,-135.95238095238093,-120.87301587301586,-138.17460317460316,295.3174603174603,-135.47619047619048,7.5396825396825395,-137.38095238095238,90.55555555555556,-135.63492063492063,-90.87301587301587,325.0,-103.57142857142857,2.7777777777777777,198.015873015873,-110.07936507936508,3.095238095238095,0.3968253968253968,-166.26984126984127
-134.52380952380952,-55.0,-134.36507936507937,1.1904761904761905,-132.77777777777777,-118.01587301587301,-138.015873015873,-119.44444444444444,-139.28571428571428,291.8253968253968,-136.11111111111111,9.761904761904761,-134.84126984126982,89.28571428571428,-135.3174603174603,-89.6031746031746,325.0,-102.30158730158729,3.571428571428571,195.63492063492063,-108.65079365079364,-6.587301587301587,4.0476190476190474,-166.26984126984127
-134.52380952380952,-55.0,-134.36507936507937,1.1904761904761905,-132.77777777777777,-118.01587301587301,-138.015873015873,-119.44444444444444,-139.28571428571428,291.8253968253968,-136.11111111111111,9.761904761904761,-134.84126984126982,89.28571428571428,-135.3174603174603,-89.6031746031746,325.0,-102.30158730158729,3.571428571428571,195.63492063492063,-108.65079365079364,-6.587301587301587,4.0476190476190474,-166.26984126984127
-126.74603174603173,-54.047619047619044,-125.15873015873015,4.2063492063492065,-125.63492063492063,-115.79365079365078,-130.55555555555554,-117.38095238095238,-133.25396825396825,286.74603174603175,-130.23809523809524,13.095238095238095,-131.984126984127,87.6984126984127,-130.55555555555554,-87.85714285714285,325.0,-100.55555555555554,8.65079365079365,192.14285714285714,-106.26984126984127,8.174603174603174,-2.619047619047619,-321.8253968253968
-126.74603174603173,-54.047619047619044,-125.15873015873015,4.2063492063492065,-125.63492063492063,-115.79365079365078,-130.55555555555554,-117.38095238095238,-133.25396825396825,286.74603174603175,-130.23809523809524,13.095238095238095,-131.984126984127,87.6984126984127,-130.55555555555554,-87.85714285714285,325.0,-100.55555555555554,8.65079365079365,192.14285714285714,-106.26984126984127,8.174603174603174,-2.619047619047619,-321.8253968253968
-135.0,-53.41269841269841,-133.0952380952381,4.365079365079365,-133.4126984126984,-114.52380952380952,-139.12698412698413,-115.95238095238095,-141.984126984127,283.0952380952381,-138.4920634920635,12.936507936507935,-138.96825396825395,86.58730158730158,-138.4920634920635,-86.9047619047619,321.3492063492063,-99.28571428571428,8.015873015873016,189.60317460317458,-105.15873015873015,5.317460317460317,-1.6666666666666665,-321.8253968253968
-135.0,-53.41269841269841,-133.0952380952381,4.365079365079365,-133.4126984126984,-114.52380952380952,-139.12698412698413,-115.95238095238095,-141.984126984127,283.0952380952381,-138.4920634920635,12.936507936507935,-138.96825396825395,86.58730158730158,-138.4920634920635,-86.9047619047619,321.3492063492063,-99.28571428571428,8.015873015873016,189.60317460317458,-105.15873015873015,5.317460317460317,-1.6666666666666665,-321.8253968253968
-132.3015873015873,-52.460317460317455,-131.19047619047618,3.253968253968254,-131.03174603174602,-112.30158730158729,-136.42857142857142,-113.57142857142857,-138.65079365079364,277.06349206349205,-135.3174603174603,11.825396825396824,-135.95238095238093,84.68253968253968,-135.47619047619048,-85.15873015873015,315.0,-97.38095238095238,7.222222222222221,185.79365079365078,-102.93650793650794,-0.07936507936507936,-0.5555555555555556,-321.8253968253968
-132.3015873015873,-52.460317460317455,-131.19047619047618,3.253968253968254,-131.03174603174602,-112.30158730158729,-136.42857142857142,-113.57142857142857,-138.65079365079364,277.06349206349205,-135.3174603174603,11.825396825396824,-135.95238095238093,84.68253968253968,-135.47619047619048,-85.15873015873015,315.0,-97.38095238095238,7.222222222222221,185.79365079365078,-102.93650793650794,-0.07936507936507936,-0.5555555555555556,-321.8253968253968
-135.3174603174603,-51.34920634920635,-133.57142857142856,9.126984126984127,-133.57142857142856,-109.92063492063491,-138.96825396825395,-111.66666666666666,-140.87301587301587,271.031746031746,-137.22222222222223,16.26984126984127,-136.42857142857142,82.77777777777777,-136.9047619047619,-83.4126984126984,308.17460317460313,-95.47619047619047,11.349206349206348,181.984126984127,-100.55555555555554,-2.142857142857143,0.873015873015873,-321.8253968253968
-135.3174603174603,-51.34920634920635,-133.57142857142856,9.126984126984127,-133.57142857142856,-109.92063492063491,-138.96825396825395,-111.66666666666666,-140.87301587301587,271.031746031746,-137.22222222222223,16.26984126984127,-136.42857142857142,82.77777777777777,-136.9047619047619,-83.4126984126984,308.17460317460313,-95.47619047619047,11.349206349206348,181.984126984127,-100.55555555555554,-2.142857142857143,0.873015873015873,-321.8253968253968
-117.53968253968253,-50.39682539682539,-117.22222222222221,4.2063492063492065,-117.85714285714285,-108.33333333333333,-121.66666666666666,-109.6031746031746,-123.73015873015872,266.4285714285714,-120.87301587301586,12.3015873015873,-123.09523809523809,81.5079365079365,-121.66666666666666,-81.98412698412697,302.77777777777777,-91.34920634920634,8.333333333333332,178.96825396825395,-98.80952380952381,1.6666666666666665,-0.873015873015873,-321.8253968253968
-117.53968253968253,-50.39682539682539,-117.22222222222221,4.2063492063492065,-117.85714285714285,-108.33333333333333,-121.66666666666666,-109.6031746031746,-123.73015873015872,266.4285714285714,-120.87301587301586,12.3015873015873,-123.09523809523809,81.5079365079365,-121.66666666666666,-81.98412698412697,302.77777777777777,-91.34920634920634,8.333333333333332,178.96825396825395,-98.80952380952381,1.6666666666666665,-0.873015873015873,-321.8253968253968
-120.87301587301586,-49.6031746031746,-119.76190476190476,3.253968253968254,-120.07936507936508,-106.42857142857142,-125.0,-107.6984126984127,-126.9047619047619,261.8253968253968,-123.09523809523809,10.714285714285714,-122.30158730158729,79.92063492063491,-122.93650793650794,-80.55555555555556,297.53968253968253,-91.19047619047619,6.111111111111111,175.79365079365078,-96.9047619047619,-2.7777777777777777,0.7142857142857142,-166.26984126984127
-120.87301587301586,-49.6031746031746,-119.76190476190476,3.253968253968254,-120.07936507936508,-106.42857142857142,-125.0,-107.6984126984127,-126.9047619047619,261.8253968253968,-123.09523809523809,10.714285714285714,-122.30158730158729,79.92063492063491,-122.93650793650794,-80.55555555555556,297.53968253968253,-91.19047619047619,6.111111111111111,175.79365079365078,-96.9047619047619,-2.7777777777777777,0.7142857142857142,-166.26984126984127
-127.53968253968253,-48.33333333333333,-125.31746031746032,5.158730158730158,-126.58730158730158,-103.88888888888889,-131.8253968253968,-105.15873015873015,-134.2063492063492,255.3174603174603,-130.07936507936506,12.936507936507935,-131.5079365079365,77.6984126984127,-130.87301587301587,-78.65079365079364,290.07936507936506,-90.07936507936508,8.492063492063492,171.5079365079365,-94.52380952380952,3.73015873015873,-2.142857142857143,-166.26984126984127
-127.53968253968253,-48.33333333333333,-125.31746031746032,5.158730158730158,-126.58730158730158,-103.88888888888889,-131.8253968253968,-105.15873015873015,-134.2063492063492,255.3174603174603,-130.07936507936506,12.936507936507935,-131.5079365079365,77.6984126984127,-130.87301587301587,-78.65079365079364,290.07936507936506,-90.07936507936508,8.492063492063492,171.5079365079365,-94.52380952380952,3.73015873015873,-2.142857142857143,-166.26984126984127
-93.25396825396825,-46.74603174603175,-92.93650793650794,-2.7777777777777777,-93.57142857142857,-100.39682539682539,-96.58730158730158,-101.98412698412697,-98.33333333333333,246.26984126984127,-95.0,4.2063492063492065,-95.63492063492063,75.15873015873015,-95.79365079365078,-76.26984126984127,279.9206349206349,-87.38095238095238,0.5555555555555556,165.47619047619045,-91.19047619047619,-5.476190476190476,0.7142857142857142,-166.26984126984127
-93.25396825396825,-46.74603174603175,-92.93650793650794,-2.7777777777777777,-93.57142857142857,-100.39682539682539,-96.58730158730158,-101.98412698412697,-98.33333333333333,246.26984126984127,-95.0,4.2063492063492065,-95.63492063492063,75.15873015873015,-95.79365079365078,-76.26984126984127,279.9206349206349,-87.38095238095238,0.5555555555555556,165.47619047619045,-91.19047619047619,-5.476190476190476,0.7142857142857142,-166.26984126984127
-106.26984126984127,-46.11111111111111,-104.04761904761904,-2.46031746031746,-105.63492063492063,-98.80952380952381,-110.07936507936508,-100.39682539682539,-112.30158730158729,242.14285714285714,-108.33333333333333,4.523809523809524,-109.92063492063491,73.73015873015872,-109.44444444444444,-74.84126984126983,275.0,-66.74603174603175,1.0317460317460316,162.93650793650792,-89.44444444444444,4.0476190476190474,-2.142857142857143,-166.26984126984127
-106.26984126984127,-46.11111111111111,-104.04761904761904,-2.46031746031746,-105.63492063492063,-98.80952380952381,-110.07936507936508,-100.39682539682539,-112.30158730158729,242.14285714285714,-108.33333333333333,4.523809523809524,-109.92063492063491,73.73015873015872,-109.44444444444444,-74.84126984126983,275.0,-66.74603174603175,1.0317460317460316,162.93650793650792,-89.44444444444444,4.0476190476190474,-2.142857142857143,-166.26984126984127
-97.38095238095238,-45.95238095238095,-95.47619047619047,-4.365079365079365,-97.38095238095238,-98.33333333333333,-101.03174603174602,-99.92063492063491,-103.09523809523809,241.03174603174602,-99.76190476190476,2.9365079365079363,-102.93650793650794,73.57142857142857,-101.34920634920634,-74.52380952380952,273.73015873015873,-47.22222222222222,0.23809523809523808,162.14285714285714,-88.96825396825396,5.7936507936507935,-3.253968253968254,-166.26984126984127
-97.38095238095238,-45.95238095238095,-95.47619047619047,-4.365079365079365,-97.38095238095238,-98.33333333333333,-101.03174603174602,-99.92063492063491,-103.09523809523809,241.03174603174602,-99.76190476190476,2.9365079365079363,-102.93650793650794,73.57142857142857,-101.34920634920634,-74.52380952380952,273.73015873015873,-47.22222222222222,0.23809523809523808,162.14285714285714,-88.96825396825396,5.7936507936507935,-3.253968253968254,-166.26984126984127
-106.74603174603175,-44.84126984126984,-103.73015873015872,-3.253968253968254,-105.31746031746032,-95.95238095238095,-110.07936507936508,-97.38095238095238,-112.14285714285714,234.68253968253967,-107.85714285714285,2.7777777777777777,-108.01587301587301,-26.11111111111111,-108.33333333333333,-72.61904761904762,266.58730158730157,-84.04761904761904,-0.7142857142857142,158.015873015873,-86.58730158730158,3.73015873015873,-0.3968253968253968,-321.8253968253968
-106.74603174603175,-44.84126984126984,-103.73015873015872,-3.253968253968254,-105.31746031746032,-95.95238095238095,-110.07936507936508,-97.38095238095238,-112.14285714285714,234.68253968253967,-107.85714285714285,2.7777777777777777,-108.01587301587301,-26.11111111111111,-108.33333333333333,-72.61904761904762,266.58730158730157,-84.04761904761904,-0.7142857142857142,158.015873015873,-86.58730158730158,3.73015873015873,-0.3968253968253968,-321.8253968253968
