Fp1[1],Fp2[2],F3[3],F4[4],C3[5],C4[6],P3[7],P4[8],O1[9],O2[10],F7[11],F8[12],T3[13],T4[14],T5[15],T6[16],Fz[17],Pz[18],Cz[19],Pg1[20],Pg2[21],EOGR[22],EOOGL[23],EMG[24]
-325.0,325.0,-325.0,159.44444444444443,-325.0,11.825396825396824,-325.0,11.349206349206348,-322.9365079365079,56.269841269841265,20.238095238095237,-29.76190476190476,-303.4126984126984,9.603174603174603,-305.0,11.666666666666666,-325.0,12.142857142857142,-130.55555555555554,-35.317460317460316,-11.984126984126984,0.23809523809523808,-0.5555555555555556,-166.26984126984127
-325.0,325.0,-325.0,159.44444444444443,-325.0,11.825396825396824,-325.0,11.349206349206348,-322.9365079365079,56.269841269841265,20.238095238095237,-29.76190476190476,-303.4126984126984,9.603174603174603,-305.0,11.666666666666666,-325.0,12.142857142857142,-130.55555555555554,-35.317460317460316,-11.984126984126984,0.23809523809523808,-0.5555555555555556,-166.26984126984127
-325.0,325.0,-325.0,153.4126984126984,-325.0,11.666666666666666,-325.0,11.349206349206348,-320.7142857142857,53.73015873015873,20.07936507936508,-34.2063492063492,-281.8253968253968,9.603174603174603,-284.8412698412698,11.507936507936508,-325.0,12.142857142857142,-127.6984126984127,-35.15873015873016,-11.825396825396824,-3.095238095238095,-8.65079365079365,-166.26984126984127
-325.0,325.0,-325.0,153.4126984126984,-325.0,11.666666666666666,-325.0,11.349206349206348,-320.7142857142857,53.73015873015873,20.07936507936508,-34.2063492063492,-281.8253968253968,9.603174603174603,-284.8412698412698,11.507936507936508,-325.0,12.142857142857142,-127.6984126984127,-35.15873015873016,-11.825396825396824,-3.095238095238095,-8.65079365079365,-166.26984126984127
-325.0,325.0,-325.0,153.4126984126984,-325.0,11.666666666666666,-325.0,11.349206349206348,-320.7142857142857,53.73015873015873,20.07936507936508,-34.2063492063492,-281.8253968253968,9.603174603174603,-284.8412698412698,11.507936507936508,-325.0,12.142857142857142,-127.6984126984127,-35.15873015873016,-11.825396825396824,-3.095238095238095,-8.65079365079365,-166.26984126984127
-325.0,325.0,-325.0,153.4126984126984,-325.0,11.666666666666666,-325.0,11.349206349206348,-320.7142857142857,53.73015873015873,20.07936507936508,-34.2063492063492,-281.8253968253968,9.603174603174603,-284.8412698412698,11.507936507936508,-325.0,12.142857142857142,-127.6984126984127,-35.15873015873016,-11.825396825396824,-3.095238095238095,-8.65079365079365,-166.26984126984127
-325.0,325.0,-325.0,153.4126984126984,-325.0,11.666666666666666,-325.0,11.349206349206348,-320.7142857142857,53.73015873015873,20.07936507936508,-34.2063492063492,-281.8253968253968,9.603174603174603,-284.8412698412698,11.507936507936508,-325.0,12.142857142857142,-127.6984126984127,-35.15873015873016,-11.825396825396824,-3.095238095238095,-8.65079365079365,-166.26984126984127
-325.0,325.0,-325.0,153.4126984126984,-325.0,11.666666666666666,-325.0,11.349206349206348,-320.7142857142857,53.73015873015873,20.07936507936508,-34.2063492063492,-281.8253968253968,9.603174603174603,-284.8412698412698,11.507936507936508,-325.0,12.142857142857142,-127.6984126984127,-35.15873015873016,-11.825396825396824,-3.095238095238095,-8.65079365079365,-166.26984126984127
-325.0,325.0,-325.0,153.4126984126984,-325.0,11.666666666666666,-325.0,11.349206349206348,-320.7142857142857,53.73015873015873,20.07936507936508,-34.2063492063492,-281.8253968253968,9.603174603174603,-284.8412698412698,11.507936507936508,-325.0,12.142857142857142,-127.6984126984127,-35.15873015873016,-11.825396825396824,-3.095238095238095,-8.65079365079365,-166.26984126984127
-325.0,325.0,-325.0,153.4126984126984,-325.0,11.666666666666666,-325.0,11.349206349206348,-320.7142857142857,53.73015873015873,20.07936507936508,-34.2063492063492,-281.8253968253968,9.603174603174603,-284.8412698412698,11.507936507936508,-325.0,12.142857142857142,-127.6984126984127,-35.15873015873016,-11.825396825396824,-3.095238095238095,-8.65079365079365,-166.26984126984127
-325.0,325.0,-325.0,153.4126984126984,-325.0,11.666666666666666,-325.0,11.349206349206348,-320.7142857142857,53.73015873015873,20.07936507936508,-34.2063492063492,-281.8253968253968,9.603174603174603,-284.8412698412698,11.507936507936508,-325.0,12.142857142857142,-127.6984126984127,-35.15873015873016,-11.825396825396824,-3.095238095238095,-8.65079365079365,-321.8253968253968
-325.0,325.0,-325.0,153.4126984126984,-325.0,11.666666666666666,-325.0,11.349206349206348,-320.7142857142857,53.73015873015873,20.07936507936508,-34.2063492063492,-281.8253968253968,9.603174603174603,-284.8412698412698,11.507936507936508,-325.0,12.142857142857142,-127.6984126984127,-35.15873015873016,-11.825396825396824,-3.095238095238095,-8.65079365079365,-321.8253968253968
-325.0,292.9365079365079,-325.0,163.73015873015873,-325.0,10.238095238095237,-325.0,9.920634920634921,-322.9365079365079,107.06349206349206,17.539682539682538,-6.26984126984127,-253.25396825396825,8.174603174603174,-255.0,10.079365079365079,-325.0,10.714285714285714,-30.71428571428571,-30.71428571428571,64.2063492063492,-3.4126984126984126,-8.492063492063492,-321.8253968253968
-325.0,292.9365079365079,-325.0,163.73015873015873,-325.0,10.238095238095237,-325.0,9.920634920634921,-322.9365079365079,107.06349206349206,17.539682539682538,-6.26984126984127,-253.25396825396825,8.174603174603174,-255.0,10.079365079365079,-325.0,10.714285714285714,-30.71428571428571,-30.71428571428571,64.2063492063492,-3.4126984126984126,-8.492063492063492,-321.8253968253968
-325.0,257.38095238095235,-325.0,168.8095238095238,-325.0,8.968253968253968,-325.0,8.333333333333332,-325.0,156.42857142857142,14.682539682539682,16.26984126984127,-217.69841269841268,6.904761904761904,-217.53968253968253,8.65079365079365,-325.0,9.126984126984127,64.84126984126983,-26.11111111111111,144.04761904761904,2.46031746031746,7.857142857142857,-321.8253968253968
-325.0,257.38095238095235,-325.0,168.8095238095238,-325.0,8.968253968253968,-325.0,8.333333333333332,-325.0,156.42857142857142,14.682539682539682,16.26984126984127,-217.69841269841268,6.904761904761904,-217.53968253968253,8.65079365079365,-325.0,9.126984126984127,64.84126984126983,-26.11111111111111,144.04761904761904,2.46031746031746,7.857142857142857,-321.8253968253968
-325.0,253.7301587301587,-325.0,168.4920634920635,-325.0,8.809523809523808,-325.0,8.333333333333332,-325.0,158.33333333333331,14.523809523809524,16.904761904761905,-213.88888888888889,6.746031746031746,-213.09523809523807,8.65079365079365,-325.0,8.968253968253968,68.33333333333333,-25.634920634920633,149.9206349206349,-0.3968253968253968,-0.873015873015873,-321.8253968253968
-325.0,253.7301587301587,-325.0,168.4920634920635,-325.0,8.809523809523808,-325.0,8.333333333333332,-325.0,158.33333333333331,14.523809523809524,16.904761904761905,-213.88888888888889,6.746031746031746,-213.09523809523807,8.65079365079365,-325.0,8.968253968253968,68.33333333333333,-25.634920634920633,149.9206349206349,-0.3968253968253968,-0.873015873015873,-321.8253968253968
-325.0,248.33333333333331,-325.0,168.015873015873,-325.0,8.492063492063492,-325.0,8.015873015873016,-325.0,160.3968253968254,14.206349206349206,17.22222222222222,-210.3968253968254,6.746031746031746,-210.55555555555554,8.492063492063492,-325.0,8.809523809523808,73.4126984126984,-25.0,159.44444444444443,2.3015873015873014,8.809523809523808,-321.8253968253968
-325.0,248.33333333333331,-325.0,168.015873015873,-325.0,8.492063492063492,-325.0,8.015873015873016,-325.0,160.3968253968254,14.206349206349206,17.22222222222222,-210.3968253968254,6.746031746031746,-210.55555555555554,8.492063492063492,-325.0,8.809523809523808,73.4126984126984,-25.0,159.44444444444443,2.3015873015873014,8.809523809523808,-321.8253968253968
-325.0,243.88888888888889,-325.0,167.2222222222222,-325.0,8.492063492063492,-325.0,8.015873015873016,-325.0,161.984126984127,14.047619047619047,17.698412698412696,-200.07936507936506,6.587301587301587,-199.28571428571428,8.333333333333332,-325.0,8.65079365079365,77.22222222222221,-24.523809523809522,165.47619047619045,-3.571428571428571,-9.603174603174603,-166.26984126984127
-325.0,243.88888888888889,-325.0,167.2222222222222,-325.0,8.492063492063492,-325.0,8.015873015873016,-325.0,161.984126984127,14.047619047619047,17.698412698412696,-200.07936507936506,6.587301587301587,-199.28571428571428,8.333333333333332,-325.0,8.65079365079365,77.22222222222221,-24.523809523809522,165.47619047619045,-3.571428571428571,-9.603174603174603,-166.26984126984127
-305.7936507936508,240.55555555555554,-325.0,157.53968253968253,-325.0,8.333333333333332,-323.25396825396825,8.333333333333332,-303.0952380952381,154.36507936507937,13.888888888888888,8.333333333333332,-150.3968253968254,6.428571428571428,-151.66666666666666,8.174603174603174,-325.0,8.65079365079365,69.76190476190476,-24.365079365079364,51.507936507936506,4.682539682539682,12.46031746031746,-166.26984126984127
-305.7936507936508,240.55555555555554,-325.0,157.53968253968253,-325.0,8.333333333333332,-323.25396825396825,8.333333333333332,-303.0952380952381,154.36507936507937,13.888888888888888,8.333333333333332,-150.3968253968254,6.428571428571428,-151.66666666666666,8.174603174603174,-325.0,8.65079365079365,69.76190476190476,-24.365079365079364,51.507936507936506,4.682539682539682,12.46031746031746,-166.26984126984127
-325.0,236.42857142857142,-325.0,163.57142857142856,-325.0,8.174603174603174,-325.0,7.857142857142857,-325.0,163.09523809523807,13.73015873015873,16.11111111111111,-189.12698412698413,6.26984126984127,-187.69841269841268,8.174603174603174,-325.0,8.65079365079365,80.87301587301587,-23.88888888888889,0.23809523809523808,-5.634920634920634,-12.777777777777777,-166.26984126984127
-325.0,236.42857142857142,-325.0,163.57142857142856,-325.0,8.174603174603174,-325.0,7.857142857142857,-325.0,163.09523809523807,13.73015873015873,16.11111111111111,-189.12698412698413,6.26984126984127,-187.69841269841268,8.174603174603174,-325.0,8.65079365079365,80.87301587301587,-23.88888888888889,0.23809523809523808,-5.634920634920634,-12.777777777777777,-166.26984126984127
-325.0,225.95238095238093,-325.0,164.84126984126982,-325.0,8.015873015873016,-325.0,7.5396825396825395,-319.9206349206349,168.33333333333331,12.936507936507935,18.96825396825397,-163.73015873015873,6.111111111111111,-161.8253968253968,8.015873015873016,-325.0,8.174603174603174,89.76190476190476,-22.777777777777775,-42.460317460317455,-4.0476190476190474,-7.5396825396825395,-166.26984126984127
-325.0,225.95238095238093,-325.0,164.84126984126982,-325.0,8.015873015873016,-325.0,7.5396825396825395,-319.9206349206349,168.33333333333331,12.936507936507935,18.96825396825397,-163.73015873015873,6.111111111111111,-161.8253968253968,8.015873015873016,-325.0,8.174603174603174,89.76190476190476,-22.777777777777775,-42.460317460317455,-4.0476190476190474,-7.5396825396825395,-166.26984126984127
-325.0,225.95238095238093,-325.0,164.84126984126982,-325.0,8.015873015873016,-325.0,7.5396825396825395,-319.9206349206349,168.33333333333331,12.936507936507935,18.96825396825397,-163.73015873015873,6.111111111111111,-161.8253968253968,8.015873015873016,-325.0,8.174603174603174,89.76190476190476,-22.777777777777775,-42.460317460317455,-4.0476190476190474,-7.5396825396825395,-166.26984126984127
-325.0,225.95238095238093,-325.0,164.84126984126982,-325.0,8.015873015873016,-325.0,7.5396825396825395,-319.9206349206349,168.33333333333331,12.936507936507935,18.96825396825397,-163.73015873015873,6.111111111111111,-161.8253968253968,8.015873015873016,-325.0,8.174603174603174,89.76190476190476,-22.777777777777775,-42.460317460317455,-4.0476190476190474,-7.5396825396825395,-166.26984126984127
-325.0,225.95238095238093,-325.0,164.84126984126982,-325.0,8.015873015873016,-325.0,7.5396825396825395,-319.9206349206349,168.33333333333331,12.936507936507935,18.96825396825397,-163.73015873015873,6.111111111111111,-161.8253968253968,8.015873015873016,-325.0,8.174603174603174,89.76190476190476,-22.777777777777775,-42.460317460317455,-4.0476190476190474,-7.5396825396825395,-321.8253968253968
-325.0,225.95238095238093,-325.0,164.84126984126982,-325.0,8.015873015873016,-325.0,7.5396825396825395,-319.9206349206349,168.33333333333331,12.936507936507935,18.96825396825397,-163.73015873015873,6.111111111111111,-161.8253968253968,8.015873015873016,-325.0,8.174603174603174,89.76190476190476,-22.777777777777775,-42.460317460317455,-4.0476190476190474,-7.5396825396825395,-321.8253968253968
-234.04761904761904,214.04761904761904,-250.55555555555554,152.93650793650792,-254.52380952380952,7.698412698412698,-230.87301587301587,7.3809523809523805,-225.63492063492063,161.19047619047618,12.46031746031746,8.492063492063492,-59.76190476190476,5.7936507936507935,-62.3015873015873,7.698412698412698,-249.12698412698413,7.857142857142857,86.74603174603175,-21.825396825396822,-39.285714285714285,-0.873015873015873,2.619047619047619,-321.8253968253968
-234.04761904761904,214.04761904761904,-250.55555555555554,152.93650793650792,-254.52380952380952,7.698412698412698,-230.87301587301587,7.3809523809523805,-225.63492063492063,161.19047619047618,12.46031746031746,8.492063492063492,-59.76190476190476,5.7936507936507935,-62.3015873015873,7.698412698412698,-249.12698412698413,7.857142857142857,86.74603174603175,-21.825396825396822,-39.285714285714285,-0.873015873015873,2.619047619047619,-321.8253968253968
-234.04761904761904,214.04761904761904,-250.55555555555554,152.93650793650792,-254.52380952380952,7.698412698412698,-230.87301587301587,7.3809523809523805,-225.63492063492063,161.19047619047618,12.46031746031746,8.492063492063492,-59.76190476190476,5.7936507936507935,-62.3015873015873,7.698412698412698,-249.12698412698413,7.857142857142857,86.74603174603175,-21.825396825396822,-39.285714285714285,-0.873015873015873,2.619047619047619,-321.8253968253968
-234.04761904761904,214.04761904761904,-250.55555555555554,152.93650793650792,-254.52380952380952,7.698412698412698,-230.87301587301587,7.3809523809523805,-225.63492063492063,161.19047619047618,12.46031746031746,8.492063492063492,-59.76190476190476,5.7936507936507935,-62.3015873015873,7.698412698412698,-249.12698412698413,7.857142857142857,86.74603174603175,-21.825396825396822,-39.285714285714285,-0.873015873015873,2.619047619047619,-321.8253968253968
-206.1111111111111,189.28571428571428,-203.88888888888889,157.06349206349205,-213.25396825396825,6.904761904761904,-183.4126984126984,6.587301587301587,-192.77777777777777,167.06349206349205,11.19047619047619,12.46031746031746,-19.76190476190476,5.158730158730158,-22.142857142857142,6.904761904761904,-204.04761904761904,7.063492063492063,97.6984126984127,-19.6031746031746,-34.36507936507936,-2.46031746031746,-5.634920634920634,-321.8253968253968
-206.1111111111111,189.28571428571428,-203.88888888888889,157.06349206349205,-213.25396825396825,6.904761904761904,-183.4126984126984,6.587301587301587,-192.77777777777777,167.06349206349205,11.19047619047619,12.46031746031746,-19.76190476190476,5.158730158730158,-22.142857142857142,6.904761904761904,-204.04761904761904,7.063492063492063,97.6984126984127,-19.6031746031746,-34.36507936507936,-2.46031746031746,-5.634920634920634,-321.8253968253968
-78.65079365079364,76.9047619047619,-76.74603174603175,65.47619047619047,-9.444444444444445,6.26984126984127,-146.11111111111111,16.11111111111111,12.936507936507935,183.25396825396825,20.07936507936508,26.746031746031743,-152.3015873015873,4.523809523809524,28.333333333333332,16.428571428571427,3.73015873015873,16.587301587301585,-53.73015873015873,-17.38095238095238,-19.126984126984127,-3.888888888888889,-13.888888888888888,-321.8253968253968
-78.65079365079364,76.9047619047619,-76.74603174603175,65.47619047619047,-9.444444444444445,6.26984126984127,-146.11111111111111,16.11111111111111,12.936507936507935,183.25396825396825,20.07936507936508,26.746031746031743,-152.3015873015873,4.523809523809524,28.333333333333332,16.428571428571427,3.73015873015873,16.587301587301585,-53.73015873015873,-17.38095238095238,-19.126984126984127,-3.888888888888889,-13.888888888888888,-321.8253968253968
20.71428571428571,-10.873015873015872,3.73015873015873,-30.07936507936508,153.09523809523807,6.26984126984127,-156.26984126984127,26.26984126984127,185.63492063492063,193.4126984126984,30.238095238095237,36.904761904761905,-325.0,4.523809523809524,38.49206349206349,26.587301587301585,166.26984126984127,26.746031746031743,-216.26984126984127,-17.38095238095238,-8.968253968253968,-3.888888888888889,-13.888888888888888,-166.26984126984127
20.71428571428571,-10.873015873015872,3.73015873015873,-30.07936507936508,153.09523809523807,6.26984126984127,-156.26984126984127,26.26984126984127,185.63492063492063,193.4126984126984,30.238095238095237,36.904761904761905,-325.0,4.523809523809524,38.49206349206349,26.587301587301585,166.26984126984127,26.746031746031743,-216.26984126984127,-17.38095238095238,-8.968253968253968,-3.888888888888889,-13.888888888888888,-166.26984126984127
-70.55555555555556,-215.95238095238093,-44.84126984126984,46.269841269841265,-70.55555555555556,-325.0,-30.555555555555554,-325.0,296.4285714285714,64.04761904761905,2.619047619047619,-8.809523809523808,13.73015873015873,-325.0,15.95238095238095,-325.0,-58.96825396825397,-325.0,14.523809523809524,325.0,-5.634920634920634,1.349206349206349,1.1904761904761905,-166.26984126984127
-70.55555555555556,-215.95238095238093,-44.84126984126984,46.269841269841265,-70.55555555555556,-325.0,-30.555555555555554,-325.0,296.4285714285714,64.04761904761905,2.619047619047619,-8.809523809523808,13.73015873015873,-325.0,15.95238095238095,-325.0,-58.96825396825397,-325.0,14.523809523809524,325.0,-5.634920634920634,1.349206349206349,1.1904761904761905,-166.26984126984127
-70.55555555555556,-215.95238095238093,-44.84126984126984,46.269841269841265,-70.55555555555556,-325.0,-30.555555555555554,-325.0,296.4285714285714,64.04761904761905,2.619047619047619,-8.809523809523808,13.73015873015873,-325.0,15.95238095238095,-325.0,-58.96825396825397,-325.0,14.523809523809524,325.0,-5.634920634920634,1.349206349206349,1.1904761904761905,-166.26984126984127
-70.55555555555556,-215.95238095238093,-44.84126984126984,46.269841269841265,-70.55555555555556,-325.0,-30.555555555555554,-325.0,296.4285714285714,64.04761904761905,2.619047619047619,-8.809523809523808,13.73015873015873,-325.0,15.95238095238095,-325.0,-58.96825396825397,-325.0,14.523809523809524,325.0,-5.634920634920634,1.349206349206349,1.1904761904761905,-166.26984126984127
-70.55555555555556,-215.95238095238093,-44.84126984126984,46.269841269841265,-70.55555555555556,-325.0,-30.555555555555554,-325.0,296.4285714285714,64.04761904761905,2.619047619047619,-8.809523809523808,13.73015873015873,-325.0,15.95238095238095,-325.0,-58.96825396825397,-325.0,14.523809523809524,325.0,-5.634920634920634,1.349206349206349,1.1904761904761905,-166.26984126984127
-70.55555555555556,-215.95238095238093,-44.84126984126984,46.269841269841265,-70.55555555555556,-325.0,-30.555555555555554,-325.0,296.4285714285714,64.04761904761905,2.619047619047619,-8.809523809523808,13.73015873015873,-325.0,15.95238095238095,-325.0,-58.96825396825397,-325.0,14.523809523809524,325.0,-5.634920634920634,1.349206349206349,1.1904761904761905,-166.26984126984127
-70.55555555555556,-215.95238095238093,-44.84126984126984,46.269841269841265,-70.55555555555556,-325.0,-30.555555555555554,-325.0,296.4285714285714,64.04761904761905,2.619047619047619,-8.809523809523808,13.73015873015873,-325.0,15.95238095238095,-325.0,-58.96825396825397,-325.0,14.523809523809524,325.0,-5.634920634920634,1.349206349206349,1.1904761904761905,-166.26984126984127
-70.55555555555556,-215.95238095238093,-44.84126984126984,46.269841269841265,-70.55555555555556,-325.0,-30.555555555555554,-325.0,296.4285714285714,64.04761904761905,2.619047619047619,-8.809523809523808,13.73015873015873,-325.0,15.95238095238095,-325.0,-58.96825396825397,-325.0,14.523809523809524,325.0,-5.634920634920634,1.349206349206349,1.1904761904761905,-166.26984126984127
-70.55555555555556,-215.95238095238093,-44.84126984126984,46.269841269841265,-70.55555555555556,-325.0,-30.555555555555554,-325.0,296.4285714285714,64.04761904761905,2.619047619047619,-8.809523809523808,13.73015873015873,-325.0,15.95238095238095,-325.0,-58.96825396825397,-325.0,14.523809523809524,325.0,-5.634920634920634,1.349206349206349,1.1904761904761905,-321.8253968253968
-70.55555555555556,-215.95238095238093,-44.84126984126984,46.269841269841265,-70.55555555555556,-325.0,-30.555555555555554,-325.0,296.4285714285714,64.04761904761905,2.619047619047619,-8.809523809523808,13.73015873015873,-325.0,15.95238095238095,-325.0,-58.96825396825397,-325.0,14.523809523809524,325.0,-5.634920634920634,1.349206349206349,1.1904761904761905,-321.8253968253968
-70.55555555555556,-215.95238095238093,-44.84126984126984,46.269841269841265,-70.55555555555556,-325.0,-30.555555555555554,-325.0,296.4285714285714,64.04761904761905,2.619047619047619,-8.809523809523808,13.73015873015873,-325.0,15.95238095238095,-325.0,-58.96825396825397,-325.0,14.523809523809524,325.0,-5.634920634920634,1.349206349206349,1.1904761904761905,-321.8253968253968
-70.55555555555556,-215.95238095238093,-44.84126984126984,46.269841269841265,-70.55555555555556,-325.0,-30.555555555555554,-325.0,296.4285714285714,64.04761904761905,2.619047619047619,-8.809523809523808,13.73015873015873,-325.0,15.95238095238095,-325.0,-58.96825396825397,-325.0,14.523809523809524,325.0,-5.634920634920634,1.349206349206349,1.1904761904761905,-321.8253968253968
-90.23809523809523,-188.33333333333331,-67.53968253968253,32.61904761904762,-89.44444444444444,-325.0,-53.888888888888886,-325.0,255.47619047619045,50.55555555555555,2.3015873015873014,-13.095238095238095,-10.238095238095237,-325.0,-13.253968253968253,-325.0,-76.9047619047619,-325.0,8.809523809523808,325.0,-5.0,0.5555555555555556,6.428571428571428,-321.8253968253968
-90.23809523809523,-188.33333333333331,-67.53968253968253,32.61904761904762,-89.44444444444444,-325.0,-53.888888888888886,-325.0,255.47619047619045,50.55555555555555,2.3015873015873014,-13.095238095238095,-10.238095238095237,-325.0,-13.253968253968253,-325.0,-76.9047619047619,-325.0,8.809523809523808,325.0,-5.0,0.5555555555555556,6.428571428571428,-321.8253968253968
-111.5079365079365,-180.7142857142857,-88.96825396825396,36.74603174603175,-109.44444444444444,-325.0,-74.52380952380952,-325.0,244.36507936507934,53.57142857142857,2.142857142857143,-5.476190476190476,-34.047619047619044,-325.0,-34.682539682539684,-325.0,-96.74603174603175,-325.0,15.793650793650793,325.0,-4.841269841269841,-1.6666666666666665,-5.952380952380952,-321.8253968253968
-111.5079365079365,-180.7142857142857,-88.96825396825396,36.74603174603175,-109.44444444444444,-325.0,-74.52380952380952,-325.0,244.36507936507934,53.57142857142857,2.142857142857143,-5.476190476190476,-34.047619047619044,-325.0,-34.682539682539684,-325.0,-96.74603174603175,-325.0,15.793650793650793,325.0,-4.841269841269841,-1.6666666666666665,-5.952380952380952,-321.8253968253968
-109.44444444444444,-175.47619047619045,-85.95238095238095,36.58730158730159,-106.74603174603175,-325.0,-71.34920634920634,-325.0,236.58730158730157,54.047619047619044,2.142857142857143,-6.111111111111111,-32.460317460317455,-320.07936507936506,-33.73015873015873,-325.0,-95.31746031746032,-325.0,16.11111111111111,325.0,-4.682539682539682,2.7777777777777777,12.46031746031746,-321.8253968253968
-109.44444444444444,-175.47619047619045,-85.95238095238095,36.58730158730159,-106.74603174603175,-325.0,-71.34920634920634,-325.0,236.58730158730157,54.047619047619044,2.142857142857143,-6.111111111111111,-32.460317460317455,-320.07936507936506,-33.73015873015873,-325.0,-95.31746031746032,-325.0,16.11111111111111,325.0,-4.682539682539682,2.7777777777777777,12.46031746031746,-321.8253968253968
-123.25396825396825,-170.3968253968254,-100.07936507936508,32.3015873015873,-120.23809523809523,-325.0,-85.0,-325.0,229.12698412698413,48.96825396825397,1.984126984126984,-8.968253968253968,-49.76190476190476,-311.031746031746,-47.06349206349206,-325.0,-108.80952380952381,-325.0,13.253968253968253,325.0,-4.682539682539682,-1.8253968253968254,-8.174603174603174,-166.26984126984127
-123.25396825396825,-170.3968253968254,-100.07936507936508,32.3015873015873,-120.23809523809523,-325.0,-85.0,-325.0,229.12698412698413,48.96825396825397,1.984126984126984,-8.968253968253968,-49.76190476190476,-311.031746031746,-47.06349206349206,-325.0,-108.80952380952381,-325.0,13.253968253968253,325.0,-4.682539682539682,-1.8253968253968254,-8.174603174603174,-166.26984126984127
-129.76190476190476,-164.04761904761904,-107.38095238095238,40.39682539682539,-126.26984126984127,-325.0,-92.46031746031746,-325.0,219.76190476190476,57.857142857142854,1.984126984126984,2.142857142857143,-56.58730158730158,-299.4444444444444,-56.11111111111111,-325.0,-113.57142857142857,-325.0,23.41269841269841,325.0,-4.523809523809524,-0.3968253968253968,-0.7142857142857142,-166.26984126984127
-129.76190476190476,-164.04761904761904,-107.38095238095238,40.39682539682539,-126.26984126984127,-325.0,-92.46031746031746,-325.0,219.76190476190476,57.857142857142854,1.984126984126984,2.142857142857143,-56.58730158730158,-299.4444444444444,-56.11111111111111,-325.0,-113.57142857142857,-325.0,23.41269841269841,325.0,-4.523809523809524,-0.3968253968253968,-0.7142857142857142,-166.26984126984127
-125.63492063492063,-160.55555555555554,-104.04761904761904,36.904761904761905,-122.46031746031746,-325.0,-89.44444444444444,-325.0,215.0,53.888888888888886,1.8253968253968254,0.3968253968253968,-54.047619047619044,-292.9365079365079,-53.888888888888886,-325.0,-109.76190476190476,-325.0,20.873015873015873,325.0,-4.523809523809524,-1.6666666666666665,-5.317460317460317,-166.26984126984127
-125.63492063492063,-160.55555555555554,-104.04761904761904,36.904761904761905,-122.46031746031746,-325.0,-89.44444444444444,-325.0,215.0,53.888888888888886,1.8253968253968254,0.3968253968253968,-54.047619047619044,-292.9365079365079,-53.888888888888886,-325.0,-109.76190476190476,-325.0,20.873015873015873,325.0,-4.523809523809524,-1.6666666666666665,-5.317460317460317,-166.26984126984127
-127.06349206349206,-156.74603174603175,-105.0,36.904761904761905,-123.4126984126984,-325.0,-90.23809523809523,-325.0,209.28571428571428,54.047619047619044,1.984126984126984,1.0317460317460316,-54.2063492063492,-285.4761904761905,-55.95238095238095,-325.0,-110.23809523809523,-325.0,21.507936507936506,325.0,-4.523809523809524,1.507936507936508,7.5396825396825395,-166.26984126984127
-127.06349206349206,-156.74603174603175,-105.0,36.904761904761905,-123.4126984126984,-325.0,-90.23809523809523,-325.0,209.28571428571428,54.047619047619044,1.984126984126984,1.0317460317460316,-54.2063492063492,-285.4761904761905,-55.95238095238095,-325.0,-110.23809523809523,-325.0,21.507936507936506,325.0,-4.523809523809524,1.507936507936508,7.5396825396825395,-166.26984126984127
-146.9047619047619,-154.2063492063492,-124.2063492063492,41.507936507936506,-142.77777777777777,-325.0,-108.96825396825396,-324.5238095238095,205.47619047619045,58.33333333333333,1.984126984126984,5.476190476190476,-77.38095238095238,-280.55555555555554,-74.36507936507937,-325.0,-131.03174603174602,-325.0,26.26984126984127,325.0,-4.365079365079365,-2.7777777777777777,-8.809523809523808,-166.26984126984127
-146.9047619047619,-154.2063492063492,-124.2063492063492,41.507936507936506,-142.77777777777777,-325.0,-108.96825396825396,-324.5238095238095,205.47619047619045,58.33333333333333,1.984126984126984,5.476190476190476,-77.38095238095238,-280.55555555555554,-74.36507936507937,-325.0,-131.03174603174602,-325.0,26.26984126984127,325.0,-4.365079365079365,-2.7777777777777777,-8.809523809523808,-166.26984126984127
-132.46031746031744,-151.5079365079365,-110.07936507936508,39.76190476190476,-128.33333333333331,-325.0,-95.15873015873015,-320.23809523809524,201.66666666666666,56.74603174603174,1.984126984126984,5.158730158730158,-60.079365079365076,-275.7936507936508,-61.82539682539682,-325.0,-114.84126984126983,-325.0,25.158730158730158,325.0,-4.0476190476190474,1.984126984126984,8.015873015873016,-321.8253968253968
-132.46031746031744,-151.5079365079365,-110.07936507936508,39.76190476190476,-128.33333333333331,-325.0,-95.15873015873015,-320.23809523809524,201.66666666666666,56.74603174603174,1.984126984126984,5.158730158730158,-60.079365079365076,-275.7936507936508,-61.82539682539682,-325.0,-114.84126984126983,-325.0,25.158730158730158,325.0,-4.0476190476190474,1.984126984126984,8.015873015873016,-321.8253968253968
-142.61904761904762,-145.95238095238093,-119.12698412698413,44.52380952380952,-137.53968253968253,-325.0,-104.04761904761904,-309.2857142857143,193.88888888888889,60.873015873015866,1.984126984126984,10.396825396825395,-71.19047619047619,-265.3174603174603,-72.3015873015873,-322.9365079365079,-124.04761904761904,-325.0,30.238095238095237,325.0,-4.2063492063492065,2.3015873015873014,11.825396825396824,-321.8253968253968
-142.61904761904762,-145.95238095238093,-119.12698412698413,44.52380952380952,-137.53968253968253,-325.0,-104.04761904761904,-309.2857142857143,193.88888888888889,60.873015873015866,1.984126984126984,10.396825396825395,-71.19047619047619,-265.3174603174603,-72.3015873015873,-322.9365079365079,-124.04761904761904,-325.0,30.238095238095237,325.0,-4.2063492063492065,2.3015873015873014,11.825396825396824,-321.8253968253968
-144.2063492063492,-141.19047619047618,-120.55555555555554,38.65079365079365,-138.65079365079364,-325.0,-105.31746031746032,-299.4444444444444,186.74603174603175,55.63492063492063,1.8253968253968254,6.26984126984127,-73.73015873015872,-256.58730158730157,-74.68253968253968,-312.6190476190476,-125.63492063492063,-323.73015873015873,24.84126984126984,325.0,-4.2063492063492065,2.3015873015873014,11.666666666666666,-321.8253968253968
-144.2063492063492,-141.19047619047618,-120.55555555555554,38.65079365079365,-138.65079365079364,-325.0,-105.31746031746032,-299.4444444444444,186.74603174603175,55.63492063492063,1.8253968253968254,6.26984126984127,-73.73015873015872,-256.58730158730157,-74.68253968253968,-312.6190476190476,-125.63492063492063,-323.73015873015873,24.84126984126984,325.0,-4.2063492063492065,2.3015873015873014,11.666666666666666,-321.8253968253968
-138.33333333333331,-134.68253968253967,-114.36507936507935,30.71428571428571,-131.8253968253968,-322.3015873015873,-99.28571428571428,-286.26984126984127,177.38095238095238,47.857142857142854,1.8253968253968254,1.507936507936508,-67.85714285714285,-244.52380952380952,-69.76190476190476,-298.6507936507936,-118.17460317460316,-318.6507936507936,18.49206349206349,325.0,-4.2063492063492065,1.8253968253968254,8.492063492063492,-321.8253968253968
-138.33333333333331,-134.68253968253967,-114.36507936507935,30.71428571428571,-131.8253968253968,-322.3015873015873,-99.28571428571428,-286.26984126984127,177.38095238095238,47.857142857142854,1.8253968253968254,1.507936507936508,-67.85714285714285,-244.52380952380952,-69.76190476190476,-298.6507936507936,-118.17460317460316,-318.6507936507936,18.49206349206349,325.0,-4.2063492063492065,1.8253968253968254,8.492063492063492,-321.8253968253968
-143.73015873015873,-131.984126984127,-118.01587301587301,29.76190476190476,-135.63492063492063,-316.90476190476187,-102.77777777777777,-280.55555555555554,173.57142857142856,46.904761904761905,1.6666666666666665,1.6666666666666665,-74.36507936507937,-239.28571428571428,-73.73015873015872,-292.6190476190476,-123.73015873015872,-312.46031746031747,18.333333333333332,325.0,-4.0476190476190474,0.07936507936507936,-0.5555555555555556,-321.8253968253968
-143.73015873015873,-131.984126984127,-118.01587301587301,29.76190476190476,-135.63492063492063,-316.90476190476187,-102.77777777777777,-280.55555555555554,173.57142857142856,46.904761904761905,1.6666666666666665,1.6666666666666665,-74.36507936507937,-239.28571428571428,-73.73015873015872,-292.6190476190476,-123.73015873015872,-312.46031746031747,18.333333333333332,325.0,-4.0476190476190474,0.07936507936507936,-0.5555555555555556,-321.8253968253968
-135.79365079365078,-129.28571428571428,-110.87301587301587,28.333333333333332,-127.85714285714285,-310.23809523809524,-95.31746031746032,-275.0,169.76190476190476,44.84126984126984,1.8253968253968254,1.984126984126984,-65.79365079365078,-234.2063492063492,-65.95238095238095,-286.4285714285714,-114.36507936507935,-306.1111111111111,17.539682539682538,325.0,-3.888888888888889,-0.07936507936507936,-3.4126984126984126,-166.26984126984127
-135.79365079365078,-129.28571428571428,-110.87301587301587,28.333333333333332,-127.85714285714285,-310.23809523809524,-95.31746031746032,-275.0,169.76190476190476,44.84126984126984,1.8253968253968254,1.984126984126984,-65.79365079365078,-234.2063492063492,-65.95238095238095,-286.4285714285714,-114.36507936507935,-306.1111111111111,17.539682539682538,325.0,-3.888888888888889,-0.07936507936507936,-3.4126984126984126,-166.26984126984127
-149.28571428571428,-127.22222222222221,-123.73015873015872,32.14285714285714,-141.66666666666666,-305.4761904761905,-108.17460317460316,-270.7142857142857,166.58730158730157,49.44444444444444,1.6666666666666665,4.841269841269841,-82.14285714285714,-230.2380952380952,-80.39682539682539,-281.8253968253968,-131.19047619047618,-301.19047619047615,20.555555555555554,325.0,-3.888888888888889,0.7142857142857142,1.1904761904761905,-166.26984126984127
-149.28571428571428,-127.22222222222221,-123.73015873015872,32.14285714285714,-141.66666666666666,-305.4761904761905,-108.17460317460316,-270.7142857142857,166.58730158730157,49.44444444444444,1.6666666666666665,4.841269841269841,-82.14285714285714,-230.2380952380952,-80.39682539682539,-281.8253968253968,-131.19047619047618,-301.19047619047615,20.555555555555554,325.0,-3.888888888888889,0.7142857142857142,1.1904761904761905,-166.26984126984127
-131.19047619047618,-125.0,-108.80952380952381,26.9047619047619,-123.57142857142857,-300.39682539682536,-93.57142857142857,-266.26984126984127,163.73015873015873,43.25396825396825,1.6666666666666665,1.6666666666666665,-64.52380952380952,-226.1111111111111,-64.68253968253968,-277.06349206349205,-111.5079365079365,-296.58730158730157,16.428571428571427,325.0,-3.73015873015873,0.873015873015873,-2.9365079365079363,-166.26984126984127
-131.19047619047618,-125.0,-108.80952380952381,26.9047619047619,-123.57142857142857,-300.39682539682536,-93.57142857142857,-266.26984126984127,163.73015873015873,43.25396825396825,1.6666666666666665,1.6666666666666665,-64.52380952380952,-226.1111111111111,-64.68253968253968,-277.06349206349205,-111.5079365079365,-296.58730158730157,16.428571428571427,325.0,-3.73015873015873,0.873015873015873,-2.9365079365079363,-166.26984126984127
-127.53968253968253,-124.52380952380952,-105.15873015873015,26.11111111111111,-117.6984126984127,-299.1269841269841,-90.87301587301587,-265.1587301587301,162.93650793650792,42.77777777777778,1.6666666666666665,1.349206349206349,-59.285714285714285,-225.15873015873015,-61.666666666666664,-275.7936507936508,-107.06349206349206,-295.3174603174603,15.793650793650793,325.0,-3.571428571428571,3.095238095238095,6.26984126984127,-166.26984126984127
-127.53968253968253,-124.52380952380952,-105.15873015873015,26.11111111111111,-117.6984126984127,-299.1269841269841,-90.87301587301587,-265.1587301587301,162.93650793650792,42.77777777777778,1.6666666666666665,1.349206349206349,-59.285714285714285,-225.15873015873015,-61.666666666666664,-275.7936507936508,-107.06349206349206,-295.3174603174603,15.793650793650793,325.0,-3.571428571428571,3.095238095238095,6.26984126984127,-166.26984126984127
-124.84126984126983,-120.87301587301586,-102.93650793650794,26.26984126984127,-78.80952380952381,-290.87301587301585,-87.06349206349206,-257.6984126984127,157.85714285714286,42.77777777777778,1.507936507936508,2.619047619047619,-58.33333333333333,-218.4920634920635,-58.8095238095238,-268.17460317460313,-104.36507936507935,-287.06349206349205,16.428571428571427,325.0,-3.73015873015873,-0.873015873015873,-3.095238095238095,-166.26984126984127
-124.84126984126983,-120.87301587301586,-102.93650793650794,26.26984126984127,-78.80952380952381,-290.87301587301585,-87.06349206349206,-257.6984126984127,157.85714285714286,42.77777777777778,1.507936507936508,2.619047619047619,-58.33333333333333,-218.4920634920635,-58.8095238095238,-268.17460317460313,-104.36507936507935,-287.06349206349205,16.428571428571427,325.0,-3.73015873015873,-0.873015873015873,-3.095238095238095,-166.26984126984127
-131.984126984127,-119.44444444444444,-108.80952380952381,28.015873015873016,-10.396825396825395,-287.22222222222223,-93.25396825396825,-254.68253968253967,155.79365079365078,44.52380952380952,1.6666666666666665,4.365079365079365,-66.74603174603175,-215.63492063492063,-65.95238095238095,-264.8412698412698,-113.25396825396825,-283.73015873015873,18.015873015873016,325.0,-3.571428571428571,-0.07936507936507936,-0.873015873015873,-321.8253968253968
-131.984126984127,-119.44444444444444,-108.80952380952381,28.015873015873016,-10.396825396825395,-287.22222222222223,-93.25396825396825,-254.68253968253967,155.79365079365078,44.52380952380952,1.6666666666666665,4.365079365079365,-66.74603174603175,-215.63492063492063,-65.95238095238095,-264.8412698412698,-113.25396825396825,-283.73015873015873,18.015873015873016,325.0,-3.571428571428571,-0.07936507936507936,-0.873015873015873,-321.8253968253968
-141.03174603174602,-116.9047619047619,-118.49206349206348,27.063492063492063,2.46031746031746,-281.3492063492063,-103.57142857142857,-249.60317460317458,151.984126984127,43.57142857142857,1.6666666666666665,4.841269841269841,-75.95238095238095,-211.19047619047618,-76.42857142857143,-259.44444444444446,-121.5079365079365,-278.3333333333333,17.539682539682538,325.0,-3.4126984126984126,0.23809523809523808,-1.507936507936508,-321.8253968253968
-141.03174603174602,-116.9047619047619,-118.49206349206348,27.063492063492063,2.46031746031746,-281.3492063492063,-103.57142857142857,-249.60317460317458,151.984126984127,43.57142857142857,1.6666666666666665,4.841269841269841,-75.95238095238095,-211.19047619047618,-76.42857142857143,-259.44444444444446,-121.5079365079365,-278.3333333333333,17.539682539682538,325.0,-3.4126984126984126,0.23809523809523808,-1.507936507936508,-321.8253968253968
-130.7142857142857,-114.52380952380952,-108.80952380952381,26.587301587301585,71.19047619047619,-275.7936507936508,-94.68253968253968,-244.68253968253967,148.8095238095238,42.61904761904761,1.507936507936508,5.476190476190476,-66.9047619047619,-206.58730158730157,-68.65079365079364,-254.2063492063492,-113.09523809523809,-272.77777777777777,17.38095238095238,325.0,-3.4126984126984126,2.46031746031746,7.857142857142857,-321.8253968253968
-130.7142857142857,-114.52380952380952,-108.80952380952381,26.587301587301585,71.19047619047619,-275.7936507936508,-94.68253968253968,-244.68253968253967,148.8095238095238,42.61904761904761,1.507936507936508,5.476190476190476,-66.9047619047619,-206.58730158730157,-68.65079365079364,-254.2063492063492,-113.09523809523809,-272.77777777777777,17.38095238095238,325.0,-3.4126984126984126,2.46031746031746,7.857142857142857,-321.8253968253968
-151.8253968253968,-111.66666666666666,-128.17460317460316,25.0,201.98412698412696,-269.1269841269841,-115.0,-238.8095238095238,144.68253968253967,41.98412698412698,1.349206349206349,4.682539682539682,-90.55555555555556,-201.5079365079365,-89.6031746031746,-247.85714285714283,-135.95238095238093,-266.1111111111111,15.95238095238095,325.0,-3.571428571428571,-0.3968253968253968,-0.873015873015873,-321.8253968253968
-151.8253968253968,-111.66666666666666,-128.17460317460316,25.0,201.98412698412696,-269.1269841269841,-115.0,-238.8095238095238,144.68253968253967,41.98412698412698,1.349206349206349,4.682539682539682,-90.55555555555556,-201.5079365079365,-89.6031746031746,-247.85714285714283,-135.95238095238093,-266.1111111111111,15.95238095238095,325.0,-3.571428571428571,-0.3968253968253968,-0.873015873015873,-321.8253968253968
-150.23809523809524,-109.44444444444444,-126.58730158730158,27.22222222222222,189.9206349206349,-263.73015873015873,-113.09523809523809,-233.88888888888889,141.34920634920636,43.57142857142857,1.507936507936508,8.333333333333332,-87.85714285714285,-197.06349206349205,-87.53968253968253,-242.77777777777777,-131.8253968253968,-260.87301587301585,18.96825396825397,325.0,-3.4126984126984126,-0.873015873015873,-2.3015873015873014,-321.8253968253968
-150.23809523809524,-109.44444444444444,-126.58730158730158,27.22222222222222,189.9206349206349,-263.73015873015873,-113.09523809523809,-233.88888888888889,141.34920634920636,43.57142857142857,1.507936507936508,8.333333333333332,-87.85714285714285,-197.06349206349205,-87.53968253968253,-242.77777777777777,-131.8253968253968,-260.87301587301585,18.96825396825397,325.0,-3.4126984126984126,-0.873015873015873,-2.3015873015873014,-321.8253968253968
-170.3968253968254,-107.6984126984127,-145.0,29.444444444444443,298.968253968254,-259.44444444444446,-130.3968253968254,-230.3968253968254,138.96825396825395,46.269841269841265,1.507936507936508,9.920634920634921,-105.95238095238095,-193.7301587301587,-104.36507936507935,-238.8095238095238,-149.6031746031746,-256.90476190476187,20.07936507936508,325.0,-3.4126984126984126,-0.3968253968253968,-0.07936507936507936,-166.26984126984127
-170.3968253968254,-107.6984126984127,-145.0,29.444444444444443,298.968253968254,-259.44444444444446,-130.3968253968254,-230.3968253968254,138.96825396825395,46.269841269841265,1.507936507936508,9.920634920634921,-105.95238095238095,-193.7301587301587,-104.36507936507935,-238.8095238095238,-149.6031746031746,-256.90476190476187,20.07936507936508,325.0,-3.4126984126984126,-0.3968253968253968,-0.07936507936507936,-166.26984126984127
-156.74603174603175,-105.79365079365078,-132.3015873015873,25.476190476190474,205.0,-255.0,-118.8095238095238,-226.58730158730157,136.26984126984127,41.19047619047619,1.507936507936508,7.3809523809523805,-93.4126984126984,-190.3968253968254,-92.93650793650794,-235.0,-135.95238095238093,-252.6190476190476,16.904761904761905,325.0,-3.4126984126984126,0.23809523809523808,-1.507936507936508,-166.26984126984127
-156.74603174603175,-105.79365079365078,-132.3015873015873,25.476190476190474,205.0,-255.0,-118.8095238095238,-226.58730158730157,136.26984126984127,41.19047619047619,1.507936507936508,7.3809523809523805,-93.4126984126984,-190.3968253968254,-92.93650793650794,-235.0,-135.95238095238093,-252.6190476190476,16.904761904761905,325.0,-3.4126984126984126,0.23809523809523808,-1.507936507936508,-166.26984126984127
-160.07936507936506,-105.47619047619047,-135.0,24.523809523809522,189.12698412698413,-253.88888888888889,-123.88888888888889,-225.63492063492063,135.63492063492063,40.714285714285715,1.507936507936508,6.587301587301587,-97.53968253968253,-189.60317460317458,-99.28571428571428,-233.7301587301587,-141.8253968253968,-251.5079365079365,16.428571428571427,325.0,-3.253968253968254,2.142857142857143,7.5396825396825395,-166.26984126984127
-160.07936507936506,-105.47619047619047,-135.0,24.523809523809522,189.12698412698413,-253.88888888888889,-123.88888888888889,-225.63492063492063,135.63492063492063,40.714285714285715,1.507936507936508,6.587301587301587,-97.53968253968253,-189.60317460317458,-99.28571428571428,-233.7301587301587,-141.8253968253968,-251.5079365079365,16.428571428571427,325.0,-3.253968253968254,2.142857142857143,7.5396825396825395,-166.26984126984127
-174.2063492063492,-102.30158730158729,-150.23809523809524,28.174603174603174,290.87301587301585,-247.06349206349205,-136.74603174603175,-219.44444444444443,131.5079365079365,43.41269841269841,1.349206349206349,11.507936507936508,-111.03174603174602,-184.04761904761904,-111.03174603174602,-227.2222222222222,-152.61904761904762,-244.68253968253967,20.07936507936508,325.0,3.73015873015873,0.3968253968253968,-0.23809523809523808,-166.26984126984127
-174.2063492063492,-102.30158730158729,-150.23809523809524,28.174603174603174,290.87301587301585,-247.06349206349205,-136.74603174603175,-219.44444444444443,131.5079365079365,43.41269841269841,1.349206349206349,11.507936507936508,-111.03174603174602,-184.04761904761904,-111.03174603174602,-227.2222222222222,-152.61904761904762,-244.68253968253967,20.07936507936508,325.0,3.73015873015873,0.3968253968253968,-0.23809523809523808,-166.26984126984127
-177.69841269841268,-101.19047619047619,-153.25396825396825,27.22222222222222,310.23809523809524,-244.04761904761904,-139.9206349206349,-216.9047619047619,129.6031746031746,42.460317460317455,1.507936507936508,10.238095238095237,-116.26984126984127,-181.66666666666666,-115.0,-224.36507936507934,-158.015873015873,-241.8253968253968,18.49206349206349,325.0,15.317460317460316,0.07936507936507936,-0.5555555555555556,-166.26984126984127
-177.69841269841268,-101.19047619047619,-153.25396825396825,27.22222222222222,310.23809523809524,-244.04761904761904,-139.9206349206349,-216.9047619047619,129.6031746031746,42.460317460317455,1.507936507936508,10.238095238095237,-116.26984126984127,-181.66666666666666,-115.0,-224.36507936507934,-158.015873015873,-241.8253968253968,18.49206349206349,325.0,15.317460317460316,0.07936507936507936,-0.5555555555555556,-166.26984126984127
-174.68253968253967,-98.80952380952381,-151.8253968253968,22.619047619047617,325.0,-238.96825396825395,-139.12698412698413,-212.3015873015873,126.58730158730158,38.01587301587301,1.349206349206349,7.3809523809523805,-113.25396825396825,-177.69841269841268,-113.88888888888889,-219.76190476190476,-154.68253968253967,-236.9047619047619,14.84126984126984,325.0,29.126984126984127,-0.07936507936507936,-0.7142857142857142,-321.8253968253968
-174.68253968253967,-98.80952380952381,-151.8253968253968,22.619047619047617,325.0,-238.96825396825395,-139.12698412698413,-212.3015873015873,126.58730158730158,38.01587301587301,1.349206349206349,7.3809523809523805,-113.25396825396825,-177.69841269841268,-113.88888888888889,-219.76190476190476,-154.68253968253967,-236.9047619047619,14.84126984126984,325.0,29.126984126984127,-0.07936507936507936,-0.7142857142857142,-321.8253968253968
-173.73015873015873,-97.6984126984127,-150.7142857142857,25.158730158730158,325.0,-236.1111111111111,-136.74603174603175,-209.9206349206349,125.0,40.714285714285715,1.349206349206349,9.761904761904761,-113.25396825396825,-175.47619047619045,-112.14285714285714,-217.2222222222222,-154.52380952380952,-234.04761904761904,16.904761904761905,323.73015873015873,35.63492063492063,0.23809523809523808,-0.5555555555555556,-321.8253968253968
-173.73015873015873,-97.6984126984127,-150.7142857142857,25.158730158730158,325.0,-236.1111111111111,-136.74603174603175,-209.9206349206349,125.0,40.714285714285715,1.349206349206349,9.761904761904761,-113.25396825396825,-175.47619047619045,-112.14285714285714,-217.2222222222222,-154.52380952380952,-234.04761904761904,16.904761904761905,323.73015873015873,35.63492063492063,0.23809523809523808,-0.5555555555555556,-321.8253968253968
-166.42857142857142,-95.63492063492063,-144.36507936507937,27.22222222222222,325.0,-231.19047619047618,-131.66666666666666,-205.63492063492063,122.14285714285714,42.3015873015873,1.349206349206349,12.619047619047619,-105.79365079365078,-171.8253968253968,-107.38095238095238,-212.61904761904762,-147.2222222222222,-229.44444444444443,18.96825396825397,318.6507936507936,57.698412698412696,-0.873015873015873,-1.6666666666666665,-321.8253968253968
-166.42857142857142,-95.63492063492063,-144.36507936507937,27.22222222222222,325.0,-231.19047619047618,-131.66666666666666,-205.63492063492063,122.14285714285714,42.3015873015873,1.349206349206349,12.619047619047619,-105.79365079365078,-171.8253968253968,-107.38095238095238,-212.61904761904762,-147.2222222222222,-229.44444444444443,18.96825396825397,318.6507936507936,57.698412698412696,-0.873015873015873,-1.6666666666666665,-321.8253968253968
-177.85714285714286,-94.2063492063492,-154.04761904761904,27.539682539682538,325.0,-227.53968253968253,-139.6031746031746,-202.14285714285714,120.07936507936508,43.41269841269841,1.349206349206349,12.619047619047619,-118.65079365079364,-168.8095238095238,-115.0,-209.12698412698413,-158.96825396825395,-225.63492063492063,18.80952380952381,313.25396825396825,47.22222222222222,1.1904761904761905,-1.0317460317460316,-321.8253968253968
-177.85714285714286,-94.2063492063492,-154.04761904761904,27.539682539682538,325.0,-227.53968253968253,-139.6031746031746,-202.14285714285714,120.07936507936508,43.41269841269841,1.349206349206349,12.619047619047619,-118.65079365079364,-168.8095238095238,-115.0,-209.12698412698413,-158.96825396825395,-225.63492063492063,18.80952380952381,313.25396825396825,47.22222222222222,1.1904761904761905,-1.0317460317460316,-321.8253968253968
-164.52380952380952,-91.66666666666666,-141.66666666666666,25.317460317460316,325.0,-221.98412698412696,-127.6984126984127,-197.38095238095238,116.74603174603173,40.39682539682539,1.1904761904761905,11.666666666666666,-104.68253968253968,-164.52380952380952,-102.61904761904762,-203.88888888888889,-143.25396825396825,-220.2380952380952,17.063492063492063,305.6349206349206,148.65079365079364,-2.142857142857143,-10.079365079365079,-321.8253968253968
-164.52380952380952,-91.66666666666666,-141.66666666666666,25.317460317460316,325.0,-221.98412698412696,-127.6984126984127,-197.38095238095238,116.74603174603173,40.39682539682539,1.1904761904761905,11.666666666666666,-104.68253968253968,-164.52380952380952,-102.61904761904762,-203.88888888888889,-143.25396825396825,-220.2380952380952,17.063492063492063,305.6349206349206,148.65079365079364,-2.142857142857143,-10.079365079365079,-321.8253968253968
-141.34920634920636,-88.96825396825396,-118.65079365079364,21.507936507936506,325.0,-215.63492063492063,-107.06349206349206,-191.98412698412696,112.93650793650794,35.79365079365079,1.349206349206349,8.333333333333332,-79.12698412698413,-159.44444444444443,-83.88888888888889,-198.015873015873,-119.92063492063491,-214.04761904761904,13.888888888888888,296.58730158730157,34.36507936507936,0.873015873015873,8.492063492063492,-166.26984126984127
-141.34920634920636,-88.96825396825396,-118.65079365079364,21.507936507936506,325.0,-215.63492063492063,-107.06349206349206,-191.98412698412696,112.93650793650794,35.79365079365079,1.349206349206349,8.333333333333332,-79.12698412698413,-159.44444444444443,-83.88888888888889,-198.015873015873,-119.92063492063491,-214.04761904761904,13.888888888888888,296.58730158730157,34.36507936507936,0.873015873015873,8.492063492063492,-166.26984126984127
-148.17460317460316,-87.22222222222221,-126.9047619047619,25.317460317460316,325.0,-211.19047619047618,-112.46031746031746,-188.33333333333331,110.39682539682539,39.285714285714285,-2.46031746031746,12.46031746031746,-89.6031746031746,-155.95238095238093,-87.06349206349206,-194.04761904761904,-125.95238095238095,-209.60317460317458,17.22222222222222,290.7142857142857,214.36507936507937,-1.984126984126984,-9.126984126984127,-166.26984126984127
-148.17460317460316,-87.22222222222221,-126.9047619047619,25.317460317460316,325.0,-211.19047619047618,-112.46031746031746,-188.33333333333331,110.39682539682539,39.285714285714285,-2.46031746031746,12.46031746031746,-89.6031746031746,-155.95238095238093,-87.06349206349206,-194.04761904761904,-125.95238095238095,-209.60317460317458,17.22222222222222,290.7142857142857,214.36507936507937,-1.984126984126984,-9.126984126984127,-166.26984126984127
-132.93650793650792,-86.1111111111111,-111.19047619047619,23.57142857142857,325.0,-208.65079365079364,-100.23809523809523,-185.95238095238093,109.12698412698413,36.74603174603175,-9.444444444444445,11.349206349206348,-71.5079365079365,-154.04761904761904,-76.58730158730158,-191.66666666666666,-112.14285714285714,-207.38095238095238,15.476190476190474,287.06349206349205,85.63492063492063,1.507936507936508,10.079365079365079,-166.26984126984127
-132.93650793650792,-86.1111111111111,-111.19047619047619,23.57142857142857,325.0,-208.65079365079364,-100.23809523809523,-185.95238095238093,109.12698412698413,36.74603174603175,-9.444444444444445,11.349206349206348,-71.5079365079365,-154.04761904761904,-76.58730158730158,-191.66666666666666,-112.14285714285714,-207.38095238095238,15.476190476190474,287.06349206349205,85.63492063492063,1.507936507936508,10.079365079365079,-166.26984126984127
-145.15873015873015,-84.36507936507937,-123.73015873015872,28.809523809523807,320.23809523809524,-204.52380952380952,-109.28571428571428,-182.14285714285714,106.58730158730158,42.3015873015873,-20.71428571428571,16.587301587301585,-86.42857142857143,-150.7142857142857,-83.88888888888889,-187.69841269841268,-122.77777777777777,-203.25396825396825,20.71428571428571,281.031746031746,264.68253968253964,-2.142857142857143,-9.920634920634921,-166.26984126984127
-145.15873015873015,-84.36507936507937,-123.73015873015872,28.809523809523807,320.23809523809524,-204.52380952380952,-109.28571428571428,-182.14285714285714,106.58730158730158,42.3015873015873,-20.71428571428571,16.587301587301585,-86.42857142857143,-150.7142857142857,-83.88888888888889,-187.69841269841268,-122.77777777777777,-203.25396825396825,20.71428571428571,281.031746031746,264.68253968253964,-2.142857142857143,-9.920634920634921,-166.26984126984127
-121.98412698412697,-83.25396825396825,-99.44444444444444,24.365079365079364,316.26984126984127,-201.98412698412696,-89.28571428571428,-180.07936507936506,105.0,38.01587301587301,-27.38095238095238,12.777777777777777,-60.079365079365076,-148.8095238095238,-66.26984126984127,-185.3174603174603,-101.19047619047619,-200.7142857142857,16.746031746031743,278.015873015873,157.2222222222222,1.0317460317460316,9.285714285714285,-166.26984126984127
-121.98412698412697,-83.25396825396825,-99.44444444444444,24.365079365079364,316.26984126984127,-201.98412698412696,-89.28571428571428,-180.07936507936506,105.0,38.01587301587301,-27.38095238095238,12.777777777777777,-60.079365079365076,-148.8095238095238,-66.26984126984127,-185.3174603174603,-101.19047619047619,-200.7142857142857,16.746031746031743,278.015873015873,157.2222222222222,1.0317460317460316,9.285714285714285,-166.26984126984127
-121.98412698412697,-83.25396825396825,-99.44444444444444,24.365079365079364,316.26984126984127,-201.98412698412696,-89.28571428571428,-180.07936507936506,105.0,38.01587301587301,-27.38095238095238,12.777777777777777,-60.079365079365076,-148.8095238095238,-66.26984126984127,-185.3174603174603,-101.19047619047619,-200.7142857142857,16.746031746031743,278.015873015873,157.2222222222222,1.0317460317460316,9.285714285714285,-321.8253968253968
-121.98412698412697,-83.25396825396825,-99.44444444444444,24.365079365079364,316.26984126984127,-201.98412698412696,-89.28571428571428,-180.07936507936506,105.0,38.01587301587301,-27.38095238095238,12.777777777777777,-60.079365079365076,-148.8095238095238,-66.26984126984127,-185.3174603174603,-101.19047619047619,-200.7142857142857,16.746031746031743,278.015873015873,157.2222222222222,1.0317460317460316,9.285714285714285,-321.8253968253968
-100.07936507936508,-80.55555555555556,-78.01587301587301,9.285714285714285,305.0,-195.3174603174603,-67.53968253968253,-174.36507936507937,101.19047619047619,22.46031746031746,-54.52380952380952,-1.6666666666666665,-38.33333333333333,-143.73015873015873,-45.15873015873016,-179.28571428571428,-78.4920634920635,-194.2063492063492,1.507936507936508,268.3333333333333,219.76190476190476,0.7142857142857142,10.238095238095237,-321.8253968253968
-100.07936507936508,-80.55555555555556,-78.01587301587301,9.285714285714285,305.0,-195.3174603174603,-67.53968253968253,-174.36507936507937,101.19047619047619,22.46031746031746,-54.52380952380952,-1.6666666666666665,-38.33333333333333,-143.73015873015873,-45.15873015873016,-179.28571428571428,-78.4920634920635,-194.2063492063492,1.507936507936508,268.3333333333333,219.76190476190476,0.7142857142857142,10.238095238095237,-321.8253968253968
-105.15873015873015,-79.44444444444444,-83.73015873015872,10.079365079365079,301.031746031746,-193.09523809523807,-73.09523809523809,-172.14285714285714,99.92063492063491,22.777777777777775,-75.0,-0.23809523809523808,-45.0,-141.8253968253968,-49.285714285714285,-177.06349206349205,-83.09523809523809,-191.98412698412696,2.7777777777777777,265.1587301587301,270.87301587301585,-0.7142857142857142,1.6666666666666665,-321.8253968253968
-105.15873015873015,-79.44444444444444,-83.73015873015872,10.079365079365079,301.031746031746,-193.09523809523807,-73.09523809523809,-172.14285714285714,99.92063492063491,22.777777777777775,-75.0,-0.23809523809523808,-45.0,-141.8253968253968,-49.285714285714285,-177.06349206349205,-83.09523809523809,-191.98412698412696,2.7777777777777777,265.1587301587301,270.87301587301585,-0.7142857142857142,1.6666666666666665,-321.8253968253968
-110.07936507936508,-78.17460317460316,-89.28571428571428,11.031746031746032,297.22222222222223,-190.7142857142857,-78.4920634920635,-169.9206349206349,98.65079365079364,23.095238095238095,-95.47619047619047,1.1904761904761905,-51.666666666666664,-139.76190476190476,-53.41269841269841,-174.68253968253967,-87.6984126984127,-189.60317460317458,4.2063492063492065,261.984126984127,322.1428571428571,-2.142857142857143,-6.904761904761904,-321.8253968253968
-110.07936507936508,-78.17460317460316,-89.28571428571428,11.031746031746032,297.22222222222223,-190.7142857142857,-78.4920634920635,-169.9206349206349,98.65079365079364,23.095238095238095,-95.47619047619047,1.1904761904761905,-51.666666666666664,-139.76190476190476,-53.41269841269841,-174.68253968253967,-87.6984126984127,-189.60317460317458,4.2063492063492065,261.984126984127,322.1428571428571,-2.142857142857143,-6.904761904761904,-321.8253968253968
-106.42857142857142,-77.06349206349206,-85.95238095238095,14.365079365079364,291.984126984127,-187.53968253968253,-75.47619047619047,-167.06349206349205,96.9047619047619,26.587301587301585,-125.15873015873015,5.0,-48.80952380952381,-137.53968253968253,-50.71428571428571,-171.8253968253968,-84.04761904761904,-186.58730158730157,7.5396825396825395,257.53968253968253,323.57142857142856,-1.984126984126984,-7.3809523809523805,-321.8253968253968
-106.42857142857142,-77.06349206349206,-85.95238095238095,14.365079365079364,291.984126984127,-187.53968253968253,-75.47619047619047,-167.06349206349205,96.9047619047619,26.587301587301585,-125.15873015873015,5.0,-48.80952380952381,-137.53968253968253,-50.71428571428571,-171.8253968253968,-84.04761904761904,-186.58730158730157,7.5396825396825395,257.53968253968253,323.57142857142856,-1.984126984126984,-7.3809523809523805,-321.8253968253968
-102.61904761904762,-75.79365079365078,-82.61904761904762,17.857142857142858,286.90476190476187,-184.36507936507937,-72.46031746031746,-164.2063492063492,95.15873015873015,30.07936507936508,-154.68253968253967,8.968253968253968,-45.79365079365079,-135.15873015873015,-47.857142857142854,-168.96825396825395,-80.23809523809523,-183.57142857142856,11.031746031746032,253.09523809523807,325.0,-1.8253968253968254,-7.698412698412698,-166.26984126984127
-102.61904761904762,-75.79365079365078,-82.61904761904762,17.857142857142858,286.90476190476187,-184.36507936507937,-72.46031746031746,-164.2063492063492,95.15873015873015,30.07936507936508,-154.68253968253967,8.968253968253968,-45.79365079365079,-135.15873015873015,-47.857142857142854,-168.96825396825395,-80.23809523809523,-183.57142857142856,11.031746031746032,253.09523809523807,325.0,-1.8253968253968254,-7.698412698412698,-166.26984126984127
-102.61904761904762,-75.79365079365078,-82.61904761904762,17.857142857142858,286.90476190476187,-184.36507936507937,-72.46031746031746,-164.2063492063492,95.15873015873015,30.07936507936508,-154.68253968253967,8.968253968253968,-45.79365079365079,-135.15873015873015,-47.857142857142854,-168.96825396825395,-80.23809523809523,-183.57142857142856,11.031746031746032,253.09523809523807,325.0,-1.8253968253968254,-7.698412698412698,-166.26984126984127
-102.61904761904762,-75.79365079365078,-82.61904761904762,17.857142857142858,286.90476190476187,-184.36507936507937,-72.46031746031746,-164.2063492063492,95.15873015873015,30.07936507936508,-154.68253968253967,8.968253968253968,-45.79365079365079,-135.15873015873015,-47.857142857142854,-168.96825396825395,-80.23809523809523,-183.57142857142856,11.031746031746032,253.09523809523807,325.0,-1.8253968253968254,-7.698412698412698,-166.26984126984127
-86.1111111111111,-72.46031746031746,-65.95238095238095,14.365079365079364,273.57142857142856,-176.26984126984127,-54.36507936507936,-157.38095238095238,90.39682539682539,26.26984126984127,-239.9206349206349,5.7936507936507935,-33.73015873015873,-128.96825396825395,-30.396825396825395,-161.66666666666666,-65.79365079365078,-175.79365079365078,7.5396825396825395,241.8253968253968,325.0,-1.349206349206349,-9.761904761904761,-166.26984126984127
-86.1111111111111,-72.46031746031746,-65.95238095238095,14.365079365079364,273.57142857142856,-176.26984126984127,-54.36507936507936,-157.38095238095238,90.39682539682539,26.26984126984127,-239.9206349206349,5.7936507936507935,-33.73015873015873,-128.96825396825395,-30.396825396825395,-161.66666666666666,-65.79365079365078,-175.79365079365078,7.5396825396825395,241.8253968253968,325.0,-1.349206349206349,-9.761904761904761,-166.26984126984127
-69.44444444444444,-69.12698412698413,-49.12698412698413,11.031746031746032,260.39682539682536,-168.17460317460316,-36.11111111111111,-150.3968253968254,85.79365079365078,22.619047619047617,-325.0,2.619047619047619,-21.507936507936506,-122.77777777777777,-12.936507936507935,-154.2063492063492,-51.19047619047619,-167.85714285714286,4.0476190476190474,230.7142857142857,325.0,-0.7142857142857142,-11.666666666666666,-166.26984126984127
-69.44444444444444,-69.12698412698413,-49.12698412698413,11.031746031746032,260.39682539682536,-168.17460317460316,-36.11111111111111,-150.3968253968254,85.79365079365078,22.619047619047617,-325.0,2.619047619047619,-21.507936507936506,-122.77777777777777,-12.936507936507935,-154.2063492063492,-51.19047619047619,-167.85714285714286,4.0476190476190474,230.7142857142857,325.0,-0.7142857142857142,-11.666666666666666,-166.26984126984127
-69.44444444444444,-69.12698412698413,-49.12698412698413,11.031746031746032,260.39682539682536,-168.17460317460316,-36.11111111111111,-150.3968253968254,85.79365079365078,22.619047619047617,-325.0,2.619047619047619,-21.507936507936506,-122.77777777777777,-12.936507936507935,-154.2063492063492,-51.19047619047619,-167.85714285714286,4.0476190476190474,230.7142857142857,325.0,-0.7142857142857142,-11.666666666666666,-166.26984126984127
-69.44444444444444,-69.12698412698413,-49.12698412698413,11.031746031746032,260.39682539682536,-168.17460317460316,-36.11111111111111,-150.3968253968254,85.79365079365078,22.619047619047617,-325.0,2.619047619047619,-21.507936507936506,-122.77777777777777,-12.936507936507935,-154.2063492063492,-51.19047619047619,-167.85714285714286,4.0476190476190474,230.7142857142857,325.0,-0.7142857142857142,-11.666666666666666,-166.26984126984127
-69.44444444444444,-69.12698412698413,-49.12698412698413,11.031746031746032,260.39682539682536,-168.17460317460316,-36.11111111111111,-150.3968253968254,85.79365079365078,22.619047619047617,-325.0,2.619047619047619,-21.507936507936506,-122.77777777777777,-12.936507936507935,-154.2063492063492,-51.19047619047619,-167.85714285714286,4.0476190476190474,230.7142857142857,325.0,-0.7142857142857142,-11.666666666666666,-321.8253968253968
-69.44444444444444,-69.12698412698413,-49.12698412698413,11.031746031746032,260.39682539682536,-168.17460317460316,-36.11111111111111,-150.3968253968254,85.79365079365078,22.619047619047617,-325.0,2.619047619047619,-21.507936507936506,-122.77777777777777,-12.936507936507935,-154.2063492063492,-51.19047619047619,-167.85714285714286,4.0476190476190474,230.7142857142857,325.0,-0.7142857142857142,-11.666666666666666,-321.8253968253968
-69.44444444444444,-69.12698412698413,-49.12698412698413,11.031746031746032,260.39682539682536,-168.17460317460316,-36.11111111111111,-150.3968253968254,85.79365079365078,22.619047619047617,-325.0,2.619047619047619,-21.507936507936506,-122.77777777777777,-12.936507936507935,-154.2063492063492,-51.19047619047619,-167.85714285714286,4.0476190476190474,230.7142857142857,325.0,-0.7142857142857142,-11.666666666666666,-321.8253968253968
-69.44444444444444,-69.12698412698413,-49.12698412698413,11.031746031746032,260.39682539682536,-168.17460317460316,-36.11111111111111,-150.3968253968254,85.79365079365078,22.619047619047617,-325.0,2.619047619047619,-21.507936507936506,-122.77777777777777,-12.936507936507935,-154.2063492063492,-51.19047619047619,-167.85714285714286,4.0476190476190474,230.7142857142857,325.0,-0.7142857142857142,-11.666666666666666,-321.8253968253968
-69.44444444444444,-69.12698412698413,-49.12698412698413,11.031746031746032,260.39682539682536,-168.17460317460316,-36.11111111111111,-150.3968253968254,85.79365079365078,22.619047619047617,-325.0,2.619047619047619,-21.507936507936506,-122.77777777777777,-12.936507936507935,-154.2063492063492,-51.19047619047619,-167.85714285714286,4.0476190476190474,230.7142857142857,325.0,-0.7142857142857142,-11.666666666666666,-321.8253968253968
-69.44444444444444,-69.12698412698413,-49.12698412698413,11.031746031746032,260.39682539682536,-168.17460317460316,-36.11111111111111,-150.3968253968254,85.79365079365078,22.619047619047617,-325.0,2.619047619047619,-21.507936507936506,-122.77777777777777,-12.936507936507935,-154.2063492063492,-51.19047619047619,-167.85714285714286,4.0476190476190474,230.7142857142857,325.0,-0.7142857142857142,-11.666666666666666,-321.8253968253968
-69.44444444444444,-69.12698412698413,-49.12698412698413,11.031746031746032,260.39682539682536,-168.17460317460316,-36.11111111111111,-150.3968253968254,85.79365079365078,22.619047619047617,-325.0,2.619047619047619,-21.507936507936506,-122.77777777777777,-12.936507936507935,-154.2063492063492,-51.19047619047619,-167.85714285714286,4.0476190476190474,230.7142857142857,325.0,-0.7142857142857142,-11.666666666666666,-321.8253968253968
-69.44444444444444,-69.12698412698413,-49.12698412698413,11.031746031746032,260.39682539682536,-168.17460317460316,-36.11111111111111,-150.3968253968254,85.79365079365078,22.619047619047617,-325.0,2.619047619047619,-21.507936507936506,-122.77777777777777,-12.936507936507935,-154.2063492063492,-51.19047619047619,-167.85714285714286,4.0476190476190474,230.7142857142857,325.0,-0.7142857142857142,-11.666666666666666,-321.8253968253968
127.6984126984127,-60.71428571428571,-37.857142857142854,8.492063492063492,227.53968253968253,-148.015873015873,-28.333333333333332,-132.77777777777777,74.68253968253968,16.904761904761905,-325.0,1.1904761904761905,-9.444444444444445,-107.53968253968253,-7.3809523809523805,-135.47619047619048,-38.80952380952381,-148.17460317460316,2.142857142857143,202.61904761904762,325.0,-1.349206349206349,-6.428571428571428,-321.8253968253968
127.6984126984127,-60.71428571428571,-37.857142857142854,8.492063492063492,227.53968253968253,-148.015873015873,-28.333333333333332,-132.77777777777777,74.68253968253968,16.904761904761905,-325.0,1.1904761904761905,-9.444444444444445,-107.53968253968253,-7.3809523809523805,-135.47619047619048,-38.80952380952381,-148.17460317460316,2.142857142857143,202.61904761904762,325.0,-1.349206349206349,-6.428571428571428,-321.8253968253968
325.0,-51.98412698412698,-61.19047619047619,12.46031746031746,191.98412698412696,-126.58730158730158,-56.58730158730158,-113.73015873015872,62.77777777777777,19.285714285714285,-318.3333333333333,5.7936507936507935,-35.95238095238095,-91.03174603174602,-36.269841269841265,-115.47619047619047,-65.15873015873015,-127.06349206349206,5.317460317460317,172.14285714285714,299.4444444444444,1.507936507936508,6.26984126984127,-166.26984126984127
325.0,-51.98412698412698,-61.19047619047619,12.46031746031746,191.98412698412696,-126.58730158730158,-56.58730158730158,-113.73015873015872,62.77777777777777,19.285714285714285,-318.3333333333333,5.7936507936507935,-35.95238095238095,-91.03174603174602,-36.269841269841265,-115.47619047619047,-65.15873015873015,-127.06349206349206,5.317460317460317,172.14285714285714,299.4444444444444,1.507936507936508,6.26984126984127,-166.26984126984127
325.0,-50.87301587301587,-65.47619047619047,14.84126984126984,188.8095238095238,-124.36507936507935,-61.666666666666664,-111.82539682539682,61.666666666666664,20.873015873015873,-325.0,9.285714285714285,-40.39682539682539,-89.44444444444444,-40.87301587301587,-113.57142857142857,-67.85714285714285,-124.84126984126983,8.809523809523808,169.28571428571428,325.0,-1.8253968253968254,-8.333333333333332,-166.26984126984127
325.0,-50.87301587301587,-65.47619047619047,14.84126984126984,188.8095238095238,-124.36507936507935,-61.666666666666664,-111.82539682539682,61.666666666666664,20.873015873015873,-325.0,9.285714285714285,-40.39682539682539,-89.44444444444444,-40.87301587301587,-113.57142857142857,-67.85714285714285,-124.84126984126983,8.809523809523808,169.28571428571428,325.0,-1.8253968253968254,-8.333333333333332,-166.26984126984127
325.0,-50.238095238095234,-59.12698412698413,10.238095238095237,185.47619047619045,-122.30158730158729,-55.15873015873016,-110.07936507936508,60.39682539682539,16.904761904761905,-325.0,3.888888888888889,-34.2063492063492,-88.01587301587301,-34.52380952380952,-111.66666666666666,-61.666666666666664,-122.93650793650794,3.253968253968254,166.26984126984127,302.77777777777777,1.0317460317460316,6.904761904761904,-166.26984126984127
325.0,-50.238095238095234,-59.12698412698413,10.238095238095237,185.47619047619045,-122.30158730158729,-55.15873015873016,-110.07936507936508,60.39682539682539,16.904761904761905,-325.0,3.888888888888889,-34.2063492063492,-88.01587301587301,-34.52380952380952,-111.66666666666666,-61.666666666666664,-122.93650793650794,3.253968253968254,166.26984126984127,302.77777777777777,1.0317460317460316,6.904761904761904,-166.26984126984127
325.0,-49.92063492063492,-32.14285714285714,4.2063492063492065,184.84126984126982,-121.82539682539682,-25.476190476190474,-109.6031746031746,60.079365079365076,11.507936507936508,-325.0,-2.46031746031746,-8.968253968253968,-87.53968253968253,-6.428571428571428,-111.19047619047619,-35.476190476190474,-122.46031746031746,-2.619047619047619,165.79365079365078,280.55555555555554,0.7142857142857142,1.507936507936508,-166.26984126984127
325.0,-49.92063492063492,-32.14285714285714,4.2063492063492065,184.84126984126982,-121.82539682539682,-25.476190476190474,-109.6031746031746,60.079365079365076,11.507936507936508,-325.0,-2.46031746031746,-8.968253968253968,-87.53968253968253,-6.428571428571428,-111.19047619047619,-35.476190476190474,-122.46031746031746,-2.619047619047619,165.79365079365078,280.55555555555554,0.7142857142857142,1.507936507936508,-166.26984126984127
325.0,-48.96825396825397,-63.25396825396825,10.396825396825395,180.55555555555554,-119.44444444444444,-58.8095238095238,-107.53968253968253,58.8095238095238,16.26984126984127,-325.0,3.888888888888889,-39.76190476190476,-85.63492063492063,-37.698412698412696,-108.96825396825396,-65.0,-120.07936507936508,3.253968253968254,162.3015873015873,302.77777777777777,-1.984126984126984,-6.111111111111111,-166.26984126984127
325.0,-48.96825396825397,-63.25396825396825,10.396825396825395,180.55555555555554,-119.44444444444444,-58.8095238095238,-107.53968253968253,58.8095238095238,16.26984126984127,-325.0,3.888888888888889,-39.76190476190476,-85.63492063492063,-37.698412698412696,-108.96825396825396,-65.0,-120.07936507936508,3.253968253968254,162.3015873015873,302.77777777777777,-1.984126984126984,-6.111111111111111,-166.26984126984127
325.0,-47.53968253968254,-53.888888888888886,10.714285714285714,174.2063492063492,-115.47619047619047,-51.19047619047619,-104.04761904761904,56.58730158730158,15.317460317460316,-325.0,4.682539682539682,-27.857142857142854,-82.61904761904762,-30.87301587301587,-105.15873015873015,-54.52380952380952,-116.1111111111111,4.365079365079365,156.9047619047619,325.0,0.07936507936507936,6.587301587301587,-321.8253968253968
325.0,-47.53968253968254,-53.888888888888886,10.714285714285714,174.2063492063492,-115.47619047619047,-51.19047619047619,-104.04761904761904,56.58730158730158,15.317460317460316,-325.0,4.682539682539682,-27.857142857142854,-82.61904761904762,-30.87301587301587,-105.15873015873015,-54.52380952380952,-116.1111111111111,4.365079365079365,156.9047619047619,325.0,0.07936507936507936,6.587301587301587,-321.8253968253968
325.0,-46.74603174603175,-35.15873015873016,11.349206349206348,171.66666666666666,-113.88888888888889,-29.920634920634917,-102.61904761904762,55.95238095238095,17.063492063492063,-325.0,4.841269841269841,-13.888888888888888,-81.5079365079365,-11.19047619047619,-103.88888888888889,-39.285714285714285,-114.68253968253967,5.0,154.68253968253967,286.90476190476187,1.349206349206349,0.3968253968253968,-321.8253968253968
325.0,-46.74603174603175,-35.15873015873016,11.349206349206348,171.66666666666666,-113.88888888888889,-29.920634920634917,-102.61904761904762,55.95238095238095,17.063492063492063,-325.0,4.841269841269841,-13.888888888888888,-81.5079365079365,-11.19047619047619,-103.88888888888889,-39.285714285714285,-114.68253968253967,5.0,154.68253968253967,286.90476190476187,1.349206349206349,0.3968253968253968,-321.8253968253968
325.0,-45.95238095238095,-50.39682539682539,11.19047619047619,168.015873015873,-111.5079365079365,-48.33333333333333,-100.55555555555554,54.68253968253968,15.317460317460316,-325.0,5.634920634920634,-25.317460317460316,-80.07936507936508,-28.015873015873016,-101.82539682539682,-51.82539682539682,-112.30158730158729,4.841269841269841,151.34920634920633,325.0,0.23809523809523808,5.952380952380952,-321.8253968253968
325.0,-45.95238095238095,-50.39682539682539,11.19047619047619,168.015873015873,-111.5079365079365,-48.33333333333333,-100.55555555555554,54.68253968253968,15.317460317460316,-325.0,5.634920634920634,-25.317460317460316,-80.07936507936508,-28.015873015873016,-101.82539682539682,-51.82539682539682,-112.30158730158729,4.841269841269841,151.34920634920633,325.0,0.23809523809523808,5.952380952380952,-321.8253968253968
325.0,-45.15873015873016,-57.698412698412696,11.031746031746032,165.15873015873015,-109.76190476190476,-54.52380952380952,-98.96825396825396,53.73015873015873,15.476190476190474,-325.0,4.841269841269841,-35.317460317460316,-78.65079365079364,-33.73015873015873,-99.92063492063491,-59.92063492063492,-110.71428571428571,4.2063492063492065,148.96825396825395,305.1587301587301,-1.349206349206349,-6.746031746031746,-321.8253968253968
325.0,-45.15873015873016,-57.698412698412696,11.031746031746032,165.15873015873015,-109.76190476190476,-54.52380952380952,-98.96825396825396,53.73015873015873,15.476190476190474,-325.0,4.841269841269841,-35.317460317460316,-78.65079365079364,-33.73015873015873,-99.92063492063491,-59.92063492063492,-110.71428571428571,4.2063492063492065,148.96825396825395,305.1587301587301,-1.349206349206349,-6.746031746031746,-321.8253968253968
325.0,-44.36507936507936,-60.71428571428571,20.396825396825395,162.3015873015873,-108.17460317460316,-59.76190476190476,-97.38095238095238,52.77777777777777,24.206349206349206,-325.0,15.158730158730158,-37.06349206349206,-77.22222222222221,-39.76190476190476,-98.49206349206348,-62.93650793650793,-108.80952380952381,14.206349206349206,146.42857142857142,325.0,-0.07936507936507936,6.904761904761904,-321.8253968253968
325.0,-44.36507936507936,-60.71428571428571,20.396825396825395,162.3015873015873,-108.17460317460316,-59.76190476190476,-97.38095238095238,52.77777777777777,24.206349206349206,-325.0,15.158730158730158,-37.06349206349206,-77.22222222222221,-39.76190476190476,-98.49206349206348,-62.93650793650793,-108.80952380952381,14.206349206349206,146.42857142857142,325.0,-0.07936507936507936,6.904761904761904,-321.8253968253968
325.0,-42.3015873015873,-56.58730158730158,17.857142857142858,153.73015873015873,-102.77777777777777,-54.2063492063492,-92.61904761904762,49.92063492063492,21.349206349206348,-325.0,11.984126984126984,-34.84126984126984,-73.4126984126984,-33.41269841269841,-93.57142857142857,-58.96825396825397,-103.57142857142857,10.873015873015872,138.96825396825395,304.36507936507934,-1.349206349206349,-7.063492063492063,-166.26984126984127
325.0,-42.3015873015873,-56.58730158730158,17.857142857142858,153.73015873015873,-102.77777777777777,-54.2063492063492,-92.61904761904762,49.92063492063492,21.349206349206348,-325.0,11.984126984126984,-34.84126984126984,-73.4126984126984,-33.41269841269841,-93.57142857142857,-58.96825396825397,-103.57142857142857,10.873015873015872,138.96825396825395,304.36507936507934,-1.349206349206349,-7.063492063492063,-166.26984126984127
325.0,-41.507936507936506,-50.87301587301587,19.444444444444443,151.19047619047618,-101.03174603174602,-50.55555555555555,-91.19047619047619,49.12698412698413,21.984126984126984,-325.0,13.73015873015873,-28.174603174603174,-72.14285714285714,-30.555555555555554,-91.98412698412697,-53.25396825396825,-101.98412698412697,13.095238095238095,136.74603174603175,325.0,0.07936507936507936,6.587301587301587,-166.26984126984127
325.0,-41.507936507936506,-50.87301587301587,19.444444444444443,151.19047619047618,-101.03174603174602,-50.55555555555555,-91.19047619047619,49.12698412698413,21.984126984126984,-325.0,13.73015873015873,-28.174603174603174,-72.14285714285714,-30.555555555555554,-91.98412698412697,-53.25396825396825,-101.98412698412697,13.095238095238095,136.74603174603175,325.0,0.07936507936507936,6.587301587301587,-166.26984126984127
325.0,-41.03174603174603,-52.93650793650794,16.587301587301585,148.4920634920635,-99.28571428571428,-51.34920634920635,-89.76190476190476,48.17460317460317,19.6031746031746,-325.0,10.555555555555555,-31.666666666666664,-70.87301587301587,-30.396825396825395,-90.55555555555556,-54.52380952380952,-100.23809523809523,9.603174603174603,134.52380952380952,301.984126984127,-1.8253968253968254,-7.222222222222221,-166.26984126984127
325.0,-41.03174603174603,-52.93650793650794,16.587301587301585,148.4920634920635,-99.28571428571428,-51.34920634920635,-89.76190476190476,48.17460317460317,19.6031746031746,-325.0,10.555555555555555,-31.666666666666664,-70.87301587301587,-30.396825396825395,-90.55555555555556,-54.52380952380952,-100.23809523809523,9.603174603174603,134.52380952380952,301.984126984127,-1.8253968253968254,-7.222222222222221,-166.26984126984127
325.0,-40.39682539682539,-13.253968253968253,8.809523809523808,146.42857142857142,-98.01587301587301,-12.46031746031746,-88.4920634920635,47.53968253968254,10.555555555555555,-325.0,3.253968253968254,9.285714285714285,-69.76190476190476,5.158730158730158,-89.44444444444444,-16.11111111111111,-98.96825396825396,3.095238095238095,132.46031746031744,325.0,-0.5555555555555556,1.6666666666666665,-166.26984126984127
325.0,-40.39682539682539,-13.253968253968253,8.809523809523808,146.42857142857142,-98.01587301587301,-12.46031746031746,-88.4920634920635,47.53968253968254,10.555555555555555,-325.0,3.253968253968254,9.285714285714285,-69.76190476190476,5.158730158730158,-89.44444444444444,-16.11111111111111,-98.96825396825396,3.095238095238095,132.46031746031744,325.0,-0.5555555555555556,1.6666666666666665,-166.26984126984127
325.0,-40.39682539682539,-13.253968253968253,8.809523809523808,146.42857142857142,-98.01587301587301,-12.46031746031746,-88.4920634920635,47.53968253968254,10.555555555555555,-325.0,3.253968253968254,9.285714285714285,-69.76190476190476,5.158730158730158,-89.44444444444444,-16.11111111111111,-98.96825396825396,3.095238095238095,132.46031746031744,325.0,-0.5555555555555556,1.6666666666666665,-166.26984126984127
325.0,-40.39682539682539,-13.253968253968253,8.809523809523808,146.42857142857142,-98.01587301587301,-12.46031746031746,-88.4920634920635,47.53968253968254,10.555555555555555,-325.0,3.253968253968254,9.285714285714285,-69.76190476190476,5.158730158730158,-89.44444444444444,-16.11111111111111,-98.96825396825396,3.095238095238095,132.46031746031744,325.0,-0.5555555555555556,1.6666666666666665,-166.26984126984127
325.0,-40.39682539682539,-13.253968253968253,8.809523809523808,146.42857142857142,-98.01587301587301,-12.46031746031746,-88.4920634920635,47.53968253968254,10.555555555555555,-325.0,3.253968253968254,9.285714285714285,-69.76190476190476,5.158730158730158,-89.44444444444444,-16.11111111111111,-98.96825396825396,3.095238095238095,132.46031746031744,325.0,-0.5555555555555556,1.6666666666666665,-321.8253968253968
325.0,-40.39682539682539,-13.253968253968253,8.809523809523808,146.42857142857142,-98.01587301587301,-12.46031746031746,-88.4920634920635,47.53968253968254,10.555555555555555,-325.0,3.253968253968254,9.285714285714285,-69.76190476190476,5.158730158730158,-89.44444444444444,-16.11111111111111,-98.96825396825396,3.095238095238095,132.46031746031744,325.0,-0.5555555555555556,1.6666666666666665,-321.8253968253968
321.031746031746,-38.17460317460317,-39.76190476190476,21.349206349206348,138.96825396825395,-93.57142857142857,-38.65079365079365,-84.36507936507937,44.84126984126984,23.88888888888889,-325.0,14.84126984126984,-22.777777777777775,-66.26984126984127,-19.76190476190476,-85.0,-46.42857142857142,-94.36507936507935,14.365079365079364,126.1111111111111,290.23809523809524,0.07936507936507936,-1.8253968253968254,-321.8253968253968
321.031746031746,-38.17460317460317,-39.76190476190476,21.349206349206348,138.96825396825395,-93.57142857142857,-38.65079365079365,-84.36507936507937,44.84126984126984,23.88888888888889,-325.0,14.84126984126984,-22.777777777777775,-66.26984126984127,-19.76190476190476,-85.0,-46.42857142857142,-94.36507936507935,14.365079365079364,126.1111111111111,290.23809523809524,0.07936507936507936,-1.8253968253968254,-321.8253968253968
316.74603174603175,-37.857142857142854,-58.96825396825397,22.142857142857142,137.06349206349205,-92.30158730158729,-58.650793650793645,-83.4126984126984,44.2063492063492,23.730158730158728,-325.0,15.158730158730158,-39.76190476190476,-65.47619047619047,-37.698412698412696,-83.88888888888889,-62.460317460317455,-93.25396825396825,14.682539682539682,124.52380952380952,307.53968253968253,0.873015873015873,4.841269841269841,-321.8253968253968
316.74603174603175,-37.857142857142854,-58.96825396825397,22.142857142857142,137.06349206349205,-92.30158730158729,-58.650793650793645,-83.4126984126984,44.2063492063492,23.730158730158728,-325.0,15.158730158730158,-39.76190476190476,-65.47619047619047,-37.698412698412696,-83.88888888888889,-62.460317460317455,-93.25396825396825,14.682539682539682,124.52380952380952,307.53968253968253,0.873015873015873,4.841269841269841,-321.8253968253968
308.17460317460313,-37.06349206349206,-48.01587301587301,16.428571428571427,133.4126984126984,-89.92063492063491,-47.22222222222222,-81.34920634920634,43.095238095238095,17.698412698412696,-325.0,9.761904761904761,-27.22222222222222,-63.888888888888886,-27.063492063492063,-81.66666666666666,-48.49206349206349,-90.87301587301587,9.126984126984127,121.34920634920634,306.4285714285714,-1.6666666666666665,-8.015873015873016,-321.8253968253968
308.17460317460313,-37.06349206349206,-48.01587301587301,16.428571428571427,133.4126984126984,-89.92063492063491,-47.22222222222222,-81.34920634920634,43.095238095238095,17.698412698412696,-325.0,9.761904761904761,-27.22222222222222,-63.888888888888886,-27.063492063492063,-81.66666666666666,-48.49206349206349,-90.87301587301587,9.126984126984127,121.34920634920634,306.4285714285714,-1.6666666666666665,-8.015873015873016,-321.8253968253968
302.46031746031747,-36.42857142857142,-42.460317460317455,15.634920634920634,131.19047619047618,-88.65079365079364,-43.25396825396825,-80.07936507936508,42.460317460317455,16.11111111111111,-325.0,9.285714285714285,-21.984126984126984,-62.93650793650793,-23.253968253968253,-80.39682539682539,-43.888888888888886,-89.6031746031746,8.65079365079365,119.28571428571428,325.0,0.873015873015873,7.698412698412698,-321.8253968253968
302.46031746031747,-36.42857142857142,-42.460317460317455,15.634920634920634,131.19047619047618,-88.65079365079364,-43.25396825396825,-80.07936507936508,42.460317460317455,16.11111111111111,-325.0,9.285714285714285,-21.984126984126984,-62.93650793650793,-23.253968253968253,-80.39682539682539,-43.888888888888886,-89.6031746031746,8.65079365079365,119.28571428571428,325.0,0.873015873015873,7.698412698412698,-321.8253968253968
297.06349206349205,-35.95238095238095,-41.19047619047619,14.047619047619047,128.8095238095238,-86.9047619047619,-41.19047619047619,-78.65079365079364,41.666666666666664,15.0,-325.0,7.5396825396825395,-21.19047619047619,-61.666666666666664,-21.03174603174603,-79.12698412698413,-41.98412698412698,-88.01587301587301,6.904761904761904,117.22222222222221,305.4761904761905,-1.349206349206349,-8.174603174603174,-166.26984126984127
297.06349206349205,-35.95238095238095,-41.19047619047619,14.047619047619047,128.8095238095238,-86.9047619047619,-41.19047619047619,-78.65079365079364,41.666666666666664,15.0,-325.0,7.5396825396825395,-21.19047619047619,-61.666666666666664,-21.03174603174603,-79.12698412698413,-41.98412698412698,-88.01587301587301,6.904761904761904,117.22222222222221,305.4761904761905,-1.349206349206349,-8.174603174603174,-166.26984126984127
293.0952380952381,-35.476190476190474,-20.873015873015873,10.079365079365079,126.9047619047619,-85.79365079365078,-22.777777777777775,-77.6984126984127,41.19047619047619,9.444444444444445,-325.0,4.2063492063492065,-1.349206349206349,-60.71428571428571,-5.0,-78.17460317460316,-24.365079365079364,-86.9047619047619,4.523809523809524,115.47619047619047,325.0,-1.349206349206349,2.9365079365079363,-166.26984126984127
293.0952380952381,-35.476190476190474,-20.873015873015873,10.079365079365079,126.9047619047619,-85.79365079365078,-22.777777777777775,-77.6984126984127,41.19047619047619,9.444444444444445,-325.0,4.2063492063492065,-1.349206349206349,-60.71428571428571,-5.0,-78.17460317460316,-24.365079365079364,-86.9047619047619,4.523809523809524,115.47619047619047,325.0,-1.349206349206349,2.9365079365079363,-166.26984126984127
288.968253968254,-35.0,-33.57142857142857,15.793650793650793,125.31746031746032,-84.84126984126983,-34.84126984126984,-76.9047619047619,40.55555555555555,15.476190476190474,-325.0,9.761904761904761,-12.142857142857142,-60.079365079365076,-15.317460317460316,-77.06349206349206,-33.57142857142857,-85.79365079365078,9.444444444444445,114.04761904761904,325.0,-2.619047619047619,-4.682539682539682,-166.26984126984127
288.968253968254,-35.0,-33.57142857142857,15.793650793650793,125.31746031746032,-84.84126984126983,-34.84126984126984,-76.9047619047619,40.55555555555555,15.476190476190474,-325.0,9.761904761904761,-12.142857142857142,-60.079365079365076,-15.317460317460316,-77.06349206349206,-33.57142857142857,-85.79365079365078,9.444444444444445,114.04761904761904,325.0,-2.619047619047619,-4.682539682539682,-166.26984126984127
271.031746031746,-33.095238095238095,-41.507936507936506,14.365079365079364,117.85714285714285,-80.07936507936508,-42.93650793650794,-72.77777777777777,38.01587301587301,13.888888888888888,-325.0,7.5396825396825395,-21.825396825396822,-56.904761904761905,-21.984126984126984,-72.61904761904762,74.36507936507937,-81.19047619047619,7.222222222222221,107.53968253968253,325.0,1.0317460317460316,8.015873015873016,-166.26984126984127
271.031746031746,-33.095238095238095,-41.507936507936506,14.365079365079364,117.85714285714285,-80.07936507936508,-42.93650793650794,-72.77777777777777,38.01587301587301,13.888888888888888,-325.0,7.5396825396825395,-21.825396825396822,-56.904761904761905,-21.984126984126984,-72.61904761904762,74.36507936507937,-81.19047619047619,7.222222222222221,107.53968253968253,325.0,1.0317460317460316,8.015873015873016,-166.26984126984127
265.95238095238096,-32.61904761904762,-40.55555555555555,13.412698412698411,115.63492063492063,-78.65079365079364,-41.82539682539682,-71.5079365079365,37.22222222222222,13.571428571428571,-325.0,7.222222222222221,-21.507936507936506,-55.63492063492063,-22.142857142857142,-71.5079365079365,82.93650793650794,-79.76190476190476,6.904761904761904,105.47619047619047,307.69841269841265,-2.142857142857143,-8.015873015873016,-166.26984126984127
265.95238095238096,-32.61904761904762,-40.55555555555555,13.412698412698411,115.63492063492063,-78.65079365079364,-41.82539682539682,-71.5079365079365,37.22222222222222,13.571428571428571,-325.0,7.222222222222221,-21.507936507936506,-55.63492063492063,-22.142857142857142,-71.5079365079365,82.93650793650794,-79.76190476190476,6.904761904761904,105.47619047619047,307.69841269841265,-2.142857142857143,-8.015873015873016,-166.26984126984127
262.46031746031747,-32.14285714285714,-42.77777777777778,8.174603174603174,114.04761904761904,-77.85714285714285,-42.61904761904761,-70.87301587301587,36.904761904761905,7.063492063492063,-325.0,1.0317460317460316,-19.92063492063492,-55.0,-20.07936507936508,-70.71428571428571,144.68253968253967,-78.96825396825396,0.3968253968253968,104.2063492063492,325.0,0.07936507936507936,0.5555555555555556,-321.8253968253968
262.46031746031747,-32.14285714285714,-42.77777777777778,8.174603174603174,114.04761904761904,-77.85714285714285,-42.61904761904761,-70.87301587301587,36.904761904761905,7.063492063492063,-325.0,1.0317460317460316,-19.92063492063492,-55.0,-20.07936507936508,-70.71428571428571,144.68253968253967,-78.96825396825396,0.3968253968253968,104.2063492063492,325.0,0.07936507936507936,0.5555555555555556,-321.8253968253968
256.4285714285714,-31.507936507936506,-16.11111111111111,0.7142857142857142,111.66666666666666,-75.95238095238095,-17.539682539682538,-69.12698412698413,35.95238095238095,0.3968253968253968,-325.0,-6.111111111111111,3.571428571428571,-53.888888888888886,2.3015873015873014,-69.12698412698413,300.55555555555554,-77.22222222222221,-6.26984126984127,101.98412698412697,301.031746031746,-2.7777777777777777,-9.285714285714285,-321.8253968253968
256.4285714285714,-31.507936507936506,-16.11111111111111,0.7142857142857142,111.66666666666666,-75.95238095238095,-17.539682539682538,-69.12698412698413,35.95238095238095,0.3968253968253968,-325.0,-6.111111111111111,3.571428571428571,-53.888888888888886,2.3015873015873014,-69.12698412698413,300.55555555555554,-77.22222222222221,-6.26984126984127,101.98412698412697,301.031746031746,-2.7777777777777777,-9.285714285714285,-321.8253968253968
252.93650793650792,-31.19047619047619,-33.25396825396825,7.5396825396825395,110.07936507936508,-75.15873015873015,-33.41269841269841,-68.33333333333333,35.476190476190474,6.746031746031746,-325.0,0.5555555555555556,-10.079365079365079,-53.25396825396825,-10.396825396825395,-68.33333333333333,243.7301587301587,-76.26984126984127,-0.07936507936507936,100.87301587301587,325.0,-0.07936507936507936,0.07936507936507936,-321.8253968253968
252.93650793650792,-31.19047619047619,-33.25396825396825,7.5396825396825395,110.07936507936508,-75.15873015873015,-33.41269841269841,-68.33333333333333,35.476190476190474,6.746031746031746,-325.0,0.5555555555555556,-10.079365079365079,-53.25396825396825,-10.396825396825395,-68.33333333333333,243.7301587301587,-76.26984126984127,-0.07936507936507936,100.87301587301587,325.0,-0.07936507936507936,0.07936507936507936,-321.8253968253968
247.2222222222222,-30.396825396825395,-15.793650793650793,10.396825396825395,107.6984126984127,-73.57142857142857,-17.22222222222222,-66.9047619047619,34.84126984126984,9.444444444444445,-325.0,3.571428571428571,3.888888888888889,-51.98412698412698,2.46031746031746,-66.9047619047619,325.0,-74.84126984126983,3.73015873015873,98.65079365079364,298.3333333333333,-2.142857142857143,-8.968253968253968,-321.8253968253968
247.2222222222222,-30.396825396825395,-15.793650793650793,10.396825396825395,107.6984126984127,-73.57142857142857,-17.22222222222222,-66.9047619047619,34.84126984126984,9.444444444444445,-325.0,3.571428571428571,3.888888888888889,-51.98412698412698,2.46031746031746,-66.9047619047619,325.0,-74.84126984126983,3.73015873015873,98.65079365079364,298.3333333333333,-2.142857142857143,-8.968253968253968,-321.8253968253968
241.5079365079365,-29.444444444444443,-3.888888888888889,5.0,105.31746031746032,-72.14285714285714,-6.904761904761904,-65.79365079365078,34.047619047619044,3.888888888888889,-325.0,-1.1904761904761905,11.19047619047619,-51.03174603174603,10.873015873015872,-65.63492063492063,258.17460317460313,-73.25396825396825,-1.1904761904761905,96.58730158730158,296.4285714285714,-1.0317460317460316,-0.5555555555555556,-321.8253968253968
241.5079365079365,-29.444444444444443,-3.888888888888889,5.0,105.31746031746032,-72.14285714285714,-6.904761904761904,-65.79365079365078,34.047619047619044,3.888888888888889,-325.0,-1.1904761904761905,11.19047619047619,-51.03174603174603,10.873015873015872,-65.63492063492063,258.17460317460313,-73.25396825396825,-1.1904761904761905,96.58730158730158,296.4285714285714,-1.0317460317460316,-0.5555555555555556,-321.8253968253968
236.26984126984127,-29.285714285714285,-9.761904761904761,12.3015873015873,102.93650793650794,-70.55555555555556,-11.666666666666666,-64.2063492063492,33.41269841269841,10.555555555555555,-325.0,6.428571428571428,8.968253968253968,-49.92063492063492,7.063492063492063,-64.2063492063492,290.07936507936506,-71.82539682539682,6.428571428571428,94.36507936507935,325.0,-1.984126984126984,-1.6666666666666665,-166.26984126984127
236.26984126984127,-29.285714285714285,-9.761904761904761,12.3015873015873,102.93650793650794,-70.55555555555556,-11.666666666666666,-64.2063492063492,33.41269841269841,10.555555555555555,-325.0,6.428571428571428,8.968253968253968,-49.92063492063492,7.063492063492063,-64.2063492063492,290.07936507936506,-71.82539682539682,6.428571428571428,94.36507936507935,325.0,-1.984126984126984,-1.6666666666666665,-166.26984126984127
231.8253968253968,-21.19047619047619,-50.238095238095234,18.49206349206349,101.19047619047619,-69.44444444444444,-52.14285714285714,-63.41269841269841,32.61904761904762,17.38095238095238,-325.0,11.19047619047619,-32.3015873015873,-49.12698412698413,-30.396825396825395,-63.095238095238095,325.0,-70.71428571428571,11.031746031746032,92.93650793650794,295.6349206349206,0.23809523809523808,2.619047619047619,-166.26984126984127
231.8253968253968,-21.19047619047619,-50.238095238095234,18.49206349206349,101.19047619047619,-69.44444444444444,-52.14285714285714,-63.41269841269841,32.61904761904762,17.38095238095238,-325.0,11.19047619047619,-32.3015873015873,-49.12698412698413,-30.396825396825395,-63.095238095238095,325.0,-70.71428571428571,11.031746031746032,92.93650793650794,295.6349206349206,0.23809523809523808,2.619047619047619,-166.26984126984127
225.47619047619045,-23.095238095238095,-32.77777777777778,13.253968253968253,98.33333333333333,-67.85714285714285,-34.84126984126984,-61.82539682539682,31.825396825396822,11.19047619047619,-325.0,6.111111111111111,-14.682539682539682,-47.857142857142854,-14.206349206349206,-61.666666666666664,309.4444444444444,-68.96825396825396,6.428571428571428,90.55555555555556,325.0,1.0317460317460316,8.015873015873016,-166.26984126984127
225.47619047619045,-23.095238095238095,-32.77777777777778,13.253968253968253,98.33333333333333,-67.85714285714285,-34.84126984126984,-61.82539682539682,31.825396825396822,11.19047619047619,-325.0,6.111111111111111,-14.682539682539682,-47.857142857142854,-14.206349206349206,-61.666666666666664,309.4444444444444,-68.96825396825396,6.428571428571428,90.55555555555556,325.0,1.0317460317460316,8.015873015873016,-166.26984126984127
218.33333333333331,-20.555555555555554,-42.61904761904761,13.095238095238095,95.31746031746032,-65.95238095238095,-43.57142857142857,-60.079365079365076,29.76190476190476,10.873015873015872,-325.0,6.428571428571428,-22.3015873015873,-46.42857142857142,-22.3015873015873,-59.92063492063492,325.0,-66.9047619047619,6.428571428571428,87.85714285714285,325.0,-0.07936507936507936,0.07936507936507936,-166.26984126984127
218.33333333333331,-20.555555555555554,-42.61904761904761,13.095238095238095,95.31746031746032,-65.95238095238095,-43.57142857142857,-60.079365079365076,29.76190476190476,10.873015873015872,-325.0,6.428571428571428,-22.3015873015873,-46.42857142857142,-22.3015873015873,-59.92063492063492,325.0,-66.9047619047619,6.428571428571428,87.85714285714285,325.0,-0.07936507936507936,0.07936507936507936,-166.26984126984127
209.44444444444443,-8.809523809523808,-53.25396825396825,18.80952380952381,91.5079365079365,-63.41269841269841,-55.317460317460316,-58.01587301587301,29.6031746031746,16.11111111111111,-325.0,12.142857142857142,-36.11111111111111,-44.68253968253968,-35.476190476190474,-57.53968253968254,325.0,-64.84126984126983,12.619047619047619,84.36507936507937,319.76190476190476,1.349206349206349,7.857142857142857,-166.26984126984127
209.44444444444443,-8.809523809523808,-53.25396825396825,18.80952380952381,91.5079365079365,-63.41269841269841,-55.317460317460316,-58.01587301587301,29.6031746031746,16.11111111111111,-325.0,12.142857142857142,-36.11111111111111,-44.68253968253968,-35.476190476190474,-57.53968253968254,325.0,-64.84126984126983,12.619047619047619,84.36507936507937,319.76190476190476,1.349206349206349,7.857142857142857,-166.26984126984127
205.79365079365078,-4.2063492063492065,-43.73015873015873,15.95238095238095,90.07936507936508,-62.61904761904761,-46.58730158730158,-56.904761904761905,24.206349206349206,13.253968253968253,-325.0,9.285714285714285,-27.38095238095238,-43.888888888888886,-27.698412698412696,-56.74603174603174,325.0,-63.73015873015873,9.444444444444445,82.93650793650794,295.6349206349206,-2.3015873015873014,-9.444444444444445,-321.8253968253968
205.79365079365078,-4.2063492063492065,-43.73015873015873,15.95238095238095,90.07936507936508,-62.61904761904761,-46.58730158730158,-56.904761904761905,24.206349206349206,13.253968253968253,-325.0,9.285714285714285,-27.38095238095238,-43.888888888888886,-27.698412698412696,-56.74603174603174,325.0,-63.73015873015873,9.444444444444445,82.93650793650794,295.6349206349206,-2.3015873015873014,-9.444444444444445,-321.8253968253968
202.93650793650792,-5.158730158730158,-44.047619047619044,17.22222222222222,88.65079365079364,-61.666666666666664,-44.84126984126984,-56.42857142857142,26.26984126984127,13.888888888888888,-319.4444444444444,9.444444444444445,-25.158730158730158,-43.41269841269841,-25.0,-55.79365079365079,325.0,-62.93650793650793,10.079365079365079,81.98412698412697,307.22222222222223,0.5555555555555556,0.3968253968253968,-321.8253968253968
202.93650793650792,-5.158730158730158,-44.047619047619044,17.22222222222222,88.65079365079364,-61.666666666666664,-44.84126984126984,-56.42857142857142,26.26984126984127,13.888888888888888,-319.4444444444444,9.444444444444445,-25.158730158730158,-43.41269841269841,-25.0,-55.79365079365079,325.0,-62.93650793650793,10.079365079365079,81.98412698412697,307.22222222222223,0.5555555555555556,0.3968253968253968,-321.8253968253968
198.17460317460316,-3.888888888888889,-41.82539682539682,18.96825396825397,86.9047619047619,-60.39682539682539,-44.68253968253968,-55.15873015873016,17.22222222222222,16.587301587301585,-325.0,12.619047619047619,-25.634920634920633,-42.460317460317455,-26.11111111111111,-54.68253968253968,325.0,-61.666666666666664,13.095238095238095,80.23809523809523,295.0,-2.3015873015873014,-10.079365079365079,-321.8253968253968
198.17460317460316,-3.888888888888889,-41.82539682539682,18.96825396825397,86.9047619047619,-60.39682539682539,-44.68253968253968,-55.15873015873016,17.22222222222222,16.587301587301585,-325.0,12.619047619047619,-25.634920634920633,-42.460317460317455,-26.11111111111111,-54.68253968253968,325.0,-61.666666666666664,13.095238095238095,80.23809523809523,295.0,-2.3015873015873014,-10.079365079365079,-321.8253968253968
195.79365079365078,-29.285714285714285,-43.73015873015873,22.142857142857142,85.63492063492063,-59.6031746031746,-48.33333333333333,-54.68253968253968,26.26984126984127,18.80952380952381,-325.0,15.0,-28.809523809523807,-41.98412698412698,-30.87301587301587,-53.888888888888886,325.0,-60.873015873015866,15.793650793650793,79.44444444444444,325.0,0.07936507936507936,6.746031746031746,-321.8253968253968
195.79365079365078,-29.285714285714285,-43.73015873015873,22.142857142857142,85.63492063492063,-59.6031746031746,-48.33333333333333,-54.68253968253968,26.26984126984127,18.80952380952381,-325.0,15.0,-28.809523809523807,-41.98412698412698,-30.87301587301587,-53.888888888888886,325.0,-60.873015873015866,15.793650793650793,79.44444444444444,325.0,0.07936507936507936,6.746031746031746,-321.8253968253968
190.23809523809524,2.46031746031746,-40.55555555555555,18.333333333333332,83.09523809523809,-58.01587301587301,-44.36507936507936,-53.41269841269841,8.333333333333332,15.317460317460316,-325.0,11.507936507936508,-26.26984126984127,-40.87301587301587,-25.952380952380953,-52.77777777777777,325.0,-59.44444444444444,12.46031746031746,76.9047619047619,293.57142857142856,-1.1904761904761905,-1.1904761904761905,-321.8253968253968
190.23809523809524,2.46031746031746,-40.55555555555555,18.333333333333332,83.09523809523809,-58.01587301587301,-44.36507936507936,-53.41269841269841,8.333333333333332,15.317460317460316,-325.0,11.507936507936508,-26.26984126984127,-40.87301587301587,-25.952380952380953,-52.77777777777777,325.0,-59.44444444444444,12.46031746031746,76.9047619047619,293.57142857142856,-1.1904761904761905,-1.1904761904761905,-321.8253968253968
186.74603174603175,14.047619047619047,-35.476190476190474,15.317460317460316,81.66666666666666,-57.22222222222222,-39.12698412698413,-52.61904761904761,-5.7936507936507935,11.825396825396824,-325.0,8.492063492063492,-21.03174603174603,-40.079365079365076,-20.555555555555554,-51.82539682539682,325.0,-58.49206349206349,9.603174603174603,75.79365079365078,293.4126984126984,-0.7142857142857142,-1.0317460317460316,-166.26984126984127
186.74603174603175,14.047619047619047,-35.476190476190474,15.317460317460316,81.66666666666666,-57.22222222222222,-39.12698412698413,-52.61904761904761,-5.7936507936507935,11.825396825396824,-325.0,8.492063492063492,-21.03174603174603,-40.079365079365076,-20.555555555555554,-51.82539682539682,325.0,-58.49206349206349,9.603174603174603,75.79365079365078,293.4126984126984,-0.7142857142857142,-1.0317460317460316,-166.26984126984127
182.46031746031744,-21.349206349206348,-17.22222222222222,15.476190476190474,80.07936507936508,-55.95238095238095,-20.396825396825395,-51.507936507936506,-0.7142857142857142,11.666666666666666,-325.0,9.126984126984127,-0.7142857142857142,-39.44444444444444,-3.888888888888889,-50.87301587301587,325.0,-57.38095238095238,9.920634920634921,74.36507936507937,325.0,-1.1904761904761905,-1.8253968253968254,-166.26984126984127
182.46031746031744,-21.349206349206348,-17.22222222222222,15.476190476190474,80.07936507936508,-55.95238095238095,-20.396825396825395,-51.507936507936506,-0.7142857142857142,11.666666666666666,-325.0,9.126984126984127,-0.7142857142857142,-39.44444444444444,-3.888888888888889,-50.87301587301587,325.0,-57.38095238095238,9.920634920634921,74.36507936507937,325.0,-1.1904761904761905,-1.8253968253968254,-166.26984126984127
180.07936507936506,14.365079365079364,-35.63492063492063,21.507936507936506,78.96825396825396,-55.476190476190474,-39.285714285714285,-50.87301587301587,-18.49206349206349,17.857142857142858,-325.0,14.682539682539682,-21.349206349206348,-38.96825396825397,-21.03174603174603,-50.238095238095234,325.0,-56.74603174603174,15.634920634920634,73.4126984126984,295.6349206349206,-0.23809523809523808,-1.1904761904761905,-166.26984126984127
180.07936507936506,14.365079365079364,-35.63492063492063,21.507936507936506,78.96825396825396,-55.476190476190474,-39.285714285714285,-50.87301587301587,-18.49206349206349,17.857142857142858,-325.0,14.682539682539682,-21.349206349206348,-38.96825396825397,-21.03174603174603,-50.238095238095234,325.0,-56.74603174603174,15.634920634920634,73.4126984126984,295.6349206349206,-0.23809523809523808,-1.1904761904761905,-166.26984126984127
176.74603174603175,-13.571428571428571,-5.476190476190476,11.825396825396824,77.53968253968253,-54.2063492063492,-8.015873015873016,-49.92063492063492,-36.42857142857142,7.698412698412698,-325.0,4.682539682539682,12.142857142857142,-38.17460317460317,8.174603174603174,-49.285714285714285,325.0,-55.63492063492063,5.952380952380952,71.82539682539682,325.0,-2.46031746031746,-9.126984126984127,-166.26984126984127
176.74603174603175,-13.571428571428571,-5.476190476190476,11.825396825396824,77.53968253968253,-54.2063492063492,-8.015873015873016,-49.92063492063492,-36.42857142857142,7.698412698412698,-325.0,4.682539682539682,12.142857142857142,-38.17460317460317,8.174603174603174,-49.285714285714285,325.0,-55.63492063492063,5.952380952380952,71.82539682539682,325.0,-2.46031746031746,-9.126984126984127,-166.26984126984127
173.4126984126984,85.31746031746032,-22.777777777777775,14.84126984126984,76.1111111111111,-53.57142857142857,-24.365079365079364,-49.285714285714285,30.87301587301587,11.031746031746032,-283.25396825396825,6.587301587301587,-10.079365079365079,-37.53968253968254,-5.634920634920634,-48.49206349206349,325.0,-54.841269841269835,8.174603174603174,70.87301587301587,214.84126984126982,2.3015873015873014,8.968253968253968,-166.26984126984127
173.4126984126984,85.31746031746032,-22.777777777777775,14.84126984126984,76.1111111111111,-53.57142857142857,-24.365079365079364,-49.285714285714285,30.87301587301587,11.031746031746032,-283.25396825396825,6.587301587301587,-10.079365079365079,-37.53968253968254,-5.634920634920634,-48.49206349206349,325.0,-54.841269841269835,8.174603174603174,70.87301587301587,214.84126984126982,2.3015873015873014,8.968253968253968,-166.26984126984127
163.25396825396825,208.96825396825395,-15.317460317460316,11.19047619047619,71.98412698412697,-50.71428571428571,-18.96825396825397,-46.74603174603175,-29.126984126984127,6.587301587301587,-325.0,5.0,-0.23809523809523808,-35.63492063492063,-3.253968253968254,-46.11111111111111,325.0,-51.98412698412698,6.26984126984127,66.9047619047619,325.0,-1.6666666666666665,-0.23809523809523808,-321.8253968253968
163.25396825396825,208.96825396825395,-15.317460317460316,11.19047619047619,71.98412698412697,-50.71428571428571,-18.96825396825397,-46.74603174603175,-29.126984126984127,6.587301587301587,-325.0,5.0,-0.23809523809523808,-35.63492063492063,-3.253968253968254,-46.11111111111111,325.0,-51.98412698412698,6.26984126984127,66.9047619047619,325.0,-1.6666666666666665,-0.23809523809523808,-321.8253968253968
160.87301587301587,289.6031746031746,-36.58730158730159,12.46031746031746,70.87301587301587,-50.079365079365076,-39.12698412698413,-46.269841269841265,-69.28571428571428,7.698412698412698,-325.0,5.634920634920634,-21.984126984126984,-35.15873015873016,-21.349206349206348,-45.317460317460316,325.0,-51.507936507936506,6.746031746031746,66.11111111111111,320.7142857142857,-0.5555555555555556,-0.7142857142857142,-321.8253968253968
160.87301587301587,289.6031746031746,-36.58730158730159,12.46031746031746,70.87301587301587,-50.079365079365076,-39.12698412698413,-46.269841269841265,-69.28571428571428,7.698412698412698,-325.0,5.634920634920634,-21.984126984126984,-35.15873015873016,-21.349206349206348,-45.317460317460316,325.0,-51.507936507936506,6.746031746031746,66.11111111111111,320.7142857142857,-0.5555555555555556,-0.7142857142857142,-321.8253968253968
157.38095238095238,306.58730158730157,-18.96825396825397,5.7936507936507935,69.28571428571428,-49.12698412698413,-22.619047619047617,-45.317460317460316,-35.0,0.7142857142857142,-325.0,-0.5555555555555556,-4.2063492063492065,-34.36507936507936,-6.904761904761904,-44.52380952380952,325.0,-50.39682539682539,0.23809523809523808,64.84126984126983,325.0,-1.0317460317460316,0.07936507936507936,-321.8253968253968
157.38095238095238,306.58730158730157,-18.96825396825397,5.7936507936507935,69.28571428571428,-49.12698412698413,-22.619047619047617,-45.317460317460316,-35.0,0.7142857142857142,-325.0,-0.5555555555555556,-4.2063492063492065,-34.36507936507936,-6.904761904761904,-44.52380952380952,325.0,-50.39682539682539,0.23809523809523808,64.84126984126983,325.0,-1.0317460317460316,0.07936507936507936,-321.8253968253968
156.58730158730157,325.0,-19.444444444444443,6.26984126984127,68.96825396825396,-49.285714285714285,-23.253968253968253,-45.15873015873016,16.904761904761905,1.0317460317460316,-325.0,-0.23809523809523808,-4.2063492063492065,-34.2063492063492,-7.3809523809523805,-44.36507936507936,325.0,-50.238095238095234,0.3968253968253968,64.68253968253968,325.0,0.873015873015873,9.285714285714285,-321.8253968253968
156.58730158730157,325.0,-19.444444444444443,6.26984126984127,68.96825396825396,-49.285714285714285,-23.253968253968253,-45.15873015873016,16.904761904761905,1.0317460317460316,-325.0,-0.23809523809523808,-4.2063492063492065,-34.2063492063492,-7.3809523809523805,-44.36507936507936,325.0,-50.238095238095234,0.3968253968253968,64.68253968253968,325.0,0.873015873015873,9.285714285714285,-321.8253968253968
151.66666666666666,325.0,-8.968253968253968,7.3809523809523805,66.9047619047619,-47.38095238095238,-12.46031746031746,-43.888888888888886,-48.01587301587301,2.3015873015873014,-325.0,1.349206349206349,6.111111111111111,-33.25396825396825,2.7777777777777777,-43.095238095238095,325.0,-48.80952380952381,2.3015873015873014,62.61904761904761,325.0,-0.873015873015873,0.873015873015873,-321.8253968253968
151.66666666666666,325.0,-8.968253968253968,7.3809523809523805,66.9047619047619,-47.38095238095238,-12.46031746031746,-43.888888888888886,-48.01587301587301,2.3015873015873014,-325.0,1.349206349206349,6.111111111111111,-33.25396825396825,2.7777777777777777,-43.095238095238095,325.0,-48.80952380952381,2.3015873015873014,62.61904761904761,325.0,-0.873015873015873,0.873015873015873,-321.8253968253968
148.8095238095238,325.0,-36.11111111111111,10.714285714285714,65.63492063492063,-46.74603174603175,-38.33333333333333,-43.25396825396825,-95.63492063492063,6.26984126984127,-312.9365079365079,3.73015873015873,-25.158730158730158,-32.77777777777778,-20.396825396825395,-42.460317460317455,325.0,-48.01587301587301,5.0,61.507936507936506,284.8412698412698,-0.5555555555555556,-1.8253968253968254,-166.26984126984127
148.8095238095238,325.0,-36.11111111111111,10.714285714285714,65.63492063492063,-46.74603174603175,-38.33333333333333,-43.25396825396825,-95.63492063492063,6.26984126984127,-312.9365079365079,3.73015873015873,-25.158730158730158,-32.77777777777778,-20.396825396825395,-42.460317460317455,325.0,-48.01587301587301,5.0,61.507936507936506,284.8412698412698,-0.5555555555555556,-1.8253968253968254,-166.26984126984127
146.26984126984127,325.0,-1.8253968253968254,6.111111111111111,64.36507936507937,-45.95238095238095,-5.0,-42.460317460317455,-68.4920634920635,0.7142857142857142,-325.0,0.07936507936507936,13.73015873015873,-32.14285714285714,10.079365079365079,-41.666666666666664,325.0,-47.22222222222222,1.1904761904761905,60.39682539682539,325.0,-0.7142857142857142,0.873015873015873,-166.26984126984127
146.26984126984127,325.0,-1.8253968253968254,6.111111111111111,64.36507936507937,-45.95238095238095,-5.0,-42.460317460317455,-68.4920634920635,0.7142857142857142,-325.0,0.07936507936507936,13.73015873015873,-32.14285714285714,10.079365079365079,-41.666666666666664,325.0,-47.22222222222222,1.1904761904761905,60.39682539682539,325.0,-0.7142857142857142,0.873015873015873,-166.26984126984127
143.4126984126984,325.0,-25.317460317460316,7.698412698412698,63.41269841269841,-45.15873015873016,-27.857142857142854,-41.98412698412698,-120.55555555555554,3.571428571428571,-316.74603174603175,1.1904761904761905,-14.523809523809524,-31.825396825396822,-10.079365079365079,-41.03174603174603,325.0,-46.58730158730158,2.46031746031746,59.44444444444444,288.4920634920635,-0.23809523809523808,-2.142857142857143,-166.26984126984127
143.4126984126984,325.0,-25.317460317460316,7.698412698412698,63.41269841269841,-45.15873015873016,-27.857142857142854,-41.98412698412698,-120.55555555555554,3.571428571428571,-316.74603174603175,1.1904761904761905,-14.523809523809524,-31.825396825396822,-10.079365079365079,-41.03174603174603,325.0,-46.58730158730158,2.46031746031746,59.44444444444444,288.4920634920635,-0.23809523809523808,-2.142857142857143,-166.26984126984127
140.87301587301587,318.015873015873,-1.349206349206349,12.777777777777777,62.14285714285714,-44.36507936507936,-4.523809523809524,-41.03174603174603,-97.6984126984127,7.3809523809523805,-325.0,7.063492063492063,13.73015873015873,-31.19047619047619,10.079365079365079,-40.39682539682539,325.0,-45.63492063492063,7.857142857142857,58.33333333333333,325.0,-1.984126984126984,1.507936507936508,-166.26984126984127
140.87301587301587,318.015873015873,-1.349206349206349,12.777777777777777,62.14285714285714,-44.36507936507936,-4.523809523809524,-41.03174603174603,-97.6984126984127,7.3809523809523805,-325.0,7.063492063492063,13.73015873015873,-31.19047619047619,10.079365079365079,-40.39682539682539,325.0,-45.63492063492063,7.857142857142857,58.33333333333333,325.0,-1.984126984126984,1.507936507936508,-166.26984126984127
138.17460317460316,325.0,-16.746031746031743,12.46031746031746,61.03174603174603,-43.888888888888886,-18.80952380952381,-40.55555555555555,-150.07936507936506,8.015873015873016,-319.1269841269841,5.317460317460317,-5.952380952380952,-30.71428571428571,-1.8253968253968254,-39.6031746031746,323.25396825396825,-45.15873015873016,6.746031746031746,57.38095238095238,289.2857142857143,0.5555555555555556,-2.142857142857143,-166.26984126984127
138.17460317460316,325.0,-16.746031746031743,12.46031746031746,61.03174603174603,-43.888888888888886,-18.80952380952381,-40.55555555555555,-150.07936507936506,8.015873015873016,-319.1269841269841,5.317460317460317,-5.952380952380952,-30.71428571428571,-1.8253968253968254,-39.6031746031746,323.25396825396825,-45.15873015873016,6.746031746031746,57.38095238095238,289.2857142857143,0.5555555555555556,-2.142857142857143,-166.26984126984127
131.34920634920636,323.57142857142856,7.5396825396825395,13.253968253968253,58.33333333333333,-41.82539682539682,6.111111111111111,-38.80952380952381,-208.96825396825395,8.174603174603174,-325.0,6.587301587301587,21.825396825396822,-29.285714285714285,21.349206349206348,-37.857142857142854,308.015873015873,-43.095238095238095,8.174603174603174,54.841269841269835,325.0,0.07936507936507936,0.23809523809523808,-321.8253968253968
131.34920634920636,323.57142857142856,7.5396825396825395,13.253968253968253,58.33333333333333,-41.82539682539682,6.111111111111111,-38.80952380952381,-208.96825396825395,8.174603174603174,-325.0,6.587301587301587,21.825396825396822,-29.285714285714285,21.349206349206348,-37.857142857142854,308.015873015873,-43.095238095238095,8.174603174603174,54.841269841269835,325.0,0.07936507936507936,0.23809523809523808,-321.8253968253968
125.79365079365078,280.23809523809524,37.857142857142854,8.492063492063492,55.79365079365079,-40.238095238095234,36.269841269841265,-37.38095238095238,-195.79365079365078,2.619047619047619,-325.0,2.3015873015873014,53.25396825396825,-28.174603174603174,49.12698412698413,-36.42857142857142,295.6349206349206,-41.507936507936506,4.0476190476190474,52.77777777777777,325.0,-0.873015873015873,2.3015873015873014,-321.8253968253968
125.79365079365078,280.23809523809524,37.857142857142854,8.492063492063492,55.79365079365079,-40.238095238095234,36.269841269841265,-37.38095238095238,-195.79365079365078,2.619047619047619,-325.0,2.3015873015873014,53.25396825396825,-28.174603174603174,49.12698412698413,-36.42857142857142,295.6349206349206,-41.507936507936506,4.0476190476190474,52.77777777777777,325.0,-0.873015873015873,2.3015873015873014,-321.8253968253968
125.31746031746032,298.6507936507936,45.0,8.174603174603174,55.317460317460316,-40.079365079365076,44.047619047619044,-37.22222222222222,-189.28571428571428,1.984126984126984,-325.0,1.349206349206349,63.095238095238095,-28.015873015873016,57.38095238095238,-36.269841269841265,294.36507936507934,-41.34920634920635,3.4126984126984126,52.460317460317455,325.0,0.873015873015873,10.555555555555555,-321.8253968253968
125.31746031746032,298.6507936507936,45.0,8.174603174603174,55.317460317460316,-40.079365079365076,44.047619047619044,-37.22222222222222,-189.28571428571428,1.984126984126984,-325.0,1.349206349206349,63.095238095238095,-28.015873015873016,57.38095238095238,-36.269841269841265,294.36507936507934,-41.34920634920635,3.4126984126984126,52.460317460317455,325.0,0.873015873015873,10.555555555555555,-321.8253968253968
121.19047619047619,260.87301587301585,48.33333333333333,1.8253968253968254,53.888888888888886,-38.96825396825397,46.58730158730158,-36.11111111111111,-222.46031746031744,-3.73015873015873,-325.0,-4.2063492063492065,63.57142857142857,-27.38095238095238,58.96825396825397,-35.317460317460316,285.4761904761905,-40.238095238095234,-2.46031746031746,50.87301587301587,325.0,-0.7142857142857142,3.095238095238095,-321.8253968253968
121.19047619047619,260.87301587301585,48.33333333333333,1.8253968253968254,53.888888888888886,-38.96825396825397,46.58730158730158,-36.11111111111111,-222.46031746031744,-3.73015873015873,-325.0,-4.2063492063492065,63.57142857142857,-27.38095238095238,58.96825396825397,-35.317460317460316,285.4761904761905,-40.238095238095234,-2.46031746031746,50.87301587301587,325.0,-0.7142857142857142,3.095238095238095,-321.8253968253968
120.71428571428571,283.25396825396825,57.53968253968254,2.619047619047619,53.57142857142857,-38.65079365079365,56.74603174603174,-36.11111111111111,-229.76190476190476,-3.095238095238095,-325.0,-3.73015873015873,75.79365079365078,-27.22222222222222,69.6031746031746,-35.317460317460316,284.36507936507934,-40.238095238095234,-1.8253968253968254,50.71428571428571,325.0,1.349206349206349,11.666666666666666,-321.8253968253968
120.71428571428571,283.25396825396825,57.53968253968254,2.619047619047619,53.57142857142857,-38.65079365079365,56.74603174603174,-36.11111111111111,-229.76190476190476,-3.095238095238095,-325.0,-3.73015873015873,75.79365079365078,-27.22222222222222,69.6031746031746,-35.317460317460316,284.36507936507934,-40.238095238095234,-1.8253968253968254,50.71428571428571,325.0,1.349206349206349,11.666666666666666,-321.8253968253968
116.74603174603173,243.7301587301587,56.904761904761905,3.888888888888889,51.82539682539682,-37.698412698412696,55.63492063492063,-35.0,-247.85714285714283,-1.8253968253968254,-325.0,-2.46031746031746,71.82539682539682,-26.428571428571427,67.38095238095238,-34.2063492063492,275.3174603174603,-38.96825396825397,-0.873015873015873,49.12698412698413,325.0,-1.1904761904761905,2.46031746031746,-166.26984126984127
116.74603174603173,243.7301587301587,56.904761904761905,3.888888888888889,51.82539682539682,-37.698412698412696,55.63492063492063,-35.0,-247.85714285714283,-1.8253968253968254,-325.0,-2.46031746031746,71.82539682539682,-26.428571428571427,67.38095238095238,-34.2063492063492,275.3174603174603,-38.96825396825397,-0.873015873015873,49.12698412698413,325.0,-1.1904761904761905,2.46031746031746,-166.26984126984127
116.26984126984127,269.44444444444446,65.31746031746032,3.253968253968254,51.666666666666664,-37.38095238095238,65.0,-34.84126984126984,-268.015873015873,-1.6666666666666665,-325.0,-2.9365079365079363,83.09523809523809,-26.587301587301585,77.38095238095238,-34.047619047619044,274.2063492063492,-38.80952380952381,-1.6666666666666665,48.96825396825397,325.0,0.5555555555555556,10.873015873015872,-166.26984126984127
116.26984126984127,269.44444444444446,65.31746031746032,3.253968253968254,51.666666666666664,-37.38095238095238,65.0,-34.84126984126984,-268.015873015873,-1.6666666666666665,-325.0,-2.9365079365079363,83.09523809523809,-26.587301587301585,77.38095238095238,-34.047619047619044,274.2063492063492,-38.80952380952381,-1.6666666666666665,48.96825396825397,325.0,0.5555555555555556,10.873015873015872,-166.26984126984127
