Fp1[1],Fp2[2],F3[3],F4[4],C3[5],C4[6],P3[7],P4[8],O1[9],O2[10],F7[11],F8[12],T3[13],T4[14],T5[15],T6[16],Fz[17],Pz[18],Cz[19],Pg1[20],Pg2[21],EOGR[22],EOOGL[23],EMG[24]
-325.0,325.0,-325.0,4.682539682539682,-325.0,325.0,-325.0,325.0,-325.0,-109.44444444444444,325.0,-30.87301587301587,-325.0,325.0,-325.0,325.0,-325.0,325.0,-192.93650793650792,-325.0,-254.68253968253967,-3.571428571428571,-10.396825396825395,-166.26984126984127
-325.0,325.0,-325.0,4.682539682539682,-325.0,325.0,-325.0,325.0,-325.0,-109.44444444444444,325.0,-30.87301587301587,-325.0,325.0,-325.0,325.0,-325.0,325.0,-192.93650793650792,-325.0,-254.68253968253967,-3.571428571428571,-10.396825396825395,-166.26984126984127
-325.0,325.0,-325.0,2.46031746031746,-325.0,325.0,-325.0,325.0,-325.0,-74.52380952380952,325.0,-19.285714285714285,-325.0,325.0,-325.0,325.0,-325.0,325.0,-125.79365079365078,-325.0,-163.4126984126984,3.4126984126984126,5.476190476190476,-166.26984126984127
-325.0,325.0,-325.0,2.46031746031746,-325.0,325.0,-325.0,325.0,-325.0,-74.52380952380952,325.0,-19.285714285714285,-325.0,325.0,-325.0,325.0,-325.0,325.0,-125.79365079365078,-325.0,-163.4126984126984,3.4126984126984126,5.476190476190476,-166.26984126984127
-325.0,325.0,-325.0,6.587301587301587,-325.0,325.0,-325.0,325.0,-325.0,-48.96825396825397,325.0,-6.746031746031746,-325.0,325.0,-325.0,325.0,-325.0,325.0,-85.95238095238095,-325.0,-105.15873015873015,0.5555555555555556,2.142857142857143,-166.26984126984127
-325.0,325.0,-325.0,6.587301587301587,-325.0,325.0,-325.0,325.0,-325.0,-48.96825396825397,325.0,-6.746031746031746,-325.0,325.0,-325.0,325.0,-325.0,325.0,-85.95238095238095,-325.0,-105.15873015873015,0.5555555555555556,2.142857142857143,-166.26984126984127
-325.0,325.0,-325.0,13.571428571428571,-325.0,325.0,-325.0,325.0,-325.0,-36.269841269841265,325.0,1.8253968253968254,-325.0,325.0,-325.0,325.0,-325.0,325.0,-69.12698412698413,-325.0,-82.14285714285714,-0.7142857142857142,-3.571428571428571,-166.26984126984127
-325.0,325.0,-325.0,13.571428571428571,-325.0,325.0,-325.0,325.0,-325.0,-36.269841269841265,325.0,1.8253968253968254,-325.0,325.0,-325.0,325.0,-325.0,325.0,-69.12698412698413,-325.0,-82.14285714285714,-0.7142857142857142,-3.571428571428571,-166.26984126984127
-324.04761904761904,325.0,-322.6190476190476,17.38095238095238,-325.0,325.0,-325.0,325.0,-325.0,-26.746031746031743,325.0,8.174603174603174,-325.0,325.0,-325.0,325.0,-322.46031746031747,325.0,-56.11111111111111,-325.0,-63.888888888888886,1.0317460317460316,2.142857142857143,-166.26984126984127
-324.04761904761904,325.0,-322.6190476190476,17.38095238095238,-325.0,325.0,-325.0,325.0,-325.0,-26.746031746031743,325.0,8.174603174603174,-325.0,325.0,-325.0,325.0,-322.46031746031747,325.0,-56.11111111111111,-325.0,-63.888888888888886,1.0317460317460316,2.142857142857143,-166.26984126984127
-325.0,325.0,-324.04761904761904,16.904761904761905,-325.0,325.0,-325.0,325.0,-325.0,-21.666666666666664,325.0,9.126984126984127,-325.0,325.0,-325.0,325.0,-323.88888888888886,325.0,-47.38095238095238,-325.0,-48.80952380952381,-1.507936507936508,-2.7777777777777777,-321.8253968253968
-325.0,325.0,-324.04761904761904,16.904761904761905,-325.0,325.0,-325.0,325.0,-325.0,-21.666666666666664,325.0,9.126984126984127,-325.0,325.0,-325.0,325.0,-323.88888888888886,325.0,-47.38095238095238,-325.0,-48.80952380952381,-1.507936507936508,-2.7777777777777777,-321.8253968253968
-316.1111111111111,325.0,-313.25396825396825,16.26984126984127,-322.6190476190476,325.0,-320.87301587301585,325.0,-323.73015873015873,-17.22222222222222,325.0,10.396825396825395,-318.968253968254,325.0,-319.1269841269841,325.0,-311.8253968253968,325.0,-39.92063492063492,-325.0,-36.58730158730159,1.349206349206349,3.095238095238095,-321.8253968253968
-316.1111111111111,325.0,-313.25396825396825,16.26984126984127,-322.6190476190476,325.0,-320.87301587301585,325.0,-323.73015873015873,-17.22222222222222,325.0,10.396825396825395,-318.968253968254,325.0,-319.1269841269841,325.0,-311.8253968253968,325.0,-39.92063492063492,-325.0,-36.58730158730159,1.349206349206349,3.095238095238095,-321.8253968253968
-314.2063492063492,325.0,-310.87301587301585,15.158730158730158,-320.7142857142857,325.0,-318.4920634920635,325.0,-322.46031746031747,-17.22222222222222,325.0,9.761904761904761,-316.74603174603175,325.0,-316.74603174603175,325.0,-309.76190476190476,325.0,-38.96825396825397,-325.0,-34.047619047619044,5.317460317460317,11.19047619047619,-321.8253968253968
-314.2063492063492,325.0,-310.87301587301585,15.158730158730158,-320.7142857142857,325.0,-318.4920634920635,325.0,-322.46031746031747,-17.22222222222222,325.0,9.761904761904761,-316.74603174603175,325.0,-316.74603174603175,325.0,-309.76190476190476,325.0,-38.96825396825397,-325.0,-34.047619047619044,5.317460317460317,11.19047619047619,-321.8253968253968
-305.4761904761905,325.0,-302.77777777777777,17.857142857142858,-312.77777777777777,325.0,-310.39682539682536,325.0,-314.5238095238095,-8.015873015873016,325.0,14.682539682539682,-308.8095238095238,325.0,-308.4920634920635,325.0,-301.031746031746,325.0,-24.68253968253968,-325.0,-13.571428571428571,-2.619047619047619,-6.111111111111111,-321.8253968253968
-305.4761904761905,325.0,-302.77777777777777,17.857142857142858,-312.77777777777777,325.0,-310.39682539682536,325.0,-314.5238095238095,-8.015873015873016,325.0,14.682539682539682,-308.8095238095238,325.0,-308.4920634920635,325.0,-301.031746031746,325.0,-24.68253968253968,-325.0,-13.571428571428571,-2.619047619047619,-6.111111111111111,-321.8253968253968
-305.4761904761905,325.0,-302.77777777777777,17.857142857142858,-312.77777777777777,325.0,-310.39682539682536,325.0,-314.5238095238095,-8.015873015873016,325.0,14.682539682539682,-308.8095238095238,325.0,-308.4920634920635,325.0,-301.031746031746,325.0,-24.68253968253968,-325.0,-13.571428571428571,-2.619047619047619,-6.111111111111111,-321.8253968253968
-305.4761904761905,325.0,-302.77777777777777,17.857142857142858,-312.77777777777777,325.0,-310.39682539682536,325.0,-314.5238095238095,-8.015873015873016,325.0,14.682539682539682,-308.8095238095238,325.0,-308.4920634920635,325.0,-301.031746031746,325.0,-24.68253968253968,-325.0,-13.571428571428571,-2.619047619047619,-6.111111111111111,-321.8253968253968
-225.79365079365078,325.0,-221.8253968253968,14.206349206349206,-235.3174603174603,325.0,-228.8095238095238,325.0,-235.63492063492063,21.349206349206348,325.0,21.507936507936506,-228.49206349206347,325.0,-227.2222222222222,318.8095238095238,-220.07936507936506,325.0,24.523809523809522,-325.0,68.80952380952381,1.6666666666666665,1.6666666666666665,-166.26984126984127
-225.79365079365078,325.0,-221.8253968253968,14.206349206349206,-235.3174603174603,325.0,-228.8095238095238,325.0,-235.63492063492063,21.349206349206348,325.0,21.507936507936506,-228.49206349206347,325.0,-227.2222222222222,318.8095238095238,-220.07936507936506,325.0,24.523809523809522,-325.0,68.80952380952381,1.6666666666666665,1.6666666666666665,-166.26984126984127
-224.04761904761904,325.0,-220.07936507936506,17.698412698412696,-233.4126984126984,325.0,-228.17460317460316,325.0,-234.84126984126982,28.174603174603174,325.0,25.952380952380953,-225.15873015873015,321.5079365079365,-226.26984126984127,310.87301587301585,-217.2222222222222,325.0,34.36507936507936,-320.55555555555554,79.76190476190476,5.952380952380952,10.555555555555555,-166.26984126984127
-224.04761904761904,325.0,-220.07936507936506,17.698412698412696,-233.4126984126984,325.0,-228.17460317460316,325.0,-234.84126984126982,28.174603174603174,325.0,25.952380952380953,-225.15873015873015,321.5079365079365,-226.26984126984127,310.87301587301585,-217.2222222222222,325.0,34.36507936507936,-320.55555555555554,79.76190476190476,5.952380952380952,10.555555555555555,-166.26984126984127
-199.28571428571428,325.0,-195.47619047619045,19.285714285714285,-209.44444444444443,311.66666666666663,-202.14285714285714,316.26984126984127,-209.44444444444443,37.22222222222222,325.0,29.920634920634917,-201.98412698412696,304.68253968253964,-200.23809523809524,295.1587301587301,-193.25396825396825,316.4285714285714,47.22222222222222,-304.36507936507934,98.17460317460316,-7.063492063492063,-11.507936507936508,-166.26984126984127
-199.28571428571428,325.0,-195.47619047619045,19.285714285714285,-209.44444444444443,311.66666666666663,-202.14285714285714,316.26984126984127,-209.44444444444443,37.22222222222222,325.0,29.920634920634917,-201.98412698412696,304.68253968253964,-200.23809523809524,295.1587301587301,-193.25396825396825,316.4285714285714,47.22222222222222,-304.36507936507934,98.17460317460316,-7.063492063492063,-11.507936507936508,-166.26984126984127
-93.88888888888889,276.90476190476187,-91.66666666666666,9.444444444444445,-104.04761904761904,262.77777777777777,-95.95238095238095,267.38095238095235,-102.93650793650794,39.44444444444444,290.7142857142857,21.825396825396822,-95.31746031746032,254.84126984126982,-94.2063492063492,248.65079365079364,-88.01587301587301,267.6984126984127,59.6031746031746,-255.79365079365078,110.23809523809523,-5.317460317460317,-12.3015873015873,-166.26984126984127
-93.88888888888889,276.90476190476187,-91.66666666666666,9.444444444444445,-104.04761904761904,262.77777777777777,-95.95238095238095,267.38095238095235,-102.93650793650794,39.44444444444444,290.7142857142857,21.825396825396822,-95.31746031746032,254.84126984126982,-94.2063492063492,248.65079365079364,-88.01587301587301,267.6984126984127,59.6031746031746,-255.79365079365078,110.23809523809523,-5.317460317460317,-12.3015873015873,-166.26984126984127
42.3015873015873,-24.047619047619047,43.095238095238095,2.619047619047619,37.698412698412696,204.52380952380952,42.93650793650794,208.96825396825395,40.87301587301587,31.19047619047619,226.58730158730157,12.3015873015873,45.0,196.26984126984127,44.52380952380952,193.09523809523807,47.22222222222222,209.44444444444443,50.87301587301587,-198.8095238095238,82.46031746031746,-5.0,-11.349206349206348,-166.26984126984127
42.3015873015873,-24.047619047619047,43.095238095238095,2.619047619047619,37.698412698412696,204.52380952380952,42.93650793650794,208.96825396825395,40.87301587301587,31.19047619047619,226.58730158730157,12.3015873015873,45.0,196.26984126984127,44.52380952380952,193.09523809523807,47.22222222222222,209.44444444444443,50.87301587301587,-198.8095238095238,82.46031746031746,-5.0,-11.349206349206348,-166.26984126984127
178.4920634920635,-325.0,178.015873015873,-4.0476190476190474,179.44444444444443,146.42857142857142,181.984126984127,150.7142857142857,184.84126984126982,23.095238095238095,162.61904761904762,2.9365079365079363,185.3174603174603,137.85714285714286,183.25396825396825,137.69841269841268,182.46031746031744,151.19047619047618,42.3015873015873,-141.66666666666666,54.68253968253968,-4.523809523809524,-10.396825396825395,-321.8253968253968
178.4920634920635,-325.0,178.015873015873,-4.0476190476190474,179.44444444444443,146.42857142857142,181.984126984127,150.7142857142857,184.84126984126982,23.095238095238095,162.61904761904762,2.9365079365079363,185.3174603174603,137.85714285714286,183.25396825396825,137.69841269841268,182.46031746031744,151.19047619047618,42.3015873015873,-141.66666666666666,54.68253968253968,-4.523809523809524,-10.396825396825395,-321.8253968253968
178.4920634920635,-325.0,178.015873015873,-4.0476190476190474,179.44444444444443,146.42857142857142,181.984126984127,150.7142857142857,184.84126984126982,23.095238095238095,162.61904761904762,2.9365079365079363,185.3174603174603,137.85714285714286,183.25396825396825,137.69841269841268,182.46031746031744,151.19047619047618,42.3015873015873,-141.66666666666666,54.68253968253968,-4.523809523809524,-10.396825396825395,-321.8253968253968
178.4920634920635,-325.0,178.015873015873,-4.0476190476190474,179.44444444444443,146.42857142857142,181.984126984127,150.7142857142857,184.84126984126982,23.095238095238095,162.61904761904762,2.9365079365079363,185.3174603174603,137.85714285714286,183.25396825396825,137.69841269841268,182.46031746031744,151.19047619047618,42.3015873015873,-141.66666666666666,54.68253968253968,-4.523809523809524,-10.396825396825395,-321.8253968253968
178.4920634920635,-325.0,178.015873015873,-4.0476190476190474,179.44444444444443,146.42857142857142,181.984126984127,150.7142857142857,184.84126984126982,23.095238095238095,162.61904761904762,2.9365079365079363,185.3174603174603,137.85714285714286,183.25396825396825,137.69841269841268,182.46031746031744,151.19047619047618,42.3015873015873,-141.66666666666666,54.68253968253968,-4.523809523809524,-10.396825396825395,-321.8253968253968
178.4920634920635,-325.0,178.015873015873,-4.0476190476190474,179.44444444444443,146.42857142857142,181.984126984127,150.7142857142857,184.84126984126982,23.095238095238095,162.61904761904762,2.9365079365079363,185.3174603174603,137.85714285714286,183.25396825396825,137.69841269841268,182.46031746031744,151.19047619047618,42.3015873015873,-141.66666666666666,54.68253968253968,-4.523809523809524,-10.396825396825395,-321.8253968253968
178.4920634920635,-325.0,178.015873015873,-4.0476190476190474,179.44444444444443,146.42857142857142,181.984126984127,150.7142857142857,184.84126984126982,23.095238095238095,162.61904761904762,2.9365079365079363,185.3174603174603,137.85714285714286,183.25396825396825,137.69841269841268,182.46031746031744,151.19047619047618,42.3015873015873,-141.66666666666666,54.68253968253968,-4.523809523809524,-10.396825396825395,-321.8253968253968
178.4920634920635,-325.0,178.015873015873,-4.0476190476190474,179.44444444444443,146.42857142857142,181.984126984127,150.7142857142857,184.84126984126982,23.095238095238095,162.61904761904762,2.9365079365079363,185.3174603174603,137.85714285714286,183.25396825396825,137.69841269841268,182.46031746031744,151.19047619047618,42.3015873015873,-141.66666666666666,54.68253968253968,-4.523809523809524,-10.396825396825395,-321.8253968253968
251.66666666666666,-325.0,251.5079365079365,-9.285714285714285,252.14285714285714,120.87301587301586,253.4126984126984,116.1111111111111,254.84126984126982,11.507936507936508,134.52380952380952,-5.317460317460317,255.15873015873015,-93.57142857142857,254.04761904761904,113.57142857142857,253.7301587301587,125.15873015873015,26.11111111111111,-116.74603174603173,-135.15873015873015,0.07936507936507936,-0.07936507936507936,-321.8253968253968
251.66666666666666,-325.0,251.5079365079365,-9.285714285714285,252.14285714285714,120.87301587301586,253.4126984126984,116.1111111111111,254.84126984126982,11.507936507936508,134.52380952380952,-5.317460317460317,255.15873015873015,-93.57142857142857,254.04761904761904,113.57142857142857,253.7301587301587,125.15873015873015,26.11111111111111,-116.74603174603173,-135.15873015873015,0.07936507936507936,-0.07936507936507936,-321.8253968253968
325.0,-325.0,325.0,-14.523809523809524,325.0,95.47619047619047,325.0,81.5079365079365,325.0,-0.07936507936507936,106.42857142857142,-13.412698412698411,325.0,-325.0,325.0,89.6031746031746,325.0,99.12698412698413,10.079365079365079,-91.82539682539682,-325.0,4.841269841269841,10.396825396825395,-166.26984126984127
325.0,-325.0,325.0,-14.523809523809524,325.0,95.47619047619047,325.0,81.5079365079365,325.0,-0.07936507936507936,106.42857142857142,-13.412698412698411,325.0,-325.0,325.0,89.6031746031746,325.0,99.12698412698413,10.079365079365079,-91.82539682539682,-325.0,4.841269841269841,10.396825396825395,-166.26984126984127
325.0,-325.0,325.0,-14.523809523809524,325.0,95.47619047619047,325.0,81.5079365079365,325.0,-0.07936507936507936,106.42857142857142,-13.412698412698411,325.0,-325.0,325.0,89.6031746031746,325.0,99.12698412698413,10.079365079365079,-91.82539682539682,-325.0,4.841269841269841,10.396825396825395,-166.26984126984127
325.0,-325.0,325.0,-14.523809523809524,325.0,95.47619047619047,325.0,81.5079365079365,325.0,-0.07936507936507936,106.42857142857142,-13.412698412698411,325.0,-325.0,325.0,89.6031746031746,325.0,99.12698412698413,10.079365079365079,-91.82539682539682,-325.0,4.841269841269841,10.396825396825395,-166.26984126984127
325.0,-325.0,325.0,-27.539682539682538,325.0,83.25396825396825,325.0,-325.0,325.0,-19.126984126984127,92.93650793650794,-30.07936507936508,325.0,-325.0,325.0,-325.0,325.0,-236.26984126984127,-12.142857142857142,-79.76190476190476,-325.0,1.349206349206349,2.7777777777777777,-166.26984126984127
325.0,-325.0,325.0,-27.539682539682538,325.0,83.25396825396825,325.0,-325.0,325.0,-19.126984126984127,92.93650793650794,-30.07936507936508,325.0,-325.0,325.0,-325.0,325.0,-236.26984126984127,-12.142857142857142,-79.76190476190476,-325.0,1.349206349206349,2.7777777777777777,-166.26984126984127
325.0,-325.0,325.0,-26.587301587301585,325.0,61.666666666666664,325.0,-325.0,325.0,-19.6031746031746,91.82539682539682,-29.920634920634917,325.0,-325.0,325.0,-325.0,325.0,-292.77777777777777,-11.984126984126984,-78.80952380952381,-325.0,0.23809523809523808,0.23809523809523808,-166.26984126984127
325.0,-325.0,325.0,-26.587301587301585,325.0,61.666666666666664,325.0,-325.0,325.0,-19.6031746031746,91.82539682539682,-29.920634920634917,325.0,-325.0,325.0,-325.0,325.0,-292.77777777777777,-11.984126984126984,-78.80952380952381,-325.0,0.23809523809523808,0.23809523809523808,-166.26984126984127
325.0,-325.0,325.0,-22.142857142857142,325.0,-170.3968253968254,325.0,-325.0,325.0,-15.317460317460316,89.6031746031746,-25.79365079365079,325.0,-325.0,325.0,-325.0,325.0,-325.0,-8.65079365079365,-76.9047619047619,-325.0,1.507936507936508,3.095238095238095,-166.26984126984127
325.0,-325.0,325.0,-22.142857142857142,325.0,-170.3968253968254,325.0,-325.0,325.0,-15.317460317460316,89.6031746031746,-25.79365079365079,325.0,-325.0,325.0,-325.0,325.0,-325.0,-8.65079365079365,-76.9047619047619,-325.0,1.507936507936508,3.095238095238095,-166.26984126984127
325.0,-325.0,325.0,-22.777777777777775,325.0,-221.34920634920633,325.0,-325.0,325.0,-16.746031746031743,88.33333333333333,-26.9047619047619,325.0,-325.0,325.0,-325.0,325.0,-325.0,-10.238095238095237,-75.95238095238095,-325.0,0.07936507936507936,-0.23809523809523808,-321.8253968253968
325.0,-325.0,325.0,-22.777777777777775,325.0,-221.34920634920633,325.0,-325.0,325.0,-16.746031746031743,88.33333333333333,-26.9047619047619,325.0,-325.0,325.0,-325.0,325.0,-325.0,-10.238095238095237,-75.95238095238095,-325.0,0.07936507936507936,-0.23809523809523808,-321.8253968253968
325.0,-325.0,325.0,-22.142857142857142,325.0,-325.0,325.0,-325.0,325.0,-16.428571428571427,86.58730158730158,-26.428571428571427,325.0,-325.0,325.0,-325.0,325.0,-325.0,-10.714285714285714,-74.36507936507937,-325.0,0.7142857142857142,3.095238095238095,-321.8253968253968
325.0,-325.0,325.0,-22.142857142857142,325.0,-325.0,325.0,-325.0,325.0,-16.428571428571427,86.58730158730158,-26.428571428571427,325.0,-325.0,325.0,-325.0,325.0,-325.0,-10.714285714285714,-74.36507936507937,-325.0,0.7142857142857142,3.095238095238095,-321.8253968253968
325.0,-325.0,325.0,-22.3015873015873,325.0,-325.0,325.0,-325.0,325.0,-16.428571428571427,86.1111111111111,-26.746031746031743,325.0,-325.0,325.0,-325.0,325.0,-325.0,-11.666666666666666,-73.88888888888889,-325.0,5.0,11.984126984126984,-321.8253968253968
325.0,-325.0,325.0,-22.3015873015873,325.0,-325.0,325.0,-325.0,325.0,-16.428571428571427,86.1111111111111,-26.746031746031743,325.0,-325.0,325.0,-325.0,325.0,-325.0,-11.666666666666666,-73.88888888888889,-325.0,5.0,11.984126984126984,-321.8253968253968
325.0,-325.0,325.0,-20.396825396825395,325.0,-325.0,325.0,-325.0,325.0,-15.317460317460316,84.84126984126983,-25.158730158730158,325.0,-325.0,325.0,-325.0,325.0,-325.0,-10.238095238095237,-72.77777777777777,-325.0,5.158730158730158,11.984126984126984,-321.8253968253968
325.0,-325.0,325.0,-20.396825396825395,325.0,-325.0,325.0,-325.0,325.0,-15.317460317460316,84.84126984126983,-25.158730158730158,325.0,-325.0,325.0,-325.0,325.0,-325.0,-10.238095238095237,-72.77777777777777,-325.0,5.158730158730158,11.984126984126984,-321.8253968253968
325.0,-325.0,325.0,-18.333333333333332,325.0,-325.0,325.0,-325.0,325.0,-14.206349206349206,83.57142857142857,-23.57142857142857,325.0,-325.0,325.0,-325.0,325.0,-325.0,-8.809523809523808,-71.5079365079365,-325.0,5.317460317460317,12.142857142857142,-321.8253968253968
325.0,-325.0,325.0,-18.333333333333332,325.0,-325.0,325.0,-325.0,325.0,-14.206349206349206,83.57142857142857,-23.57142857142857,325.0,-325.0,325.0,-325.0,325.0,-325.0,-8.809523809523808,-71.5079365079365,-325.0,5.317460317460317,12.142857142857142,-321.8253968253968
325.0,-319.4444444444444,325.0,-12.46031746031746,325.0,-325.0,325.0,-325.0,325.0,-10.238095238095237,80.39682539682539,-18.49206349206349,325.0,-325.0,325.0,-325.0,325.0,-325.0,-4.682539682539682,-69.12698412698413,-325.0,6.111111111111111,10.714285714285714,-166.26984126984127
325.0,-319.4444444444444,325.0,-12.46031746031746,325.0,-325.0,325.0,-325.0,325.0,-10.238095238095237,80.39682539682539,-18.49206349206349,325.0,-325.0,325.0,-325.0,325.0,-325.0,-4.682539682539682,-69.12698412698413,-325.0,6.111111111111111,10.714285714285714,-166.26984126984127
325.0,-314.04761904761904,325.0,-12.142857142857142,325.0,-325.0,325.0,-325.0,325.0,-10.873015873015872,78.96825396825396,-18.96825396825397,325.0,-325.0,325.0,-325.0,325.0,-325.0,-5.952380952380952,-67.53968253968253,-325.0,-6.111111111111111,-12.777777777777777,-166.26984126984127
325.0,-314.04761904761904,325.0,-12.142857142857142,325.0,-325.0,325.0,-325.0,325.0,-10.873015873015872,78.96825396825396,-18.96825396825397,325.0,-325.0,325.0,-325.0,325.0,-325.0,-5.952380952380952,-67.53968253968253,-325.0,-6.111111111111111,-12.777777777777777,-166.26984126984127
325.0,-314.04761904761904,325.0,-12.142857142857142,325.0,-325.0,325.0,-325.0,325.0,-10.873015873015872,78.96825396825396,-18.96825396825397,325.0,-325.0,325.0,-325.0,325.0,-325.0,-5.952380952380952,-67.53968253968253,-325.0,-6.111111111111111,-12.777777777777777,-166.26984126984127
325.0,-314.04761904761904,325.0,-12.142857142857142,325.0,-325.0,325.0,-325.0,325.0,-10.873015873015872,78.96825396825396,-18.96825396825397,325.0,-325.0,325.0,-325.0,325.0,-325.0,-5.952380952380952,-67.53968253968253,-325.0,-6.111111111111111,-12.777777777777777,-166.26984126984127
325.0,-314.04761904761904,325.0,-12.142857142857142,325.0,-325.0,325.0,-325.0,325.0,-10.873015873015872,78.96825396825396,-18.96825396825397,325.0,-325.0,325.0,-325.0,325.0,-325.0,-5.952380952380952,-67.53968253968253,-325.0,-6.111111111111111,-12.777777777777777,-166.26984126984127
325.0,-314.04761904761904,325.0,-12.142857142857142,325.0,-325.0,325.0,-325.0,325.0,-10.873015873015872,78.96825396825396,-18.96825396825397,325.0,-325.0,325.0,-325.0,325.0,-325.0,-5.952380952380952,-67.53968253968253,-325.0,-6.111111111111111,-12.777777777777777,-166.26984126984127
325.0,-314.04761904761904,325.0,-12.142857142857142,325.0,-325.0,325.0,-325.0,325.0,-10.873015873015872,78.96825396825396,-18.96825396825397,325.0,-325.0,325.0,-325.0,325.0,-325.0,-5.952380952380952,-67.53968253968253,-325.0,-6.111111111111111,-12.777777777777777,-166.26984126984127
325.0,-314.04761904761904,325.0,-12.142857142857142,325.0,-325.0,325.0,-325.0,325.0,-10.873015873015872,78.96825396825396,-18.96825396825397,325.0,-325.0,325.0,-325.0,325.0,-325.0,-5.952380952380952,-67.53968253968253,-325.0,-6.111111111111111,-12.777777777777777,-166.26984126984127
325.0,-314.04761904761904,325.0,-12.142857142857142,325.0,-325.0,325.0,-325.0,325.0,-10.873015873015872,78.96825396825396,-18.96825396825397,325.0,-325.0,325.0,-325.0,325.0,-325.0,-5.952380952380952,-67.53968253968253,-325.0,-6.111111111111111,-12.777777777777777,-321.8253968253968
325.0,-314.04761904761904,325.0,-12.142857142857142,325.0,-325.0,325.0,-325.0,325.0,-10.873015873015872,78.96825396825396,-18.96825396825397,325.0,-325.0,325.0,-325.0,325.0,-325.0,-5.952380952380952,-67.53968253968253,-325.0,-6.111111111111111,-12.777777777777777,-321.8253968253968
325.0,-314.04761904761904,325.0,-12.142857142857142,325.0,-325.0,325.0,-325.0,325.0,-10.873015873015872,78.96825396825396,-18.96825396825397,325.0,-325.0,325.0,-325.0,325.0,-325.0,-5.952380952380952,-67.53968253968253,-325.0,-6.111111111111111,-12.777777777777777,-321.8253968253968
325.0,-314.04761904761904,325.0,-12.142857142857142,325.0,-325.0,325.0,-325.0,325.0,-10.873015873015872,78.96825396825396,-18.96825396825397,325.0,-325.0,325.0,-325.0,325.0,-325.0,-5.952380952380952,-67.53968253968253,-325.0,-6.111111111111111,-12.777777777777777,-321.8253968253968
325.0,-314.04761904761904,325.0,-12.142857142857142,325.0,-325.0,325.0,-325.0,325.0,-10.873015873015872,78.96825396825396,-18.96825396825397,325.0,-325.0,325.0,-325.0,325.0,-325.0,-5.952380952380952,-67.53968253968253,-325.0,-6.111111111111111,-12.777777777777777,-321.8253968253968
325.0,-314.04761904761904,325.0,-12.142857142857142,325.0,-325.0,325.0,-325.0,325.0,-10.873015873015872,78.96825396825396,-18.96825396825397,325.0,-325.0,325.0,-325.0,325.0,-325.0,-5.952380952380952,-67.53968253968253,-325.0,-6.111111111111111,-12.777777777777777,-321.8253968253968
168.4920634920635,-237.85714285714283,167.06349206349205,0.7142857142857142,174.84126984126982,-325.0,176.58730158730157,-325.0,174.52380952380952,-2.142857142857143,58.96825396825397,-6.904761904761904,178.8095238095238,-325.0,173.73015873015873,-325.0,162.14285714285714,-325.0,-1.507936507936508,-50.39682539682539,-250.55555555555554,2.7777777777777777,5.634920634920634,-321.8253968253968
168.4920634920635,-237.85714285714283,167.06349206349205,0.7142857142857142,174.84126984126982,-325.0,176.58730158730157,-325.0,174.52380952380952,-2.142857142857143,58.96825396825397,-6.904761904761904,178.8095238095238,-325.0,173.73015873015873,-325.0,162.14285714285714,-325.0,-1.507936507936508,-50.39682539682539,-250.55555555555554,2.7777777777777777,5.634920634920634,-321.8253968253968
152.46031746031744,-233.88888888888889,150.55555555555554,1.1904761904761905,158.33333333333331,-325.0,160.55555555555554,-325.0,158.65079365079364,-2.3015873015873014,58.01587301587301,-6.587301587301587,162.93650793650792,-325.0,158.33333333333331,-325.0,147.2222222222222,-325.0,-1.6666666666666665,-49.44444444444444,-246.1111111111111,3.571428571428571,6.111111111111111,-321.8253968253968
152.46031746031744,-233.88888888888889,150.55555555555554,1.1904761904761905,158.33333333333331,-325.0,160.55555555555554,-325.0,158.65079365079364,-2.3015873015873014,58.01587301587301,-6.587301587301587,162.93650793650792,-325.0,158.33333333333331,-325.0,147.2222222222222,-325.0,-1.6666666666666665,-49.44444444444444,-246.1111111111111,3.571428571428571,6.111111111111111,-321.8253968253968
133.73015873015873,-226.26984126984127,133.4126984126984,-0.3968253968253968,138.96825396825395,-325.0,141.984126984127,-325.0,138.4920634920635,-3.888888888888889,55.95238095238095,-8.333333333333332,142.14285714285714,-325.0,139.44444444444443,-325.0,125.95238095238095,-325.0,-3.253968253968254,-37.53968253968254,-237.38095238095238,-2.7777777777777777,-7.222222222222221,-166.26984126984127
133.73015873015873,-226.26984126984127,133.4126984126984,-0.3968253968253968,138.96825396825395,-325.0,141.984126984127,-325.0,138.4920634920635,-3.888888888888889,55.95238095238095,-8.333333333333332,142.14285714285714,-325.0,139.44444444444443,-325.0,125.95238095238095,-325.0,-3.253968253968254,-37.53968253968254,-237.38095238095238,-2.7777777777777777,-7.222222222222221,-166.26984126984127
94.84126984126983,-222.61904761904762,93.57142857142857,3.095238095238095,100.55555555555554,-325.0,101.66666666666666,-325.0,99.92063492063491,-0.23809523809523808,55.0,-4.2063492063492065,104.04761904761904,-325.0,100.07936507936508,-325.0,88.80952380952381,-325.0,-0.23809523809523808,325.0,-233.09523809523807,3.253968253968254,6.746031746031746,-166.26984126984127
94.84126984126983,-222.61904761904762,93.57142857142857,3.095238095238095,100.55555555555554,-325.0,101.66666666666666,-325.0,99.92063492063491,-0.23809523809523808,55.0,-4.2063492063492065,104.04761904761904,-325.0,100.07936507936508,-325.0,88.80952380952381,-325.0,-0.23809523809523808,325.0,-233.09523809523807,3.253968253968254,6.746031746031746,-166.26984126984127
57.53968253968254,-218.8095238095238,57.698412698412696,4.523809523809524,62.460317460317455,-325.0,64.36507936507937,-325.0,61.34920634920635,0.5555555555555556,53.888888888888886,-3.4126984126984126,64.52380952380952,-325.0,62.460317460317455,-325.0,48.80952380952381,-325.0,0.5555555555555556,325.0,-228.96825396825395,-3.095238095238095,-7.222222222222221,-166.26984126984127
57.53968253968254,-218.8095238095238,57.698412698412696,4.523809523809524,62.460317460317455,-325.0,64.36507936507937,-325.0,61.34920634920635,0.5555555555555556,53.888888888888886,-3.4126984126984126,64.52380952380952,-325.0,62.460317460317455,-325.0,48.80952380952381,-325.0,0.5555555555555556,325.0,-228.96825396825395,-3.095238095238095,-7.222222222222221,-166.26984126984127
57.53968253968254,-210.07936507936506,56.11111111111111,4.2063492063492065,61.666666666666664,-325.0,64.2063492063492,-325.0,62.14285714285714,0.7142857142857142,51.666666666666664,-2.7777777777777777,64.52380952380952,-325.0,63.095238095238095,-325.0,51.34920634920635,-325.0,-0.23809523809523808,325.0,-218.65079365079364,-2.619047619047619,-6.587301587301587,-166.26984126984127
57.53968253968254,-210.07936507936506,56.11111111111111,4.2063492063492065,61.666666666666664,-325.0,64.2063492063492,-325.0,62.14285714285714,0.7142857142857142,51.666666666666664,-2.7777777777777777,64.52380952380952,-325.0,63.095238095238095,-325.0,51.34920634920635,-325.0,-0.23809523809523808,325.0,-218.65079365079364,-2.619047619047619,-6.587301587301587,-166.26984126984127
43.41269841269841,-209.28571428571428,42.14285714285714,7.222222222222221,48.49206349206349,-325.0,49.76190476190476,-325.0,48.80952380952381,4.2063492063492065,51.507936507936506,0.3968253968253968,52.460317460317455,-325.0,50.079365079365076,-325.0,40.238095238095234,-325.0,2.619047619047619,325.0,-217.53968253968253,0.7142857142857142,1.349206349206349,-166.26984126984127
43.41269841269841,-209.28571428571428,42.14285714285714,7.222222222222221,48.49206349206349,-325.0,49.76190476190476,-325.0,48.80952380952381,4.2063492063492065,51.507936507936506,0.3968253968253968,52.460317460317455,-325.0,50.079365079365076,-325.0,40.238095238095234,-325.0,2.619047619047619,325.0,-217.53968253968253,0.7142857142857142,1.349206349206349,-166.26984126984127
60.55555555555555,-203.7301587301587,58.33333333333333,0.873015873015873,62.460317460317455,-325.0,67.38095238095238,-325.0,64.2063492063492,-2.46031746031746,50.079365079365076,-5.7936507936507935,65.47619047619047,-325.0,65.15873015873015,-325.0,53.095238095238095,-325.0,-3.888888888888889,325.0,-211.98412698412696,-6.428571428571428,-12.777777777777777,-321.8253968253968
60.55555555555555,-203.7301587301587,58.33333333333333,0.873015873015873,62.460317460317455,-325.0,67.38095238095238,-325.0,64.2063492063492,-2.46031746031746,50.079365079365076,-5.7936507936507935,65.47619047619047,-325.0,65.15873015873015,-325.0,53.095238095238095,-325.0,-3.888888888888889,325.0,-211.98412698412696,-6.428571428571428,-12.777777777777777,-321.8253968253968
4.523809523809524,-200.55555555555554,4.365079365079365,8.968253968253968,6.904761904761904,-325.0,7.3809523809523805,-325.0,4.0476190476190474,5.952380952380952,49.285714285714285,3.095238095238095,9.603174603174603,-325.0,4.841269841269841,-325.0,-5.0,-325.0,4.682539682539682,325.0,-208.33333333333331,5.7936507936507935,11.507936507936508,-321.8253968253968
4.523809523809524,-200.55555555555554,4.365079365079365,8.968253968253968,6.904761904761904,-325.0,7.3809523809523805,-325.0,4.0476190476190474,5.952380952380952,49.285714285714285,3.095238095238095,9.603174603174603,-325.0,4.841269841269841,-325.0,-5.0,-325.0,4.682539682539682,325.0,-208.33333333333331,5.7936507936507935,11.507936507936508,-321.8253968253968
-1.6666666666666665,-198.17460317460316,-2.142857142857143,9.444444444444445,0.873015873015873,-325.0,0.873015873015873,-325.0,-1.6666666666666665,6.428571428571428,48.650793650793645,3.888888888888889,3.73015873015873,-325.0,-0.873015873015873,-325.0,-9.761904761904761,-325.0,5.0,325.0,-205.63492063492063,2.619047619047619,5.952380952380952,-321.8253968253968
-1.6666666666666665,-198.17460317460316,-2.142857142857143,9.444444444444445,0.873015873015873,-325.0,0.873015873015873,-325.0,-1.6666666666666665,6.428571428571428,48.650793650793645,3.888888888888889,3.73015873015873,-325.0,-0.873015873015873,-325.0,-9.761904761904761,-325.0,5.0,325.0,-205.63492063492063,2.619047619047619,5.952380952380952,-321.8253968253968
2.7777777777777777,-191.5079365079365,1.349206349206349,9.126984126984127,3.888888888888889,-325.0,8.492063492063492,-325.0,5.634920634920634,5.0,47.06349206349206,1.8253968253968254,8.492063492063492,-325.0,7.857142857142857,-325.0,-1.984126984126984,-325.0,3.571428571428571,325.0,-198.33333333333331,-2.619047619047619,-7.063492063492063,-321.8253968253968
2.7777777777777777,-191.5079365079365,1.349206349206349,9.126984126984127,3.888888888888889,-325.0,8.492063492063492,-325.0,5.634920634920634,5.0,47.06349206349206,1.8253968253968254,8.492063492063492,-325.0,7.857142857142857,-325.0,-1.984126984126984,-325.0,3.571428571428571,325.0,-198.33333333333331,-2.619047619047619,-7.063492063492063,-321.8253968253968
-17.698412698412696,-188.33333333333331,-18.015873015873016,11.507936507936508,-16.587301587301585,-325.0,-15.158730158730158,-325.0,-18.333333333333332,8.015873015873016,46.11111111111111,5.476190476190476,-13.73015873015873,-325.0,-17.539682539682538,-325.0,-26.26984126984127,-325.0,6.26984126984127,325.0,-194.84126984126982,2.9365079365079363,6.26984126984127,-321.8253968253968
-17.698412698412696,-188.33333333333331,-18.015873015873016,11.507936507936508,-16.587301587301585,-325.0,-15.158730158730158,-325.0,-18.333333333333332,8.015873015873016,46.11111111111111,5.476190476190476,-13.73015873015873,-325.0,-17.539682539682538,-325.0,-26.26984126984127,-325.0,6.26984126984127,325.0,-194.84126984126982,2.9365079365079363,6.26984126984127,-321.8253968253968
-9.285714285714285,-186.11111111111111,-10.555555555555555,4.2063492063492065,-9.126984126984127,-325.0,-3.571428571428571,-325.0,-6.904761904761904,-0.07936507936507936,45.476190476190474,-3.095238095238095,-5.0,-325.0,-4.365079365079365,-325.0,-15.317460317460316,-325.0,-2.3015873015873014,325.0,-192.14285714285714,-0.07936507936507936,-3.095238095238095,-166.26984126984127
-9.285714285714285,-186.11111111111111,-10.555555555555555,4.2063492063492065,-9.126984126984127,-325.0,-3.571428571428571,-325.0,-6.904761904761904,-0.07936507936507936,45.476190476190474,-3.095238095238095,-5.0,-325.0,-4.365079365079365,-325.0,-15.317460317460316,-325.0,-2.3015873015873014,325.0,-192.14285714285714,-0.07936507936507936,-3.095238095238095,-166.26984126984127
-40.714285714285715,-183.09523809523807,-41.03174603174603,9.126984126984127,-39.92063492063492,-325.0,-39.76190476190476,-325.0,-42.460317460317455,6.26984126984127,44.84126984126984,4.0476190476190474,-37.38095238095238,-325.0,-41.666666666666664,-325.0,-49.44444444444444,-325.0,3.4126984126984126,325.0,-188.8095238095238,-0.07936507936507936,1.507936507936508,-166.26984126984127
-40.714285714285715,-183.09523809523807,-41.03174603174603,9.126984126984127,-39.92063492063492,-325.0,-39.76190476190476,-325.0,-42.460317460317455,6.26984126984127,44.84126984126984,4.0476190476190474,-37.38095238095238,-325.0,-41.666666666666664,-325.0,-49.44444444444444,-325.0,3.4126984126984126,325.0,-188.8095238095238,-0.07936507936507936,1.507936507936508,-166.26984126984127
-35.476190476190474,-179.9206349206349,-36.269841269841265,11.031746031746032,-35.15873015873016,-325.0,-30.71428571428571,-325.0,-33.25396825396825,7.063492063492063,43.888888888888886,4.2063492063492065,-30.71428571428571,-325.0,-30.238095238095237,-325.0,-40.238095238095234,-325.0,5.158730158730158,325.0,-185.3174603174603,-1.1904761904761905,-2.46031746031746,-166.26984126984127
-35.476190476190474,-179.9206349206349,-36.269841269841265,11.031746031746032,-35.15873015873016,-325.0,-30.71428571428571,-325.0,-33.25396825396825,7.063492063492063,43.888888888888886,4.2063492063492065,-30.71428571428571,-325.0,-30.238095238095237,-325.0,-40.238095238095234,-325.0,5.158730158730158,325.0,-185.3174603174603,-1.1904761904761905,-2.46031746031746,-166.26984126984127
-76.42857142857143,-174.2063492063492,-76.26984126984127,13.412698412698411,-75.79365079365078,-325.0,-75.63492063492063,-325.0,-77.85714285714285,10.396825396825395,42.61904761904761,8.333333333333332,-73.4126984126984,-323.4126984126984,-76.58730158730158,-325.0,-84.36507936507937,-325.0,8.015873015873016,325.0,-178.8095238095238,0.3968253968253968,2.3015873015873014,-166.26984126984127
-76.42857142857143,-174.2063492063492,-76.26984126984127,13.412698412698411,-75.79365079365078,-325.0,-75.63492063492063,-325.0,-77.85714285714285,10.396825396825395,42.61904761904761,8.333333333333332,-73.4126984126984,-323.4126984126984,-76.58730158730158,-325.0,-84.36507936507937,-325.0,8.015873015873016,325.0,-178.8095238095238,0.3968253968253968,2.3015873015873014,-166.26984126984127
-81.66666666666666,-171.19047619047618,-81.66666666666666,9.126984126984127,-81.5079365079365,-325.0,-81.03174603174602,-325.0,-83.25396825396825,5.634920634920634,41.82539682539682,4.0476190476190474,-78.65079365079364,-321.66666666666663,-81.82539682539682,-325.0,-89.12698412698413,-325.0,3.571428571428571,325.0,-175.63492063492063,0.23809523809523808,2.7777777777777777,-166.26984126984127
-81.66666666666666,-171.19047619047618,-81.66666666666666,9.126984126984127,-81.5079365079365,-325.0,-81.03174603174602,-325.0,-83.25396825396825,5.634920634920634,41.82539682539682,4.0476190476190474,-78.65079365079364,-321.66666666666663,-81.82539682539682,-325.0,-89.12698412698413,-325.0,3.571428571428571,325.0,-175.63492063492063,0.23809523809523808,2.7777777777777777,-166.26984126984127
-77.06349206349206,-166.26984126984127,-77.85714285714285,9.285714285714285,-77.6984126984127,-325.0,-75.95238095238095,-325.0,-77.6984126984127,5.634920634920634,40.55555555555555,4.0476190476190474,-73.25396825396825,-312.46031746031747,-75.79365079365078,-325.0,-81.66666666666666,-325.0,2.46031746031746,325.0,-170.23809523809524,-2.46031746031746,-5.476190476190476,-321.8253968253968
-77.06349206349206,-166.26984126984127,-77.85714285714285,9.285714285714285,-77.6984126984127,-325.0,-75.95238095238095,-325.0,-77.6984126984127,5.634920634920634,40.55555555555555,4.0476190476190474,-73.25396825396825,-312.46031746031747,-75.79365079365078,-325.0,-81.66666666666666,-325.0,2.46031746031746,325.0,-170.23809523809524,-2.46031746031746,-5.476190476190476,-321.8253968253968
-84.52380952380952,-163.73015873015873,-85.31746031746032,8.333333333333332,-85.31746031746032,-325.0,-83.73015873015872,-325.0,-85.31746031746032,4.682539682539682,39.76190476190476,3.095238095238095,-81.19047619047619,-307.06349206349205,-83.73015873015872,-325.0,-89.28571428571428,-325.0,1.8253968253968254,325.0,-167.06349206349205,-3.095238095238095,-5.634920634920634,-321.8253968253968
-84.52380952380952,-163.73015873015873,-85.31746031746032,8.333333333333332,-85.31746031746032,-325.0,-83.73015873015872,-325.0,-85.31746031746032,4.682539682539682,39.76190476190476,3.095238095238095,-81.19047619047619,-307.06349206349205,-83.73015873015872,-325.0,-89.28571428571428,-325.0,1.8253968253968254,325.0,-167.06349206349205,-3.095238095238095,-5.634920634920634,-321.8253968253968
-81.66666666666666,-161.66666666666666,-83.25396825396825,6.428571428571428,-82.77777777777777,-325.0,-79.76190476190476,-325.0,-80.87301587301587,2.7777777777777777,39.285714285714285,0.873015873015873,-77.06349206349206,-303.0952380952381,-78.80952380952381,-325.0,-83.57142857142857,-325.0,-0.3968253968253968,325.0,-164.52380952380952,-7.222222222222221,-13.571428571428571,-321.8253968253968
-81.66666666666666,-161.66666666666666,-83.25396825396825,6.428571428571428,-82.77777777777777,-325.0,-79.76190476190476,-325.0,-80.87301587301587,2.7777777777777777,39.285714285714285,0.873015873015873,-77.06349206349206,-303.0952380952381,-78.80952380952381,-325.0,-83.57142857142857,-325.0,-0.3968253968253968,325.0,-164.52380952380952,-7.222222222222221,-13.571428571428571,-321.8253968253968
-90.39682539682539,-156.74603174603175,-92.30158730158729,5.158730158730158,-92.77777777777777,-325.0,-89.12698412698413,-325.0,-90.87301587301587,1.0317460317460316,38.01587301587301,-0.3968253968253968,-88.01587301587301,-294.04761904761904,-88.65079365079364,-325.0,-94.84126984126983,-325.0,-1.8253968253968254,325.0,-159.76190476190476,-3.888888888888889,-8.333333333333332,-321.8253968253968
-90.39682539682539,-156.74603174603175,-92.30158730158729,5.158730158730158,-92.77777777777777,-325.0,-89.12698412698413,-325.0,-90.87301587301587,1.0317460317460316,38.01587301587301,-0.3968253968253968,-88.01587301587301,-294.04761904761904,-88.65079365079364,-325.0,-94.84126984126983,-325.0,-1.8253968253968254,325.0,-159.76190476190476,-3.888888888888889,-8.333333333333332,-321.8253968253968
-110.87301587301587,-154.84126984126982,-111.19047619047619,6.26984126984127,-112.14285714285714,-325.0,-111.98412698412697,-325.0,-113.25396825396825,3.73015873015873,37.698412698412696,2.46031746031746,-108.96825396825396,-290.7142857142857,-112.30158730158729,-325.0,-116.74603174603173,-325.0,0.07936507936507936,325.0,-157.69841269841268,1.1904761904761905,4.2063492063492065,-321.8253968253968
-110.87301587301587,-154.84126984126982,-111.19047619047619,6.26984126984127,-112.14285714285714,-325.0,-111.98412698412697,-325.0,-113.25396825396825,3.73015873015873,37.698412698412696,2.46031746031746,-108.96825396825396,-290.7142857142857,-112.30158730158729,-325.0,-116.74603174603173,-325.0,0.07936507936507936,325.0,-157.69841269841268,1.1904761904761905,4.2063492063492065,-321.8253968253968
-102.30158730158729,-152.93650793650792,-104.04761904761904,5.0,-104.52380952380952,-325.0,-102.77777777777777,-325.0,-104.04761904761904,1.6666666666666665,37.22222222222222,0.7142857142857142,-100.07936507936508,-286.90476190476187,-102.77777777777777,-325.0,-106.74603174603175,-325.0,-1.6666666666666665,325.0,-155.63492063492063,-1.8253968253968254,-4.0476190476190474,-166.26984126984127
-102.30158730158729,-152.93650793650792,-104.04761904761904,5.0,-104.52380952380952,-325.0,-102.77777777777777,-325.0,-104.04761904761904,1.6666666666666665,37.22222222222222,0.7142857142857142,-100.07936507936508,-286.90476190476187,-102.77777777777777,-325.0,-106.74603174603175,-325.0,-1.6666666666666665,325.0,-155.63492063492063,-1.8253968253968254,-4.0476190476190474,-166.26984126984127
-112.46031746031746,-149.76190476190476,-113.4126984126984,3.4126984126984126,-114.36507936507935,-325.0,-113.73015873015872,-323.57142857142856,-114.52380952380952,0.3968253968253968,36.42857142857142,-0.873015873015873,-109.92063492063491,-280.39682539682536,-113.4126984126984,-325.0,-116.42857142857142,-325.0,-3.095238095238095,325.0,-151.984126984127,3.4126984126984126,5.0,-166.26984126984127
-112.46031746031746,-149.76190476190476,-113.4126984126984,3.4126984126984126,-114.36507936507935,-325.0,-113.73015873015872,-323.57142857142856,-114.52380952380952,0.3968253968253968,36.42857142857142,-0.873015873015873,-109.92063492063491,-280.39682539682536,-113.4126984126984,-325.0,-116.42857142857142,-325.0,-3.095238095238095,325.0,-151.984126984127,3.4126984126984126,5.0,-166.26984126984127
-99.76190476190476,-147.85714285714286,-102.14285714285714,0.7142857142857142,-102.77777777777777,-325.0,-100.55555555555554,-319.76190476190476,-101.19047619047619,-2.619047619047619,35.79365079365079,-3.73015873015873,-97.53968253968253,-276.74603174603175,-99.92063492063491,-325.0,-102.77777777777777,-325.0,-6.26984126984127,325.0,-150.07936507936506,-1.1904761904761905,-3.095238095238095,-166.26984126984127
-99.76190476190476,-147.85714285714286,-102.14285714285714,0.7142857142857142,-102.77777777777777,-325.0,-100.55555555555554,-319.76190476190476,-101.19047619047619,-2.619047619047619,35.79365079365079,-3.73015873015873,-97.53968253968253,-276.74603174603175,-99.92063492063491,-325.0,-102.77777777777777,-325.0,-6.26984126984127,325.0,-150.07936507936506,-1.1904761904761905,-3.095238095238095,-166.26984126984127
-87.06349206349206,-145.79365079365078,-90.87301587301587,-1.8253968253968254,-91.03174603174602,-325.0,-87.38095238095238,-315.95238095238096,-87.85714285714285,-5.634920634920634,35.15873015873016,-6.428571428571428,-85.15873015873015,-273.0952380952381,-86.42857142857143,-325.0,-89.12698412698413,-325.0,-9.285714285714285,325.0,-148.015873015873,-5.7936507936507935,-11.19047619047619,-166.26984126984127
-87.06349206349206,-145.79365079365078,-90.87301587301587,-1.8253968253968254,-91.03174603174602,-325.0,-87.38095238095238,-315.95238095238096,-87.85714285714285,-5.634920634920634,35.15873015873016,-6.428571428571428,-85.15873015873015,-273.0952380952381,-86.42857142857143,-325.0,-89.12698412698413,-325.0,-9.285714285714285,325.0,-148.015873015873,-5.7936507936507935,-11.19047619047619,-166.26984126984127
-121.98412698412697,-140.55555555555554,-124.52380952380952,8.333333333333332,-125.0,-325.0,-123.57142857142857,-304.68253968253964,-123.4126984126984,5.634920634920634,34.047619047619044,5.0,-120.71428571428571,-262.9365079365079,-123.4126984126984,-320.07936507936506,-124.68253968253967,-325.0,1.8253968253968254,325.0,-142.14285714285714,-1.349206349206349,-2.7777777777777777,-166.26984126984127
-121.98412698412697,-140.55555555555554,-124.52380952380952,8.333333333333332,-125.0,-325.0,-123.57142857142857,-304.68253968253964,-123.4126984126984,5.634920634920634,34.047619047619044,5.0,-120.71428571428571,-262.9365079365079,-123.4126984126984,-320.07936507936506,-124.68253968253967,-325.0,1.8253968253968254,325.0,-142.14285714285714,-1.349206349206349,-2.7777777777777777,-166.26984126984127
-136.26984126984127,-138.8095238095238,-137.38095238095238,12.619047619047619,-139.44444444444443,-325.0,-137.69841269841268,-301.19047619047615,-138.33333333333331,9.285714285714285,33.73015873015873,8.809523809523808,-137.53968253968253,-259.6031746031746,-138.015873015873,-316.4285714285714,-142.14285714285714,-325.0,6.111111111111111,325.0,-140.3968253968254,0.3968253968253968,-0.23809523809523808,-321.8253968253968
-136.26984126984127,-138.8095238095238,-137.38095238095238,12.619047619047619,-139.44444444444443,-325.0,-137.69841269841268,-301.19047619047615,-138.33333333333331,9.285714285714285,33.73015873015873,8.809523809523808,-137.53968253968253,-259.6031746031746,-138.015873015873,-316.4285714285714,-142.14285714285714,-325.0,6.111111111111111,325.0,-140.3968253968254,0.3968253968253968,-0.23809523809523808,-321.8253968253968
-120.87301587301586,-136.58730158730157,-124.68253968253967,7.857142857142857,-124.68253968253967,-325.0,-121.66666666666666,-296.26984126984127,-121.03174603174602,5.0,33.25396825396825,4.2063492063492065,-121.19047619047619,-255.0,-120.87301587301586,-310.87301587301585,-122.77777777777777,-325.0,1.0317460317460316,325.0,-137.53968253968253,-5.952380952380952,-11.031746031746032,-321.8253968253968
-120.87301587301586,-136.58730158730157,-124.68253968253967,7.857142857142857,-124.68253968253967,-325.0,-121.66666666666666,-296.26984126984127,-121.03174603174602,5.0,33.25396825396825,4.2063492063492065,-121.19047619047619,-255.0,-120.87301587301586,-310.87301587301585,-122.77777777777777,-325.0,1.0317460317460316,325.0,-137.53968253968253,-5.952380952380952,-11.031746031746032,-321.8253968253968
-120.87301587301586,-136.58730158730157,-124.68253968253967,7.857142857142857,-124.68253968253967,-325.0,-121.66666666666666,-296.26984126984127,-121.03174603174602,5.0,33.25396825396825,4.2063492063492065,-121.19047619047619,-255.0,-120.87301587301586,-310.87301587301585,-122.77777777777777,-325.0,1.0317460317460316,325.0,-137.53968253968253,-5.952380952380952,-11.031746031746032,-321.8253968253968
-120.87301587301586,-136.58730158730157,-124.68253968253967,7.857142857142857,-124.68253968253967,-325.0,-121.66666666666666,-296.26984126984127,-121.03174603174602,5.0,33.25396825396825,4.2063492063492065,-121.19047619047619,-255.0,-120.87301587301586,-310.87301587301585,-122.77777777777777,-325.0,1.0317460317460316,325.0,-137.53968253968253,-5.952380952380952,-11.031746031746032,-321.8253968253968
-139.6031746031746,-131.5079365079365,-141.5079365079365,10.396825396825395,-142.14285714285714,-324.36507936507934,-141.8253968253968,-285.7936507936508,-140.7142857142857,7.698412698412698,31.825396825396822,7.3809523809523805,-138.8095238095238,-245.3174603174603,-140.87301587301587,-299.76190476190476,-141.03174603174602,-318.3333333333333,3.095238095238095,325.0,-132.14285714285714,-1.8253968253968254,-2.3015873015873014,-321.8253968253968
-139.6031746031746,-131.5079365079365,-141.5079365079365,10.396825396825395,-142.14285714285714,-324.36507936507934,-141.8253968253968,-285.7936507936508,-140.7142857142857,7.698412698412698,31.825396825396822,7.3809523809523805,-138.8095238095238,-245.3174603174603,-140.87301587301587,-299.76190476190476,-141.03174603174602,-318.3333333333333,3.095238095238095,325.0,-132.14285714285714,-1.8253968253968254,-2.3015873015873014,-321.8253968253968
-146.11111111111111,-129.9206349206349,-146.74603174603175,12.3015873015873,-148.96825396825395,-321.19047619047615,-148.015873015873,-282.3015873015873,-147.85714285714286,9.761904761904761,31.349206349206348,8.968253968253968,-147.69841269841268,-242.3015873015873,-148.015873015873,-295.95238095238096,-150.7142857142857,-314.5238095238095,5.0,325.0,-130.3968253968254,-0.3968253968253968,-0.3968253968253968,-321.8253968253968
-146.11111111111111,-129.9206349206349,-146.74603174603175,12.3015873015873,-148.96825396825395,-321.19047619047615,-148.015873015873,-282.3015873015873,-147.85714285714286,9.761904761904761,31.349206349206348,8.968253968253968,-147.69841269841268,-242.3015873015873,-148.015873015873,-295.95238095238096,-150.7142857142857,-314.5238095238095,5.0,325.0,-130.3968253968254,-0.3968253968253968,-0.3968253968253968,-321.8253968253968
-145.15873015873015,-128.8095238095238,-145.3174603174603,11.031746031746032,-148.65079365079364,-318.4920634920635,-145.47619047619048,-280.07936507936506,-146.11111111111111,8.174603174603174,31.19047619047619,7.063492063492063,-150.07936507936506,-240.2380952380952,-145.79365079365078,-293.4126984126984,-152.61904761904762,-311.984126984127,4.2063492063492065,325.0,-129.12698412698413,-3.095238095238095,-7.222222222222221,-166.26984126984127
-145.15873015873015,-128.8095238095238,-145.3174603174603,11.031746031746032,-148.65079365079364,-318.4920634920635,-145.47619047619048,-280.07936507936506,-146.11111111111111,8.174603174603174,31.19047619047619,7.063492063492063,-150.07936507936506,-240.2380952380952,-145.79365079365078,-293.4126984126984,-152.61904761904762,-311.984126984127,4.2063492063492065,325.0,-129.12698412698413,-3.095238095238095,-7.222222222222221,-166.26984126984127
-156.58730158730157,-126.74603174603173,-156.9047619047619,14.84126984126984,-160.3968253968254,-313.4126984126984,-157.2222222222222,-275.6349206349206,-158.015873015873,11.825396825396824,30.555555555555554,10.714285714285714,-161.8253968253968,-236.26984126984127,-157.69841269841268,-288.6507936507936,-163.88888888888889,-307.06349206349205,7.698412698412698,325.0,-126.9047619047619,-2.9365079365079363,-7.5396825396825395,-166.26984126984127
-156.58730158730157,-126.74603174603173,-156.9047619047619,14.84126984126984,-160.3968253968254,-313.4126984126984,-157.2222222222222,-275.6349206349206,-158.015873015873,11.825396825396824,30.555555555555554,10.714285714285714,-161.8253968253968,-236.26984126984127,-157.69841269841268,-288.6507936507936,-163.88888888888889,-307.06349206349205,7.698412698412698,325.0,-126.9047619047619,-2.9365079365079363,-7.5396825396825395,-166.26984126984127
-159.44444444444443,-122.93650793650794,-161.34920634920633,17.063492063492063,-162.77777777777777,-304.5238095238095,-162.61904761904762,-268.17460317460313,-160.87301587301587,14.365079365079364,29.6031746031746,13.888888888888888,-159.76190476190476,-229.12698412698413,-161.66666666666666,-280.55555555555554,-160.23809523809524,-298.6507936507936,9.285714285714285,325.0,-123.09523809523809,-1.1904761904761905,-2.619047619047619,-166.26984126984127
-159.44444444444443,-122.93650793650794,-161.34920634920633,17.063492063492063,-162.77777777777777,-304.5238095238095,-162.61904761904762,-268.17460317460313,-160.87301587301587,14.365079365079364,29.6031746031746,13.888888888888888,-159.76190476190476,-229.12698412698413,-161.66666666666666,-280.55555555555554,-160.23809523809524,-298.6507936507936,9.285714285714285,325.0,-123.09523809523809,-1.1904761904761905,-2.619047619047619,-166.26984126984127
-158.33333333333331,-120.39682539682539,-160.23809523809524,14.523809523809524,-161.984126984127,-298.4920634920635,-163.25396825396825,-262.9365079365079,-161.66666666666666,11.507936507936508,28.96825396825397,11.19047619047619,-158.17460317460316,-224.2063492063492,-162.61904761904762,-275.0,-159.28571428571428,-292.77777777777777,6.587301587301587,325.0,-120.23809523809523,3.4126984126984126,6.746031746031746,-166.26984126984127
-158.33333333333331,-120.39682539682539,-160.23809523809524,14.523809523809524,-161.984126984127,-298.4920634920635,-163.25396825396825,-262.9365079365079,-161.66666666666666,11.507936507936508,28.96825396825397,11.19047619047619,-158.17460317460316,-224.2063492063492,-162.61904761904762,-275.0,-159.28571428571428,-292.77777777777777,6.587301587301587,325.0,-120.23809523809523,3.4126984126984126,6.746031746031746,-166.26984126984127
-154.04761904761904,-118.33333333333333,-156.11111111111111,11.031746031746032,-158.015873015873,-293.57142857142856,-159.28571428571428,-258.4920634920635,-157.69841269841268,8.174603174603174,28.49206349206349,8.174603174603174,-154.36507936507937,-220.2380952380952,-158.8095238095238,-270.55555555555554,-155.0,-288.17460317460313,3.4126984126984126,325.0,-118.01587301587301,4.0476190476190474,6.746031746031746,-166.26984126984127
-154.04761904761904,-118.33333333333333,-156.11111111111111,11.031746031746032,-158.015873015873,-293.57142857142856,-159.28571428571428,-258.4920634920635,-157.69841269841268,8.174603174603174,28.49206349206349,8.174603174603174,-154.36507936507937,-220.2380952380952,-158.8095238095238,-270.55555555555554,-155.0,-288.17460317460313,3.4126984126984126,325.0,-118.01587301587301,4.0476190476190474,6.746031746031746,-166.26984126984127
-158.015873015873,-116.42857142857142,-160.23809523809524,11.349206349206348,-162.14285714285714,-288.968253968254,-163.57142857142856,-254.36507936507934,-161.66666666666666,8.809523809523808,28.015873015873016,8.809523809523808,-158.4920634920635,-216.58730158730157,-162.93650793650792,-266.1111111111111,-158.65079365079364,-283.57142857142856,4.2063492063492065,325.0,-116.1111111111111,3.888888888888889,7.222222222222221,-321.8253968253968
-158.015873015873,-116.42857142857142,-160.23809523809524,11.349206349206348,-162.14285714285714,-288.968253968254,-163.57142857142856,-254.36507936507934,-161.66666666666666,8.809523809523808,28.015873015873016,8.809523809523808,-158.4920634920635,-216.58730158730157,-162.93650793650792,-266.1111111111111,-158.65079365079364,-283.57142857142856,4.2063492063492065,325.0,-116.1111111111111,3.888888888888889,7.222222222222221,-321.8253968253968
-172.61904761904762,-113.57142857142857,-173.4126984126984,8.015873015873016,-178.33333333333331,-281.984126984127,-178.65079365079364,-248.33333333333331,-178.8095238095238,4.2063492063492065,27.38095238095238,3.73015873015873,-178.33333333333331,-210.87301587301587,-179.28571428571428,-259.2857142857143,-179.60317460317458,-276.74603174603175,1.8253968253968254,325.0,-112.93650793650794,4.0476190476190474,10.873015873015872,-321.8253968253968
-172.61904761904762,-113.57142857142857,-173.4126984126984,8.015873015873016,-178.33333333333331,-281.984126984127,-178.65079365079364,-248.33333333333331,-178.8095238095238,4.2063492063492065,27.38095238095238,3.73015873015873,-178.33333333333331,-210.87301587301587,-179.28571428571428,-259.2857142857143,-179.60317460317458,-276.74603174603175,1.8253968253968254,325.0,-112.93650793650794,4.0476190476190474,10.873015873015872,-321.8253968253968
-167.06349206349205,-112.14285714285714,-168.8095238095238,8.492063492063492,-172.46031746031744,-278.4920634920635,-173.57142857142856,-245.3174603174603,-172.46031746031744,5.476190476190476,26.9047619047619,4.841269841269841,-170.87301587301587,-208.17460317460316,-173.4126984126984,-255.95238095238093,-170.55555555555554,-273.4126984126984,2.46031746031746,325.0,-111.34920634920634,3.571428571428571,9.603174603174603,-321.8253968253968
-167.06349206349205,-112.14285714285714,-168.8095238095238,8.492063492063492,-172.46031746031744,-278.4920634920635,-173.57142857142856,-245.3174603174603,-172.46031746031744,5.476190476190476,26.9047619047619,4.841269841269841,-170.87301587301587,-208.17460317460316,-173.4126984126984,-255.95238095238093,-170.55555555555554,-273.4126984126984,2.46031746031746,325.0,-111.34920634920634,3.571428571428571,9.603174603174603,-321.8253968253968
-172.61904761904762,-109.44444444444444,-174.52380952380952,11.507936507936508,-179.44444444444443,-271.8253968253968,-178.8095238095238,-239.60317460317458,-178.65079365079364,8.015873015873016,26.26984126984127,7.5396825396825395,-181.03174603174602,-202.93650793650792,-179.60317460317458,-249.76190476190476,-180.07936507936506,-266.90476190476187,5.317460317460317,325.0,-108.65079365079364,0.23809523809523808,-0.07936507936507936,-321.8253968253968
-172.61904761904762,-109.44444444444444,-174.52380952380952,11.507936507936508,-179.44444444444443,-271.8253968253968,-178.8095238095238,-239.60317460317458,-178.65079365079364,8.015873015873016,26.26984126984127,7.5396825396825395,-181.03174603174602,-202.93650793650792,-179.60317460317458,-249.76190476190476,-180.07936507936506,-266.90476190476187,5.317460317460317,325.0,-108.65079365079364,0.23809523809523808,-0.07936507936507936,-321.8253968253968
-167.85714285714286,-107.53968253968253,-171.66666666666666,13.253968253968253,-173.4126984126984,-267.22222222222223,-174.68253968253967,-235.47619047619045,-171.984126984127,11.031746031746032,25.79365079365079,11.349206349206348,-172.14285714285714,-199.44444444444443,-173.73015873015873,-245.63492063492063,-168.8095238095238,-262.6190476190476,7.857142857142857,325.0,-106.42857142857142,-0.7142857142857142,-2.3015873015873014,-321.8253968253968
-167.85714285714286,-107.53968253968253,-171.66666666666666,13.253968253968253,-173.4126984126984,-267.22222222222223,-174.68253968253967,-235.47619047619045,-171.984126984127,11.031746031746032,25.79365079365079,11.349206349206348,-172.14285714285714,-199.44444444444443,-173.73015873015873,-245.63492063492063,-168.8095238095238,-262.6190476190476,7.857142857142857,325.0,-106.42857142857142,-0.7142857142857142,-2.3015873015873014,-321.8253968253968
-165.79365079365078,-106.26984126984127,-169.12698412698413,12.3015873015873,-172.61904761904762,-263.88888888888886,-172.77777777777777,-232.93650793650792,-171.03174603174602,9.285714285714285,25.476190476190474,9.285714285714285,-172.77777777777777,-196.9047619047619,-172.61904761904762,-242.6190476190476,-169.76190476190476,-259.44444444444446,6.428571428571428,325.0,-105.0,-0.23809523809523808,-1.349206349206349,-166.26984126984127
-165.79365079365078,-106.26984126984127,-169.12698412698413,12.3015873015873,-172.61904761904762,-263.88888888888886,-172.77777777777777,-232.93650793650792,-171.03174603174602,9.285714285714285,25.476190476190474,9.285714285714285,-172.77777777777777,-196.9047619047619,-172.61904761904762,-242.6190476190476,-169.76190476190476,-259.44444444444446,6.428571428571428,325.0,-105.0,-0.23809523809523808,-1.349206349206349,-166.26984126984127
-150.23809523809524,-104.36507936507935,-155.0,5.317460317460317,-156.9047619047619,-259.6031746031746,-156.74603174603175,-228.8095238095238,-153.73015873015873,3.571428571428571,25.158730158730158,3.571428571428571,-156.74603174603175,-193.57142857142856,-155.79365079365078,-238.65079365079364,-151.5079365079365,-255.15873015873015,-0.3968253968253968,325.0,-103.09523809523809,-4.682539682539682,-10.079365079365079,-166.26984126984127
-150.23809523809524,-104.36507936507935,-155.0,5.317460317460317,-156.9047619047619,-259.6031746031746,-156.74603174603175,-228.8095238095238,-153.73015873015873,3.571428571428571,25.158730158730158,3.571428571428571,-156.74603174603175,-193.57142857142856,-155.79365079365078,-238.65079365079364,-151.5079365079365,-255.15873015873015,-0.3968253968253968,325.0,-103.09523809523809,-4.682539682539682,-10.079365079365079,-166.26984126984127
-171.34920634920633,-103.09523809523809,-175.0,11.19047619047619,-178.33333333333331,-256.58730158730157,-178.015873015873,-226.26984126984127,-175.79365079365078,8.65079365079365,24.68253968253968,8.809523809523808,-180.55555555555554,-191.19047619047618,-177.53968253968253,-235.79365079365078,-175.79365079365078,-252.3015873015873,4.682539682539682,325.0,-101.82539682539682,-5.0,-9.920634920634921,-166.26984126984127
-171.34920634920633,-103.09523809523809,-175.0,11.19047619047619,-178.33333333333331,-256.58730158730157,-178.015873015873,-226.26984126984127,-175.79365079365078,8.65079365079365,24.68253968253968,8.809523809523808,-180.55555555555554,-191.19047619047618,-177.53968253968253,-235.79365079365078,-175.79365079365078,-252.3015873015873,4.682539682539682,325.0,-101.82539682539682,-5.0,-9.920634920634921,-166.26984126984127
-162.77777777777777,-100.07936507936508,-166.74603174603175,9.920634920634921,-169.28571428571428,-249.44444444444443,-171.34920634920633,-219.76190476190476,-167.85714285714286,7.698412698412698,24.047619047619047,7.857142857142857,-166.58730158730157,-185.63492063492063,-170.55555555555554,-228.8095238095238,-161.984126984127,-245.3174603174603,1.507936507936508,325.0,-98.65079365079364,4.0476190476190474,8.968253968253968,-166.26984126984127
-162.77777777777777,-100.07936507936508,-166.74603174603175,9.920634920634921,-169.28571428571428,-249.44444444444443,-171.34920634920633,-219.76190476190476,-167.85714285714286,7.698412698412698,24.047619047619047,7.857142857142857,-166.58730158730157,-185.63492063492063,-170.55555555555554,-228.8095238095238,-161.984126984127,-245.3174603174603,1.507936507936508,325.0,-98.65079365079364,4.0476190476190474,8.968253968253968,-166.26984126984127
-162.77777777777777,-100.07936507936508,-166.74603174603175,9.920634920634921,-169.28571428571428,-249.44444444444443,-171.34920634920633,-219.76190476190476,-167.85714285714286,7.698412698412698,24.047619047619047,7.857142857142857,-166.58730158730157,-185.63492063492063,-170.55555555555554,-228.8095238095238,-161.984126984127,-245.3174603174603,1.507936507936508,325.0,-98.65079365079364,4.0476190476190474,8.968253968253968,-166.26984126984127
-162.77777777777777,-100.07936507936508,-166.74603174603175,9.920634920634921,-169.28571428571428,-249.44444444444443,-171.34920634920633,-219.76190476190476,-167.85714285714286,7.698412698412698,24.047619047619047,7.857142857142857,-166.58730158730157,-185.63492063492063,-170.55555555555554,-228.8095238095238,-161.984126984127,-245.3174603174603,1.507936507936508,325.0,-98.65079365079364,4.0476190476190474,8.968253968253968,-166.26984126984127
-162.77777777777777,-100.07936507936508,-166.74603174603175,9.920634920634921,-169.28571428571428,-249.44444444444443,-171.34920634920633,-219.76190476190476,-167.85714285714286,7.698412698412698,24.047619047619047,7.857142857142857,-166.58730158730157,-185.63492063492063,-170.55555555555554,-228.8095238095238,-161.984126984127,-245.3174603174603,1.507936507936508,325.0,-98.65079365079364,4.0476190476190474,8.968253968253968,-321.8253968253968
-162.77777777777777,-100.07936507936508,-166.74603174603175,9.920634920634921,-169.28571428571428,-249.44444444444443,-171.34920634920633,-219.76190476190476,-167.85714285714286,7.698412698412698,24.047619047619047,7.857142857142857,-166.58730158730157,-185.63492063492063,-170.55555555555554,-228.8095238095238,-161.984126984127,-245.3174603174603,1.507936507936508,325.0,-98.65079365079364,4.0476190476190474,8.968253968253968,-321.8253968253968
-162.77777777777777,-100.07936507936508,-166.74603174603175,9.920634920634921,-169.28571428571428,-249.44444444444443,-171.34920634920633,-219.76190476190476,-167.85714285714286,7.698412698412698,24.047619047619047,7.857142857142857,-166.58730158730157,-185.63492063492063,-170.55555555555554,-228.8095238095238,-161.984126984127,-245.3174603174603,1.507936507936508,325.0,-98.65079365079364,4.0476190476190474,8.968253968253968,-321.8253968253968
-162.77777777777777,-100.07936507936508,-166.74603174603175,9.920634920634921,-169.28571428571428,-249.44444444444443,-171.34920634920633,-219.76190476190476,-167.85714285714286,7.698412698412698,24.047619047619047,7.857142857142857,-166.58730158730157,-185.63492063492063,-170.55555555555554,-228.8095238095238,-161.984126984127,-245.3174603174603,1.507936507936508,325.0,-98.65079365079364,4.0476190476190474,8.968253968253968,-321.8253968253968
-162.77777777777777,-100.07936507936508,-166.74603174603175,9.920634920634921,-169.28571428571428,-249.44444444444443,-171.34920634920633,-219.76190476190476,-167.85714285714286,7.698412698412698,24.047619047619047,7.857142857142857,-166.58730158730157,-185.63492063492063,-170.55555555555554,-228.8095238095238,-161.984126984127,-245.3174603174603,1.507936507936508,325.0,-98.65079365079364,4.0476190476190474,8.968253968253968,-321.8253968253968
-162.77777777777777,-100.07936507936508,-166.74603174603175,9.920634920634921,-169.28571428571428,-249.44444444444443,-171.34920634920633,-219.76190476190476,-167.85714285714286,7.698412698412698,24.047619047619047,7.857142857142857,-166.58730158730157,-185.63492063492063,-170.55555555555554,-228.8095238095238,-161.984126984127,-245.3174603174603,1.507936507936508,325.0,-98.65079365079364,4.0476190476190474,8.968253968253968,-321.8253968253968
-179.44444444444443,-91.66666666666666,-183.09523809523807,17.698412698412696,-187.53968253968253,-228.8095238095238,-187.85714285714283,-201.98412698412696,-184.84126984126982,15.0,21.984126984126984,15.634920634920634,-190.3968253968254,-169.44444444444443,-187.38095238095238,-209.60317460317458,-182.77777777777777,-225.47619047619045,10.555555555555555,325.0,-89.6031746031746,-4.682539682539682,-10.079365079365079,-321.8253968253968
-179.44444444444443,-91.66666666666666,-183.09523809523807,17.698412698412696,-187.53968253968253,-228.8095238095238,-187.85714285714283,-201.98412698412696,-184.84126984126982,15.0,21.984126984126984,15.634920634920634,-190.3968253968254,-169.44444444444443,-187.38095238095238,-209.60317460317458,-182.77777777777777,-225.47619047619045,10.555555555555555,325.0,-89.6031746031746,-4.682539682539682,-10.079365079365079,-321.8253968253968
-174.84126984126982,-90.39682539682539,-178.015873015873,12.777777777777777,-182.14285714285714,-226.26984126984127,-185.63492063492063,-199.60317460317458,-181.8253968253968,10.079365079365079,21.666666666666664,10.714285714285714,-180.55555555555554,-167.06349206349205,-184.84126984126982,-207.2222222222222,-174.04761904761904,-222.77777777777777,5.317460317460317,325.0,-88.80952380952381,4.841269841269841,10.555555555555555,-321.8253968253968
-174.84126984126982,-90.39682539682539,-178.015873015873,12.777777777777777,-182.14285714285714,-226.26984126984127,-185.63492063492063,-199.60317460317458,-181.8253968253968,10.079365079365079,21.666666666666664,10.714285714285714,-180.55555555555554,-167.06349206349205,-184.84126984126982,-207.2222222222222,-174.04761904761904,-222.77777777777777,5.317460317460317,325.0,-88.80952380952381,4.841269841269841,10.555555555555555,-321.8253968253968
-174.84126984126982,-90.39682539682539,-178.015873015873,12.777777777777777,-182.14285714285714,-226.26984126984127,-185.63492063492063,-199.60317460317458,-181.8253968253968,10.079365079365079,21.666666666666664,10.714285714285714,-180.55555555555554,-167.06349206349205,-184.84126984126982,-207.2222222222222,-174.04761904761904,-222.77777777777777,5.317460317460317,325.0,-88.80952380952381,4.841269841269841,10.555555555555555,-166.26984126984127
-174.84126984126982,-90.39682539682539,-178.015873015873,12.777777777777777,-182.14285714285714,-226.26984126984127,-185.63492063492063,-199.60317460317458,-181.8253968253968,10.079365079365079,21.666666666666664,10.714285714285714,-180.55555555555554,-167.06349206349205,-184.84126984126982,-207.2222222222222,-174.04761904761904,-222.77777777777777,5.317460317460317,325.0,-88.80952380952381,4.841269841269841,10.555555555555555,-166.26984126984127
-174.84126984126982,-90.39682539682539,-178.015873015873,12.777777777777777,-182.14285714285714,-226.26984126984127,-185.63492063492063,-199.60317460317458,-181.8253968253968,10.079365079365079,21.666666666666664,10.714285714285714,-180.55555555555554,-167.06349206349205,-184.84126984126982,-207.2222222222222,-174.04761904761904,-222.77777777777777,5.317460317460317,325.0,-88.80952380952381,4.841269841269841,10.555555555555555,-166.26984126984127
-174.84126984126982,-90.39682539682539,-178.015873015873,12.777777777777777,-182.14285714285714,-226.26984126984127,-185.63492063492063,-199.60317460317458,-181.8253968253968,10.079365079365079,21.666666666666664,10.714285714285714,-180.55555555555554,-167.06349206349205,-184.84126984126982,-207.2222222222222,-174.04761904761904,-222.77777777777777,5.317460317460317,325.0,-88.80952380952381,4.841269841269841,10.555555555555555,-166.26984126984127
-174.84126984126982,-90.39682539682539,-178.015873015873,12.777777777777777,-182.14285714285714,-226.26984126984127,-185.63492063492063,-199.60317460317458,-181.8253968253968,10.079365079365079,21.666666666666664,10.714285714285714,-180.55555555555554,-167.06349206349205,-184.84126984126982,-207.2222222222222,-174.04761904761904,-222.77777777777777,5.317460317460317,325.0,-88.80952380952381,4.841269841269841,10.555555555555555,-166.26984126984127
-174.84126984126982,-90.39682539682539,-178.015873015873,12.777777777777777,-182.14285714285714,-226.26984126984127,-185.63492063492063,-199.60317460317458,-181.8253968253968,10.079365079365079,21.666666666666664,10.714285714285714,-180.55555555555554,-167.06349206349205,-184.84126984126982,-207.2222222222222,-174.04761904761904,-222.77777777777777,5.317460317460317,325.0,-88.80952380952381,4.841269841269841,10.555555555555555,-166.26984126984127
-170.87301587301587,-85.0,-173.57142857142856,8.968253968253968,-178.015873015873,-211.19047619047618,-181.984126984127,-187.06349206349205,-177.69841269841268,6.587301587301587,17.857142857142858,7.3809523809523805,-177.06349206349205,-155.95238095238093,-181.19047619047618,-193.88888888888889,-169.44444444444443,-208.8095238095238,1.8253968253968254,325.0,-82.3015873015873,5.0,11.031746031746032,-166.26984126984127
-170.87301587301587,-85.0,-173.57142857142856,8.968253968253968,-178.015873015873,-211.19047619047618,-181.984126984127,-187.06349206349205,-177.69841269841268,6.587301587301587,17.857142857142858,7.3809523809523805,-177.06349206349205,-155.95238095238093,-181.19047619047618,-193.88888888888889,-169.44444444444443,-208.8095238095238,1.8253968253968254,325.0,-82.3015873015873,5.0,11.031746031746032,-166.26984126984127
-170.87301587301587,-85.0,-173.57142857142856,8.968253968253968,-178.015873015873,-211.19047619047618,-181.984126984127,-187.06349206349205,-177.69841269841268,6.587301587301587,17.857142857142858,7.3809523809523805,-177.06349206349205,-155.95238095238093,-181.19047619047618,-193.88888888888889,-169.44444444444443,-208.8095238095238,1.8253968253968254,325.0,-82.3015873015873,5.0,11.031746031746032,-166.26984126984127
-170.87301587301587,-85.0,-173.57142857142856,8.968253968253968,-178.015873015873,-211.19047619047618,-181.984126984127,-187.06349206349205,-177.69841269841268,6.587301587301587,17.857142857142858,7.3809523809523805,-177.06349206349205,-155.95238095238093,-181.19047619047618,-193.88888888888889,-169.44444444444443,-208.8095238095238,1.8253968253968254,325.0,-82.3015873015873,5.0,11.031746031746032,-166.26984126984127
-165.47619047619045,-82.46031746031746,-168.8095238095238,8.968253968253968,-172.77777777777777,-205.47619047619045,-175.79365079365078,-181.984126984127,-171.03174603174602,7.063492063492063,1.507936507936508,7.857142857142857,-173.57142857142856,-151.34920634920633,-174.84126984126982,-188.33333333333331,-164.2063492063492,-203.09523809523807,2.142857142857143,319.1269841269841,-79.76190476190476,1.1904761904761905,1.8253968253968254,-321.8253968253968
-165.47619047619045,-82.46031746031746,-168.8095238095238,8.968253968253968,-172.77777777777777,-205.47619047619045,-175.79365079365078,-181.984126984127,-171.03174603174602,7.063492063492063,1.507936507936508,7.857142857142857,-173.57142857142856,-151.34920634920633,-174.84126984126982,-188.33333333333331,-164.2063492063492,-203.09523809523807,2.142857142857143,319.1269841269841,-79.76190476190476,1.1904761904761905,1.8253968253968254,-321.8253968253968
-172.61904761904762,-79.12698412698413,-174.84126984126982,14.84126984126984,-179.12698412698413,-198.015873015873,-183.57142857142856,-175.47619047619045,-178.8095238095238,11.984126984126984,-18.80952380952381,13.253968253968253,-178.4920634920635,-145.47619047619048,-182.46031746031744,-181.66666666666666,-169.28571428571428,-195.79365079365078,7.698412698412698,310.87301587301585,-76.58730158730158,6.26984126984127,10.873015873015872,-321.8253968253968
-172.61904761904762,-79.12698412698413,-174.84126984126982,14.84126984126984,-179.12698412698413,-198.015873015873,-183.57142857142856,-175.47619047619045,-178.8095238095238,11.984126984126984,-18.80952380952381,13.253968253968253,-178.4920634920635,-145.47619047619048,-182.46031746031744,-181.66666666666666,-169.28571428571428,-195.79365079365078,7.698412698412698,310.87301587301585,-76.58730158730158,6.26984126984127,10.873015873015872,-321.8253968253968
-178.65079365079364,-77.6984126984127,-179.44444444444443,15.317460317460316,-186.42857142857142,-195.15873015873015,-187.69841269841268,-172.61904761904762,-184.68253968253967,12.46031746031746,-27.22222222222222,13.095238095238095,-192.61904761904762,-142.93650793650792,-187.53968253968253,-178.4920634920635,-183.25396825396825,-192.77777777777777,8.492063492063492,305.6349206349206,-75.47619047619047,-5.0,-11.507936507936508,-321.8253968253968
-178.65079365079364,-77.6984126984127,-179.44444444444443,15.317460317460316,-186.42857142857142,-195.15873015873015,-187.69841269841268,-172.61904761904762,-184.68253968253967,12.46031746031746,-27.22222222222222,13.095238095238095,-192.61904761904762,-142.93650793650792,-187.53968253968253,-178.4920634920635,-183.25396825396825,-192.77777777777777,8.492063492063492,305.6349206349206,-75.47619047619047,-5.0,-11.507936507936508,-321.8253968253968
-165.0,-76.42857142857143,-167.06349206349205,12.142857142857142,-171.34920634920633,-191.66666666666666,-175.79365079365078,-169.76190476190476,-170.87301587301587,10.396825396825395,-35.476190476190474,10.396825396825395,-170.7142857142857,-140.3968253968254,-174.68253968253967,-175.47619047619045,-161.19047619047618,-189.60317460317458,4.682539682539682,300.7142857142857,-73.88888888888889,5.952380952380952,11.666666666666666,-321.8253968253968
-165.0,-76.42857142857143,-167.06349206349205,12.142857142857142,-171.34920634920633,-191.66666666666666,-175.79365079365078,-169.76190476190476,-170.87301587301587,10.396825396825395,-35.476190476190474,10.396825396825395,-170.7142857142857,-140.3968253968254,-174.68253968253967,-175.47619047619045,-161.19047619047618,-189.60317460317458,4.682539682539682,300.7142857142857,-73.88888888888889,5.952380952380952,11.666666666666666,-321.8253968253968
-167.85714285714286,-75.0,-169.60317460317458,9.285714285714285,-175.15873015873015,-187.69841269841268,-177.38095238095238,-166.42857142857142,-173.25396825396825,7.222222222222221,-45.0,7.857142857142857,-180.07936507936506,-137.69841269841268,-177.06349206349205,-171.8253968253968,-169.44444444444443,-185.95238095238093,2.46031746031746,294.2063492063492,-72.3015873015873,-3.253968253968254,-9.444444444444445,-321.8253968253968
-167.85714285714286,-75.0,-169.60317460317458,9.285714285714285,-175.15873015873015,-187.69841269841268,-177.38095238095238,-166.42857142857142,-173.25396825396825,7.222222222222221,-45.0,7.857142857142857,-180.07936507936506,-137.69841269841268,-177.06349206349205,-171.8253968253968,-169.44444444444443,-185.95238095238093,2.46031746031746,294.2063492063492,-72.3015873015873,-3.253968253968254,-9.444444444444445,-321.8253968253968
-159.44444444444443,-74.68253968253968,-162.46031746031744,9.285714285714285,-166.42857142857142,-186.74603174603175,-169.44444444444443,-165.95238095238093,-164.2063492063492,6.904761904761904,-46.74603174603175,8.174603174603174,-169.60317460317458,-136.9047619047619,-168.65079365079364,-171.03174603174602,-158.33333333333331,-185.3174603174603,2.46031746031746,292.9365079365079,-71.82539682539682,-1.349206349206349,-6.904761904761904,-166.26984126984127
-159.44444444444443,-74.68253968253968,-162.46031746031744,9.285714285714285,-166.42857142857142,-186.74603174603175,-169.44444444444443,-165.95238095238093,-164.2063492063492,6.904761904761904,-46.74603174603175,8.174603174603174,-169.60317460317458,-136.9047619047619,-168.65079365079364,-171.03174603174602,-158.33333333333331,-185.3174603174603,2.46031746031746,292.9365079365079,-71.82539682539682,-1.349206349206349,-6.904761904761904,-166.26984126984127
-161.19047619047618,-72.46031746031746,-163.25396825396825,7.857142857142857,-168.65079365079364,-181.8253968253968,-170.55555555555554,-161.03174603174602,-166.42857142857142,6.26984126984127,-59.285714285714285,6.587301587301587,-173.09523809523807,-132.77777777777777,-170.23809523809524,-166.26984126984127,-162.14285714285714,-179.9206349206349,1.349206349206349,284.5238095238095,-69.76190476190476,-4.0476190476190474,-8.65079365079365,-166.26984126984127
-161.19047619047618,-72.46031746031746,-163.25396825396825,7.857142857142857,-168.65079365079364,-181.8253968253968,-170.55555555555554,-161.03174603174602,-166.42857142857142,6.26984126984127,-59.285714285714285,6.587301587301587,-173.09523809523807,-132.77777777777777,-170.23809523809524,-166.26984126984127,-162.14285714285714,-179.9206349206349,1.349206349206349,284.5238095238095,-69.76190476190476,-4.0476190476190474,-8.65079365079365,-166.26984126984127
-147.2222222222222,-71.98412698412697,-150.7142857142857,4.523809523809524,-154.52380952380952,-181.19047619047618,-156.9047619047619,-160.3968253968254,-151.8253968253968,2.9365079365079363,-61.03174603174603,3.888888888888889,-156.58730158730157,-132.14285714285714,-156.11111111111111,-165.63492063492063,-145.0,-179.12698412698413,-1.8253968253968254,283.25396825396825,-69.6031746031746,-2.3015873015873014,-6.111111111111111,-166.26984126984127
-147.2222222222222,-71.98412698412697,-150.7142857142857,4.523809523809524,-154.52380952380952,-181.19047619047618,-156.9047619047619,-160.3968253968254,-151.8253968253968,2.9365079365079363,-61.03174603174603,3.888888888888889,-156.58730158730157,-132.14285714285714,-156.11111111111111,-165.63492063492063,-145.0,-179.12698412698413,-1.8253968253968254,283.25396825396825,-69.6031746031746,-2.3015873015873014,-6.111111111111111,-166.26984126984127
-147.53968253968253,-70.87301587301587,-150.87301587301587,6.26984126984127,-154.84126984126982,-178.17460317460316,-157.06349206349205,-157.69841269841268,-151.984126984127,5.0,-67.53968253968253,5.476190476190476,-157.06349206349205,-130.07936507936506,-156.42857142857142,-162.93650793650792,-145.3174603174603,-176.26984126984127,-0.3968253968253968,278.6507936507936,-68.17460317460318,-2.46031746031746,-5.952380952380952,-166.26984126984127
-147.53968253968253,-70.87301587301587,-150.87301587301587,6.26984126984127,-154.84126984126982,-178.17460317460316,-157.06349206349205,-157.69841269841268,-151.984126984127,5.0,-67.53968253968253,5.476190476190476,-157.06349206349205,-130.07936507936506,-156.42857142857142,-162.93650793650792,-145.3174603174603,-176.26984126984127,-0.3968253968253968,278.6507936507936,-68.17460317460318,-2.46031746031746,-5.952380952380952,-166.26984126984127
-158.33333333333331,-69.28571428571428,-159.12698412698413,9.285714285714285,-164.2063492063492,-173.57142857142856,-169.28571428571428,-154.36507936507937,-164.2063492063492,7.5396825396825395,-77.22222222222221,7.063492063492063,-164.36507936507937,-126.58730158730158,-168.33333333333331,-158.8095238095238,-154.2063492063492,-172.3015873015873,1.349206349206349,271.8253968253968,-66.26984126984127,4.841269841269841,12.46031746031746,-166.26984126984127
-158.33333333333331,-69.28571428571428,-159.12698412698413,9.285714285714285,-164.2063492063492,-173.57142857142856,-169.28571428571428,-154.36507936507937,-164.2063492063492,7.5396825396825395,-77.22222222222221,7.063492063492063,-164.36507936507937,-126.58730158730158,-168.33333333333331,-158.8095238095238,-154.2063492063492,-172.3015873015873,1.349206349206349,271.8253968253968,-66.26984126984127,4.841269841269841,12.46031746031746,-166.26984126984127
-158.33333333333331,-69.28571428571428,-159.12698412698413,9.285714285714285,-164.2063492063492,-173.57142857142856,-169.28571428571428,-154.36507936507937,-164.2063492063492,7.5396825396825395,-77.22222222222221,7.063492063492063,-164.36507936507937,-126.58730158730158,-168.33333333333331,-158.8095238095238,-154.2063492063492,-172.3015873015873,1.349206349206349,271.8253968253968,-66.26984126984127,4.841269841269841,12.46031746031746,-321.8253968253968
-158.33333333333331,-69.28571428571428,-159.12698412698413,9.285714285714285,-164.2063492063492,-173.57142857142856,-169.28571428571428,-154.36507936507937,-164.2063492063492,7.5396825396825395,-77.22222222222221,7.063492063492063,-164.36507936507937,-126.58730158730158,-168.33333333333331,-158.8095238095238,-154.2063492063492,-172.3015873015873,1.349206349206349,271.8253968253968,-66.26984126984127,4.841269841269841,12.46031746031746,-321.8253968253968
-174.04761904761904,-65.95238095238095,-173.73015873015873,17.698412698412696,-180.3968253968254,-165.3174603174603,-182.46031746031744,-146.74603174603175,-178.65079365079364,17.857142857142858,-94.2063492063492,15.95238095238095,-187.06349206349205,-120.23809523809523,-182.14285714285714,-151.03174603174602,-175.95238095238093,-164.04761904761904,10.714285714285714,258.6507936507936,-62.77777777777777,-5.952380952380952,-12.619047619047619,-321.8253968253968
-174.04761904761904,-65.95238095238095,-173.73015873015873,17.698412698412696,-180.3968253968254,-165.3174603174603,-182.46031746031744,-146.74603174603175,-178.65079365079364,17.857142857142858,-94.2063492063492,15.95238095238095,-187.06349206349205,-120.23809523809523,-182.14285714285714,-151.03174603174602,-175.95238095238093,-164.04761904761904,10.714285714285714,258.6507936507936,-62.77777777777777,-5.952380952380952,-12.619047619047619,-321.8253968253968
-157.69841269841268,-64.84126984126983,-158.33333333333331,19.444444444444443,-162.77777777777777,-162.46031746031744,-167.69841269841268,-144.2063492063492,-162.61904761904762,20.71428571428571,-99.44444444444444,18.49206349206349,-163.4126984126984,-118.33333333333333,-166.9047619047619,-148.4920634920635,-152.93650793650792,-161.34920634920633,12.936507936507935,254.04761904761904,-61.666666666666664,6.26984126984127,12.3015873015873,-321.8253968253968
-157.69841269841268,-64.84126984126983,-158.33333333333331,19.444444444444443,-162.77777777777777,-162.46031746031744,-167.69841269841268,-144.2063492063492,-162.61904761904762,20.71428571428571,-99.44444444444444,18.49206349206349,-163.4126984126984,-118.33333333333333,-166.9047619047619,-148.4920634920635,-152.93650793650792,-161.34920634920633,12.936507936507935,254.04761904761904,-61.666666666666664,6.26984126984127,12.3015873015873,-321.8253968253968
-157.69841269841268,-64.84126984126983,-158.33333333333331,19.444444444444443,-162.77777777777777,-162.46031746031744,-167.69841269841268,-144.2063492063492,-162.61904761904762,20.71428571428571,-99.44444444444444,18.49206349206349,-163.4126984126984,-118.33333333333333,-166.9047619047619,-148.4920634920635,-152.93650793650792,-161.34920634920633,12.936507936507935,254.04761904761904,-61.666666666666664,6.26984126984127,12.3015873015873,-321.8253968253968
-157.69841269841268,-64.84126984126983,-158.33333333333331,19.444444444444443,-162.77777777777777,-162.46031746031744,-167.69841269841268,-144.2063492063492,-162.61904761904762,20.71428571428571,-99.44444444444444,18.49206349206349,-163.4126984126984,-118.33333333333333,-166.9047619047619,-148.4920634920635,-152.93650793650792,-161.34920634920633,12.936507936507935,254.04761904761904,-61.666666666666664,6.26984126984127,12.3015873015873,-321.8253968253968
-148.17460317460316,-62.93650793650793,-148.17460317460316,13.888888888888888,-152.61904761904762,-157.06349206349205,-158.015873015873,-139.76190476190476,-152.61904761904762,15.0,-109.28571428571428,11.825396825396824,-153.25396825396825,-114.2063492063492,-157.06349206349205,-143.57142857142856,-142.61904761904762,-156.11111111111111,6.587301587301587,245.79365079365078,-59.44444444444444,5.317460317460317,12.46031746031746,-321.8253968253968
-148.17460317460316,-62.93650793650793,-148.17460317460316,13.888888888888888,-152.61904761904762,-157.06349206349205,-158.015873015873,-139.76190476190476,-152.61904761904762,15.0,-109.28571428571428,11.825396825396824,-153.25396825396825,-114.2063492063492,-157.06349206349205,-143.57142857142856,-142.61904761904762,-156.11111111111111,6.587301587301587,245.79365079365078,-59.44444444444444,5.317460317460317,12.46031746031746,-321.8253968253968
-139.44444444444443,-61.98412698412698,-140.55555555555554,9.444444444444445,-144.36507936507937,-155.15873015873015,-148.8095238095238,-138.015873015873,-143.25396825396825,11.19047619047619,-112.93650793650794,8.333333333333332,-146.58730158730157,-112.77777777777777,-148.33333333333331,-141.8253968253968,-135.3174603174603,-154.2063492063492,3.095238095238095,242.77777777777777,-58.8095238095238,2.142857142857143,4.0476190476190474,-166.26984126984127
-139.44444444444443,-61.98412698412698,-140.55555555555554,9.444444444444445,-144.36507936507937,-155.15873015873015,-148.8095238095238,-138.015873015873,-143.25396825396825,11.19047619047619,-112.93650793650794,8.333333333333332,-146.58730158730157,-112.77777777777777,-148.33333333333331,-141.8253968253968,-135.3174603174603,-154.2063492063492,3.095238095238095,242.77777777777777,-58.8095238095238,2.142857142857143,4.0476190476190474,-166.26984126984127
-137.22222222222223,-60.71428571428571,-137.38095238095238,7.857142857142857,-141.03174603174602,-151.984126984127,-146.26984126984127,-135.3174603174603,-140.55555555555554,8.809523809523808,-118.65079365079364,5.7936507936507935,-141.03174603174602,-110.23809523809523,-145.0,-138.8095238095238,-130.23809523809524,-151.03174603174602,0.873015873015873,237.53968253968253,-57.38095238095238,6.111111111111111,12.3015873015873,-166.26984126984127
-137.22222222222223,-60.71428571428571,-137.38095238095238,7.857142857142857,-141.03174603174602,-151.984126984127,-146.26984126984127,-135.3174603174603,-140.55555555555554,8.809523809523808,-118.65079365079364,5.7936507936507935,-141.03174603174602,-110.23809523809523,-145.0,-138.8095238095238,-130.23809523809524,-151.03174603174602,0.873015873015873,237.53968253968253,-57.38095238095238,6.111111111111111,12.3015873015873,-166.26984126984127
-134.68253968253967,-59.92063492063492,-135.63492063492063,8.174603174603174,-138.96825396825395,-150.23809523809524,-143.25396825396825,-133.57142857142856,-137.69841269841268,10.238095238095237,-121.82539682539682,7.222222222222221,-141.03174603174602,-108.80952380952381,-142.61904761904762,-137.06349206349205,-129.6031746031746,-149.28571428571428,2.142857142857143,234.52380952380952,-56.74603174603174,1.984126984126984,4.365079365079365,-166.26984126984127
-134.68253968253967,-59.92063492063492,-135.63492063492063,8.174603174603174,-138.96825396825395,-150.23809523809524,-143.25396825396825,-133.57142857142856,-137.69841269841268,10.238095238095237,-121.82539682539682,7.222222222222221,-141.03174603174602,-108.80952380952381,-142.61904761904762,-137.06349206349205,-129.6031746031746,-149.28571428571428,2.142857142857143,234.52380952380952,-56.74603174603174,1.984126984126984,4.365079365079365,-166.26984126984127
-132.14285714285714,-59.12698412698413,-133.88888888888889,8.65079365079365,-136.9047619047619,-148.33333333333331,-140.23809523809524,-131.8253968253968,-134.68253968253967,11.666666666666666,-124.84126984126983,8.809523809523808,-141.03174603174602,-107.38095238095238,-140.23809523809524,-135.3174603174603,-128.8095238095238,-147.38095238095238,3.4126984126984126,231.66666666666666,-55.95238095238095,-2.142857142857143,-3.571428571428571,-166.26984126984127
-132.14285714285714,-59.12698412698413,-133.88888888888889,8.65079365079365,-136.9047619047619,-148.33333333333331,-140.23809523809524,-131.8253968253968,-134.68253968253967,11.666666666666666,-124.84126984126983,8.809523809523808,-141.03174603174602,-107.38095238095238,-140.23809523809524,-135.3174603174603,-128.8095238095238,-147.38095238095238,3.4126984126984126,231.66666666666666,-55.95238095238095,-2.142857142857143,-3.571428571428571,-166.26984126984127
-132.14285714285714,-59.12698412698413,-133.88888888888889,8.65079365079365,-136.9047619047619,-148.33333333333331,-140.23809523809524,-131.8253968253968,-134.68253968253967,11.666666666666666,-124.84126984126983,8.809523809523808,-141.03174603174602,-107.38095238095238,-140.23809523809524,-135.3174603174603,-128.8095238095238,-147.38095238095238,3.4126984126984126,231.66666666666666,-55.95238095238095,-2.142857142857143,-3.571428571428571,-166.26984126984127
-132.14285714285714,-59.12698412698413,-133.88888888888889,8.65079365079365,-136.9047619047619,-148.33333333333331,-140.23809523809524,-131.8253968253968,-134.68253968253967,11.666666666666666,-124.84126984126983,8.809523809523808,-141.03174603174602,-107.38095238095238,-140.23809523809524,-135.3174603174603,-128.8095238095238,-147.38095238095238,3.4126984126984126,231.66666666666666,-55.95238095238095,-2.142857142857143,-3.571428571428571,-166.26984126984127
-132.14285714285714,-59.12698412698413,-133.88888888888889,8.65079365079365,-136.9047619047619,-148.33333333333331,-140.23809523809524,-131.8253968253968,-134.68253968253967,11.666666666666666,-124.84126984126983,8.809523809523808,-141.03174603174602,-107.38095238095238,-140.23809523809524,-135.3174603174603,-128.8095238095238,-147.38095238095238,3.4126984126984126,231.66666666666666,-55.95238095238095,-2.142857142857143,-3.571428571428571,-321.8253968253968
-132.14285714285714,-59.12698412698413,-133.88888888888889,8.65079365079365,-136.9047619047619,-148.33333333333331,-140.23809523809524,-131.8253968253968,-134.68253968253967,11.666666666666666,-124.84126984126983,8.809523809523808,-141.03174603174602,-107.38095238095238,-140.23809523809524,-135.3174603174603,-128.8095238095238,-147.38095238095238,3.4126984126984126,231.66666666666666,-55.95238095238095,-2.142857142857143,-3.571428571428571,-321.8253968253968
-126.1111111111111,-56.269841269841265,-126.58730158730158,9.603174603174603,-129.44444444444443,-140.7142857142857,-133.4126984126984,-125.31746031746032,-127.6984126984127,12.777777777777777,-135.95238095238093,8.65079365079365,-131.5079365079365,-101.82539682539682,-133.0952380952381,-128.4920634920635,-120.07936507936508,-140.07936507936506,3.888888888888889,219.44444444444443,-52.93650793650794,2.142857142857143,5.158730158730158,-321.8253968253968
-126.1111111111111,-56.269841269841265,-126.58730158730158,9.603174603174603,-129.44444444444443,-140.7142857142857,-133.4126984126984,-125.31746031746032,-127.6984126984127,12.777777777777777,-135.95238095238093,8.65079365079365,-131.5079365079365,-101.82539682539682,-133.0952380952381,-128.4920634920635,-120.07936507936508,-140.07936507936506,3.888888888888889,219.44444444444443,-52.93650793650794,2.142857142857143,5.158730158730158,-321.8253968253968
-126.1111111111111,-52.14285714285714,-123.4126984126984,8.492063492063492,-127.53968253968253,-130.55555555555554,-131.8253968253968,-116.42857142857142,-126.58730158730158,12.142857142857142,-150.55555555555554,6.111111111111111,-128.96825396825395,-94.2063492063492,-130.87301587301587,-119.12698412698413,-118.65079365079364,-130.07936507936506,2.3015873015873014,203.25396825396825,-48.80952380952381,2.619047619047619,7.3809523809523805,-321.8253968253968
-126.1111111111111,-52.14285714285714,-123.4126984126984,8.492063492063492,-127.53968253968253,-130.55555555555554,-131.8253968253968,-116.42857142857142,-126.58730158730158,12.142857142857142,-150.55555555555554,6.111111111111111,-128.96825396825395,-94.2063492063492,-130.87301587301587,-119.12698412698413,-118.65079365079364,-130.07936507936506,2.3015873015873014,203.25396825396825,-48.80952380952381,2.619047619047619,7.3809523809523805,-321.8253968253968
-27.063492063492063,161.5079365079365,176.11111111111111,-20.396825396825395,-169.44444444444443,-295.1587301587301,-41.19047619047619,97.22222222222221,-102.93650793650794,-261.5079365079365,-1.1904761904761905,181.34920634920633,224.84126984126982,-241.03174603174602,67.38095238095238,86.58730158730158,-125.95238095238095,-127.38095238095238,0.07936507936507936,178.8095238095238,-47.698412698412696,-1.1904761904761905,-303.88888888888886,-321.8253968253968
-27.063492063492063,161.5079365079365,176.11111111111111,-20.396825396825395,-169.44444444444443,-295.1587301587301,-41.19047619047619,97.22222222222221,-102.93650793650794,-261.5079365079365,-1.1904761904761905,181.34920634920633,224.84126984126982,-241.03174603174602,67.38095238095238,86.58730158730158,-125.95238095238095,-127.38095238095238,0.07936507936507936,178.8095238095238,-47.698412698412696,-1.1904761904761905,-303.88888888888886,-321.8253968253968
-27.063492063492063,161.5079365079365,176.11111111111111,-20.396825396825395,-169.44444444444443,-295.1587301587301,-41.19047619047619,97.22222222222221,-102.93650793650794,-261.5079365079365,-1.1904761904761905,181.34920634920633,224.84126984126982,-241.03174603174602,67.38095238095238,86.58730158730158,-125.95238095238095,-127.38095238095238,0.07936507936507936,178.8095238095238,-47.698412698412696,-1.1904761904761905,-303.88888888888886,-321.8253968253968
-27.063492063492063,161.5079365079365,176.11111111111111,-20.396825396825395,-169.44444444444443,-295.1587301587301,-41.19047619047619,97.22222222222221,-102.93650793650794,-261.5079365079365,-1.1904761904761905,181.34920634920633,224.84126984126982,-241.03174603174602,67.38095238095238,86.58730158730158,-125.95238095238095,-127.38095238095238,0.07936507936507936,178.8095238095238,-47.698412698412696,-1.1904761904761905,-303.88888888888886,-321.8253968253968
-107.22222222222221,-47.857142857142854,-105.31746031746032,4.2063492063492065,-107.22222222222221,-120.71428571428571,-112.14285714285714,-107.53968253968253,-106.1111111111111,8.492063492063492,-162.3015873015873,2.46031746031746,-107.38095238095238,-86.74603174603175,-110.87301587301587,-109.76190476190476,-96.9047619047619,-120.55555555555554,-2.142857142857143,187.69841269841268,-44.84126984126984,6.587301587301587,13.888888888888888,-166.26984126984127
-107.22222222222221,-47.857142857142854,-105.31746031746032,4.2063492063492065,-107.22222222222221,-120.71428571428571,-112.14285714285714,-107.53968253968253,-106.1111111111111,8.492063492063492,-162.3015873015873,2.46031746031746,-107.38095238095238,-86.74603174603175,-110.87301587301587,-109.76190476190476,-96.9047619047619,-120.55555555555554,-2.142857142857143,187.69841269841268,-44.84126984126984,6.587301587301587,13.888888888888888,-166.26984126984127
-104.68253968253968,-47.38095238095238,-102.93650793650794,4.841269841269841,-104.84126984126983,-119.28571428571428,-109.44444444444444,-106.42857142857142,-103.4126984126984,9.285714285714285,-163.73015873015873,4.2063492063492065,-107.38095238095238,-85.47619047619047,-108.65079365079364,-108.65079365079364,-96.9047619047619,-119.12698412698413,-0.23809523809523808,185.3174603174603,-29.6031746031746,3.4126984126984126,6.587301587301587,-166.26984126984127
-104.68253968253968,-47.38095238095238,-102.93650793650794,4.841269841269841,-104.84126984126983,-119.28571428571428,-109.44444444444444,-106.42857142857142,-103.4126984126984,9.285714285714285,-163.73015873015873,4.2063492063492065,-107.38095238095238,-85.47619047619047,-108.65079365079364,-108.65079365079364,-96.9047619047619,-119.12698412698413,-0.23809523809523808,185.3174603174603,-29.6031746031746,3.4126984126984126,6.587301587301587,-166.26984126984127
-117.22222222222221,-46.58730158730158,-114.04761904761904,12.777777777777777,-115.95238095238095,-116.58730158730158,-121.66666666666666,-104.36507936507935,-115.63492063492063,17.22222222222222,-165.63492063492063,11.349206349206348,-117.06349206349206,-83.73015873015872,-120.55555555555554,-106.26984126984127,-107.38095238095238,-116.58730158730158,7.3809523809523805,181.5079365079365,-43.25396825396825,5.317460317460317,13.73015873015873,-166.26984126984127
-117.22222222222221,-46.58730158730158,-114.04761904761904,12.777777777777777,-115.95238095238095,-116.58730158730158,-121.66666666666666,-104.36507936507935,-115.63492063492063,17.22222222222222,-165.63492063492063,11.349206349206348,-117.06349206349206,-83.73015873015872,-120.55555555555554,-106.26984126984127,-107.38095238095238,-116.58730158730158,7.3809523809523805,181.5079365079365,-43.25396825396825,5.317460317460317,13.73015873015873,-166.26984126984127
-99.12698412698413,-45.476190476190474,-96.26984126984127,10.555555555555555,-98.96825396825396,-114.36507936507935,-102.30158730158729,-102.14285714285714,-97.22222222222221,15.476190476190474,-168.015873015873,10.396825396825395,-104.68253968253968,-81.82539682539682,-102.46031746031746,-104.04761904761904,-94.52380952380952,-114.2063492063492,6.428571428571428,177.38095238095238,30.71428571428571,-3.4126984126984126,-7.222222222222221,-166.26984126984127
-99.12698412698413,-45.476190476190474,-96.26984126984127,10.555555555555555,-98.96825396825396,-114.36507936507935,-102.30158730158729,-102.14285714285714,-97.22222222222221,15.476190476190474,-168.015873015873,10.396825396825395,-104.68253968253968,-81.82539682539682,-102.46031746031746,-104.04761904761904,-94.52380952380952,-114.2063492063492,6.428571428571428,177.38095238095238,30.71428571428571,-3.4126984126984126,-7.222222222222221,-166.26984126984127
-115.79365079365078,-45.0,-111.19047619047619,10.873015873015872,-113.73015873015872,-112.93650793650794,-120.07936507936508,-101.34920634920634,-114.36507936507935,14.523809523809524,-169.28571428571428,8.809523809523808,-115.79365079365078,-80.71428571428571,-119.28571428571428,-102.77777777777777,-106.74603174603175,-113.09523809523809,5.476190476190476,175.3174603174603,-42.3015873015873,5.952380952380952,13.253968253968253,-166.26984126984127
-115.79365079365078,-45.0,-111.19047619047619,10.873015873015872,-113.73015873015872,-112.93650793650794,-120.07936507936508,-101.34920634920634,-114.36507936507935,14.523809523809524,-169.28571428571428,8.809523809523808,-115.79365079365078,-80.71428571428571,-119.28571428571428,-102.77777777777777,-106.74603174603175,-113.09523809523809,5.476190476190476,175.3174603174603,-42.3015873015873,5.952380952380952,13.253968253968253,-166.26984126984127
-89.76190476190476,-44.047619047619044,-86.58730158730158,5.317460317460317,-88.4920634920635,-110.55555555555554,-91.98412698412697,-98.96825396825396,-86.74603174603175,10.079365079365079,-171.34920634920633,5.0,-93.09523809523809,-79.12698412698413,-91.5079365079365,-100.55555555555554,-82.77777777777777,-110.71428571428571,1.1904761904761905,171.66666666666666,68.33333333333333,-3.095238095238095,-6.587301587301587,-321.8253968253968
-89.76190476190476,-44.047619047619044,-86.58730158730158,5.317460317460317,-88.4920634920635,-110.55555555555554,-91.98412698412697,-98.96825396825396,-86.74603174603175,10.079365079365079,-171.34920634920633,5.0,-93.09523809523809,-79.12698412698413,-91.5079365079365,-100.55555555555554,-82.77777777777777,-110.71428571428571,1.1904761904761905,171.66666666666666,68.33333333333333,-3.095238095238095,-6.587301587301587,-321.8253968253968
-107.53968253968253,-43.57142857142857,-103.25396825396825,6.904761904761904,-105.79365079365078,-109.44444444444444,-111.98412698412697,-98.01587301587301,-106.58730158730158,11.19047619047619,-172.61904761904762,5.7936507936507935,-108.33333333333333,-78.01587301587301,-111.98412698412697,-99.44444444444444,-100.39682539682539,-109.44444444444444,2.142857142857143,169.60317460317458,-41.03174603174603,5.0,12.619047619047619,-321.8253968253968
-107.53968253968253,-43.57142857142857,-103.25396825396825,6.904761904761904,-105.79365079365078,-109.44444444444444,-111.98412698412697,-98.01587301587301,-106.58730158730158,11.19047619047619,-172.61904761904762,5.7936507936507935,-108.33333333333333,-78.01587301587301,-111.98412698412697,-99.44444444444444,-100.39682539682539,-109.44444444444444,2.142857142857143,169.60317460317458,-41.03174603174603,5.0,12.619047619047619,-321.8253968253968
-75.0,-42.77777777777778,-72.61904761904762,4.0476190476190474,-75.0,-107.38095238095238,-76.58730158730158,-96.26984126984127,-71.98412698412697,9.444444444444445,-173.73015873015873,3.73015873015873,-81.5079365079365,-77.06349206349206,-77.53968253968253,-97.53968253968253,-71.34920634920634,-107.53968253968253,0.5555555555555556,166.74603174603175,171.19047619047618,-5.952380952380952,-13.73015873015873,-321.8253968253968
-75.0,-42.77777777777778,-72.61904761904762,4.0476190476190474,-75.0,-107.38095238095238,-76.58730158730158,-96.26984126984127,-71.98412698412697,9.444444444444445,-173.73015873015873,3.73015873015873,-81.5079365079365,-77.06349206349206,-77.53968253968253,-97.53968253968253,-71.34920634920634,-107.53968253968253,0.5555555555555556,166.74603174603175,171.19047619047618,-5.952380952380952,-13.73015873015873,-321.8253968253968
-75.0,-42.77777777777778,-72.61904761904762,4.0476190476190474,-75.0,-107.38095238095238,-76.58730158730158,-96.26984126984127,-71.98412698412697,9.444444444444445,-173.73015873015873,3.73015873015873,-81.5079365079365,-77.06349206349206,-77.53968253968253,-97.53968253968253,-71.34920634920634,-107.53968253968253,0.5555555555555556,166.74603174603175,171.19047619047618,-5.952380952380952,-13.73015873015873,-321.8253968253968
-75.0,-42.77777777777778,-72.61904761904762,4.0476190476190474,-75.0,-107.38095238095238,-76.58730158730158,-96.26984126984127,-71.98412698412697,9.444444444444445,-173.73015873015873,3.73015873015873,-81.5079365079365,-77.06349206349206,-77.53968253968253,-97.53968253968253,-71.34920634920634,-107.53968253968253,0.5555555555555556,166.74603174603175,171.19047619047618,-5.952380952380952,-13.73015873015873,-321.8253968253968
-84.68253968253968,-41.19047619047619,-80.39682539682539,6.746031746031746,-82.46031746031746,-103.09523809523809,-86.58730158730158,-92.30158730158729,-81.82539682539682,11.666666666666666,-176.58730158730157,5.952380952380952,-87.53968253968253,-73.57142857142857,-87.38095238095238,-93.57142857142857,-78.96825396825396,-103.25396825396825,2.7777777777777777,159.44444444444443,116.1111111111111,-0.07936507936507936,-1.0317460317460316,-321.8253968253968
-84.68253968253968,-41.19047619047619,-80.39682539682539,6.746031746031746,-82.46031746031746,-103.09523809523809,-86.58730158730158,-92.30158730158729,-81.82539682539682,11.666666666666666,-176.58730158730157,5.952380952380952,-87.53968253968253,-73.57142857142857,-87.38095238095238,-93.57142857142857,-78.96825396825396,-103.25396825396825,2.7777777777777777,159.44444444444443,116.1111111111111,-0.07936507936507936,-1.0317460317460316,-321.8253968253968
-75.15873015873015,-40.55555555555555,-70.71428571428571,3.73015873015873,-72.61904761904762,-101.34920634920634,-76.58730158730158,-90.87301587301587,-72.14285714285714,8.174603174603174,-177.69841269841268,2.9365079365079363,-77.53968253968253,-72.3015873015873,-77.53968253968253,-92.14285714285714,-69.28571428571428,-101.66666666666666,-0.23809523809523808,156.9047619047619,134.68253968253967,-0.7142857142857142,-1.0317460317460316,-166.26984126984127
-75.15873015873015,-40.55555555555555,-70.71428571428571,3.73015873015873,-72.61904761904762,-101.34920634920634,-76.58730158730158,-90.87301587301587,-72.14285714285714,8.174603174603174,-177.69841269841268,2.9365079365079363,-77.53968253968253,-72.3015873015873,-77.53968253968253,-92.14285714285714,-69.28571428571428,-101.66666666666666,-0.23809523809523808,156.9047619047619,134.68253968253967,-0.7142857142857142,-1.0317460317460316,-166.26984126984127
-59.44444444444444,-39.76190476190476,-55.15873015873016,0.7142857142857142,-56.269841269841265,-99.12698412698413,-62.14285714285714,-89.12698412698413,-56.58730158730158,5.7936507936507935,-178.96825396825395,1.1904761904761905,-58.49206349206349,-70.87301587301587,-63.095238095238095,-90.23809523809523,-51.19047619047619,-99.6031746031746,-2.46031746031746,153.4126984126984,67.53968253968253,1.984126984126984,6.746031746031746,-166.26984126984127
-59.44444444444444,-39.76190476190476,-55.15873015873016,0.7142857142857142,-56.269841269841265,-99.12698412698413,-62.14285714285714,-89.12698412698413,-56.58730158730158,5.7936507936507935,-178.96825396825395,1.1904761904761905,-58.49206349206349,-70.87301587301587,-63.095238095238095,-90.23809523809523,-51.19047619047619,-99.6031746031746,-2.46031746031746,153.4126984126984,67.53968253968253,1.984126984126984,6.746031746031746,-166.26984126984127
-86.42857142857143,-39.12698412698413,-80.71428571428571,7.063492063492063,-82.46031746031746,-98.01587301587301,-87.85714285714285,-88.33333333333333,-82.61904761904762,11.825396825396824,-183.4126984126984,7.222222222222221,-88.4920634920635,-69.92063492063491,-88.17460317460316,-89.28571428571428,-80.71428571428571,-98.49206349206348,3.888888888888889,151.5079365079365,177.06349206349205,-0.873015873015873,-0.873015873015873,-166.26984126984127
-86.42857142857143,-39.12698412698413,-80.71428571428571,7.063492063492063,-82.46031746031746,-98.01587301587301,-87.85714285714285,-88.33333333333333,-82.61904761904762,11.825396825396824,-183.4126984126984,7.222222222222221,-88.4920634920635,-69.92063492063491,-88.17460317460316,-89.28571428571428,-80.71428571428571,-98.49206349206348,3.888888888888889,151.5079365079365,177.06349206349205,-0.873015873015873,-0.873015873015873,-166.26984126984127
-55.317460317460316,-38.49206349206349,-51.82539682539682,1.984126984126984,-52.3015873015873,-96.1111111111111,-57.22222222222222,-86.42857142857143,-52.14285714285714,6.587301587301587,-184.84126984126982,1.8253968253968254,-53.73015873015873,-68.33333333333333,-58.49206349206349,-87.22222222222221,-46.42857142857142,-96.42857142857142,-1.6666666666666665,148.65079365079364,98.80952380952381,2.7777777777777777,6.746031746031746,-166.26984126984127
-55.317460317460316,-38.49206349206349,-51.82539682539682,1.984126984126984,-52.3015873015873,-96.1111111111111,-57.22222222222222,-86.42857142857143,-52.14285714285714,6.587301587301587,-184.84126984126982,1.8253968253968254,-53.73015873015873,-68.33333333333333,-58.49206349206349,-87.22222222222221,-46.42857142857142,-96.42857142857142,-1.6666666666666665,148.65079365079364,98.80952380952381,2.7777777777777777,6.746031746031746,-166.26984126984127
-67.85714285714285,-37.857142857142854,-62.61904761904761,4.0476190476190474,-64.36507936507937,-95.0,-68.4920634920635,-85.15873015873015,-63.888888888888886,9.285714285714285,-197.38095238095238,4.0476190476190474,-69.6031746031746,-67.53968253968253,-69.28571428571428,-86.1111111111111,-61.98412698412698,-95.31746031746032,0.873015873015873,146.74603174603175,203.7301587301587,-0.23809523809523808,-1.0317460317460316,-166.26984126984127
-67.85714285714285,-37.857142857142854,-62.61904761904761,4.0476190476190474,-64.36507936507937,-95.0,-68.4920634920635,-85.15873015873015,-63.888888888888886,9.285714285714285,-197.38095238095238,4.0476190476190474,-69.6031746031746,-67.53968253968253,-69.28571428571428,-86.1111111111111,-61.98412698412698,-95.31746031746032,0.873015873015873,146.74603174603175,203.7301587301587,-0.23809523809523808,-1.0317460317460316,-166.26984126984127
-58.17460317460317,-37.22222222222222,-52.61904761904761,-1.984126984126984,-54.2063492063492,-93.4126984126984,-58.17460317460317,-83.73015873015872,-53.57142857142857,3.571428571428571,-204.84126984126982,-1.507936507936508,-59.12698412698413,-66.42857142857143,-58.96825396825397,-84.84126984126983,-51.82539682539682,-93.73015873015872,-4.841269841269841,144.2063492063492,222.61904761904762,-1.507936507936508,-0.873015873015873,-321.8253968253968
-58.17460317460317,-37.22222222222222,-52.61904761904761,-1.984126984126984,-54.2063492063492,-93.4126984126984,-58.17460317460317,-83.73015873015872,-53.57142857142857,3.571428571428571,-204.84126984126982,-1.507936507936508,-59.12698412698413,-66.42857142857143,-58.96825396825397,-84.84126984126983,-51.82539682539682,-93.73015873015872,-4.841269841269841,144.2063492063492,222.61904761904762,-1.507936507936508,-0.873015873015873,-321.8253968253968
-48.01587301587301,-36.74603174603175,-42.460317460317455,-6.904761904761904,-43.888888888888886,-91.82539682539682,-47.698412698412696,-82.46031746031746,-42.93650793650794,-1.984126984126984,-219.12698412698413,-6.746031746031746,-48.96825396825397,-65.15873015873015,-48.49206349206349,-83.25396825396825,-41.666666666666664,-92.14285714285714,-9.761904761904761,141.5079365079365,222.61904761904762,-1.507936507936508,-0.3968253968253968,-321.8253968253968
-48.01587301587301,-36.74603174603175,-42.460317460317455,-6.904761904761904,-43.888888888888886,-91.82539682539682,-47.698412698412696,-82.46031746031746,-42.93650793650794,-1.984126984126984,-219.12698412698413,-6.746031746031746,-48.96825396825397,-65.15873015873015,-48.49206349206349,-83.25396825396825,-41.666666666666664,-92.14285714285714,-9.761904761904761,141.5079365079365,222.61904761904762,-1.507936507936508,-0.3968253968253968,-321.8253968253968
-41.03174603174603,-36.42857142857142,-37.22222222222222,-8.174603174603174,-38.17460317460317,-90.87301587301587,-40.079365079365076,-81.66666666666666,-35.63492063492063,-2.9365079365079363,-238.33333333333331,-7.5396825396825395,-46.904761904761905,-64.52380952380952,-41.19047619047619,-82.3015873015873,-38.17460317460317,-91.34920634920634,-10.238095238095237,140.23809523809524,325.0,-5.634920634920634,-12.619047619047619,-321.8253968253968
-41.03174603174603,-36.42857142857142,-37.22222222222222,-8.174603174603174,-38.17460317460317,-90.87301587301587,-40.079365079365076,-81.66666666666666,-35.63492063492063,-2.9365079365079363,-238.33333333333331,-7.5396825396825395,-46.904761904761905,-64.52380952380952,-41.19047619047619,-82.3015873015873,-38.17460317460317,-91.34920634920634,-10.238095238095237,140.23809523809524,325.0,-5.634920634920634,-12.619047619047619,-321.8253968253968
-49.76190476190476,-35.79365079365079,-45.317460317460316,-3.253968253968254,-46.269841269841265,-89.44444444444444,-48.650793650793645,-80.39682539682539,-44.2063492063492,1.6666666666666665,-243.7301587301587,-2.3015873015873014,-55.317460317460316,-63.41269841269841,-49.6031746031746,-81.19047619047619,-46.904761904761905,-89.92063492063491,-5.0,137.85714285714286,325.0,-5.7936507936507935,-13.253968253968253,-321.8253968253968
-49.76190476190476,-35.79365079365079,-45.317460317460316,-3.253968253968254,-46.269841269841265,-89.44444444444444,-48.650793650793645,-80.39682539682539,-44.2063492063492,1.6666666666666665,-243.7301587301587,-2.3015873015873014,-55.317460317460316,-63.41269841269841,-49.6031746031746,-81.19047619047619,-46.904761904761905,-89.92063492063491,-5.0,137.85714285714286,325.0,-5.7936507936507935,-13.253968253968253,-321.8253968253968
-26.746031746031743,-34.84126984126984,-22.3015873015873,-0.23809523809523808,-21.825396825396822,-86.9047619047619,-26.587301587301585,-78.17460317460316,-21.19047619047619,4.365079365079365,-235.0,0.5555555555555556,-21.666666666666664,-61.666666666666664,-27.38095238095238,-78.96825396825396,-15.476190476190474,-87.53968253968253,-2.9365079365079363,134.04761904761904,170.87301587301587,2.46031746031746,7.5396825396825395,-321.8253968253968
-26.746031746031743,-34.84126984126984,-22.3015873015873,-0.23809523809523808,-21.825396825396822,-86.9047619047619,-26.587301587301585,-78.17460317460316,-21.19047619047619,4.365079365079365,-235.0,0.5555555555555556,-21.666666666666664,-61.666666666666664,-27.38095238095238,-78.96825396825396,-15.476190476190474,-87.53968253968253,-2.9365079365079363,134.04761904761904,170.87301587301587,2.46031746031746,7.5396825396825395,-321.8253968253968
-35.63492063492063,-34.2063492063492,-29.444444444444443,-1.349206349206349,-30.238095238095237,-85.79365079365078,-33.888888888888886,-77.38095238095238,-29.285714285714285,2.9365079365079363,-262.3015873015873,-1.0317460317460316,-34.52380952380952,-60.873015873015866,-34.52380952380952,-78.01587301587301,-27.857142857142854,-86.42857142857143,-4.0476190476190474,132.3015873015873,249.12698412698413,-0.7142857142857142,0.07936507936507936,-166.26984126984127
-35.63492063492063,-34.2063492063492,-29.444444444444443,-1.349206349206349,-30.238095238095237,-85.79365079365078,-33.888888888888886,-77.38095238095238,-29.285714285714285,2.9365079365079363,-262.3015873015873,-1.0317460317460316,-34.52380952380952,-60.873015873015866,-34.52380952380952,-78.01587301587301,-27.857142857142854,-86.42857142857143,-4.0476190476190474,132.3015873015873,249.12698412698413,-0.7142857142857142,0.07936507936507936,-166.26984126984127
-27.698412698412696,-33.57142857142857,-19.76190476190476,-5.0,-21.03174603174603,-83.88888888888889,-26.11111111111111,-75.47619047619047,-21.19047619047619,-0.873015873015873,-261.8253968253968,-5.158730158730158,-21.825396825396822,-59.285714285714285,-26.9047619047619,-76.1111111111111,-17.698412698412696,-84.52380952380952,-8.333333333333332,129.12698412698413,194.84126984126982,3.888888888888889,13.095238095238095,-166.26984126984127
-27.698412698412696,-33.57142857142857,-19.76190476190476,-5.0,-21.03174603174603,-83.88888888888889,-26.11111111111111,-75.47619047619047,-21.19047619047619,-0.873015873015873,-261.8253968253968,-5.158730158730158,-21.825396825396822,-59.285714285714285,-26.9047619047619,-76.1111111111111,-17.698412698412696,-84.52380952380952,-8.333333333333332,129.12698412698413,194.84126984126982,3.888888888888889,13.095238095238095,-166.26984126984127
-35.63492063492063,-32.61904761904762,-28.809523809523807,0.07936507936507936,-28.809523809523807,-81.03174603174602,-32.77777777777778,-73.25396825396825,-25.317460317460316,4.0476190476190474,-292.9365079365079,0.873015873015873,-32.3015873015873,-57.22222222222222,-32.14285714285714,-73.4126984126984,-26.11111111111111,-81.66666666666666,-2.619047619047619,124.52380952380952,161.03174603174602,-1.0317460317460316,-0.5555555555555556,-166.26984126984127
-35.63492063492063,-32.61904761904762,-28.809523809523807,0.07936507936507936,-28.809523809523807,-81.03174603174602,-32.77777777777778,-73.25396825396825,-25.317460317460316,4.0476190476190474,-292.9365079365079,0.873015873015873,-32.3015873015873,-57.22222222222222,-32.14285714285714,-73.4126984126984,-26.11111111111111,-81.66666666666666,-2.619047619047619,124.52380952380952,161.03174603174602,-1.0317460317460316,-0.5555555555555556,-166.26984126984127
-19.6031746031746,-31.98412698412698,-12.936507936507935,-1.507936507936508,-12.619047619047619,-79.92063492063491,-16.11111111111111,-71.98412698412697,6.428571428571428,2.46031746031746,-293.25396825396825,-0.5555555555555556,-15.158730158730158,-56.269841269841265,-15.476190476190474,-72.3015873015873,-9.285714285714285,-80.39682539682539,-4.2063492063492065,122.46031746031746,184.2063492063492,-0.7142857142857142,-0.23809523809523808,-166.26984126984127
-19.6031746031746,-31.98412698412698,-12.936507936507935,-1.507936507936508,-12.619047619047619,-79.92063492063491,-16.11111111111111,-71.98412698412697,6.428571428571428,2.46031746031746,-293.25396825396825,-0.5555555555555556,-15.158730158730158,-56.269841269841265,-15.476190476190474,-72.3015873015873,-9.285714285714285,-80.39682539682539,-4.2063492063492065,122.46031746031746,184.2063492063492,-0.7142857142857142,-0.23809523809523808,-166.26984126984127
-31.19047619047619,-31.349206349206348,-21.507936507936506,-1.0317460317460316,-21.984126984126984,-78.17460317460316,-24.84126984126984,-70.55555555555556,134.52380952380952,3.253968253968254,-313.57142857142856,-1.507936507936508,-24.365079365079364,-55.476190476190474,-22.619047619047617,-70.71428571428571,-18.49206349206349,-78.80952380952381,-4.0476190476190474,119.92063492063491,217.38095238095238,1.507936507936508,3.73015873015873,-166.26984126984127
-31.19047619047619,-31.349206349206348,-21.507936507936506,-1.0317460317460316,-21.984126984126984,-78.17460317460316,-24.84126984126984,-70.55555555555556,134.52380952380952,3.253968253968254,-313.57142857142856,-1.507936507936508,-24.365079365079364,-55.476190476190474,-22.619047619047617,-70.71428571428571,-18.49206349206349,-78.80952380952381,-4.0476190476190474,119.92063492063491,217.38095238095238,1.507936507936508,3.73015873015873,-166.26984126984127
-15.634920634920634,-30.87301587301587,-8.968253968253968,-1.984126984126984,-7.857142857142857,-77.06349206349206,-11.19047619047619,-69.6031746031746,106.9047619047619,2.7777777777777777,-313.57142857142856,-0.873015873015873,-9.920634920634921,-54.68253968253968,-10.238095238095237,-69.92063492063491,-3.571428571428571,-77.6984126984127,-4.2063492063492065,118.33333333333333,226.1111111111111,-0.5555555555555556,-0.3968253968253968,-321.8253968253968
-15.634920634920634,-30.87301587301587,-8.968253968253968,-1.984126984126984,-7.857142857142857,-77.06349206349206,-11.19047619047619,-69.6031746031746,106.9047619047619,2.7777777777777777,-313.57142857142856,-0.873015873015873,-9.920634920634921,-54.68253968253968,-10.238095238095237,-69.92063492063491,-3.571428571428571,-77.6984126984127,-4.2063492063492065,118.33333333333333,226.1111111111111,-0.5555555555555556,-0.3968253968253968,-321.8253968253968
0.7142857142857142,-30.396825396825395,7.3809523809523805,-6.587301587301587,8.333333333333332,-75.79365079365078,4.682539682539682,-68.33333333333333,213.09523809523807,-1.507936507936508,-325.0,-5.0,5.158730158730158,-53.57142857142857,4.682539682539682,-68.65079365079364,10.714285714285714,-76.42857142857143,-8.015873015873016,116.26984126984127,244.2063492063492,-1.1904761904761905,-0.5555555555555556,-321.8253968253968
0.7142857142857142,-30.396825396825395,7.3809523809523805,-6.587301587301587,8.333333333333332,-75.79365079365078,4.682539682539682,-68.33333333333333,213.09523809523807,-1.507936507936508,-325.0,-5.0,5.158730158730158,-53.57142857142857,4.682539682539682,-68.65079365079364,10.714285714285714,-76.42857142857143,-8.015873015873016,116.26984126984127,244.2063492063492,-1.1904761904761905,-0.5555555555555556,-321.8253968253968
