Fp1[1],Fp2[2],F3[3],F4[4],C3[5],C4[6],P3[7],P4[8],O1[9],O2[10],F7[11],F8[12],T3[13],T4[14],T5[15],T6[16],Fz[17],Pz[18],Cz[19],Pg1[20],Pg2[21],EOGR[22],EOOGL[23],EMG[24]
101.19047619047619,325.0,-325.0,325.0,325.0,62.14285714285714,164.36507936507937,53.41269841269841,13.095238095238095,325.0,325.0,69.28571428571428,-325.0,-12.3015873015873,-325.0,325.0,-325.0,33.41269841269841,-22.777777777777775,-9.761904761904761,-81.03174603174602,6.904761904761904,10.079365079365079,-166.26984126984127
101.19047619047619,325.0,-325.0,325.0,325.0,62.14285714285714,164.36507936507937,53.41269841269841,13.095238095238095,325.0,325.0,69.28571428571428,-325.0,-12.3015873015873,-325.0,325.0,-325.0,33.41269841269841,-22.777777777777775,-9.761904761904761,-81.03174603174602,6.904761904761904,10.079365079365079,-166.26984126984127
101.19047619047619,325.0,-325.0,325.0,325.0,62.14285714285714,164.36507936507937,53.41269841269841,13.095238095238095,325.0,325.0,69.28571428571428,-325.0,-12.3015873015873,-325.0,325.0,-325.0,33.41269841269841,-22.777777777777775,-9.761904761904761,-81.03174603174602,6.904761904761904,10.079365079365079,-166.26984126984127
101.19047619047619,325.0,-325.0,325.0,325.0,62.14285714285714,164.36507936507937,53.41269841269841,13.095238095238095,325.0,325.0,69.28571428571428,-325.0,-12.3015873015873,-325.0,325.0,-325.0,33.41269841269841,-22.777777777777775,-9.761904761904761,-81.03174603174602,6.904761904761904,10.079365079365079,-166.26984126984127
101.19047619047619,325.0,-325.0,325.0,325.0,62.14285714285714,164.36507936507937,53.41269841269841,13.095238095238095,325.0,325.0,69.28571428571428,-325.0,-12.3015873015873,-325.0,325.0,-325.0,33.41269841269841,-22.777777777777775,-9.761904761904761,-81.03174603174602,6.904761904761904,10.079365079365079,-166.26984126984127
101.19047619047619,325.0,-325.0,325.0,325.0,62.14285714285714,164.36507936507937,53.41269841269841,13.095238095238095,325.0,325.0,69.28571428571428,-325.0,-12.3015873015873,-325.0,325.0,-325.0,33.41269841269841,-22.777777777777775,-9.761904761904761,-81.03174603174602,6.904761904761904,10.079365079365079,-166.26984126984127
101.19047619047619,325.0,-325.0,325.0,325.0,62.14285714285714,164.36507936507937,53.41269841269841,13.095238095238095,325.0,325.0,69.28571428571428,-325.0,-12.3015873015873,-325.0,325.0,-325.0,33.41269841269841,-22.777777777777775,-9.761904761904761,-81.03174603174602,6.904761904761904,10.079365079365079,-166.26984126984127
101.19047619047619,325.0,-325.0,325.0,325.0,62.14285714285714,164.36507936507937,53.41269841269841,13.095238095238095,325.0,325.0,69.28571428571428,-325.0,-12.3015873015873,-325.0,325.0,-325.0,33.41269841269841,-22.777777777777775,-9.761904761904761,-81.03174603174602,6.904761904761904,10.079365079365079,-166.26984126984127
101.19047619047619,325.0,-325.0,325.0,325.0,62.14285714285714,164.36507936507937,53.41269841269841,13.095238095238095,325.0,325.0,69.28571428571428,-325.0,-12.3015873015873,-325.0,325.0,-325.0,33.41269841269841,-22.777777777777775,-9.761904761904761,-81.03174603174602,6.904761904761904,10.079365079365079,-166.26984126984127
101.19047619047619,325.0,-325.0,325.0,325.0,62.14285714285714,164.36507936507937,53.41269841269841,13.095238095238095,325.0,325.0,69.28571428571428,-325.0,-12.3015873015873,-325.0,325.0,-325.0,33.41269841269841,-22.777777777777775,-9.761904761904761,-81.03174603174602,6.904761904761904,10.079365079365079,-166.26984126984127
101.19047619047619,325.0,-325.0,325.0,325.0,62.14285714285714,164.36507936507937,53.41269841269841,13.095238095238095,325.0,325.0,69.28571428571428,-325.0,-12.3015873015873,-325.0,325.0,-325.0,33.41269841269841,-22.777777777777775,-9.761904761904761,-81.03174603174602,6.904761904761904,10.079365079365079,-321.8253968253968
101.19047619047619,325.0,-325.0,325.0,325.0,62.14285714285714,164.36507936507937,53.41269841269841,13.095238095238095,325.0,325.0,69.28571428571428,-325.0,-12.3015873015873,-325.0,325.0,-325.0,33.41269841269841,-22.777777777777775,-9.761904761904761,-81.03174603174602,6.904761904761904,10.079365079365079,-321.8253968253968
101.19047619047619,325.0,-325.0,325.0,325.0,62.14285714285714,164.36507936507937,53.41269841269841,13.095238095238095,325.0,325.0,69.28571428571428,-325.0,-12.3015873015873,-325.0,325.0,-325.0,33.41269841269841,-22.777777777777775,-9.761904761904761,-81.03174603174602,6.904761904761904,10.079365079365079,-321.8253968253968
101.19047619047619,325.0,-325.0,325.0,325.0,62.14285714285714,164.36507936507937,53.41269841269841,13.095238095238095,325.0,325.0,69.28571428571428,-325.0,-12.3015873015873,-325.0,325.0,-325.0,33.41269841269841,-22.777777777777775,-9.761904761904761,-81.03174603174602,6.904761904761904,10.079365079365079,-321.8253968253968
-62.93650793650793,171.19047619047618,-319.76190476190476,314.8412698412698,325.0,55.476190476190474,92.30158730158729,11.825396825396824,-155.95238095238093,314.8412698412698,-0.07936507936507936,36.269841269841265,-18.96825396825397,-20.396825396825395,-28.65079365079365,158.8095238095238,-4.682539682539682,9.920634920634921,0.23809523809523808,-6.428571428571428,91.66666666666666,6.904761904761904,20.238095238095237,-321.8253968253968
-62.93650793650793,171.19047619047618,-319.76190476190476,314.8412698412698,325.0,55.476190476190474,92.30158730158729,11.825396825396824,-155.95238095238093,314.8412698412698,-0.07936507936507936,36.269841269841265,-18.96825396825397,-20.396825396825395,-28.65079365079365,158.8095238095238,-4.682539682539682,9.920634920634921,0.23809523809523808,-6.428571428571428,91.66666666666666,6.904761904761904,20.238095238095237,-321.8253968253968
-79.28571428571428,171.19047619047618,-31.666666666666664,-10.238095238095237,325.0,45.63492063492063,67.22222222222221,3.4126984126984126,-157.53968253968253,314.8412698412698,-0.07936507936507936,25.0,-18.96825396825397,-18.80952380952381,-28.65079365079365,158.8095238095238,-4.682539682539682,4.841269841269841,3.095238095238095,-5.317460317460317,104.68253968253968,0.07936507936507936,10.555555555555555,-321.8253968253968
-79.28571428571428,171.19047619047618,-31.666666666666664,-10.238095238095237,325.0,45.63492063492063,67.22222222222221,3.4126984126984126,-157.53968253968253,314.8412698412698,-0.07936507936507936,25.0,-18.96825396825397,-18.80952380952381,-28.65079365079365,158.8095238095238,-4.682539682539682,4.841269841269841,3.095238095238095,-5.317460317460317,104.68253968253968,0.07936507936507936,10.555555555555555,-321.8253968253968
58.96825396825397,325.0,217.69841269841268,-325.0,325.0,36.74603174603175,98.80952380952381,31.507936507936506,9.126984126984127,325.0,324.36507936507934,40.714285714285715,-0.07936507936507936,-8.174603174603174,-0.07936507936507936,81.5079365079365,-291.66666666666663,19.76190476190476,-15.476190476190474,-7.222222222222221,-47.53968253968254,0.07936507936507936,-0.07936507936507936,-321.8253968253968
58.96825396825397,325.0,217.69841269841268,-325.0,325.0,36.74603174603175,98.80952380952381,31.507936507936506,9.126984126984127,325.0,324.36507936507934,40.714285714285715,-0.07936507936507936,-8.174603174603174,-0.07936507936507936,81.5079365079365,-291.66666666666663,19.76190476190476,-15.476190476190474,-7.222222222222221,-47.53968253968254,0.07936507936507936,-0.07936507936507936,-321.8253968253968
48.96825396825397,325.0,183.4126984126984,-325.0,325.0,30.71428571428571,82.93650793650794,26.587301587301585,8.015873015873016,325.0,318.4920634920635,33.888888888888886,325.0,-7.3809523809523805,325.0,-325.0,-253.7301587301587,17.063492063492063,-13.73015873015873,-6.428571428571428,-39.6031746031746,-2.7777777777777777,-7.063492063492063,-166.26984126984127
48.96825396825397,325.0,183.4126984126984,-325.0,325.0,30.71428571428571,82.93650793650794,26.587301587301585,8.015873015873016,325.0,318.4920634920635,33.888888888888886,325.0,-7.3809523809523805,325.0,-325.0,-253.7301587301587,17.063492063492063,-13.73015873015873,-6.428571428571428,-39.6031746031746,-2.7777777777777777,-7.063492063492063,-166.26984126984127
48.96825396825397,325.0,183.4126984126984,-325.0,325.0,30.71428571428571,82.93650793650794,26.587301587301585,8.015873015873016,325.0,318.4920634920635,33.888888888888886,325.0,-7.3809523809523805,325.0,-325.0,-253.7301587301587,17.063492063492063,-13.73015873015873,-6.428571428571428,-39.6031746031746,-2.7777777777777777,-7.063492063492063,-166.26984126984127
48.96825396825397,325.0,183.4126984126984,-325.0,325.0,30.71428571428571,82.93650793650794,26.587301587301585,8.015873015873016,325.0,318.4920634920635,33.888888888888886,325.0,-7.3809523809523805,325.0,-325.0,-253.7301587301587,17.063492063492063,-13.73015873015873,-6.428571428571428,-39.6031746031746,-2.7777777777777777,-7.063492063492063,-166.26984126984127
47.06349206349206,325.0,175.63492063492063,-325.0,325.0,29.6031746031746,79.44444444444444,25.476190476190474,7.5396825396825395,325.0,306.74603174603175,32.3015873015873,325.0,-7.063492063492063,325.0,-325.0,-243.88888888888889,16.428571428571427,-13.253968253968253,-6.428571428571428,-37.698412698412696,2.142857142857143,-0.23809523809523808,-166.26984126984127
47.06349206349206,325.0,175.63492063492063,-325.0,325.0,29.6031746031746,79.44444444444444,25.476190476190474,7.5396825396825395,325.0,306.74603174603175,32.3015873015873,325.0,-7.063492063492063,325.0,-325.0,-243.88888888888889,16.428571428571427,-13.253968253968253,-6.428571428571428,-37.698412698412696,2.142857142857143,-0.23809523809523808,-166.26984126984127
45.476190476190474,325.0,170.7142857142857,-325.0,320.39682539682536,28.65079365079365,77.22222222222221,24.84126984126984,7.5396825396825395,325.0,299.1269841269841,31.507936507936506,325.0,-7.063492063492063,325.0,-325.0,-237.85714285714283,15.95238095238095,-13.095238095238095,-6.26984126984127,-36.74603174603175,-4.682539682539682,-7.857142857142857,-166.26984126984127
45.476190476190474,325.0,170.7142857142857,-325.0,320.39682539682536,28.65079365079365,77.22222222222221,24.84126984126984,7.5396825396825395,325.0,299.1269841269841,31.507936507936506,325.0,-7.063492063492063,325.0,-325.0,-237.85714285714283,15.95238095238095,-13.095238095238095,-6.26984126984127,-36.74603174603175,-4.682539682539682,-7.857142857142857,-166.26984126984127
44.84126984126984,325.0,168.33333333333331,-325.0,316.4285714285714,28.333333333333332,76.1111111111111,24.206349206349206,7.698412698412698,325.0,295.7936507936508,30.87301587301587,325.0,-6.904761904761904,325.0,-325.0,-234.68253968253967,15.793650793650793,-12.936507936507935,-6.111111111111111,-36.11111111111111,5.7936507936507935,5.7936507936507935,-166.26984126984127
44.84126984126984,325.0,168.33333333333331,-325.0,316.4285714285714,28.333333333333332,76.1111111111111,24.206349206349206,7.698412698412698,325.0,295.7936507936508,30.87301587301587,325.0,-6.904761904761904,325.0,-325.0,-234.68253968253967,15.793650793650793,-12.936507936507935,-6.111111111111111,-36.11111111111111,5.7936507936507935,5.7936507936507935,-166.26984126984127
43.095238095238095,325.0,161.984126984127,-325.0,305.7936507936508,27.22222222222222,73.25396825396825,23.41269841269841,7.222222222222221,325.0,285.7936507936508,29.6031746031746,325.0,-6.587301587301587,325.0,-325.0,-226.58730158730157,15.158730158730158,-12.46031746031746,-6.111111111111111,-34.682539682539684,-0.5555555555555556,-0.23809523809523808,-321.8253968253968
43.095238095238095,325.0,161.984126984127,-325.0,305.7936507936508,27.22222222222222,73.25396825396825,23.41269841269841,7.222222222222221,325.0,285.7936507936508,29.6031746031746,325.0,-6.587301587301587,325.0,-325.0,-226.58730158730157,15.158730158730158,-12.46031746031746,-6.111111111111111,-34.682539682539684,-0.5555555555555556,-0.23809523809523808,-321.8253968253968
41.82539682539682,325.0,158.33333333333331,-322.9365079365079,299.6031746031746,26.587301587301585,71.5079365079365,22.936507936507937,7.063492063492063,325.0,279.9206349206349,28.96825396825397,325.0,-6.746031746031746,325.0,-325.0,-221.98412698412696,14.84126984126984,-12.3015873015873,-5.952380952380952,-33.73015873015873,-6.428571428571428,-7.063492063492063,-321.8253968253968
41.82539682539682,325.0,158.33333333333331,-322.9365079365079,299.6031746031746,26.587301587301585,71.5079365079365,22.936507936507937,7.063492063492063,325.0,279.9206349206349,28.96825396825397,325.0,-6.746031746031746,325.0,-325.0,-221.98412698412696,14.84126984126984,-12.3015873015873,-5.952380952380952,-33.73015873015873,-6.428571428571428,-7.063492063492063,-321.8253968253968
41.03174603174603,325.0,154.52380952380952,-315.7936507936508,293.25396825396825,25.952380952380953,69.92063492063491,22.3015873015873,7.063492063492063,324.2063492063492,274.2063492063492,28.333333333333332,325.0,-6.428571428571428,325.0,-325.0,-217.06349206349205,14.523809523809524,-12.142857142857142,-5.952380952380952,-33.095238095238095,-1.1904761904761905,-0.5555555555555556,-321.8253968253968
41.03174603174603,325.0,154.52380952380952,-315.7936507936508,293.25396825396825,25.952380952380953,69.92063492063491,22.3015873015873,7.063492063492063,324.2063492063492,274.2063492063492,28.333333333333332,325.0,-6.428571428571428,325.0,-325.0,-217.06349206349205,14.523809523809524,-12.142857142857142,-5.952380952380952,-33.095238095238095,-1.1904761904761905,-0.5555555555555556,-321.8253968253968
40.079365079365076,212.93650793650792,150.87301587301587,-309.1269841269841,287.22222222222223,25.317460317460316,68.17460317460318,21.984126984126984,6.904761904761904,319.6031746031746,268.4920634920635,27.698412698412696,325.0,-6.587301587301587,325.0,-325.0,-212.46031746031744,14.206349206349206,-12.142857142857142,-5.7936507936507935,-32.14285714285714,1.6666666666666665,-2.46031746031746,-321.8253968253968
40.079365079365076,212.93650793650792,150.87301587301587,-309.1269841269841,287.22222222222223,25.317460317460316,68.17460317460318,21.984126984126984,6.904761904761904,319.6031746031746,268.4920634920635,27.698412698412696,325.0,-6.587301587301587,325.0,-325.0,-212.46031746031744,14.206349206349206,-12.142857142857142,-5.7936507936507935,-32.14285714285714,1.6666666666666665,-2.46031746031746,-321.8253968253968
38.17460317460317,-167.2222222222222,144.68253968253967,-296.74603174603175,276.58730158730157,24.365079365079364,65.31746031746032,21.03174603174603,6.746031746031746,259.9206349206349,258.6507936507936,26.587301587301585,325.0,-6.111111111111111,325.0,-325.0,-204.36507936507937,13.73015873015873,-11.349206349206348,-5.634920634920634,-30.71428571428571,5.476190476190476,5.476190476190476,-321.8253968253968
38.17460317460317,-167.2222222222222,144.68253968253967,-296.74603174603175,276.58730158730157,24.365079365079364,65.31746031746032,21.03174603174603,6.746031746031746,259.9206349206349,258.6507936507936,26.587301587301585,325.0,-6.111111111111111,325.0,-325.0,-204.36507936507937,13.73015873015873,-11.349206349206348,-5.634920634920634,-30.71428571428571,5.476190476190476,5.476190476190476,-321.8253968253968
38.17460317460317,-167.2222222222222,144.68253968253967,-296.74603174603175,276.58730158730157,24.365079365079364,65.31746031746032,21.03174603174603,6.746031746031746,259.9206349206349,258.6507936507936,26.587301587301585,325.0,-6.111111111111111,325.0,-325.0,-204.36507936507937,13.73015873015873,-11.349206349206348,-5.634920634920634,-30.71428571428571,5.476190476190476,5.476190476190476,-166.26984126984127
38.17460317460317,-167.2222222222222,144.68253968253967,-296.74603174603175,276.58730158730157,24.365079365079364,65.31746031746032,21.03174603174603,6.746031746031746,259.9206349206349,258.6507936507936,26.587301587301585,325.0,-6.111111111111111,325.0,-325.0,-204.36507936507937,13.73015873015873,-11.349206349206348,-5.634920634920634,-30.71428571428571,5.476190476190476,5.476190476190476,-166.26984126984127
29.6031746031746,-325.0,113.4126984126984,-237.2222222222222,223.25396825396825,19.444444444444443,51.03174603174603,16.746031746031743,5.634920634920634,-325.0,208.96825396825395,20.873015873015873,291.5079365079365,-5.158730158730158,288.4920634920635,-325.0,-163.25396825396825,11.031746031746032,-9.603174603174603,-4.841269841269841,-23.88888888888889,-0.23809523809523808,2.46031746031746,-166.26984126984127
29.6031746031746,-325.0,113.4126984126984,-237.2222222222222,223.25396825396825,19.444444444444443,51.03174603174603,16.746031746031743,5.634920634920634,-325.0,208.96825396825395,20.873015873015873,291.5079365079365,-5.158730158730158,288.4920634920635,-325.0,-163.25396825396825,11.031746031746032,-9.603174603174603,-4.841269841269841,-23.88888888888889,-0.23809523809523808,2.46031746031746,-166.26984126984127
28.96825396825397,-325.0,111.34920634920634,-232.93650793650792,219.76190476190476,19.126984126984127,50.079365079365076,16.428571428571427,5.634920634920634,-325.0,205.47619047619045,20.396825396825395,286.4285714285714,-5.158730158730158,283.4126984126984,-325.0,-160.55555555555554,10.873015873015872,-9.444444444444445,-4.682539682539682,-23.253968253968253,0.23809523809523808,-2.619047619047619,-166.26984126984127
28.96825396825397,-325.0,111.34920634920634,-232.93650793650792,219.76190476190476,19.126984126984127,50.079365079365076,16.428571428571427,5.634920634920634,-325.0,205.47619047619045,20.396825396825395,286.4285714285714,-5.158730158730158,283.4126984126984,-325.0,-160.55555555555554,10.873015873015872,-9.444444444444445,-4.682539682539682,-23.253968253968253,0.23809523809523808,-2.619047619047619,-166.26984126984127
28.65079365079365,-325.0,109.76190476190476,-229.76190476190476,216.9047619047619,18.80952380952381,49.44444444444444,15.95238095238095,5.7936507936507935,-325.0,202.93650793650792,20.07936507936508,282.6190476190476,-5.0,279.6031746031746,-325.0,-158.33333333333331,10.714285714285714,-9.285714285714285,-4.523809523809524,-22.936507936507937,4.0476190476190474,7.698412698412698,-166.26984126984127
28.65079365079365,-325.0,109.76190476190476,-229.76190476190476,216.9047619047619,18.80952380952381,49.44444444444444,15.95238095238095,5.7936507936507935,-325.0,202.93650793650792,20.07936507936508,282.6190476190476,-5.0,279.6031746031746,-325.0,-158.33333333333331,10.714285714285714,-9.285714285714285,-4.523809523809524,-22.936507936507937,4.0476190476190474,7.698412698412698,-166.26984126984127
28.174603174603174,-325.0,108.17460317460316,-226.9047619047619,214.04761904761904,18.65079365079365,48.650793650793645,15.793650793650793,5.634920634920634,-325.0,200.3968253968254,19.76190476190476,278.8095238095238,-5.0,276.1111111111111,-325.0,-156.26984126984127,10.555555555555555,-9.126984126984127,-4.523809523809524,-22.619047619047617,4.523809523809524,4.682539682539682,-166.26984126984127
28.174603174603174,-325.0,108.17460317460316,-226.9047619047619,214.04761904761904,18.65079365079365,48.650793650793645,15.793650793650793,5.634920634920634,-325.0,200.3968253968254,19.76190476190476,278.8095238095238,-5.0,276.1111111111111,-325.0,-156.26984126984127,10.555555555555555,-9.126984126984127,-4.523809523809524,-22.619047619047617,4.523809523809524,4.682539682539682,-166.26984126984127
27.539682539682538,-325.0,105.0,-220.87301587301587,208.65079365079364,17.857142857142858,47.38095238095238,15.634920634920634,5.158730158730158,-325.0,195.3174603174603,19.285714285714285,271.5079365079365,-5.0,268.968253968254,-325.0,-152.14285714285714,10.396825396825395,-9.126984126984127,-4.523809523809524,-21.984126984126984,-0.07936507936507936,3.095238095238095,-321.8253968253968
27.539682539682538,-325.0,105.0,-220.87301587301587,208.65079365079364,17.857142857142858,47.38095238095238,15.634920634920634,5.158730158730158,-325.0,195.3174603174603,19.285714285714285,271.5079365079365,-5.0,268.968253968254,-325.0,-152.14285714285714,10.396825396825395,-9.126984126984127,-4.523809523809524,-21.984126984126984,-0.07936507936507936,3.095238095238095,-321.8253968253968
26.9047619047619,-325.0,103.09523809523809,-217.06349206349205,205.47619047619045,17.857142857142858,46.42857142857142,15.476190476190474,5.317460317460317,-325.0,175.15873015873015,18.96825396825397,266.58730158730157,-5.0,264.36507936507934,-325.0,-149.76190476190476,10.238095238095237,-8.968253968253968,-4.523809523809524,-21.666666666666664,-0.23809523809523808,-3.4126984126984126,-321.8253968253968
26.9047619047619,-325.0,103.09523809523809,-217.06349206349205,205.47619047619045,17.857142857142858,46.42857142857142,15.476190476190474,5.317460317460317,-325.0,175.15873015873015,18.96825396825397,266.58730158730157,-5.0,264.36507936507934,-325.0,-149.76190476190476,10.238095238095237,-8.968253968253968,-4.523809523809524,-21.666666666666664,-0.23809523809523808,-3.4126984126984126,-321.8253968253968
26.428571428571427,-325.0,101.19047619047619,-213.25396825396825,201.8253968253968,17.38095238095238,45.317460317460316,15.0,5.317460317460317,-325.0,181.5079365079365,18.49206349206349,261.8253968253968,-4.841269841269841,259.76190476190476,-325.0,-147.2222222222222,10.079365079365079,-8.809523809523808,-4.365079365079365,-21.03174603174603,-0.23809523809523808,2.9365079365079363,-321.8253968253968
26.428571428571427,-325.0,101.19047619047619,-213.25396825396825,201.8253968253968,17.38095238095238,45.317460317460316,15.0,5.317460317460317,-325.0,181.5079365079365,18.49206349206349,261.8253968253968,-4.841269841269841,259.76190476190476,-325.0,-147.2222222222222,10.079365079365079,-8.809523809523808,-4.365079365079365,-21.03174603174603,-0.23809523809523808,2.9365079365079363,-321.8253968253968
25.952380952380953,-325.0,98.80952380952381,-208.65079365079364,197.38095238095238,17.22222222222222,44.36507936507936,14.682539682539682,5.158730158730158,-325.0,55.79365079365079,18.174603174603174,256.26984126984127,-4.682539682539682,254.2063492063492,-325.0,-143.88888888888889,9.920634920634921,-8.492063492063492,-4.523809523809524,-20.555555555555554,4.2063492063492065,3.253968253968254,-321.8253968253968
25.952380952380953,-325.0,98.80952380952381,-208.65079365079364,197.38095238095238,17.22222222222222,44.36507936507936,14.682539682539682,5.158730158730158,-325.0,55.79365079365079,18.174603174603174,256.26984126984127,-4.682539682539682,254.2063492063492,-325.0,-143.88888888888889,9.920634920634921,-8.492063492063492,-4.523809523809524,-20.555555555555554,4.2063492063492065,3.253968253968254,-321.8253968253968
25.0,-325.0,95.63492063492063,-202.14285714285714,191.8253968253968,16.587301587301585,43.095238095238095,14.206349206349206,5.0,-325.0,-57.698412698412696,17.539682539682538,248.17460317460316,-4.841269841269841,246.42857142857142,-325.0,-139.44444444444443,9.603174603174603,-8.65079365079365,-4.2063492063492065,-20.07936507936508,-0.7142857142857142,-3.571428571428571,-321.8253968253968
25.0,-325.0,95.63492063492063,-202.14285714285714,191.8253968253968,16.587301587301585,43.095238095238095,14.206349206349206,5.0,-325.0,-57.698412698412696,17.539682539682538,248.17460317460316,-4.841269841269841,246.42857142857142,-325.0,-139.44444444444443,9.603174603174603,-8.65079365079365,-4.2063492063492065,-20.07936507936508,-0.7142857142857142,-3.571428571428571,-321.8253968253968
24.523809523809522,-325.0,93.88888888888889,-198.4920634920635,188.4920634920635,16.428571428571427,42.14285714285714,14.047619047619047,5.158730158730158,-325.0,-325.0,17.063492063492063,243.88888888888889,-4.523809523809524,242.46031746031744,-325.0,-137.06349206349205,9.285714285714285,-8.333333333333332,-4.2063492063492065,-19.444444444444443,0.5555555555555556,4.0476190476190474,-166.26984126984127
24.523809523809522,-325.0,93.88888888888889,-198.4920634920635,188.4920634920635,16.428571428571427,42.14285714285714,14.047619047619047,5.158730158730158,-325.0,-325.0,17.063492063492063,243.88888888888889,-4.523809523809524,242.46031746031744,-325.0,-137.06349206349205,9.285714285714285,-8.333333333333332,-4.2063492063492065,-19.444444444444443,0.5555555555555556,4.0476190476190474,-166.26984126984127
24.047619047619047,-325.0,92.14285714285714,-195.0,185.3174603174603,15.95238095238095,41.507936507936506,13.888888888888888,5.0,-325.0,-325.0,16.904761904761905,239.60317460317458,-4.365079365079365,238.17460317460316,-325.0,-134.52380952380952,9.285714285714285,-8.174603174603174,-4.0476190476190474,-19.126984126984127,-0.873015873015873,-3.253968253968254,-166.26984126984127
24.047619047619047,-325.0,92.14285714285714,-195.0,185.3174603174603,15.95238095238095,41.507936507936506,13.888888888888888,5.0,-325.0,-325.0,16.904761904761905,239.60317460317458,-4.365079365079365,238.17460317460316,-325.0,-134.52380952380952,9.285714285714285,-8.174603174603174,-4.0476190476190474,-19.126984126984127,-0.873015873015873,-3.253968253968254,-166.26984126984127
23.57142857142857,-325.0,90.23809523809523,-191.5079365079365,182.3015873015873,15.634920634920634,40.55555555555555,13.571428571428571,4.841269841269841,-325.0,-325.0,16.746031746031743,235.3174603174603,-4.523809523809524,234.04761904761904,-325.0,-132.3015873015873,9.126984126984127,-8.174603174603174,-4.0476190476190474,-18.96825396825397,0.5555555555555556,2.619047619047619,-166.26984126984127
23.57142857142857,-325.0,90.23809523809523,-191.5079365079365,182.3015873015873,15.634920634920634,40.55555555555555,13.571428571428571,4.841269841269841,-325.0,-325.0,16.746031746031743,235.3174603174603,-4.523809523809524,234.04761904761904,-325.0,-132.3015873015873,9.126984126984127,-8.174603174603174,-4.0476190476190474,-18.96825396825397,0.5555555555555556,2.619047619047619,-166.26984126984127
23.253968253968253,-325.0,88.65079365079364,-188.4920634920635,179.12698412698413,15.476190476190474,39.92063492063492,13.412698412698411,4.682539682539682,-325.0,-325.0,16.26984126984127,231.19047619047618,-4.523809523809524,229.9206349206349,-325.0,-129.9206349206349,8.968253968253968,-8.174603174603174,-4.2063492063492065,-18.333333333333332,-1.0317460317460316,-4.841269841269841,-166.26984126984127
23.253968253968253,-325.0,88.65079365079364,-188.4920634920635,179.12698412698413,15.476190476190474,39.92063492063492,13.412698412698411,4.682539682539682,-325.0,-325.0,16.26984126984127,231.19047619047618,-4.523809523809524,229.9206349206349,-325.0,-129.9206349206349,8.968253968253968,-8.174603174603174,-4.2063492063492065,-18.333333333333332,-1.0317460317460316,-4.841269841269841,-166.26984126984127
22.777777777777775,-325.0,86.74603174603175,-185.15873015873015,176.26984126984127,15.317460317460316,39.12698412698413,13.253968253968253,4.841269841269841,-325.0,-325.0,16.11111111111111,226.9047619047619,-4.365079365079365,225.95238095238093,-325.0,-127.85714285714285,8.65079365079365,-7.857142857142857,-4.0476190476190474,-18.015873015873016,1.349206349206349,3.571428571428571,-166.26984126984127
22.777777777777775,-325.0,86.74603174603175,-185.15873015873015,176.26984126984127,15.317460317460316,39.12698412698413,13.253968253968253,4.841269841269841,-325.0,-325.0,16.11111111111111,226.9047619047619,-4.365079365079365,225.95238095238093,-325.0,-127.85714285714285,8.65079365079365,-7.857142857142857,-4.0476190476190474,-18.015873015873016,1.349206349206349,3.571428571428571,-166.26984126984127
22.3015873015873,-325.0,85.15873015873015,-181.8253968253968,173.4126984126984,15.0,38.33333333333333,12.936507936507935,4.841269841269841,-325.0,-325.0,15.793650793650793,222.93650793650792,-4.365079365079365,221.98412698412696,-325.0,-125.47619047619047,8.65079365079365,-7.857142857142857,-3.888888888888889,-17.857142857142858,-1.0317460317460316,-5.158730158730158,-321.8253968253968
22.3015873015873,-325.0,85.15873015873015,-181.8253968253968,173.4126984126984,15.0,38.33333333333333,12.936507936507935,4.841269841269841,-325.0,-325.0,15.793650793650793,222.93650793650792,-4.365079365079365,221.98412698412696,-325.0,-125.47619047619047,8.65079365079365,-7.857142857142857,-3.888888888888889,-17.857142857142858,-1.0317460317460316,-5.158730158730158,-321.8253968253968
21.984126984126984,-325.0,84.04761904761904,-179.28571428571428,171.03174603174602,14.682539682539682,37.698412698412696,12.777777777777777,4.682539682539682,-325.0,-3.571428571428571,15.317460317460316,219.9206349206349,-4.365079365079365,219.12698412698413,-325.0,-124.2063492063492,8.65079365079365,-7.698412698412698,-3.888888888888889,-17.38095238095238,5.158730158730158,9.285714285714285,-321.8253968253968
21.984126984126984,-325.0,84.04761904761904,-179.28571428571428,171.03174603174602,14.682539682539682,37.698412698412696,12.777777777777777,4.682539682539682,-325.0,-3.571428571428571,15.317460317460316,219.9206349206349,-4.365079365079365,219.12698412698413,-325.0,-124.2063492063492,8.65079365079365,-7.698412698412698,-3.888888888888889,-17.38095238095238,5.158730158730158,9.285714285714285,-321.8253968253968
19.92063492063492,-325.0,75.79365079365078,-162.61904761904762,155.63492063492063,13.412698412698411,34.047619047619044,11.666666666666666,4.365079365079365,-325.0,-325.0,14.047619047619047,199.28571428571428,-4.0476190476190474,199.12698412698413,-319.76190476190476,260.23809523809524,7.857142857142857,-7.222222222222221,-3.571428571428571,-15.634920634920634,2.46031746031746,-0.23809523809523808,-321.8253968253968
19.92063492063492,-325.0,75.79365079365078,-162.61904761904762,155.63492063492063,13.412698412698411,34.047619047619044,11.666666666666666,4.365079365079365,-325.0,-325.0,14.047619047619047,199.28571428571428,-4.0476190476190474,199.12698412698413,-319.76190476190476,260.23809523809524,7.857142857142857,-7.222222222222221,-3.571428571428571,-15.634920634920634,2.46031746031746,-0.23809523809523808,-321.8253968253968
19.92063492063492,-325.0,75.79365079365078,-162.61904761904762,155.63492063492063,13.412698412698411,34.047619047619044,11.666666666666666,4.365079365079365,-325.0,-325.0,14.047619047619047,199.28571428571428,-4.0476190476190474,199.12698412698413,-319.76190476190476,260.23809523809524,7.857142857142857,-7.222222222222221,-3.571428571428571,-15.634920634920634,2.46031746031746,-0.23809523809523808,-321.8253968253968
19.92063492063492,-325.0,75.79365079365078,-162.61904761904762,155.63492063492063,13.412698412698411,34.047619047619044,11.666666666666666,4.365079365079365,-325.0,-325.0,14.047619047619047,199.28571428571428,-4.0476190476190474,199.12698412698413,-319.76190476190476,260.23809523809524,7.857142857142857,-7.222222222222221,-3.571428571428571,-15.634920634920634,2.46031746031746,-0.23809523809523808,-321.8253968253968
19.285714285714285,-325.0,72.46031746031746,-156.42857142857142,149.6031746031746,12.936507936507935,32.61904761904762,11.19047619047619,4.365079365079365,-325.0,-325.0,13.73015873015873,191.34920634920633,-4.0476190476190474,191.19047619047618,-308.3333333333333,325.0,7.5396825396825395,-7.063492063492063,-4.0476190476190474,-15.317460317460316,3.888888888888889,5.634920634920634,-321.8253968253968
19.285714285714285,-325.0,72.46031746031746,-156.42857142857142,149.6031746031746,12.936507936507935,32.61904761904762,11.19047619047619,4.365079365079365,-325.0,-325.0,13.73015873015873,191.34920634920633,-4.0476190476190474,191.19047619047618,-308.3333333333333,325.0,7.5396825396825395,-7.063492063492063,-4.0476190476190474,-15.317460317460316,3.888888888888889,5.634920634920634,-321.8253968253968
18.65079365079365,-325.0,71.03174603174602,-153.88888888888889,147.38095238095238,12.777777777777777,32.14285714285714,11.19047619047619,4.365079365079365,-325.0,-325.0,13.412698412698411,188.015873015873,-4.2063492063492065,187.85714285714283,-302.9365079365079,227.69841269841268,7.222222222222221,-7.063492063492063,-3.73015873015873,-15.0,-5.476190476190476,-5.317460317460317,-166.26984126984127
18.65079365079365,-325.0,71.03174603174602,-153.88888888888889,147.38095238095238,12.777777777777777,32.14285714285714,11.19047619047619,4.365079365079365,-325.0,-325.0,13.412698412698411,188.015873015873,-4.2063492063492065,187.85714285714283,-302.9365079365079,227.69841269841268,7.222222222222221,-7.063492063492063,-3.73015873015873,-15.0,-5.476190476190476,-5.317460317460317,-166.26984126984127
18.65079365079365,-325.0,70.55555555555556,-152.93650793650792,146.74603174603175,12.777777777777777,32.14285714285714,11.031746031746032,4.365079365079365,-325.0,-325.0,13.412698412698411,187.2222222222222,-4.0476190476190474,187.06349206349205,-301.66666666666663,182.46031746031744,7.222222222222221,-6.904761904761904,-3.73015873015873,-14.84126984126984,-7.063492063492063,-10.714285714285714,-166.26984126984127
18.65079365079365,-325.0,70.55555555555556,-152.93650793650792,146.74603174603175,12.777777777777777,32.14285714285714,11.031746031746032,4.365079365079365,-325.0,-325.0,13.412698412698411,187.2222222222222,-4.0476190476190474,187.06349206349205,-301.66666666666663,182.46031746031744,7.222222222222221,-6.904761904761904,-3.73015873015873,-14.84126984126984,-7.063492063492063,-10.714285714285714,-166.26984126984127
18.174603174603174,-325.0,68.80952380952381,-148.96825396825395,142.93650793650792,12.46031746031746,30.87301587301587,10.396825396825395,4.2063492063492065,-325.0,-325.0,12.936507936507935,182.3015873015873,-3.888888888888889,182.3015873015873,-294.2063492063492,325.0,7.3809523809523805,-6.746031746031746,-3.73015873015873,-14.523809523809524,-3.095238095238095,-0.23809523809523808,-166.26984126984127
18.174603174603174,-325.0,68.80952380952381,-148.96825396825395,142.93650793650792,12.46031746031746,30.87301587301587,10.396825396825395,4.2063492063492065,-325.0,-325.0,12.936507936507935,182.3015873015873,-3.888888888888889,182.3015873015873,-294.2063492063492,325.0,7.3809523809523805,-6.746031746031746,-3.73015873015873,-14.523809523809524,-3.095238095238095,-0.23809523809523808,-166.26984126984127
17.857142857142858,-325.0,67.06349206349206,-145.79365079365078,139.76190476190476,11.984126984126984,30.238095238095237,10.555555555555555,4.0476190476190474,-325.0,-325.0,12.619047619047619,178.33333333333331,-3.888888888888889,178.33333333333331,-288.17460317460313,325.0,7.063492063492063,-6.746031746031746,-3.571428571428571,-14.365079365079364,3.73015873015873,5.317460317460317,-166.26984126984127
17.857142857142858,-325.0,67.06349206349206,-145.79365079365078,139.76190476190476,11.984126984126984,30.238095238095237,10.555555555555555,4.0476190476190474,-325.0,-325.0,12.619047619047619,178.33333333333331,-3.888888888888889,178.33333333333331,-288.17460317460313,325.0,7.063492063492063,-6.746031746031746,-3.571428571428571,-14.365079365079364,3.73015873015873,5.317460317460317,-166.26984126984127
17.38095238095238,-325.0,65.95238095238095,-143.25396825396825,137.38095238095238,11.984126984126984,29.76190476190476,10.396825396825395,3.73015873015873,-325.0,-325.0,12.46031746031746,175.15873015873015,-3.888888888888889,175.3174603174603,-283.57142857142856,325.0,7.063492063492063,-6.746031746031746,-3.571428571428571,-14.206349206349206,-4.365079365079365,-5.0,-166.26984126984127
17.38095238095238,-325.0,65.95238095238095,-143.25396825396825,137.38095238095238,11.984126984126984,29.76190476190476,10.396825396825395,3.73015873015873,-325.0,-325.0,12.46031746031746,175.15873015873015,-3.888888888888889,175.3174603174603,-283.57142857142856,325.0,7.063492063492063,-6.746031746031746,-3.571428571428571,-14.206349206349206,-4.365079365079365,-5.0,-166.26984126984127
17.22222222222222,-325.0,64.68253968253968,-140.7142857142857,135.15873015873015,11.825396825396824,29.126984126984127,10.238095238095237,4.0476190476190474,-325.0,-325.0,12.3015873015873,171.984126984127,-4.0476190476190474,172.14285714285714,-278.6507936507936,325.0,6.904761904761904,-6.904761904761904,-3.73015873015873,-13.73015873015873,3.73015873015873,4.841269841269841,-321.8253968253968
17.22222222222222,-325.0,64.68253968253968,-140.7142857142857,135.15873015873015,11.825396825396824,29.126984126984127,10.238095238095237,4.0476190476190474,-325.0,-325.0,12.3015873015873,171.984126984127,-4.0476190476190474,172.14285714285714,-278.6507936507936,325.0,6.904761904761904,-6.904761904761904,-3.73015873015873,-13.73015873015873,3.73015873015873,4.841269841269841,-321.8253968253968
16.904761904761905,-325.0,63.25396825396825,-138.015873015873,132.77777777777777,11.666666666666666,28.65079365079365,10.079365079365079,3.888888888888889,-325.0,-325.0,12.142857142857142,168.8095238095238,-3.888888888888889,169.12698412698413,-273.88888888888886,325.0,6.746031746031746,-6.587301587301587,-3.73015873015873,-13.412698412698411,-4.841269841269841,-4.841269841269841,-321.8253968253968
16.904761904761905,-325.0,63.25396825396825,-138.015873015873,132.77777777777777,11.666666666666666,28.65079365079365,10.079365079365079,3.888888888888889,-325.0,-325.0,12.142857142857142,168.8095238095238,-3.888888888888889,169.12698412698413,-273.88888888888886,325.0,6.746031746031746,-6.587301587301587,-3.73015873015873,-13.412698412698411,-4.841269841269841,-4.841269841269841,-321.8253968253968
16.26984126984127,-325.0,62.61904761904761,-136.26984126984127,131.5079365079365,11.507936507936508,28.174603174603174,9.920634920634921,4.0476190476190474,-325.0,-325.0,11.825396825396824,166.74603174603175,-3.73015873015873,167.06349206349205,-270.55555555555554,325.0,6.587301587301587,-6.428571428571428,-3.4126984126984126,-13.253968253968253,2.619047619047619,-1.8253968253968254,-321.8253968253968
16.26984126984127,-325.0,62.61904761904761,-136.26984126984127,131.5079365079365,11.507936507936508,28.174603174603174,9.920634920634921,4.0476190476190474,-325.0,-325.0,11.825396825396824,166.74603174603175,-3.73015873015873,167.06349206349205,-270.55555555555554,325.0,6.587301587301587,-6.428571428571428,-3.4126984126984126,-13.253968253968253,2.619047619047619,-1.8253968253968254,-321.8253968253968
16.26984126984127,-325.0,61.03174603174603,-133.4126984126984,128.4920634920635,11.031746031746032,27.38095238095238,9.761904761904761,3.73015873015873,-325.0,-325.0,11.507936507936508,162.93650793650792,-3.888888888888889,163.4126984126984,-265.0,325.0,6.587301587301587,-6.428571428571428,-3.4126984126984126,-13.095238095238095,-4.682539682539682,-5.476190476190476,-321.8253968253968
16.26984126984127,-325.0,61.03174603174603,-133.4126984126984,128.4920634920635,11.031746031746032,27.38095238095238,9.761904761904761,3.73015873015873,-325.0,-325.0,11.507936507936508,162.93650793650792,-3.888888888888889,163.4126984126984,-265.0,325.0,6.587301587301587,-6.428571428571428,-3.4126984126984126,-13.095238095238095,-4.682539682539682,-5.476190476190476,-321.8253968253968
15.95238095238095,-325.0,60.079365079365076,-131.03174603174602,126.26984126984127,11.031746031746032,27.063492063492063,9.603174603174603,3.73015873015873,-325.0,-325.0,11.507936507936508,159.9206349206349,-3.73015873015873,160.55555555555554,-260.55555555555554,325.0,6.587301587301587,-6.428571428571428,-3.73015873015873,-12.777777777777777,4.0476190476190474,4.2063492063492065,-321.8253968253968
15.95238095238095,-325.0,60.079365079365076,-131.03174603174602,126.26984126984127,11.031746031746032,27.063492063492063,9.603174603174603,3.73015873015873,-325.0,-325.0,11.507936507936508,159.9206349206349,-3.73015873015873,160.55555555555554,-260.55555555555554,325.0,6.587301587301587,-6.428571428571428,-3.73015873015873,-12.777777777777777,4.0476190476190474,4.2063492063492065,-321.8253968253968
15.634920634920634,-325.0,58.650793650793645,-128.65079365079364,124.04761904761904,10.873015873015872,26.587301587301585,9.444444444444445,3.73015873015873,-325.0,-325.0,11.349206349206348,157.06349206349205,-3.73015873015873,157.53968253968253,-256.26984126984127,325.0,6.26984126984127,-6.26984126984127,-3.571428571428571,-12.777777777777777,-5.317460317460317,-5.158730158730158,-166.26984126984127
15.634920634920634,-325.0,58.650793650793645,-128.65079365079364,124.04761904761904,10.873015873015872,26.587301587301585,9.444444444444445,3.73015873015873,-325.0,-325.0,11.349206349206348,157.06349206349205,-3.73015873015873,157.53968253968253,-256.26984126984127,325.0,6.26984126984127,-6.26984126984127,-3.571428571428571,-12.777777777777777,-5.317460317460317,-5.158730158730158,-166.26984126984127
15.317460317460316,-325.0,57.38095238095238,-126.1111111111111,121.34920634920634,10.714285714285714,25.952380952380953,9.126984126984127,3.73015873015873,-325.0,-325.0,11.031746031746032,153.57142857142856,-3.888888888888889,154.2063492063492,-250.87301587301585,325.0,6.26984126984127,-6.26984126984127,-3.571428571428571,-12.3015873015873,-0.23809523809523808,-0.07936507936507936,-166.26984126984127
15.317460317460316,-325.0,57.38095238095238,-126.1111111111111,121.34920634920634,10.714285714285714,25.952380952380953,9.126984126984127,3.73015873015873,-325.0,-325.0,11.031746031746032,153.57142857142856,-3.888888888888889,154.2063492063492,-250.87301587301585,325.0,6.26984126984127,-6.26984126984127,-3.571428571428571,-12.3015873015873,-0.23809523809523808,-0.07936507936507936,-166.26984126984127
15.0,-325.0,55.95238095238095,-122.77777777777777,118.8095238095238,10.396825396825395,25.476190476190474,8.809523809523808,3.73015873015873,-325.0,-325.0,10.873015873015872,150.23809523809524,-3.73015873015873,150.7142857142857,-245.63492063492063,325.0,6.111111111111111,-6.111111111111111,-3.4126984126984126,-12.142857142857142,-1.984126984126984,-6.111111111111111,-166.26984126984127
15.0,-325.0,55.95238095238095,-122.77777777777777,118.8095238095238,10.396825396825395,25.476190476190474,8.809523809523808,3.73015873015873,-325.0,-325.0,10.873015873015872,150.23809523809524,-3.73015873015873,150.7142857142857,-245.63492063492063,325.0,6.111111111111111,-6.111111111111111,-3.4126984126984126,-12.142857142857142,-1.984126984126984,-6.111111111111111,-166.26984126984127
14.682539682539682,-325.0,55.0,-120.87301587301586,116.74603174603173,10.079365079365079,24.68253968253968,8.809523809523808,3.571428571428571,-325.0,-325.0,10.555555555555555,147.38095238095238,-3.73015873015873,148.33333333333331,-241.5079365079365,325.0,6.111111111111111,-6.111111111111111,-3.4126984126984126,-11.984126984126984,2.46031746031746,5.317460317460317,-166.26984126984127
14.682539682539682,-325.0,55.0,-120.87301587301586,116.74603174603173,10.079365079365079,24.68253968253968,8.809523809523808,3.571428571428571,-325.0,-325.0,10.555555555555555,147.38095238095238,-3.73015873015873,148.33333333333331,-241.5079365079365,325.0,6.111111111111111,-6.111111111111111,-3.4126984126984126,-11.984126984126984,2.46031746031746,5.317460317460317,-166.26984126984127
14.206349206349206,-321.984126984127,53.095238095238095,-117.22222222222221,113.25396825396825,9.920634920634921,24.047619047619047,8.492063492063492,3.571428571428571,-324.2063492063492,-325.0,10.396825396825395,142.93650793650792,-3.571428571428571,143.73015873015873,-234.68253968253967,180.3968253968254,5.7936507936507935,-5.952380952380952,-3.4126984126984126,-11.666666666666666,0.5555555555555556,-0.7142857142857142,-166.26984126984127
14.206349206349206,-321.984126984127,53.095238095238095,-117.22222222222221,113.25396825396825,9.920634920634921,24.047619047619047,8.492063492063492,3.571428571428571,-324.2063492063492,-325.0,10.396825396825395,142.93650793650792,-3.571428571428571,143.73015873015873,-234.68253968253967,180.3968253968254,5.7936507936507935,-5.952380952380952,-3.4126984126984126,-11.666666666666666,0.5555555555555556,-0.7142857142857142,-166.26984126984127
13.888888888888888,-318.8095238095238,51.34920634920635,-114.04761904761904,110.39682539682539,9.761904761904761,23.57142857142857,8.333333333333332,3.4126984126984126,-323.4126984126984,-325.0,10.079365079365079,139.12698412698413,-3.4126984126984126,139.9206349206349,-228.65079365079364,35.95238095238095,5.476190476190476,-5.7936507936507935,-3.253968253968254,-11.19047619047619,2.9365079365079363,-2.46031746031746,-321.8253968253968
13.888888888888888,-318.8095238095238,51.34920634920635,-114.04761904761904,110.39682539682539,9.761904761904761,23.57142857142857,8.333333333333332,3.4126984126984126,-323.4126984126984,-325.0,10.079365079365079,139.12698412698413,-3.4126984126984126,139.9206349206349,-228.65079365079364,35.95238095238095,5.476190476190476,-5.7936507936507935,-3.253968253968254,-11.19047619047619,2.9365079365079363,-2.46031746031746,-321.8253968253968
13.888888888888888,-318.8095238095238,51.34920634920635,-114.04761904761904,110.39682539682539,9.761904761904761,23.57142857142857,8.333333333333332,3.4126984126984126,-323.4126984126984,-325.0,10.079365079365079,139.12698412698413,-3.4126984126984126,139.9206349206349,-228.65079365079364,35.95238095238095,5.476190476190476,-5.7936507936507935,-3.253968253968254,-11.19047619047619,2.9365079365079363,-2.46031746031746,-321.8253968253968
13.888888888888888,-318.8095238095238,51.34920634920635,-114.04761904761904,110.39682539682539,9.761904761904761,23.57142857142857,8.333333333333332,3.4126984126984126,-323.4126984126984,-325.0,10.079365079365079,139.12698412698413,-3.4126984126984126,139.9206349206349,-228.65079365079364,35.95238095238095,5.476190476190476,-5.7936507936507935,-3.253968253968254,-11.19047619047619,2.9365079365079363,-2.46031746031746,-321.8253968253968
12.777777777777777,-293.0952380952381,46.74603174603175,-104.36507936507935,101.34920634920634,8.968253968253968,21.507936507936506,7.698412698412698,3.253968253968254,-296.90476190476187,-325.0,9.285714285714285,127.06349206349206,-3.4126984126984126,128.015873015873,-210.55555555555554,180.3968253968254,5.158730158730158,-5.476190476190476,-3.253968253968254,-10.396825396825395,4.682539682539682,2.7777777777777777,-321.8253968253968
12.777777777777777,-293.0952380952381,46.74603174603175,-104.36507936507935,101.34920634920634,8.968253968253968,21.507936507936506,7.698412698412698,3.253968253968254,-296.90476190476187,-325.0,9.285714285714285,127.06349206349206,-3.4126984126984126,128.015873015873,-210.55555555555554,180.3968253968254,5.158730158730158,-5.476190476190476,-3.253968253968254,-10.396825396825395,4.682539682539682,2.7777777777777777,-321.8253968253968
11.031746031746032,-254.52380952380952,39.92063492063492,-89.44444444444444,87.22222222222221,7.857142857142857,18.333333333333332,6.904761904761904,3.095238095238095,-257.38095238095235,-325.0,8.174603174603174,108.96825396825396,-3.253968253968254,110.07936507936508,-182.77777777777777,325.0,4.682539682539682,-5.0,-3.095238095238095,-8.968253968253968,-7.857142857142857,-11.349206349206348,-321.8253968253968
11.031746031746032,-254.52380952380952,39.92063492063492,-89.44444444444444,87.22222222222221,7.857142857142857,18.333333333333332,6.904761904761904,3.095238095238095,-257.38095238095235,-325.0,8.174603174603174,108.96825396825396,-3.253968253968254,110.07936507936508,-182.77777777777777,325.0,4.682539682539682,-5.0,-3.095238095238095,-8.968253968253968,-7.857142857142857,-11.349206349206348,-321.8253968253968
11.031746031746032,-254.52380952380952,39.92063492063492,-89.44444444444444,87.22222222222221,7.857142857142857,18.333333333333332,6.904761904761904,3.095238095238095,-257.38095238095235,-325.0,8.174603174603174,108.96825396825396,-3.253968253968254,110.07936507936508,-182.77777777777777,325.0,4.682539682539682,-5.0,-3.095238095238095,-8.968253968253968,-7.857142857142857,-11.349206349206348,-321.8253968253968
11.031746031746032,-254.52380952380952,39.92063492063492,-89.44444444444444,87.22222222222221,7.857142857142857,18.333333333333332,6.904761904761904,3.095238095238095,-257.38095238095235,-325.0,8.174603174603174,108.96825396825396,-3.253968253968254,110.07936507936508,-182.77777777777777,325.0,4.682539682539682,-5.0,-3.095238095238095,-8.968253968253968,-7.857142857142857,-11.349206349206348,-321.8253968253968
8.968253968253968,-207.69841269841268,31.825396825396822,-72.3015873015873,-229.76190476190476,6.746031746031746,-325.0,5.634920634920634,2.619047619047619,-209.44444444444443,-325.0,4.2063492063492065,87.85714285714285,325.0,89.12698412698413,-149.28571428571428,-43.095238095238095,3.888888888888889,-4.365079365079365,-2.46031746031746,-7.5396825396825395,-9.444444444444445,-9.761904761904761,-166.26984126984127
8.968253968253968,-207.69841269841268,31.825396825396822,-72.3015873015873,-229.76190476190476,6.746031746031746,-325.0,5.634920634920634,2.619047619047619,-209.44444444444443,-325.0,4.2063492063492065,87.85714285714285,325.0,89.12698412698413,-149.28571428571428,-43.095238095238095,3.888888888888889,-4.365079365079365,-2.46031746031746,-7.5396825396825395,-9.444444444444445,-9.761904761904761,-166.26984126984127
8.809523809523808,-203.25396825396825,31.19047619047619,-70.71428571428571,-325.0,6.587301587301587,-325.0,5.476190476190476,2.46031746031746,-205.0,-325.0,-69.76190476190476,85.79365079365078,325.0,86.74603174603175,-146.26984126984127,275.4761904761905,3.888888888888889,-4.2063492063492065,-2.619047619047619,-7.222222222222221,4.365079365079365,6.746031746031746,-166.26984126984127
8.809523809523808,-203.25396825396825,31.19047619047619,-70.71428571428571,-325.0,6.587301587301587,-325.0,5.476190476190476,2.46031746031746,-205.0,-325.0,-69.76190476190476,85.79365079365078,325.0,86.74603174603175,-146.26984126984127,275.4761904761905,3.888888888888889,-4.2063492063492065,-2.619047619047619,-7.222222222222221,4.365079365079365,6.746031746031746,-166.26984126984127
8.492063492063492,-198.33333333333331,30.07936507936508,-68.96825396825396,-325.0,6.26984126984127,-325.0,-7.857142857142857,2.46031746031746,-199.76190476190476,-318.6507936507936,-260.07936507936506,83.4126984126984,325.0,84.52380952380952,-142.61904761904762,205.0,3.73015873015873,-4.2063492063492065,-2.619047619047619,-6.904761904761904,4.0476190476190474,0.7142857142857142,-166.26984126984127
8.492063492063492,-198.33333333333331,30.07936507936508,-68.96825396825396,-325.0,6.26984126984127,-325.0,-7.857142857142857,2.46031746031746,-199.76190476190476,-318.6507936507936,-260.07936507936506,83.4126984126984,325.0,84.52380952380952,-142.61904761904762,205.0,3.73015873015873,-4.2063492063492065,-2.619047619047619,-6.904761904761904,4.0476190476190474,0.7142857142857142,-166.26984126984127
8.492063492063492,-195.79365079365078,29.6031746031746,-67.85714285714285,-325.0,6.111111111111111,-325.0,2.142857142857143,2.619047619047619,-197.38095238095238,-314.8412698412698,-164.68253968253967,82.14285714285714,325.0,83.4126984126984,-140.7142857142857,160.55555555555554,3.571428571428571,-4.2063492063492065,-2.619047619047619,-6.904761904761904,0.3968253968253968,-0.873015873015873,-166.26984126984127
8.492063492063492,-195.79365079365078,29.6031746031746,-67.85714285714285,-325.0,6.111111111111111,-325.0,2.142857142857143,2.619047619047619,-197.38095238095238,-314.8412698412698,-164.68253968253967,82.14285714285714,325.0,83.4126984126984,-140.7142857142857,160.55555555555554,3.571428571428571,-4.2063492063492065,-2.619047619047619,-6.904761904761904,0.3968253968253968,-0.873015873015873,-166.26984126984127
8.015873015873016,-191.03174603174602,28.809523809523807,-65.95238095238095,-325.0,6.111111111111111,-325.0,-61.666666666666664,2.46031746031746,-192.3015873015873,-307.22222222222223,-325.0,80.07936507936508,325.0,81.19047619047619,-137.22222222222223,210.87301587301587,3.4126984126984126,-4.0476190476190474,-2.3015873015873014,-6.904761904761904,-0.23809523809523808,-1.1904761904761905,-166.26984126984127
8.015873015873016,-191.03174603174602,28.809523809523807,-65.95238095238095,-325.0,6.111111111111111,-325.0,-61.666666666666664,2.46031746031746,-192.3015873015873,-307.22222222222223,-325.0,80.07936507936508,325.0,81.19047619047619,-137.22222222222223,210.87301587301587,3.4126984126984126,-4.0476190476190474,-2.3015873015873014,-6.904761904761904,-0.23809523809523808,-1.1904761904761905,-166.26984126984127
8.015873015873016,-187.06349206349205,28.333333333333332,-64.52380952380952,-325.0,5.952380952380952,-325.0,-108.49206349206348,2.619047619047619,-188.33333333333331,-301.031746031746,-237.06349206349205,78.33333333333333,325.0,79.44444444444444,-134.36507936507937,121.34920634920634,3.571428571428571,-4.0476190476190474,-2.46031746031746,-6.587301587301587,-5.158730158730158,-8.333333333333332,-321.8253968253968
8.015873015873016,-187.06349206349205,28.333333333333332,-64.52380952380952,-325.0,5.952380952380952,-325.0,-108.49206349206348,2.619047619047619,-188.33333333333331,-301.031746031746,-237.06349206349205,78.33333333333333,325.0,79.44444444444444,-134.36507936507937,121.34920634920634,3.571428571428571,-4.0476190476190474,-2.46031746031746,-6.587301587301587,-5.158730158730158,-8.333333333333332,-321.8253968253968
8.015873015873016,-184.36507936507937,27.698412698412696,-63.57142857142857,-325.0,5.634920634920634,-325.0,-215.95238095238093,2.3015873015873014,-185.79365079365078,-277.22222222222223,-325.0,77.38095238095238,325.0,78.4920634920635,-132.61904761904762,325.0,3.571428571428571,-3.888888888888889,-2.3015873015873014,-6.746031746031746,7.857142857142857,7.5396825396825395,-321.8253968253968
8.015873015873016,-184.36507936507937,27.698412698412696,-63.57142857142857,-325.0,5.634920634920634,-325.0,-215.95238095238093,2.3015873015873014,-185.79365079365078,-277.22222222222223,-325.0,77.38095238095238,325.0,78.4920634920635,-132.61904761904762,325.0,3.571428571428571,-3.888888888888889,-2.3015873015873014,-6.746031746031746,7.857142857142857,7.5396825396825395,-321.8253968253968
7.698412698412698,-181.03174603174602,27.22222222222222,-62.61904761904761,152.61904761904762,1.6666666666666665,-211.66666666666666,-205.15873015873015,2.142857142857143,-182.14285714285714,325.0,-325.0,75.63492063492063,325.0,76.58730158730158,-130.23809523809524,325.0,3.4126984126984126,-4.2063492063492065,-2.619047619047619,-6.587301587301587,-6.746031746031746,-8.968253968253968,-321.8253968253968
7.698412698412698,-181.03174603174602,27.22222222222222,-62.61904761904761,152.61904761904762,1.6666666666666665,-211.66666666666666,-205.15873015873015,2.142857142857143,-182.14285714285714,325.0,-325.0,75.63492063492063,325.0,76.58730158730158,-130.23809523809524,325.0,3.4126984126984126,-4.2063492063492065,-2.619047619047619,-6.587301587301587,-6.746031746031746,-8.968253968253968,-321.8253968253968
7.5396825396825395,-176.42857142857142,26.428571428571427,-60.71428571428571,159.12698412698413,5.7936507936507935,-265.6349206349206,-277.06349206349205,2.46031746031746,-177.53968253968253,298.8095238095238,-325.0,73.4126984126984,325.0,74.68253968253968,-126.74603174603173,325.0,3.4126984126984126,-4.0476190476190474,-2.46031746031746,-6.428571428571428,-3.73015873015873,-1.349206349206349,-321.8253968253968
7.5396825396825395,-176.42857142857142,26.428571428571427,-60.71428571428571,159.12698412698413,5.7936507936507935,-265.6349206349206,-277.06349206349205,2.46031746031746,-177.53968253968253,298.8095238095238,-325.0,73.4126984126984,325.0,74.68253968253968,-126.74603174603173,325.0,3.4126984126984126,-4.0476190476190474,-2.46031746031746,-6.428571428571428,-3.73015873015873,-1.349206349206349,-321.8253968253968
7.5396825396825395,-173.57142857142856,25.952380952380953,-59.6031746031746,155.63492063492063,-37.22222222222222,-325.0,-325.0,2.3015873015873014,-174.68253968253967,-69.44444444444444,-325.0,72.3015873015873,325.0,73.4126984126984,-124.52380952380952,325.0,-12.3015873015873,-4.0476190476190474,-2.46031746031746,-6.26984126984127,2.142857142857143,-1.507936507936508,-321.8253968253968
7.5396825396825395,-173.57142857142856,25.952380952380953,-59.6031746031746,155.63492063492063,-37.22222222222222,-325.0,-325.0,2.3015873015873014,-174.68253968253967,-69.44444444444444,-325.0,72.3015873015873,325.0,73.4126984126984,-124.52380952380952,325.0,-12.3015873015873,-4.0476190476190474,-2.46031746031746,-6.26984126984127,2.142857142857143,-1.507936507936508,-321.8253968253968
7.3809523809523805,-170.55555555555554,25.476190476190474,-58.49206349206349,152.61904761904762,5.952380952380952,-325.0,-325.0,2.142857142857143,-171.66666666666666,-38.96825396825397,-325.0,71.03174603174602,325.0,71.98412698412697,-122.46031746031746,325.0,3.73015873015873,-3.888888888888889,-2.3015873015873014,-6.111111111111111,-2.7777777777777777,-0.23809523809523808,-166.26984126984127
7.3809523809523805,-170.55555555555554,25.476190476190474,-58.49206349206349,152.61904761904762,5.952380952380952,-325.0,-325.0,2.142857142857143,-171.66666666666666,-38.96825396825397,-325.0,71.03174603174602,325.0,71.98412698412697,-122.46031746031746,325.0,3.73015873015873,-3.888888888888889,-2.3015873015873014,-6.111111111111111,-2.7777777777777777,-0.23809523809523808,-166.26984126984127
7.3809523809523805,-168.33333333333331,25.158730158730158,-57.698412698412696,150.23809523809524,-75.31746031746032,-325.0,-325.0,2.142857142857143,-169.28571428571428,-126.26984126984127,-325.0,70.07936507936508,325.0,70.87301587301587,-120.87301587301586,325.0,-34.2063492063492,-3.888888888888889,-2.46031746031746,-5.952380952380952,-0.5555555555555556,-0.23809523809523808,-166.26984126984127
7.3809523809523805,-168.33333333333331,25.158730158730158,-57.698412698412696,150.23809523809524,-75.31746031746032,-325.0,-325.0,2.142857142857143,-169.28571428571428,-126.26984126984127,-325.0,70.07936507936508,325.0,70.87301587301587,-120.87301587301586,325.0,-34.2063492063492,-3.888888888888889,-2.46031746031746,-5.952380952380952,-0.5555555555555556,-0.23809523809523808,-166.26984126984127
7.063492063492063,-165.0,24.365079365079364,-56.58730158730158,146.74603174603175,-56.74603174603174,-325.0,-325.0,2.46031746031746,-165.79365079365078,-164.2063492063492,-325.0,68.17460317460318,325.0,69.6031746031746,-118.49206349206348,325.0,-8.809523809523808,-3.73015873015873,-2.3015873015873014,-5.952380952380952,-3.095238095238095,-0.873015873015873,-166.26984126984127
7.063492063492063,-165.0,24.365079365079364,-56.58730158730158,146.74603174603175,-56.74603174603174,-325.0,-325.0,2.46031746031746,-165.79365079365078,-164.2063492063492,-325.0,68.17460317460318,325.0,69.6031746031746,-118.49206349206348,325.0,-8.809523809523808,-3.73015873015873,-2.3015873015873014,-5.952380952380952,-3.095238095238095,-0.873015873015873,-166.26984126984127
6.904761904761904,-162.3015873015873,24.047619047619047,-55.317460317460316,144.04761904761904,-306.74603174603175,-325.0,-325.0,2.46031746031746,-162.93650793650792,-273.88888888888886,-325.0,67.06349206349206,325.0,68.33333333333333,-116.42857142857142,325.0,-211.5079365079365,-3.571428571428571,-2.3015873015873014,-5.7936507936507935,3.095238095238095,-0.7142857142857142,-166.26984126984127
6.904761904761904,-162.3015873015873,24.047619047619047,-55.317460317460316,144.04761904761904,-306.74603174603175,-325.0,-325.0,2.46031746031746,-162.93650793650792,-273.88888888888886,-325.0,67.06349206349206,325.0,68.33333333333333,-116.42857142857142,325.0,-211.5079365079365,-3.571428571428571,-2.3015873015873014,-5.7936507936507935,3.095238095238095,-0.7142857142857142,-166.26984126984127
6.746031746031746,-159.44444444444443,23.730158730158728,-54.36507936507936,141.34920634920636,-193.88888888888889,-325.0,-325.0,2.3015873015873014,-160.23809523809524,-204.36507936507937,-325.0,65.79365079365078,325.0,67.06349206349206,-114.36507936507935,325.0,-114.84126984126983,-3.73015873015873,-2.3015873015873014,-5.634920634920634,-2.619047619047619,-0.23809523809523808,-166.26984126984127
6.746031746031746,-159.44444444444443,23.730158730158728,-54.36507936507936,141.34920634920636,-193.88888888888889,-325.0,-325.0,2.3015873015873014,-160.23809523809524,-204.36507936507937,-325.0,65.79365079365078,325.0,67.06349206349206,-114.36507936507935,325.0,-114.84126984126983,-3.73015873015873,-2.3015873015873014,-5.634920634920634,-2.619047619047619,-0.23809523809523808,-166.26984126984127
6.904761904761904,-156.74603174603175,23.253968253968253,-53.41269841269841,138.65079365079364,-325.0,-325.0,-325.0,2.3015873015873014,-157.69841269841268,-283.0952380952381,-325.0,64.68253968253968,325.0,65.95238095238095,-112.6190476190476,325.0,-325.0,-3.4126984126984126,-2.3015873015873014,-5.634920634920634,2.3015873015873014,-1.349206349206349,-321.8253968253968
6.904761904761904,-156.74603174603175,23.253968253968253,-53.41269841269841,138.65079365079364,-325.0,-325.0,-325.0,2.3015873015873014,-157.69841269841268,-283.0952380952381,-325.0,64.68253968253968,325.0,65.95238095238095,-112.6190476190476,325.0,-325.0,-3.4126984126984126,-2.3015873015873014,-5.634920634920634,2.3015873015873014,-1.349206349206349,-321.8253968253968
6.587301587301587,-153.88888888888889,22.619047619047617,-52.460317460317455,136.11111111111111,-251.66666666666666,-325.0,-325.0,2.142857142857143,-154.68253968253967,-242.14285714285714,-325.0,63.57142857142857,325.0,64.68253968253968,-110.87301587301587,325.0,-233.7301587301587,-3.571428571428571,-2.142857142857143,-5.476190476190476,-2.7777777777777777,-0.3968253968253968,-321.8253968253968
6.587301587301587,-153.88888888888889,22.619047619047617,-52.460317460317455,136.11111111111111,-251.66666666666666,-325.0,-325.0,2.142857142857143,-154.68253968253967,-242.14285714285714,-325.0,63.57142857142857,325.0,64.68253968253968,-110.87301587301587,325.0,-233.7301587301587,-3.571428571428571,-2.142857142857143,-5.476190476190476,-2.7777777777777777,-0.3968253968253968,-321.8253968253968
6.428571428571428,-149.76190476190476,21.984126984126984,-50.87301587301587,131.8253968253968,-325.0,-325.0,-325.0,2.142857142857143,-150.23809523809524,-272.6190476190476,-325.0,61.507936507936506,325.0,62.61904761904761,-107.53968253968253,325.0,-325.0,-3.4126984126984126,-2.3015873015873014,-5.317460317460317,-4.0476190476190474,-9.444444444444445,-321.8253968253968
6.428571428571428,-149.76190476190476,21.984126984126984,-50.87301587301587,131.8253968253968,-325.0,-325.0,-325.0,2.142857142857143,-150.23809523809524,-272.6190476190476,-325.0,61.507936507936506,325.0,62.61904761904761,-107.53968253968253,325.0,-325.0,-3.4126984126984126,-2.3015873015873014,-5.317460317460317,-4.0476190476190474,-9.444444444444445,-321.8253968253968
6.26984126984127,-145.79365079365078,21.507936507936506,-49.44444444444444,121.98412698412697,-325.0,-325.0,-325.0,1.984126984126984,-146.26984126984127,-272.46031746031747,-325.0,60.079365079365076,325.0,61.03174603174603,-104.52380952380952,325.0,-325.0,-3.253968253968254,-1.984126984126984,-5.158730158730158,-1.0317460317460316,-0.7142857142857142,-321.8253968253968
6.26984126984127,-145.79365079365078,21.507936507936506,-49.44444444444444,121.98412698412697,-325.0,-325.0,-325.0,1.984126984126984,-146.26984126984127,-272.46031746031747,-325.0,60.079365079365076,325.0,61.03174603174603,-104.52380952380952,325.0,-325.0,-3.253968253968254,-1.984126984126984,-5.158730158730158,-1.0317460317460316,-0.7142857142857142,-321.8253968253968
6.26984126984127,-143.25396825396825,21.03174603174603,-48.49206349206349,117.85714285714285,-325.0,-325.0,-325.0,1.984126984126984,-143.73015873015873,-271.19047619047615,-325.0,58.96825396825397,325.0,59.76190476190476,-102.77777777777777,325.0,-325.0,-3.253968253968254,-2.142857142857143,-5.0,-0.3968253968253968,-0.23809523809523808,-321.8253968253968
6.26984126984127,-143.25396825396825,21.03174603174603,-48.49206349206349,117.85714285714285,-325.0,-325.0,-325.0,1.984126984126984,-143.73015873015873,-271.19047619047615,-325.0,58.96825396825397,325.0,59.76190476190476,-102.77777777777777,325.0,-325.0,-3.253968253968254,-2.142857142857143,-5.0,-0.3968253968253968,-0.23809523809523808,-321.8253968253968
6.111111111111111,-140.23809523809524,20.396825396825395,-47.53968253968254,67.38095238095238,-325.0,-325.0,-325.0,2.142857142857143,-140.55555555555554,-267.6984126984127,-325.0,57.698412698412696,325.0,58.49206349206349,-100.71428571428571,325.0,-325.0,-3.4126984126984126,-1.984126984126984,-5.0,5.317460317460317,7.3809523809523805,-166.26984126984127
6.111111111111111,-140.23809523809524,20.396825396825395,-47.53968253968254,67.38095238095238,-325.0,-325.0,-325.0,2.142857142857143,-140.55555555555554,-267.6984126984127,-325.0,57.698412698412696,325.0,58.49206349206349,-100.71428571428571,325.0,-325.0,-3.4126984126984126,-1.984126984126984,-5.0,5.317460317460317,7.3809523809523805,-166.26984126984127
5.952380952380952,-138.65079365079364,20.07936507936508,-46.74603174603175,94.68253968253968,-325.0,-325.0,-325.0,2.142857142857143,-138.8095238095238,-261.66666666666663,-325.0,56.904761904761905,325.0,57.857142857142854,-99.6031746031746,325.0,-325.0,-3.253968253968254,-1.984126984126984,-4.841269841269841,-0.3968253968253968,-0.3968253968253968,-166.26984126984127
5.952380952380952,-138.65079365079364,20.07936507936508,-46.74603174603175,94.68253968253968,-325.0,-325.0,-325.0,2.142857142857143,-138.8095238095238,-261.66666666666663,-325.0,56.904761904761905,325.0,57.857142857142854,-99.6031746031746,325.0,-325.0,-3.253968253968254,-1.984126984126984,-4.841269841269841,-0.3968253968253968,-0.3968253968253968,-166.26984126984127
-18.174603174603174,-135.63492063492063,19.76190476190476,-45.63492063492063,1.1904761904761905,-325.0,-325.0,-325.0,2.142857142857143,-135.95238095238093,-262.1428571428571,-325.0,55.63492063492063,325.0,56.42857142857142,-97.38095238095238,325.0,-325.0,-3.253968253968254,-2.142857142857143,-4.841269841269841,4.2063492063492065,6.587301587301587,-166.26984126984127
-18.174603174603174,-135.63492063492063,19.76190476190476,-45.63492063492063,1.1904761904761905,-325.0,-325.0,-325.0,2.142857142857143,-135.95238095238093,-262.1428571428571,-325.0,55.63492063492063,325.0,56.42857142857142,-97.38095238095238,325.0,-325.0,-3.253968253968254,-2.142857142857143,-4.841269841269841,4.2063492063492065,6.587301587301587,-166.26984126984127
-14.682539682539682,-132.93650793650792,19.444444444444443,-45.0,68.65079365079364,-325.0,-325.0,-325.0,2.142857142857143,-133.0952380952381,-254.04761904761904,-325.0,54.36507936507936,325.0,55.0,-95.31746031746032,325.0,-325.0,-3.253968253968254,-2.3015873015873014,-4.682539682539682,-5.476190476190476,-10.396825396825395,-166.26984126984127
-14.682539682539682,-132.93650793650792,19.444444444444443,-45.0,68.65079365079364,-325.0,-325.0,-325.0,2.142857142857143,-133.0952380952381,-254.04761904761904,-325.0,54.36507936507936,325.0,55.0,-95.31746031746032,325.0,-325.0,-3.253968253968254,-2.3015873015873014,-4.682539682539682,-5.476190476190476,-10.396825396825395,-166.26984126984127
-246.9047619047619,-130.07936507936506,18.96825396825397,-43.73015873015873,20.238095238095237,-325.0,-325.0,-325.0,2.142857142857143,-130.3968253968254,-249.9206349206349,-325.0,52.93650793650794,325.0,54.047619047619044,-93.4126984126984,325.0,-325.0,-3.095238095238095,-2.142857142857143,-4.523809523809524,-1.0317460317460316,1.6666666666666665,-166.26984126984127
-246.9047619047619,-130.07936507936506,18.96825396825397,-43.73015873015873,20.238095238095237,-325.0,-325.0,-325.0,2.142857142857143,-130.3968253968254,-249.9206349206349,-325.0,52.93650793650794,325.0,54.047619047619044,-93.4126984126984,325.0,-325.0,-3.095238095238095,-2.142857142857143,-4.523809523809524,-1.0317460317460316,1.6666666666666665,-166.26984126984127
-181.984126984127,-127.85714285714285,18.49206349206349,-42.93650793650794,-86.9047619047619,-325.0,-325.0,-325.0,1.8253968253968254,-128.17460317460316,-247.06349206349205,-325.0,52.14285714285714,325.0,53.095238095238095,-91.82539682539682,325.0,-325.0,-3.095238095238095,-1.984126984126984,-4.682539682539682,-0.07936507936507936,-2.7777777777777777,-321.8253968253968
-181.984126984127,-127.85714285714285,18.49206349206349,-42.93650793650794,-86.9047619047619,-325.0,-325.0,-325.0,1.8253968253968254,-128.17460317460316,-247.06349206349205,-325.0,52.14285714285714,325.0,53.095238095238095,-91.82539682539682,325.0,-325.0,-3.095238095238095,-1.984126984126984,-4.682539682539682,-0.07936507936507936,-2.7777777777777777,-321.8253968253968
-325.0,-125.47619047619047,18.174603174603174,-42.460317460317455,-39.6031746031746,-325.0,-325.0,-325.0,1.8253968253968254,-125.79365079365078,-242.3015873015873,-325.0,51.19047619047619,325.0,52.14285714285714,-90.39682539682539,325.0,-325.0,-2.9365079365079363,-2.142857142857143,-4.523809523809524,-1.6666666666666665,2.3015873015873014,-321.8253968253968
-325.0,-125.47619047619047,18.174603174603174,-42.460317460317455,-39.6031746031746,-325.0,-325.0,-325.0,1.8253968253968254,-125.79365079365078,-242.3015873015873,-325.0,51.19047619047619,325.0,52.14285714285714,-90.39682539682539,325.0,-325.0,-2.9365079365079363,-2.142857142857143,-4.523809523809524,-1.6666666666666665,2.3015873015873014,-321.8253968253968
-325.0,-124.2063492063492,18.015873015873016,-41.82539682539682,-41.03174603174603,-325.0,-325.0,-325.0,1.984126984126984,-124.36507936507935,-239.60317460317458,-325.0,50.55555555555555,325.0,51.19047619047619,-89.12698412698413,325.0,-325.0,-2.9365079365079363,57.53968253968254,-4.523809523809524,-5.158730158730158,-9.126984126984127,-321.8253968253968
-325.0,-124.2063492063492,18.015873015873016,-41.82539682539682,-41.03174603174603,-325.0,-325.0,-325.0,1.984126984126984,-124.36507936507935,-239.60317460317458,-325.0,50.55555555555555,325.0,51.19047619047619,-89.12698412698413,325.0,-325.0,-2.9365079365079363,57.53968253968254,-4.523809523809524,-5.158730158730158,-9.126984126984127,-321.8253968253968
-325.0,-121.5079365079365,17.539682539682538,-40.714285714285715,-98.96825396825396,-325.0,-325.0,-325.0,1.984126984126984,-121.66666666666666,-235.0,-325.0,49.12698412698413,325.0,50.238095238095234,-87.22222222222221,325.0,-325.0,-2.7777777777777777,14.682539682539682,-4.2063492063492065,-0.5555555555555556,2.3015873015873014,-321.8253968253968
-325.0,-121.5079365079365,17.539682539682538,-40.714285714285715,-98.96825396825396,-325.0,-325.0,-325.0,1.984126984126984,-121.66666666666666,-235.0,-325.0,49.12698412698413,325.0,50.238095238095234,-87.22222222222221,325.0,-325.0,-2.7777777777777777,14.682539682539682,-4.2063492063492065,-0.5555555555555556,2.3015873015873014,-321.8253968253968
-325.0,-119.44444444444444,17.22222222222222,-39.92063492063492,-196.74603174603175,-325.0,-325.0,-325.0,1.984126984126984,-119.76190476190476,-231.66666666666666,-325.0,48.49206349206349,325.0,49.44444444444444,-85.79365079365078,325.0,-325.0,-2.7777777777777777,325.0,-4.365079365079365,0.5555555555555556,-2.9365079365079363,-321.8253968253968
-325.0,-119.44444444444444,17.22222222222222,-39.92063492063492,-196.74603174603175,-325.0,-325.0,-325.0,1.984126984126984,-119.76190476190476,-231.66666666666666,-325.0,48.49206349206349,325.0,49.44444444444444,-85.79365079365078,325.0,-325.0,-2.7777777777777777,325.0,-4.365079365079365,0.5555555555555556,-2.9365079365079363,-321.8253968253968
-325.0,-117.38095238095238,16.904761904761905,-39.285714285714285,-183.88888888888889,-325.0,-325.0,-325.0,1.8253968253968254,-117.53968253968253,-228.17460317460316,-325.0,47.698412698412696,325.0,48.650793650793645,-84.52380952380952,325.0,-325.0,-2.9365079365079363,325.0,-4.365079365079365,-1.0317460317460316,1.984126984126984,-166.26984126984127
-325.0,-117.38095238095238,16.904761904761905,-39.285714285714285,-183.88888888888889,-325.0,-325.0,-325.0,1.8253968253968254,-117.53968253968253,-228.17460317460316,-325.0,47.698412698412696,325.0,48.650793650793645,-84.52380952380952,325.0,-325.0,-2.9365079365079363,325.0,-4.365079365079365,-1.0317460317460316,1.984126984126984,-166.26984126984127
-325.0,-115.0,16.26984126984127,-38.49206349206349,-240.87301587301587,-325.0,-325.0,-325.0,1.8253968253968254,-115.0,-223.4126984126984,-325.0,46.58730158730158,325.0,47.22222222222222,-82.61904761904762,325.0,-325.0,-2.7777777777777777,325.0,-4.2063492063492065,0.07936507936507936,-0.5555555555555556,-166.26984126984127
-325.0,-115.0,16.26984126984127,-38.49206349206349,-240.87301587301587,-325.0,-325.0,-325.0,1.8253968253968254,-115.0,-223.4126984126984,-325.0,46.58730158730158,325.0,47.22222222222222,-82.61904761904762,325.0,-325.0,-2.7777777777777777,325.0,-4.2063492063492065,0.07936507936507936,-0.5555555555555556,-166.26984126984127
-325.0,-112.77777777777777,16.11111111111111,-37.698412698412696,-192.77777777777777,-325.0,-325.0,-325.0,1.6666666666666665,-112.46031746031746,-218.8095238095238,-325.0,45.63492063492063,325.0,46.269841269841265,-80.87301587301587,325.0,-325.0,-2.9365079365079363,325.0,-4.0476190476190474,-6.111111111111111,-7.222222222222221,-166.26984126984127
-325.0,-112.77777777777777,16.11111111111111,-37.698412698412696,-192.77777777777777,-325.0,-325.0,-325.0,1.6666666666666665,-112.46031746031746,-218.8095238095238,-325.0,45.63492063492063,325.0,46.269841269841265,-80.87301587301587,325.0,-325.0,-2.9365079365079363,325.0,-4.0476190476190474,-6.111111111111111,-7.222222222222221,-166.26984126984127
-325.0,-110.07936507936508,15.793650793650793,-36.74603174603175,-325.0,-325.0,-325.0,-325.0,1.8253968253968254,-110.07936507936508,-214.36507936507937,-325.0,44.52380952380952,325.0,45.476190476190474,-79.12698412698413,325.0,-325.0,-2.7777777777777777,325.0,-3.888888888888889,4.2063492063492065,10.238095238095237,-166.26984126984127
-325.0,-110.07936507936508,15.793650793650793,-36.74603174603175,-325.0,-325.0,-325.0,-325.0,1.8253968253968254,-110.07936507936508,-214.36507936507937,-325.0,44.52380952380952,325.0,45.476190476190474,-79.12698412698413,325.0,-325.0,-2.7777777777777777,325.0,-3.888888888888889,4.2063492063492065,10.238095238095237,-166.26984126984127
-325.0,-110.07936507936508,15.793650793650793,-36.74603174603175,-325.0,-325.0,-325.0,-325.0,1.8253968253968254,-110.07936507936508,-214.36507936507937,-325.0,44.52380952380952,325.0,45.476190476190474,-79.12698412698413,325.0,-325.0,-2.7777777777777777,325.0,-3.888888888888889,4.2063492063492065,10.238095238095237,-166.26984126984127
-325.0,-110.07936507936508,15.793650793650793,-36.74603174603175,-325.0,-325.0,-325.0,-325.0,1.8253968253968254,-110.07936507936508,-214.36507936507937,-325.0,44.52380952380952,325.0,45.476190476190474,-79.12698412698413,325.0,-325.0,-2.7777777777777777,325.0,-3.888888888888889,4.2063492063492065,10.238095238095237,-166.26984126984127
-325.0,-110.07936507936508,15.793650793650793,-36.74603174603175,-325.0,-325.0,-325.0,-325.0,1.8253968253968254,-110.07936507936508,-214.36507936507937,-325.0,44.52380952380952,325.0,45.476190476190474,-79.12698412698413,325.0,-325.0,-2.7777777777777777,325.0,-3.888888888888889,4.2063492063492065,10.238095238095237,-321.8253968253968
-325.0,-110.07936507936508,15.793650793650793,-36.74603174603175,-325.0,-325.0,-325.0,-325.0,1.8253968253968254,-110.07936507936508,-214.36507936507937,-325.0,44.52380952380952,325.0,45.476190476190474,-79.12698412698413,325.0,-325.0,-2.7777777777777777,325.0,-3.888888888888889,4.2063492063492065,10.238095238095237,-321.8253968253968
-325.0,-104.52380952380952,14.682539682539682,-34.84126984126984,-325.0,-325.0,-325.0,-325.0,1.8253968253968254,-104.2063492063492,-203.4126984126984,-325.0,41.98412698412698,325.0,42.61904761904761,-75.0,325.0,-325.0,-2.9365079365079363,325.0,-3.888888888888889,-0.7142857142857142,-3.888888888888889,-321.8253968253968
-325.0,-104.52380952380952,14.682539682539682,-34.84126984126984,-325.0,-325.0,-325.0,-325.0,1.8253968253968254,-104.2063492063492,-203.4126984126984,-325.0,41.98412698412698,325.0,42.61904761904761,-75.0,325.0,-325.0,-2.9365079365079363,325.0,-3.888888888888889,-0.7142857142857142,-3.888888888888889,-321.8253968253968
-325.0,-102.77777777777777,14.365079365079364,-34.2063492063492,-324.5238095238095,-325.0,-325.0,-325.0,1.507936507936508,-102.30158730158729,-172.61904761904762,-325.0,41.34920634920635,325.0,41.98412698412698,-73.57142857142857,325.0,-325.0,-2.7777777777777777,325.0,-3.73015873015873,-0.23809523809523808,2.9365079365079363,-321.8253968253968
-325.0,-102.77777777777777,14.365079365079364,-34.2063492063492,-324.5238095238095,-325.0,-325.0,-325.0,1.507936507936508,-102.30158730158729,-172.61904761904762,-325.0,41.34920634920635,325.0,41.98412698412698,-73.57142857142857,325.0,-325.0,-2.7777777777777777,325.0,-3.73015873015873,-0.23809523809523808,2.9365079365079363,-321.8253968253968
-325.0,-101.03174603174602,14.206349206349206,-33.41269841269841,-325.0,-325.0,-325.0,-325.0,1.8253968253968254,-100.71428571428571,-184.2063492063492,-325.0,40.55555555555555,325.0,41.19047619047619,-72.46031746031746,325.0,-325.0,-2.619047619047619,325.0,52.14285714285714,-1.0317460317460316,-4.682539682539682,-321.8253968253968
-325.0,-101.03174603174602,14.206349206349206,-33.41269841269841,-325.0,-325.0,-325.0,-325.0,1.8253968253968254,-100.71428571428571,-184.2063492063492,-325.0,40.55555555555555,325.0,41.19047619047619,-72.46031746031746,325.0,-325.0,-2.619047619047619,325.0,52.14285714285714,-1.0317460317460316,-4.682539682539682,-321.8253968253968
-325.0,-99.76190476190476,14.047619047619047,-32.93650793650794,-325.0,-325.0,-325.0,-325.0,1.6666666666666665,-99.6031746031746,-166.26984126984127,-325.0,40.079365079365076,325.0,40.714285714285715,-71.5079365079365,323.88888888888886,-325.0,-2.619047619047619,325.0,13.571428571428571,-0.5555555555555556,-0.7142857142857142,-321.8253968253968
-325.0,-99.76190476190476,14.047619047619047,-32.93650793650794,-325.0,-325.0,-325.0,-325.0,1.6666666666666665,-99.6031746031746,-166.26984126984127,-325.0,40.079365079365076,325.0,40.714285714285715,-71.5079365079365,323.88888888888886,-325.0,-2.619047619047619,325.0,13.571428571428571,-0.5555555555555556,-0.7142857142857142,-321.8253968253968
-325.0,-97.53968253968253,13.73015873015873,-29.920634920634917,-314.68253968253964,-325.0,-325.0,-325.0,1.507936507936508,-97.38095238095238,-179.28571428571428,-325.0,39.12698412698413,325.0,39.76190476190476,-70.23809523809524,318.6507936507936,-325.0,-2.7777777777777777,325.0,161.19047619047618,-1.507936507936508,-5.0,-166.26984126984127
-325.0,-97.53968253968253,13.73015873015873,-29.920634920634917,-314.68253968253964,-325.0,-325.0,-325.0,1.507936507936508,-97.38095238095238,-179.28571428571428,-325.0,39.12698412698413,325.0,39.76190476190476,-70.23809523809524,318.6507936507936,-325.0,-2.7777777777777777,325.0,161.19047619047618,-1.507936507936508,-5.0,-166.26984126984127
-325.0,-95.95238095238095,13.571428571428571,-31.19047619047619,-285.3174603174603,-325.0,-325.0,-325.0,1.507936507936508,-95.79365079365078,-182.14285714285714,-325.0,38.49206349206349,325.0,38.96825396825397,-68.96825396825396,313.4126984126984,-325.0,-2.7777777777777777,325.0,53.25396825396825,-0.3968253968253968,3.73015873015873,-166.26984126984127
-325.0,-95.95238095238095,13.571428571428571,-31.19047619047619,-285.3174603174603,-325.0,-325.0,-325.0,1.507936507936508,-95.79365079365078,-182.14285714285714,-325.0,38.49206349206349,325.0,38.96825396825397,-68.96825396825396,313.4126984126984,-325.0,-2.7777777777777777,325.0,53.25396825396825,-0.3968253968253968,3.73015873015873,-166.26984126984127
-325.0,-94.84126984126983,13.095238095238095,32.77777777777778,-290.55555555555554,-325.0,-325.0,-325.0,1.8253968253968254,-94.36507936507935,-181.8253968253968,-325.0,38.01587301587301,325.0,38.49206349206349,-68.01587301587301,309.6031746031746,-325.0,-2.7777777777777777,325.0,321.984126984127,-6.428571428571428,-10.714285714285714,-166.26984126984127
-325.0,-94.84126984126983,13.095238095238095,32.77777777777778,-290.55555555555554,-325.0,-325.0,-325.0,1.8253968253968254,-94.36507936507935,-181.8253968253968,-325.0,38.01587301587301,325.0,38.49206349206349,-68.01587301587301,309.6031746031746,-325.0,-2.7777777777777777,325.0,321.984126984127,-6.428571428571428,-10.714285714285714,-166.26984126984127
-325.0,-92.93650793650794,12.936507936507935,-13.095238095238095,-325.0,-325.0,-325.0,-325.0,1.6666666666666665,-92.46031746031746,-107.6984126984127,-325.0,36.904761904761905,325.0,37.698412698412696,-66.58730158730158,302.9365079365079,-325.0,-2.7777777777777777,325.0,195.47619047619045,0.7142857142857142,4.0476190476190474,-166.26984126984127
-325.0,-92.93650793650794,12.936507936507935,-13.095238095238095,-325.0,-325.0,-325.0,-325.0,1.6666666666666665,-92.46031746031746,-107.6984126984127,-325.0,36.904761904761905,325.0,37.698412698412696,-66.58730158730158,302.9365079365079,-325.0,-2.7777777777777777,325.0,195.47619047619045,0.7142857142857142,4.0476190476190474,-166.26984126984127
-325.0,-91.5079365079365,12.777777777777777,125.95238095238095,-325.0,-325.0,-325.0,-325.0,1.507936507936508,-90.87301587301587,-125.15873015873015,-325.0,36.42857142857142,325.0,37.06349206349206,-65.63492063492063,297.6984126984127,-325.0,-2.619047619047619,325.0,325.0,-1.8253968253968254,-4.365079365079365,-166.26984126984127
-325.0,-91.5079365079365,12.777777777777777,125.95238095238095,-325.0,-325.0,-325.0,-325.0,1.507936507936508,-90.87301587301587,-125.15873015873015,-325.0,36.42857142857142,325.0,37.06349206349206,-65.63492063492063,297.6984126984127,-325.0,-2.619047619047619,325.0,325.0,-1.8253968253968254,-4.365079365079365,-166.26984126984127
-325.0,-89.92063492063491,12.619047619047619,49.285714285714285,-325.0,-325.0,-325.0,-325.0,1.6666666666666665,-89.28571428571428,5.7936507936507935,-325.0,35.79365079365079,325.0,36.42857142857142,-64.36507936507937,292.6190476190476,-325.0,-2.619047619047619,325.0,307.38095238095235,1.1904761904761905,4.2063492063492065,-321.8253968253968
-325.0,-89.92063492063491,12.619047619047619,49.285714285714285,-325.0,-325.0,-325.0,-325.0,1.6666666666666665,-89.28571428571428,5.7936507936507935,-325.0,35.79365079365079,325.0,36.42857142857142,-64.36507936507937,292.6190476190476,-325.0,-2.619047619047619,325.0,307.38095238095235,1.1904761904761905,4.2063492063492065,-321.8253968253968
-325.0,-88.96825396825396,12.46031746031746,160.23809523809524,-325.0,-325.0,-325.0,-325.0,1.507936507936508,-88.33333333333333,1.349206349206349,-325.0,35.317460317460316,325.0,35.79365079365079,-63.41269841269841,288.968253968254,-325.0,-2.619047619047619,325.0,307.38095238095235,-0.5555555555555556,0.23809523809523808,-321.8253968253968
-325.0,-88.96825396825396,12.46031746031746,160.23809523809524,-325.0,-325.0,-325.0,-325.0,1.507936507936508,-88.33333333333333,1.349206349206349,-325.0,35.317460317460316,325.0,35.79365079365079,-63.41269841269841,288.968253968254,-325.0,-2.619047619047619,325.0,307.38095238095235,-0.5555555555555556,0.23809523809523808,-321.8253968253968
-325.0,-87.38095238095238,12.3015873015873,138.65079365079364,-325.0,-325.0,-325.0,-325.0,1.349206349206349,-86.74603174603175,58.33333333333333,-325.0,34.682539682539684,325.0,35.15873015873016,-62.460317460317455,284.04761904761904,-325.0,-2.619047619047619,325.0,325.0,5.476190476190476,10.079365079365079,-321.8253968253968
-325.0,-87.38095238095238,12.3015873015873,138.65079365079364,-325.0,-325.0,-325.0,-325.0,1.349206349206349,-86.74603174603175,58.33333333333333,-325.0,34.682539682539684,325.0,35.15873015873016,-62.460317460317455,284.04761904761904,-325.0,-2.619047619047619,325.0,325.0,5.476190476190476,10.079365079365079,-321.8253968253968
-325.0,-87.38095238095238,12.3015873015873,138.65079365079364,-325.0,-325.0,-325.0,-325.0,1.349206349206349,-86.74603174603175,58.33333333333333,-325.0,34.682539682539684,325.0,35.15873015873016,-62.460317460317455,284.04761904761904,-325.0,-2.619047619047619,325.0,325.0,5.476190476190476,10.079365079365079,-321.8253968253968
-325.0,-87.38095238095238,12.3015873015873,138.65079365079364,-325.0,-325.0,-325.0,-325.0,1.349206349206349,-86.74603174603175,58.33333333333333,-325.0,34.682539682539684,325.0,35.15873015873016,-62.460317460317455,284.04761904761904,-325.0,-2.619047619047619,325.0,325.0,5.476190476190476,10.079365079365079,-321.8253968253968
-325.0,-84.2063492063492,11.507936507936508,276.26984126984127,-325.0,-325.0,-325.0,-325.0,1.6666666666666665,-83.57142857142857,140.87301587301587,-325.0,33.25396825396825,325.0,33.73015873015873,-60.238095238095234,273.4126984126984,-325.0,-2.619047619047619,325.0,325.0,0.5555555555555556,4.365079365079365,-321.8253968253968
-325.0,-84.2063492063492,11.507936507936508,276.26984126984127,-325.0,-325.0,-325.0,-325.0,1.6666666666666665,-83.57142857142857,140.87301587301587,-325.0,33.25396825396825,325.0,33.73015873015873,-60.238095238095234,273.4126984126984,-325.0,-2.619047619047619,325.0,325.0,0.5555555555555556,4.365079365079365,-321.8253968253968
-325.0,-83.09523809523809,11.507936507936508,313.0952380952381,-325.0,-325.0,-325.0,-325.0,1.6666666666666665,-82.46031746031746,78.33333333333333,-325.0,32.93650793650794,325.0,33.41269841269841,-59.6031746031746,269.9206349206349,-325.0,-2.619047619047619,325.0,325.0,-0.5555555555555556,-0.873015873015873,-166.26984126984127
-325.0,-83.09523809523809,11.507936507936508,313.0952380952381,-325.0,-325.0,-325.0,-325.0,1.6666666666666665,-82.46031746031746,78.33333333333333,-325.0,32.93650793650794,325.0,33.41269841269841,-59.6031746031746,269.9206349206349,-325.0,-2.619047619047619,325.0,325.0,-0.5555555555555556,-0.873015873015873,-166.26984126984127
-325.0,-81.5079365079365,11.19047619047619,325.0,-325.0,-325.0,-325.0,-325.0,1.507936507936508,-81.03174603174602,42.14285714285714,-325.0,32.460317460317455,325.0,32.77777777777778,-58.8095238095238,265.6349206349206,-325.0,-2.619047619047619,325.0,325.0,-0.23809523809523808,-0.873015873015873,-166.26984126984127
-325.0,-81.5079365079365,11.19047619047619,325.0,-325.0,-325.0,-325.0,-325.0,1.507936507936508,-81.03174603174602,42.14285714285714,-325.0,32.460317460317455,325.0,32.77777777777778,-58.8095238095238,265.6349206349206,-325.0,-2.619047619047619,325.0,325.0,-0.23809523809523808,-0.873015873015873,-166.26984126984127
-325.0,-79.92063492063491,11.031746031746032,325.0,-325.0,-325.0,-325.0,-325.0,1.349206349206349,-79.44444444444444,-28.65079365079365,-325.0,31.825396825396822,325.0,31.98412698412698,-57.38095238095238,259.9206349206349,-325.0,-2.7777777777777777,325.0,325.0,-1.984126984126984,-5.476190476190476,-166.26984126984127
-325.0,-79.92063492063491,11.031746031746032,325.0,-325.0,-325.0,-325.0,-325.0,1.349206349206349,-79.44444444444444,-28.65079365079365,-325.0,31.825396825396822,325.0,31.98412698412698,-57.38095238095238,259.9206349206349,-325.0,-2.7777777777777777,325.0,325.0,-1.984126984126984,-5.476190476190476,-166.26984126984127
-325.0,-78.80952380952381,10.873015873015872,325.0,-325.0,-325.0,-325.0,-325.0,1.507936507936508,-78.17460317460316,0.23809523809523808,-325.0,31.349206349206348,325.0,31.507936507936506,-51.98412698412698,256.4285714285714,-325.0,-2.7777777777777777,325.0,325.0,-0.23809523809523808,-0.5555555555555556,-166.26984126984127
-325.0,-78.80952380952381,10.873015873015872,325.0,-325.0,-325.0,-325.0,-325.0,1.507936507936508,-78.17460317460316,0.23809523809523808,-325.0,31.349206349206348,325.0,31.507936507936506,-51.98412698412698,256.4285714285714,-325.0,-2.7777777777777777,325.0,325.0,-0.23809523809523808,-0.5555555555555556,-166.26984126984127
-325.0,-77.53968253968253,10.873015873015872,325.0,-325.0,-325.0,-325.0,-325.0,1.6666666666666665,-77.06349206349206,3.73015873015873,-325.0,30.71428571428571,325.0,31.349206349206348,-45.79365079365079,252.3015873015873,-325.0,-2.9365079365079363,325.0,325.0,-7.3809523809523805,-11.349206349206348,-166.26984126984127
-325.0,-77.53968253968253,10.873015873015872,325.0,-325.0,-325.0,-325.0,-325.0,1.6666666666666665,-77.06349206349206,3.73015873015873,-325.0,30.71428571428571,325.0,31.349206349206348,-45.79365079365079,252.3015873015873,-325.0,-2.9365079365079363,325.0,325.0,-7.3809523809523805,-11.349206349206348,-166.26984126984127
-325.0,-75.95238095238095,10.555555555555555,325.0,-325.0,-325.0,-325.0,-325.0,-2.46031746031746,-75.31746031746032,-111.19047619047619,-325.0,30.07936507936508,325.0,30.396825396825395,-48.49206349206349,246.58730158730157,-325.0,-2.619047619047619,325.0,325.0,1.507936507936508,4.682539682539682,-321.8253968253968
-325.0,-75.95238095238095,10.555555555555555,325.0,-325.0,-325.0,-325.0,-325.0,-2.46031746031746,-75.31746031746032,-111.19047619047619,-325.0,30.07936507936508,325.0,30.396825396825395,-48.49206349206349,246.58730158730157,-325.0,-2.619047619047619,325.0,325.0,1.507936507936508,4.682539682539682,-321.8253968253968
-325.0,-74.68253968253968,10.396825396825395,325.0,-325.0,-325.0,-325.0,-325.0,-11.349206349206348,-74.2063492063492,-150.07936507936506,-325.0,29.444444444444443,325.0,29.920634920634917,-45.0,242.77777777777777,-325.0,-2.619047619047619,325.0,325.0,-2.142857142857143,-5.634920634920634,-321.8253968253968
-325.0,-74.68253968253968,10.396825396825395,325.0,-325.0,-325.0,-325.0,-325.0,-11.349206349206348,-74.2063492063492,-150.07936507936506,-325.0,29.444444444444443,325.0,29.920634920634917,-45.0,242.77777777777777,-325.0,-2.619047619047619,325.0,325.0,-2.142857142857143,-5.634920634920634,-321.8253968253968
-325.0,-73.25396825396825,10.238095238095237,325.0,-325.0,-325.0,-325.0,-325.0,-20.71428571428571,-73.09523809523809,-130.7142857142857,-325.0,28.96825396825397,325.0,29.285714285714285,-42.93650793650794,238.49206349206347,-325.0,-2.619047619047619,325.0,325.0,0.873015873015873,5.476190476190476,-321.8253968253968
-325.0,-73.25396825396825,10.238095238095237,325.0,-325.0,-325.0,-325.0,-325.0,-20.71428571428571,-73.09523809523809,-130.7142857142857,-325.0,28.96825396825397,325.0,29.285714285714285,-42.93650793650794,238.49206349206347,-325.0,-2.619047619047619,325.0,325.0,0.873015873015873,5.476190476190476,-321.8253968253968
-325.0,-71.82539682539682,9.920634920634921,325.0,-325.0,-325.0,-325.0,-325.0,-31.825396825396822,-71.19047619047619,-145.79365079365078,-325.0,28.49206349206349,325.0,28.65079365079365,-38.17460317460317,233.57142857142856,-325.0,-2.619047619047619,325.0,325.0,-0.5555555555555556,-0.7142857142857142,-321.8253968253968
-325.0,-71.82539682539682,9.920634920634921,325.0,-325.0,-325.0,-325.0,-325.0,-31.825396825396822,-71.19047619047619,-145.79365079365078,-325.0,28.49206349206349,325.0,28.65079365079365,-38.17460317460317,233.57142857142856,-325.0,-2.619047619047619,325.0,325.0,-0.5555555555555556,-0.7142857142857142,-321.8253968253968
-325.0,-15.476190476190474,9.285714285714285,325.0,-325.0,-325.0,-307.53968253968253,-325.0,-71.34920634920634,-66.74603174603175,-132.14285714285714,-312.3015873015873,26.428571428571427,311.3492063492063,26.746031746031743,20.238095238095237,218.33333333333331,-325.0,23.095238095238095,325.0,325.0,-2.142857142857143,2.142857142857143,-321.8253968253968
-325.0,-15.476190476190474,9.285714285714285,325.0,-325.0,-325.0,-307.53968253968253,-325.0,-71.34920634920634,-66.74603174603175,-132.14285714285714,-312.3015873015873,26.428571428571427,311.3492063492063,26.746031746031743,20.238095238095237,218.33333333333331,-325.0,23.095238095238095,325.0,325.0,-2.142857142857143,2.142857142857143,-321.8253968253968
-325.0,16.587301587301585,8.809523809523808,325.0,-325.0,-325.0,-292.1428571428571,-325.0,-102.77777777777777,-63.25396825396825,-160.87301587301587,-299.6031746031746,25.158730158730158,297.6984126984127,25.317460317460316,49.44444444444444,207.06349206349205,-325.0,47.698412698412696,325.0,325.0,-1.984126984126984,3.253968253968254,-166.26984126984127
-325.0,16.587301587301585,8.809523809523808,325.0,-325.0,-325.0,-292.1428571428571,-325.0,-102.77777777777777,-63.25396825396825,-160.87301587301587,-299.6031746031746,25.158730158730158,297.6984126984127,25.317460317460316,49.44444444444444,207.06349206349205,-325.0,47.698412698412696,325.0,325.0,-1.984126984126984,3.253968253968254,-166.26984126984127
-325.0,-50.079365079365076,8.174603174603174,325.0,-325.0,-325.0,-274.36507936507934,-310.7142857142857,-235.79365079365078,-59.285714285714285,-151.19047619047618,-281.3492063492063,23.41269841269841,278.8095238095238,23.57142857142857,18.333333333333332,194.04761904761904,-325.0,72.61904761904762,325.0,325.0,2.3015873015873014,6.111111111111111,-166.26984126984127
-325.0,-50.079365079365076,8.174603174603174,325.0,-325.0,-325.0,-274.36507936507934,-310.7142857142857,-235.79365079365078,-59.285714285714285,-151.19047619047618,-281.3492063492063,23.41269841269841,278.8095238095238,23.57142857142857,18.333333333333332,194.04761904761904,-325.0,72.61904761904762,325.0,325.0,2.3015873015873014,6.111111111111111,-166.26984126984127
-325.0,7.3809523809523805,8.015873015873016,325.0,-325.0,-325.0,-268.8095238095238,-304.5238095238095,-216.42857142857142,-58.17460317460317,-148.015873015873,-275.6349206349206,22.936507936507937,272.9365079365079,23.095238095238095,64.04761904761905,189.60317460317458,-325.0,79.76190476190476,325.0,325.0,-0.873015873015873,-1.0317460317460316,-166.26984126984127
-325.0,7.3809523809523805,8.015873015873016,325.0,-325.0,-325.0,-268.8095238095238,-304.5238095238095,-216.42857142857142,-58.17460317460317,-148.015873015873,-275.6349206349206,22.936507936507937,272.9365079365079,23.095238095238095,64.04761904761905,189.60317460317458,-325.0,79.76190476190476,325.0,325.0,-0.873015873015873,-1.0317460317460316,-166.26984126984127
-325.0,-71.03174603174602,8.015873015873016,325.0,-325.0,-325.0,-266.4285714285714,-301.984126984127,-301.19047619047615,-57.698412698412696,-146.74603174603175,-273.0952380952381,22.777777777777775,270.7142857142857,22.936507936507937,-61.98412698412698,188.17460317460316,-325.0,83.09523809523809,325.0,325.0,7.5396825396825395,8.492063492063492,-166.26984126984127
-325.0,-71.03174603174602,8.015873015873016,325.0,-325.0,-325.0,-266.4285714285714,-301.984126984127,-301.19047619047615,-57.698412698412696,-146.74603174603175,-273.0952380952381,22.777777777777775,270.7142857142857,22.936507936507937,-61.98412698412698,188.17460317460316,-325.0,83.09523809523809,325.0,325.0,7.5396825396825395,8.492063492063492,-166.26984126984127
-325.0,-71.03174603174602,8.015873015873016,325.0,-325.0,-325.0,-266.4285714285714,-301.984126984127,-301.19047619047615,-57.698412698412696,-146.74603174603175,-273.0952380952381,22.777777777777775,270.7142857142857,22.936507936507937,-61.98412698412698,188.17460317460316,-325.0,83.09523809523809,325.0,325.0,7.5396825396825395,8.492063492063492,-166.26984126984127
-325.0,-71.03174603174602,8.015873015873016,325.0,-325.0,-325.0,-266.4285714285714,-301.984126984127,-301.19047619047615,-57.698412698412696,-146.74603174603175,-273.0952380952381,22.777777777777775,270.7142857142857,22.936507936507937,-61.98412698412698,188.17460317460316,-325.0,83.09523809523809,325.0,325.0,7.5396825396825395,8.492063492063492,-166.26984126984127
-325.0,-49.285714285714285,-16.746031746031743,325.0,-305.0,-325.0,-251.34920634920633,-285.7936507936508,-266.58730158730157,-54.36507936507936,-138.65079365079364,-257.85714285714283,19.92063492063492,254.68253968253967,16.587301587301585,92.61904761904762,177.2222222222222,-325.0,101.5079365079365,325.0,325.0,-0.7142857142857142,-0.873015873015873,-321.8253968253968
-325.0,-49.285714285714285,-16.746031746031743,325.0,-305.0,-325.0,-251.34920634920633,-285.7936507936508,-266.58730158730157,-54.36507936507936,-138.65079365079364,-257.85714285714283,19.92063492063492,254.68253968253967,16.587301587301585,92.61904761904762,177.2222222222222,-325.0,101.5079365079365,325.0,325.0,-0.7142857142857142,-0.873015873015873,-321.8253968253968
-325.0,21.03174603174603,-34.52380952380952,325.0,-325.0,-319.76190476190476,-243.25396825396825,-276.58730158730157,-325.0,-52.3015873015873,-134.04761904761904,-249.28571428571428,1.0317460317460316,245.79365079365078,-39.285714285714285,130.7142857142857,36.904761904761905,-325.0,114.52380952380952,325.0,325.0,-2.142857142857143,-0.5555555555555556,-321.8253968253968
-325.0,21.03174603174603,-34.52380952380952,325.0,-325.0,-319.76190476190476,-243.25396825396825,-276.58730158730157,-325.0,-52.3015873015873,-134.04761904761904,-249.28571428571428,1.0317460317460316,245.79365079365078,-39.285714285714285,130.7142857142857,36.904761904761905,-325.0,114.52380952380952,325.0,325.0,-2.142857142857143,-0.5555555555555556,-321.8253968253968
-325.0,55.317460317460316,-46.269841269841265,325.0,-325.0,-312.1428571428571,-237.06349206349205,-270.07936507936506,-268.6507936507936,-51.34920634920635,-130.7142857142857,-242.93650793650792,22.936507936507937,239.76190476190476,18.174603174603174,83.25396825396825,175.0,-322.77777777777777,119.12698412698413,325.0,325.0,-8.65079365079365,-10.555555555555555,-321.8253968253968
-325.0,55.317460317460316,-46.269841269841265,325.0,-325.0,-312.1428571428571,-237.06349206349205,-270.07936507936506,-268.6507936507936,-51.34920634920635,-130.7142857142857,-242.93650793650792,22.936507936507937,239.76190476190476,18.174603174603174,83.25396825396825,175.0,-322.77777777777777,119.12698412698413,325.0,325.0,-8.65079365079365,-10.555555555555555,-321.8253968253968
-325.0,41.34920634920635,-51.98412698412698,325.0,-325.0,-308.3333333333333,-234.2063492063492,-266.90476190476187,-296.90476190476187,-50.55555555555555,-129.12698412698413,-240.07936507936506,22.777777777777775,236.58730158730157,9.126984126984127,37.53968253968254,171.03174603174602,-318.968253968254,122.77777777777777,325.0,325.0,-4.523809523809524,-3.4126984126984126,-321.8253968253968
-325.0,41.34920634920635,-51.98412698412698,325.0,-325.0,-308.3333333333333,-234.2063492063492,-266.90476190476187,-296.90476190476187,-50.55555555555555,-129.12698412698413,-240.07936507936506,22.777777777777775,236.58730158730157,9.126984126984127,37.53968253968254,171.03174603174602,-318.968253968254,122.77777777777777,325.0,325.0,-4.523809523809524,-3.4126984126984126,-321.8253968253968
-325.0,251.19047619047618,-63.57142857142857,325.0,-325.0,-301.031746031746,-228.33333333333331,-260.55555555555554,-321.031746031746,-49.12698412698413,-125.95238095238095,-234.04761904761904,-49.285714285714285,230.3968253968254,-79.76190476190476,36.11111111111111,165.0,-311.66666666666663,128.4920634920635,325.0,325.0,-3.571428571428571,-6.904761904761904,-321.8253968253968
-325.0,251.19047619047618,-63.57142857142857,325.0,-325.0,-301.031746031746,-228.33333333333331,-260.55555555555554,-321.031746031746,-49.12698412698413,-125.95238095238095,-234.04761904761904,-49.285714285714285,230.3968253968254,-79.76190476190476,36.11111111111111,165.0,-311.66666666666663,128.4920634920635,325.0,325.0,-3.571428571428571,-6.904761904761904,-321.8253968253968
-325.0,91.19047619047619,-70.55555555555556,325.0,-325.0,-295.95238095238096,-224.52380952380952,-256.26984126984127,-325.0,-48.17460317460317,-123.88888888888889,-230.2380952380952,-13.73015873015873,226.26984126984127,-62.14285714285714,-41.507936507936506,161.984126984127,-306.58730158730157,133.25396825396825,325.0,325.0,3.253968253968254,6.587301587301587,-166.26984126984127
-325.0,91.19047619047619,-70.55555555555556,325.0,-325.0,-295.95238095238096,-224.52380952380952,-256.26984126984127,-325.0,-48.17460317460317,-123.88888888888889,-230.2380952380952,-13.73015873015873,226.26984126984127,-62.14285714285714,-41.507936507936506,161.984126984127,-306.58730158730157,133.25396825396825,325.0,325.0,3.253968253968254,6.587301587301587,-166.26984126984127
-325.0,325.0,-98.65079365079364,325.0,-325.0,-291.3492063492063,-220.87301587301587,-252.46031746031744,-325.0,-47.53968253968254,-121.82539682539682,-226.26984126984127,-93.4126984126984,222.46031746031744,-139.44444444444443,42.61904761904761,159.28571428571428,-301.66666666666663,136.58730158730157,325.0,325.0,-3.4126984126984126,-6.746031746031746,-166.26984126984127
-325.0,325.0,-98.65079365079364,325.0,-325.0,-291.3492063492063,-220.87301587301587,-252.46031746031744,-325.0,-47.53968253968254,-121.82539682539682,-226.26984126984127,-93.4126984126984,222.46031746031744,-139.44444444444443,42.61904761904761,159.28571428571428,-301.66666666666663,136.58730158730157,325.0,325.0,-3.4126984126984126,-6.746031746031746,-166.26984126984127
-325.0,11.349206349206348,-106.1111111111111,325.0,-325.0,-286.90476190476187,-217.06349206349205,-248.17460317460316,-325.0,-46.58730158730158,-119.76190476190476,-222.46031746031744,-89.6031746031746,218.65079365079364,-162.14285714285714,-22.936507936507937,155.79365079365078,-296.90476190476187,141.34920634920636,325.0,325.0,3.571428571428571,6.428571428571428,-166.26984126984127
-325.0,11.349206349206348,-106.1111111111111,325.0,-325.0,-286.90476190476187,-217.06349206349205,-248.17460317460316,-325.0,-46.58730158730158,-119.76190476190476,-222.46031746031744,-89.6031746031746,218.65079365079364,-162.14285714285714,-22.936507936507937,155.79365079365078,-296.90476190476187,141.34920634920636,325.0,325.0,3.571428571428571,6.428571428571428,-166.26984126984127
-325.0,15.634920634920634,-149.44444444444443,325.0,-325.0,-283.25396825396825,-214.36507936507937,-245.3174603174603,-325.0,-46.269841269841265,-118.33333333333333,-219.60317460317458,-163.09523809523807,215.79365079365078,-233.09523809523807,12.777777777777777,150.87301587301587,-293.4126984126984,143.4126984126984,325.0,325.0,0.3968253968253968,-0.3968253968253968,-166.26984126984127
-325.0,15.634920634920634,-149.44444444444443,325.0,-325.0,-283.25396825396825,-214.36507936507937,-245.3174603174603,-325.0,-46.269841269841265,-118.33333333333333,-219.60317460317458,-163.09523809523807,215.79365079365078,-233.09523809523807,12.777777777777777,150.87301587301587,-293.4126984126984,143.4126984126984,325.0,325.0,0.3968253968253968,-0.3968253968253968,-166.26984126984127
-325.0,-84.36507936507937,-149.28571428571428,325.0,-325.0,-278.4920634920635,-210.7142857142857,-241.19047619047618,-325.0,-45.15873015873016,-116.1111111111111,-215.79365079365078,-148.015873015873,211.98412698412696,-196.58730158730157,-76.26984126984127,152.14285714285714,-288.6507936507936,146.42857142857142,325.0,325.0,5.7936507936507935,8.174603174603174,-166.26984126984127
-325.0,-84.36507936507937,-149.28571428571428,325.0,-325.0,-278.4920634920635,-210.7142857142857,-241.19047619047618,-325.0,-45.15873015873016,-116.1111111111111,-215.79365079365078,-148.015873015873,211.98412698412696,-196.58730158730157,-76.26984126984127,152.14285714285714,-288.6507936507936,146.42857142857142,325.0,325.0,5.7936507936507935,8.174603174603174,-166.26984126984127
-324.8412698412698,137.69841269841268,-194.68253968253967,325.0,-325.0,-272.9365079365079,-206.42857142857142,-236.58730158730157,-325.0,-44.2063492063492,-113.88888888888889,-211.66666666666666,-180.23809523809524,207.38095238095238,-214.52380952380952,48.49206349206349,148.8095238095238,-283.25396825396825,150.3968253968254,325.0,325.0,-4.2063492063492065,-7.5396825396825395,-321.8253968253968
-324.8412698412698,137.69841269841268,-194.68253968253967,325.0,-325.0,-272.9365079365079,-206.42857142857142,-236.58730158730157,-325.0,-44.2063492063492,-113.88888888888889,-211.66666666666666,-180.23809523809524,207.38095238095238,-214.52380952380952,48.49206349206349,148.8095238095238,-283.25396825396825,150.3968253968254,325.0,325.0,-4.2063492063492065,-7.5396825396825395,-321.8253968253968
-320.55555555555554,-33.095238095238095,-222.46031746031744,325.0,-325.0,-268.6507936507936,-202.93650793650792,-232.77777777777777,-325.0,-43.41269841269841,-111.98412698412697,-207.69841269841268,-231.03174603174602,203.88888888888889,-307.38095238095235,-46.58730158730158,146.11111111111111,-278.4920634920635,154.84126984126982,325.0,325.0,3.73015873015873,5.476190476190476,-321.8253968253968
-320.55555555555554,-33.095238095238095,-222.46031746031744,325.0,-325.0,-268.6507936507936,-202.93650793650792,-232.77777777777777,-325.0,-43.41269841269841,-111.98412698412697,-207.69841269841268,-231.03174603174602,203.88888888888889,-307.38095238095235,-46.58730158730158,146.11111111111111,-278.4920634920635,154.84126984126982,325.0,325.0,3.73015873015873,5.476190476190476,-321.8253968253968
-316.4285714285714,280.39682539682536,-117.6984126984127,325.0,-325.0,-265.4761904761905,-200.7142857142857,-229.76190476190476,-325.0,-42.93650793650794,-110.55555555555554,-205.15873015873015,-58.49206349206349,201.19047619047618,-132.93650793650792,139.28571428571428,144.2063492063492,-275.1587301587301,156.42857142857142,325.0,325.0,-9.285714285714285,-8.492063492063492,-321.8253968253968
-316.4285714285714,280.39682539682536,-117.6984126984127,325.0,-325.0,-265.4761904761905,-200.7142857142857,-229.76190476190476,-325.0,-42.93650793650794,-110.55555555555554,-205.15873015873015,-58.49206349206349,201.19047619047618,-132.93650793650792,139.28571428571428,144.2063492063492,-275.1587301587301,156.42857142857142,325.0,325.0,-9.285714285714285,-8.492063492063492,-321.8253968253968
-309.6031746031746,-84.04761904761904,-263.88888888888886,325.0,-325.0,-259.9206349206349,-196.26984126984127,-225.15873015873015,-325.0,-42.14285714285714,-108.33333333333333,-200.87301587301587,-284.36507936507934,196.74603174603175,-325.0,-38.17460317460317,141.03174603174602,-269.76190476190476,161.5079365079365,321.66666666666663,325.0,3.888888888888889,6.587301587301587,-321.8253968253968
-309.6031746031746,-84.04761904761904,-263.88888888888886,325.0,-325.0,-259.9206349206349,-196.26984126984127,-225.15873015873015,-325.0,-42.14285714285714,-108.33333333333333,-200.87301587301587,-284.36507936507934,196.74603174603175,-325.0,-38.17460317460317,141.03174603174602,-269.76190476190476,161.5079365079365,321.66666666666663,325.0,3.888888888888889,6.587301587301587,-321.8253968253968
-304.5238095238095,101.82539682539682,-230.07936507936506,325.0,-325.0,-255.79365079365078,-192.93650793650792,-221.8253968253968,-325.0,-41.34920634920635,-106.58730158730158,-197.53968253968253,-202.61904761904762,193.4126984126984,-248.33333333333331,95.63492063492063,138.65079365079364,-265.6349206349206,166.42857142857142,316.58730158730157,325.0,-4.523809523809524,-8.174603174603174,-321.8253968253968
-304.5238095238095,101.82539682539682,-230.07936507936506,325.0,-325.0,-255.79365079365078,-192.93650793650792,-221.8253968253968,-325.0,-41.34920634920635,-106.58730158730158,-197.53968253968253,-202.61904761904762,193.4126984126984,-248.33333333333331,95.63492063492063,138.65079365079364,-265.6349206349206,166.42857142857142,316.58730158730157,325.0,-4.523809523809524,-8.174603174603174,-321.8253968253968
-300.7142857142857,-74.52380952380952,-303.88888888888886,325.0,-325.0,-252.6190476190476,-190.3968253968254,-218.96825396825395,-325.0,-40.55555555555555,-105.15873015873015,-195.0,-325.0,190.87301587301587,-325.0,-75.15873015873015,136.9047619047619,-262.3015873015873,204.84126984126982,312.6190476190476,325.0,7.3809523809523805,7.3809523809523805,-166.26984126984127
-300.7142857142857,-74.52380952380952,-303.88888888888886,325.0,-325.0,-252.6190476190476,-190.3968253968254,-218.96825396825395,-325.0,-40.55555555555555,-105.15873015873015,-195.0,-325.0,190.87301587301587,-325.0,-75.15873015873015,136.9047619047619,-262.3015873015873,204.84126984126982,312.6190476190476,325.0,7.3809523809523805,7.3809523809523805,-166.26984126984127
-294.36507936507934,246.1111111111111,-238.49206349206347,325.0,-325.0,-247.69841269841268,-186.74603174603175,-214.68253968253967,-325.0,-39.285714285714285,-103.25396825396825,-191.34920634920633,-211.03174603174602,186.58730158730157,-260.7142857142857,131.19047619047618,134.04761904761904,-257.06349206349205,193.25396825396825,306.4285714285714,325.0,-4.841269841269841,-8.015873015873016,-166.26984126984127
-294.36507936507934,246.1111111111111,-238.49206349206347,325.0,-325.0,-247.69841269841268,-186.74603174603175,-214.68253968253967,-325.0,-39.285714285714285,-103.25396825396825,-191.34920634920633,-211.03174603174602,186.58730158730157,-260.7142857142857,131.19047619047618,134.04761904761904,-257.06349206349205,193.25396825396825,306.4285714285714,325.0,-4.841269841269841,-8.015873015873016,-166.26984126984127
-289.1269841269841,-17.063492063492063,-325.0,325.0,-325.0,-243.4126984126984,-183.4126984126984,-211.19047619047618,-325.0,-39.285714285714285,-101.34920634920634,-188.015873015873,-325.0,183.4126984126984,-325.0,-26.11111111111111,131.66666666666666,-252.93650793650792,252.93650793650792,301.3492063492063,325.0,4.0476190476190474,6.904761904761904,-166.26984126984127
-289.1269841269841,-17.063492063492063,-325.0,325.0,-325.0,-243.4126984126984,-183.4126984126984,-211.19047619047618,-325.0,-39.285714285714285,-101.34920634920634,-188.015873015873,-325.0,183.4126984126984,-325.0,-26.11111111111111,131.66666666666666,-252.93650793650792,252.93650793650792,301.3492063492063,325.0,4.0476190476190474,6.904761904761904,-166.26984126984127
-285.6349206349206,313.88888888888886,-175.95238095238093,325.0,-325.0,-240.87301587301587,-181.19047619047618,-208.65079365079364,-325.0,-30.238095238095237,-100.07936507936508,-185.47619047619045,-118.49206349206348,181.03174603174602,-226.9047619047619,252.93650793650792,129.9206349206349,-250.2380952380952,227.69841269841268,297.6984126984127,325.0,-8.65079365079365,-9.603174603174603,-166.26984126984127
-285.6349206349206,313.88888888888886,-175.95238095238093,325.0,-325.0,-240.87301587301587,-181.19047619047618,-208.65079365079364,-325.0,-30.238095238095237,-100.07936507936508,-185.47619047619045,-118.49206349206348,181.03174603174602,-226.9047619047619,252.93650793650792,129.9206349206349,-250.2380952380952,227.69841269841268,297.6984126984127,325.0,-8.65079365079365,-9.603174603174603,-166.26984126984127
-279.6031746031746,-48.650793650793645,-325.0,325.0,-325.0,-235.63492063492063,-177.38095238095238,-204.2063492063492,-325.0,-38.01587301587301,-98.01587301587301,-181.66666666666666,-325.0,176.9047619047619,-325.0,-17.857142857142858,127.06349206349206,-245.15873015873015,313.73015873015873,291.66666666666663,325.0,4.2063492063492065,6.904761904761904,-166.26984126984127
-279.6031746031746,-48.650793650793645,-325.0,325.0,-325.0,-235.63492063492063,-177.38095238095238,-204.2063492063492,-325.0,-38.01587301587301,-98.01587301587301,-181.66666666666666,-325.0,176.9047619047619,-325.0,-17.857142857142858,127.06349206349206,-245.15873015873015,313.73015873015873,291.66666666666663,325.0,4.2063492063492065,6.904761904761904,-166.26984126984127
-273.73015873015873,95.95238095238095,-261.1904761904762,325.0,-325.0,-230.87301587301587,-173.73015873015873,-200.55555555555554,-325.0,-24.523809523809522,-95.95238095238095,-177.85714285714286,-233.09523809523807,173.25396825396825,-289.4444444444444,111.03174603174602,124.2063492063492,-240.2380952380952,299.9206349206349,285.6349206349206,325.0,-0.5555555555555556,-0.3968253968253968,-321.8253968253968
-273.73015873015873,95.95238095238095,-261.1904761904762,325.0,-325.0,-230.87301587301587,-173.73015873015873,-200.55555555555554,-325.0,-24.523809523809522,-95.95238095238095,-177.85714285714286,-233.09523809523807,173.25396825396825,-289.4444444444444,111.03174603174602,124.2063492063492,-240.2380952380952,299.9206349206349,285.6349206349206,325.0,-0.5555555555555556,-0.3968253968253968,-321.8253968253968
-268.968253968254,124.2063492063492,-273.4126984126984,325.0,-325.0,-227.38095238095238,-170.87301587301587,-197.38095238095238,-325.0,-16.26984126984127,-94.52380952380952,-175.0,-245.15873015873015,170.23809523809524,-317.06349206349205,120.55555555555554,122.14285714285714,-236.42857142857142,325.0,281.031746031746,325.0,-0.873015873015873,-0.5555555555555556,-321.8253968253968
-268.968253968254,124.2063492063492,-273.4126984126984,325.0,-325.0,-227.38095238095238,-170.87301587301587,-197.38095238095238,-325.0,-16.26984126984127,-94.52380952380952,-175.0,-245.15873015873015,170.23809523809524,-317.06349206349205,120.55555555555554,122.14285714285714,-236.42857142857142,325.0,281.031746031746,325.0,-0.873015873015873,-0.5555555555555556,-321.8253968253968
-263.4126984126984,183.57142857142856,-325.0,325.0,-325.0,-222.61904761904762,-167.2222222222222,-193.25396825396825,-325.0,-29.76190476190476,-92.61904761904762,-171.5079365079365,-325.0,166.58730158730157,-325.0,33.57142857142857,119.6031746031746,-231.66666666666666,319.6031746031746,275.1587301587301,325.0,2.619047619047619,0.07936507936507936,-321.8253968253968
-263.4126984126984,183.57142857142856,-325.0,325.0,-325.0,-222.61904761904762,-167.2222222222222,-193.25396825396825,-325.0,-29.76190476190476,-92.61904761904762,-171.5079365079365,-325.0,166.58730158730157,-325.0,33.57142857142857,119.6031746031746,-231.66666666666666,319.6031746031746,275.1587301587301,325.0,2.619047619047619,0.07936507936507936,-321.8253968253968
-258.968253968254,292.1428571428571,-287.6984126984127,325.0,-325.0,-218.96825396825395,-164.36507936507937,-190.07936507936506,-325.0,-3.73015873015873,-90.87301587301587,-168.33333333333331,-261.66666666666663,163.57142857142856,-325.0,196.42857142857142,117.06349206349206,-228.015873015873,325.0,270.55555555555554,325.0,-4.365079365079365,-1.0317460317460316,-321.8253968253968
-258.968253968254,292.1428571428571,-287.6984126984127,325.0,-325.0,-218.96825396825395,-164.36507936507937,-190.07936507936506,-325.0,-3.73015873015873,-90.87301587301587,-168.33333333333331,-261.66666666666663,163.57142857142856,-325.0,196.42857142857142,117.06349206349206,-228.015873015873,325.0,270.55555555555554,325.0,-4.365079365079365,-1.0317460317460316,-321.8253968253968
-251.5079365079365,274.2063492063492,-304.04761904761904,325.0,-325.0,-212.77777777777777,-159.6031746031746,-185.0,-325.0,16.11111111111111,-88.4920634920635,-163.4126984126984,-282.77777777777777,158.65079365079364,-325.0,130.3968253968254,111.5079365079365,-221.8253968253968,325.0,262.9365079365079,325.0,-1.1904761904761905,-0.873015873015873,-321.8253968253968
-251.5079365079365,274.2063492063492,-304.04761904761904,325.0,-325.0,-212.77777777777777,-159.6031746031746,-185.0,-325.0,16.11111111111111,-88.4920634920635,-163.4126984126984,-282.77777777777777,158.65079365079364,-325.0,130.3968253968254,111.5079365079365,-221.8253968253968,325.0,262.9365079365079,325.0,-1.1904761904761905,-0.873015873015873,-321.8253968253968
-246.1111111111111,325.0,-325.0,325.0,-325.0,-208.4920634920635,-156.42857142857142,-181.19047619047618,-325.0,-14.523809523809524,-86.58730158730158,-160.07936507936506,-325.0,155.15873015873015,-325.0,71.5079365079365,110.55555555555554,-217.38095238095238,325.0,257.53968253968253,325.0,2.7777777777777777,-0.873015873015873,-166.26984126984127
-246.1111111111111,325.0,-325.0,325.0,-325.0,-208.4920634920635,-156.42857142857142,-181.19047619047618,-325.0,-14.523809523809524,-86.58730158730158,-160.07936507936506,-325.0,155.15873015873015,-325.0,71.5079365079365,110.55555555555554,-217.38095238095238,325.0,257.53968253968253,325.0,2.7777777777777777,-0.873015873015873,-166.26984126984127
-241.8253968253968,325.0,-325.0,325.0,-325.0,-205.15873015873015,-153.73015873015873,-178.33333333333331,-325.0,17.38095238095238,-85.15873015873015,-157.38095238095238,-298.6507936507936,152.46031746031744,-325.0,207.69841269841268,105.63492063492063,-213.88888888888889,325.0,253.09523809523807,325.0,-2.7777777777777777,-0.23809523809523808,-166.26984126984127
-241.8253968253968,325.0,-325.0,325.0,-325.0,-205.15873015873015,-153.73015873015873,-178.33333333333331,-325.0,17.38095238095238,-85.15873015873015,-157.38095238095238,-298.6507936507936,152.46031746031744,-325.0,207.69841269841268,105.63492063492063,-213.88888888888889,325.0,253.09523809523807,325.0,-2.7777777777777777,-0.23809523809523808,-166.26984126984127
-236.9047619047619,325.0,-325.0,325.0,-325.0,-200.87301587301587,-150.55555555555554,-174.68253968253967,-325.0,-14.206349206349206,-83.4126984126984,-154.2063492063492,-325.0,149.12698412698413,-325.0,162.14285714285714,105.63492063492063,-209.76190476190476,325.0,248.17460317460316,323.88888888888886,0.07936507936507936,-0.5555555555555556,-166.26984126984127
-236.9047619047619,325.0,-325.0,325.0,-325.0,-200.87301587301587,-150.55555555555554,-174.68253968253967,-325.0,-14.206349206349206,-83.4126984126984,-154.2063492063492,-325.0,149.12698412698413,-325.0,162.14285714285714,105.63492063492063,-209.76190476190476,325.0,248.17460317460316,323.88888888888886,0.07936507936507936,-0.5555555555555556,-166.26984126984127
-232.93650793650792,325.0,-325.0,325.0,-325.0,-197.53968253968253,-148.015873015873,-172.14285714285714,-325.0,-6.111111111111111,-82.14285714285714,-151.5079365079365,-325.0,146.58730158730157,-325.0,190.23809523809524,104.04761904761904,-206.42857142857142,325.0,243.88888888888889,319.9206349206349,-0.3968253968253968,-0.3968253968253968,-166.26984126984127
-232.93650793650792,325.0,-325.0,325.0,-325.0,-197.53968253968253,-148.015873015873,-172.14285714285714,-325.0,-6.111111111111111,-82.14285714285714,-151.5079365079365,-325.0,146.58730158730157,-325.0,190.23809523809524,104.04761904761904,-206.42857142857142,325.0,243.88888888888889,319.9206349206349,-0.3968253968253968,-0.3968253968253968,-166.26984126984127
-226.9047619047619,325.0,-325.0,325.0,-325.0,-192.77777777777777,-144.52380952380952,-167.85714285714286,-325.0,50.079365079365076,-80.07936507936508,-147.85714285714286,-302.1428571428571,142.77777777777777,-325.0,146.74603174603175,98.96825396825396,-201.34920634920633,325.0,237.85714285714283,311.8253968253968,-0.3968253968253968,0.07936507936507936,-166.26984126984127
-226.9047619047619,325.0,-325.0,325.0,-325.0,-192.77777777777777,-144.52380952380952,-167.85714285714286,-325.0,50.079365079365076,-80.07936507936508,-147.85714285714286,-302.1428571428571,142.77777777777777,-325.0,146.74603174603175,98.96825396825396,-201.34920634920633,325.0,237.85714285714283,311.8253968253968,-0.3968253968253968,0.07936507936507936,-166.26984126984127
-222.14285714285714,246.58730158730157,-325.0,325.0,-325.0,-188.96825396825395,-141.34920634920636,-164.36507936507937,-325.0,0.873015873015873,-78.4920634920635,-144.68253968253967,-325.0,139.6031746031746,-325.0,138.4920634920635,98.80952380952381,-197.53968253968253,325.0,233.09523809523807,305.1587301587301,1.507936507936508,-1.349206349206349,-321.8253968253968
-222.14285714285714,246.58730158730157,-325.0,325.0,-325.0,-188.96825396825395,-141.34920634920636,-164.36507936507937,-325.0,0.873015873015873,-78.4920634920635,-144.68253968253967,-325.0,139.6031746031746,-325.0,138.4920634920635,98.80952380952381,-197.53968253968253,325.0,233.09523809523807,305.1587301587301,1.507936507936508,-1.349206349206349,-321.8253968253968
-219.12698412698413,232.6190476190476,-325.0,325.0,-325.0,-186.42857142857142,-139.44444444444443,-162.46031746031744,-325.0,-23.730158730158728,-77.22222222222221,-142.77777777777777,-325.0,137.85714285714286,-325.0,135.0,99.44444444444444,-195.0,325.0,229.9206349206349,301.19047619047615,3.095238095238095,8.015873015873016,-321.8253968253968
-219.12698412698413,232.6190476190476,-325.0,325.0,-325.0,-186.42857142857142,-139.44444444444443,-162.46031746031744,-325.0,-23.730158730158728,-77.22222222222221,-142.77777777777777,-325.0,137.85714285714286,-325.0,135.0,99.44444444444444,-195.0,325.0,229.9206349206349,301.19047619047615,3.095238095238095,8.015873015873016,-321.8253968253968
-214.68253968253967,325.0,-325.0,325.0,-325.0,-182.93650793650792,-136.74603174603175,-159.28571428571428,-325.0,15.476190476190474,-75.47619047619047,-140.07936507936506,-325.0,134.84126984126982,-325.0,157.06349206349205,95.0,-191.34920634920633,325.0,225.47619047619045,294.8412698412698,1.1904761904761905,-1.6666666666666665,-321.8253968253968
-214.68253968253967,325.0,-325.0,325.0,-325.0,-182.93650793650792,-136.74603174603175,-159.28571428571428,-325.0,15.476190476190474,-75.47619047619047,-140.07936507936506,-325.0,134.84126984126982,-325.0,157.06349206349205,95.0,-191.34920634920633,325.0,225.47619047619045,294.8412698412698,1.1904761904761905,-1.6666666666666665,-321.8253968253968
-212.14285714285714,325.0,-325.0,325.0,-325.0,-180.7142857142857,-134.84126984126982,-157.2222222222222,-325.0,-19.126984126984127,-75.31746031746032,-138.015873015873,-325.0,132.93650793650792,-325.0,142.61904761904762,96.1111111111111,-188.96825396825395,325.0,222.61904761904762,291.031746031746,3.73015873015873,8.174603174603174,-321.8253968253968
