Fp1[1],Fp2[2],F3[3],F4[4],C3[5],C4[6],P3[7],P4[8],O1[9],O2[10],F7[11],F8[12],T3[13],T4[14],T5[15],T6[16],Fz[17],Pz[18],Cz[19],Pg1[20],Pg2[21],EOGR[22],EOOGL[23],EMG[24]
325.0,325.0,325.0,-325.0,-141.8253968253968,325.0,325.0,325.0,325.0,325.0,317.69841269841265,325.0,325.0,-325.0,325.0,325.0,31.666666666666664,325.0,33.095238095238095,-325.0,-325.0,-0.07936507936507936,2.9365079365079363,-166.26984126984127
325.0,325.0,325.0,-325.0,-141.8253968253968,325.0,325.0,325.0,325.0,325.0,317.69841269841265,325.0,325.0,-325.0,325.0,325.0,31.666666666666664,325.0,33.095238095238095,-325.0,-325.0,-0.07936507936507936,2.9365079365079363,-166.26984126984127
283.73015873015873,200.55555555555554,314.2063492063492,-315.1587301587301,-208.96825396825395,264.04761904761904,152.3015873015873,314.8412698412698,314.8412698412698,325.0,307.53968253968253,314.8412698412698,152.3015873015873,-325.0,152.3015873015873,314.8412698412698,-128.4920634920635,325.0,26.26984126984127,-325.0,-325.0,-9.761904761904761,-10.079365079365079,-166.26984126984127
283.73015873015873,200.55555555555554,314.2063492063492,-315.1587301587301,-208.96825396825395,264.04761904761904,152.3015873015873,314.8412698412698,314.8412698412698,325.0,307.53968253968253,314.8412698412698,152.3015873015873,-325.0,152.3015873015873,314.8412698412698,-128.4920634920635,325.0,26.26984126984127,-325.0,-325.0,-9.761904761904761,-10.079365079365079,-166.26984126984127
325.0,316.90476190476187,325.0,-325.0,-130.07936507936506,325.0,325.0,325.0,325.0,325.0,63.57142857142857,325.0,325.0,-325.0,325.0,-0.07936507936507936,49.12698412698413,325.0,52.93650793650794,-325.0,-325.0,6.428571428571428,4.365079365079365,-166.26984126984127
325.0,316.90476190476187,325.0,-325.0,-130.07936507936506,325.0,325.0,325.0,325.0,325.0,63.57142857142857,325.0,325.0,-325.0,325.0,-0.07936507936507936,49.12698412698413,325.0,52.93650793650794,-325.0,-325.0,6.428571428571428,4.365079365079365,-166.26984126984127
325.0,308.968253968254,325.0,-325.0,-125.63492063492063,325.0,325.0,325.0,325.0,325.0,-197.85714285714283,325.0,325.0,-325.0,325.0,-325.0,58.96825396825397,325.0,62.61904761904761,-325.0,-325.0,7.063492063492063,5.158730158730158,-166.26984126984127
325.0,308.968253968254,325.0,-325.0,-125.63492063492063,325.0,325.0,325.0,325.0,325.0,-197.85714285714283,325.0,325.0,-325.0,325.0,-325.0,58.96825396825397,325.0,62.61904761904761,-325.0,-325.0,7.063492063492063,5.158730158730158,-166.26984126984127
325.0,301.031746031746,325.0,-325.0,-122.6190476190476,325.0,325.0,325.0,325.0,325.0,-192.61904761904762,325.0,325.0,-325.0,325.0,-325.0,59.76190476190476,325.0,60.71428571428571,-325.0,-325.0,0.23809523809523808,0.7142857142857142,-166.26984126984127
325.0,301.031746031746,325.0,-325.0,-122.6190476190476,325.0,325.0,325.0,325.0,325.0,-192.61904761904762,325.0,325.0,-325.0,325.0,-325.0,59.76190476190476,325.0,60.71428571428571,-325.0,-325.0,0.23809523809523808,0.7142857142857142,-166.26984126984127
325.0,285.4761904761905,325.0,-325.0,-116.74603174603173,325.0,325.0,325.0,325.0,325.0,-181.984126984127,325.0,325.0,-325.0,325.0,-325.0,67.85714285714285,325.0,61.34920634920635,-325.0,-325.0,4.2063492063492065,8.174603174603174,-321.8253968253968
325.0,285.4761904761905,325.0,-325.0,-116.74603174603173,325.0,325.0,325.0,325.0,325.0,-181.984126984127,325.0,325.0,-325.0,325.0,-325.0,67.85714285714285,325.0,61.34920634920635,-325.0,-325.0,4.2063492063492065,8.174603174603174,-321.8253968253968
325.0,280.23809523809524,325.0,-325.0,-114.68253968253967,325.0,325.0,325.0,325.0,325.0,-178.65079365079364,325.0,325.0,-325.0,325.0,-325.0,69.44444444444444,325.0,65.47619047619047,-325.0,-325.0,-3.571428571428571,-9.603174603174603,-321.8253968253968
325.0,280.23809523809524,325.0,-325.0,-114.68253968253967,325.0,325.0,325.0,325.0,325.0,-178.65079365079364,325.0,325.0,-325.0,325.0,-325.0,69.44444444444444,325.0,65.47619047619047,-325.0,-325.0,-3.571428571428571,-9.603174603174603,-321.8253968253968
84.84126984126983,276.74603174603175,325.0,-325.0,-113.25396825396825,325.0,325.0,325.0,325.0,325.0,-176.26984126984127,325.0,325.0,-325.0,325.0,-325.0,68.01587301587301,325.0,63.888888888888886,-325.0,-325.0,-5.634920634920634,-8.015873015873016,-321.8253968253968
84.84126984126983,276.74603174603175,325.0,-325.0,-113.25396825396825,325.0,325.0,325.0,325.0,325.0,-176.26984126984127,325.0,325.0,-325.0,325.0,-325.0,68.01587301587301,325.0,63.888888888888886,-325.0,-325.0,-5.634920634920634,-8.015873015873016,-321.8253968253968
63.41269841269841,269.76190476190476,325.0,-325.0,-110.55555555555554,325.0,325.0,325.0,325.0,325.0,-171.66666666666666,325.0,325.0,-325.0,325.0,-325.0,62.460317460317455,325.0,60.39682539682539,-325.0,-325.0,1.349206349206349,-1.6666666666666665,-321.8253968253968
63.41269841269841,269.76190476190476,325.0,-325.0,-110.55555555555554,325.0,325.0,325.0,325.0,325.0,-171.66666666666666,325.0,325.0,-325.0,325.0,-325.0,62.460317460317455,325.0,60.39682539682539,-325.0,-325.0,1.349206349206349,-1.6666666666666665,-321.8253968253968
-325.0,266.26984126984127,325.0,-325.0,-109.28571428571428,325.0,325.0,325.0,325.0,325.0,-169.12698412698413,325.0,325.0,-325.0,325.0,-325.0,67.85714285714285,325.0,65.0,-325.0,-325.0,3.888888888888889,8.015873015873016,-321.8253968253968
-325.0,266.26984126984127,325.0,-325.0,-109.28571428571428,325.0,325.0,325.0,325.0,325.0,-169.12698412698413,325.0,325.0,-325.0,325.0,-325.0,67.85714285714285,325.0,65.0,-325.0,-325.0,3.888888888888889,8.015873015873016,-321.8253968253968
-325.0,260.55555555555554,325.0,-325.0,-107.22222222222221,325.0,325.0,325.0,325.0,325.0,-165.3174603174603,325.0,325.0,-325.0,325.0,-325.0,70.23809523809524,325.0,68.4920634920635,-325.0,-325.0,1.6666666666666665,-1.8253968253968254,-166.26984126984127
-325.0,260.55555555555554,325.0,-325.0,-107.22222222222221,325.0,325.0,325.0,325.0,325.0,-165.3174603174603,325.0,325.0,-325.0,325.0,-325.0,70.23809523809524,325.0,68.4920634920635,-325.0,-325.0,1.6666666666666665,-1.8253968253968254,-166.26984126984127
-325.0,252.93650793650792,325.0,-325.0,-104.2063492063492,325.0,325.0,325.0,325.0,325.0,-160.07936507936506,325.0,325.0,-325.0,325.0,-325.0,72.46031746031746,325.0,71.98412698412697,-325.0,-325.0,3.095238095238095,8.174603174603174,-166.26984126984127
-325.0,252.93650793650792,325.0,-325.0,-104.2063492063492,325.0,325.0,325.0,325.0,325.0,-160.07936507936506,325.0,325.0,-325.0,325.0,-325.0,72.46031746031746,325.0,71.98412698412697,-325.0,-325.0,3.095238095238095,8.174603174603174,-166.26984126984127
-325.0,154.04761904761904,325.0,-323.88888888888886,-97.6984126984127,325.0,325.0,325.0,325.0,325.0,-149.6031746031746,325.0,325.0,-325.0,325.0,-325.0,78.65079365079364,325.0,78.80952380952381,-325.0,-325.0,5.0,6.904761904761904,-166.26984126984127
-325.0,154.04761904761904,325.0,-323.88888888888886,-97.6984126984127,325.0,325.0,325.0,325.0,325.0,-149.6031746031746,325.0,325.0,-325.0,325.0,-325.0,78.65079365079364,325.0,78.80952380952381,-325.0,-325.0,5.0,6.904761904761904,-166.26984126984127
-325.0,-128.65079365079364,325.0,-311.8253968253968,-93.57142857142857,325.0,325.0,325.0,325.0,325.0,-142.3015873015873,325.0,325.0,-322.3015873015873,325.0,-325.0,76.1111111111111,325.0,75.63492063492063,-318.8095238095238,-315.4761904761905,7.857142857142857,6.26984126984127,-166.26984126984127
-325.0,-128.65079365079364,325.0,-311.8253968253968,-93.57142857142857,325.0,325.0,325.0,325.0,325.0,-142.3015873015873,325.0,325.0,-322.3015873015873,325.0,-325.0,76.1111111111111,325.0,75.63492063492063,-318.8095238095238,-315.4761904761905,7.857142857142857,6.26984126984127,-166.26984126984127
-281.031746031746,-325.0,303.0952380952381,-238.65079365079364,-72.93650793650794,262.9365079365079,-0.07936507936507936,270.87301587301585,307.06349206349205,-0.07936507936507936,-108.01587301587301,263.73015873015873,303.25396825396825,-253.57142857142856,307.85714285714283,-300.87301587301585,55.0,273.25396825396825,46.42857142857142,-249.12698412698413,-241.8253968253968,3.888888888888889,4.841269841269841,-166.26984126984127
-281.031746031746,-325.0,303.0952380952381,-238.65079365079364,-72.93650793650794,262.9365079365079,-0.07936507936507936,270.87301587301585,307.06349206349205,-0.07936507936507936,-108.01587301587301,263.73015873015873,303.25396825396825,-253.57142857142856,307.85714285714283,-300.87301587301585,55.0,273.25396825396825,46.42857142857142,-249.12698412698413,-241.8253968253968,3.888888888888889,4.841269841269841,-166.26984126984127
-236.9047619047619,-325.0,281.19047619047615,-176.42857142857142,-55.317460317460316,201.03174603174602,-325.0,216.9047619047619,289.2857142857143,-325.0,-78.80952380952381,202.61904761904762,281.66666666666663,-187.38095238095238,290.7142857142857,-276.58730158730157,35.95238095238095,221.5079365079365,21.19047619047619,-185.47619047619045,-177.69841269841268,-0.07936507936507936,3.4126984126984126,-321.8253968253968
-236.9047619047619,-325.0,281.19047619047615,-176.42857142857142,-55.317460317460316,201.03174603174602,-325.0,216.9047619047619,289.2857142857143,-325.0,-78.80952380952381,202.61904761904762,281.66666666666663,-187.38095238095238,290.7142857142857,-276.58730158730157,35.95238095238095,221.5079365079365,21.19047619047619,-185.47619047619045,-177.69841269841268,-0.07936507936507936,3.4126984126984126,-321.8253968253968
-236.9047619047619,-325.0,281.19047619047615,-176.42857142857142,-55.317460317460316,201.03174603174602,-325.0,216.9047619047619,289.2857142857143,-325.0,-78.80952380952381,202.61904761904762,281.66666666666663,-187.38095238095238,290.7142857142857,-276.58730158730157,35.95238095238095,221.5079365079365,21.19047619047619,-185.47619047619045,-177.69841269841268,-0.07936507936507936,3.4126984126984126,-321.8253968253968
-236.9047619047619,-325.0,281.19047619047615,-176.42857142857142,-55.317460317460316,201.03174603174602,-325.0,216.9047619047619,289.2857142857143,-325.0,-78.80952380952381,202.61904761904762,281.66666666666663,-187.38095238095238,290.7142857142857,-276.58730158730157,35.95238095238095,221.5079365079365,21.19047619047619,-185.47619047619045,-177.69841269841268,-0.07936507936507936,3.4126984126984126,-321.8253968253968
-236.9047619047619,-325.0,281.19047619047615,-176.42857142857142,-55.317460317460316,201.03174603174602,-325.0,216.9047619047619,289.2857142857143,-325.0,-78.80952380952381,202.61904761904762,281.66666666666663,-187.38095238095238,290.7142857142857,-276.58730158730157,35.95238095238095,221.5079365079365,21.19047619047619,-185.47619047619045,-177.69841269841268,-0.07936507936507936,3.4126984126984126,-321.8253968253968
-236.9047619047619,-325.0,281.19047619047615,-176.42857142857142,-55.317460317460316,201.03174603174602,-325.0,216.9047619047619,289.2857142857143,-325.0,-78.80952380952381,202.61904761904762,281.66666666666663,-187.38095238095238,290.7142857142857,-276.58730158730157,35.95238095238095,221.5079365079365,21.19047619047619,-185.47619047619045,-177.69841269841268,-0.07936507936507936,3.4126984126984126,-321.8253968253968
-236.9047619047619,-325.0,281.19047619047615,-176.42857142857142,-55.317460317460316,201.03174603174602,-325.0,216.9047619047619,289.2857142857143,-325.0,-78.80952380952381,202.61904761904762,281.66666666666663,-187.38095238095238,290.7142857142857,-276.58730158730157,35.95238095238095,221.5079365079365,21.19047619047619,-185.47619047619045,-177.69841269841268,-0.07936507936507936,3.4126984126984126,-321.8253968253968
-236.9047619047619,-325.0,281.19047619047615,-176.42857142857142,-55.317460317460316,201.03174603174602,-325.0,216.9047619047619,289.2857142857143,-325.0,-78.80952380952381,202.61904761904762,281.66666666666663,-187.38095238095238,290.7142857142857,-276.58730158730157,35.95238095238095,221.5079365079365,21.19047619047619,-185.47619047619045,-177.69841269841268,-0.07936507936507936,3.4126984126984126,-321.8253968253968
-236.9047619047619,-325.0,281.19047619047615,-176.42857142857142,-55.317460317460316,201.03174603174602,-325.0,216.9047619047619,289.2857142857143,-325.0,-78.80952380952381,202.61904761904762,281.66666666666663,-187.38095238095238,290.7142857142857,-276.58730158730157,35.95238095238095,221.5079365079365,21.19047619047619,-185.47619047619045,-177.69841269841268,-0.07936507936507936,3.4126984126984126,-321.8253968253968
-236.9047619047619,-325.0,281.19047619047615,-176.42857142857142,-55.317460317460316,201.03174603174602,-325.0,216.9047619047619,289.2857142857143,-325.0,-78.80952380952381,202.61904761904762,281.66666666666663,-187.38095238095238,290.7142857142857,-276.58730158730157,35.95238095238095,221.5079365079365,21.19047619047619,-185.47619047619045,-177.69841269841268,-0.07936507936507936,3.4126984126984126,-321.8253968253968
-138.17460317460316,-299.9206349206349,166.9047619047619,-104.2063492063492,-33.888888888888886,-325.0,-325.0,131.19047619047618,-325.0,-300.55555555555554,-45.95238095238095,120.07936507936508,168.8095238095238,-110.87301587301587,175.95238095238093,-166.42857142857142,-17.698412698412696,134.04761904761904,-31.98412698412698,-110.07936507936508,-103.88888888888889,-3.095238095238095,1.507936507936508,-166.26984126984127
-138.17460317460316,-299.9206349206349,166.9047619047619,-104.2063492063492,-33.888888888888886,-325.0,-325.0,131.19047619047618,-325.0,-300.55555555555554,-45.95238095238095,120.07936507936508,168.8095238095238,-110.87301587301587,175.95238095238093,-166.42857142857142,-17.698412698412696,134.04761904761904,-31.98412698412698,-110.07936507936508,-103.88888888888889,-3.095238095238095,1.507936507936508,-166.26984126984127
-138.17460317460316,-299.9206349206349,166.9047619047619,-104.2063492063492,-33.888888888888886,-325.0,-325.0,131.19047619047618,-325.0,-300.55555555555554,-45.95238095238095,120.07936507936508,168.8095238095238,-110.87301587301587,175.95238095238093,-166.42857142857142,-17.698412698412696,134.04761904761904,-31.98412698412698,-110.07936507936508,-103.88888888888889,-3.095238095238095,1.507936507936508,-166.26984126984127
-138.17460317460316,-299.9206349206349,166.9047619047619,-104.2063492063492,-33.888888888888886,-325.0,-325.0,131.19047619047618,-325.0,-300.55555555555554,-45.95238095238095,120.07936507936508,168.8095238095238,-110.87301587301587,175.95238095238093,-166.42857142857142,-17.698412698412696,134.04761904761904,-31.98412698412698,-110.07936507936508,-103.88888888888889,-3.095238095238095,1.507936507936508,-166.26984126984127
-138.17460317460316,-299.9206349206349,166.9047619047619,-104.2063492063492,-33.888888888888886,-325.0,-325.0,131.19047619047618,-325.0,-300.55555555555554,-45.95238095238095,120.07936507936508,168.8095238095238,-110.87301587301587,175.95238095238093,-166.42857142857142,-17.698412698412696,134.04761904761904,-31.98412698412698,-110.07936507936508,-103.88888888888889,-3.095238095238095,1.507936507936508,-166.26984126984127
-138.17460317460316,-299.9206349206349,166.9047619047619,-104.2063492063492,-33.888888888888886,-325.0,-325.0,131.19047619047618,-325.0,-300.55555555555554,-45.95238095238095,120.07936507936508,168.8095238095238,-110.87301587301587,175.95238095238093,-166.42857142857142,-17.698412698412696,134.04761904761904,-31.98412698412698,-110.07936507936508,-103.88888888888889,-3.095238095238095,1.507936507936508,-166.26984126984127
-138.17460317460316,-299.9206349206349,166.9047619047619,-104.2063492063492,-33.888888888888886,-325.0,-325.0,131.19047619047618,-325.0,-300.55555555555554,-45.95238095238095,120.07936507936508,168.8095238095238,-110.87301587301587,175.95238095238093,-166.42857142857142,-17.698412698412696,134.04761904761904,-31.98412698412698,-110.07936507936508,-103.88888888888889,-3.095238095238095,1.507936507936508,-166.26984126984127
-138.17460317460316,-299.9206349206349,166.9047619047619,-104.2063492063492,-33.888888888888886,-325.0,-325.0,131.19047619047618,-325.0,-300.55555555555554,-45.95238095238095,120.07936507936508,168.8095238095238,-110.87301587301587,175.95238095238093,-166.42857142857142,-17.698412698412696,134.04761904761904,-31.98412698412698,-110.07936507936508,-103.88888888888889,-3.095238095238095,1.507936507936508,-166.26984126984127
-138.17460317460316,-299.9206349206349,166.9047619047619,-104.2063492063492,-33.888888888888886,-325.0,-325.0,131.19047619047618,-325.0,-300.55555555555554,-45.95238095238095,120.07936507936508,168.8095238095238,-110.87301587301587,175.95238095238093,-166.42857142857142,-17.698412698412696,134.04761904761904,-31.98412698412698,-110.07936507936508,-103.88888888888889,-3.095238095238095,1.507936507936508,-166.26984126984127
-138.17460317460316,-299.9206349206349,166.9047619047619,-104.2063492063492,-33.888888888888886,-325.0,-325.0,131.19047619047618,-325.0,-300.55555555555554,-45.95238095238095,120.07936507936508,168.8095238095238,-110.87301587301587,175.95238095238093,-166.42857142857142,-17.698412698412696,134.04761904761904,-31.98412698412698,-110.07936507936508,-103.88888888888889,-3.095238095238095,1.507936507936508,-166.26984126984127
-138.17460317460316,-299.9206349206349,166.9047619047619,-104.2063492063492,-33.888888888888886,-325.0,-325.0,131.19047619047618,-325.0,-300.55555555555554,-45.95238095238095,120.07936507936508,168.8095238095238,-110.87301587301587,175.95238095238093,-166.42857142857142,-17.698412698412696,134.04761904761904,-31.98412698412698,-110.07936507936508,-103.88888888888889,-3.095238095238095,1.507936507936508,-321.8253968253968
-138.17460317460316,-299.9206349206349,166.9047619047619,-104.2063492063492,-33.888888888888886,-325.0,-325.0,131.19047619047618,-325.0,-300.55555555555554,-45.95238095238095,120.07936507936508,168.8095238095238,-110.87301587301587,175.95238095238093,-166.42857142857142,-17.698412698412696,134.04761904761904,-31.98412698412698,-110.07936507936508,-103.88888888888889,-3.095238095238095,1.507936507936508,-321.8253968253968
-138.17460317460316,-299.9206349206349,166.9047619047619,-104.2063492063492,-33.888888888888886,-325.0,-325.0,131.19047619047618,-325.0,-300.55555555555554,-45.95238095238095,120.07936507936508,168.8095238095238,-110.87301587301587,175.95238095238093,-166.42857142857142,-17.698412698412696,134.04761904761904,-31.98412698412698,-110.07936507936508,-103.88888888888889,-3.095238095238095,1.507936507936508,-321.8253968253968
-138.17460317460316,-299.9206349206349,166.9047619047619,-104.2063492063492,-33.888888888888886,-325.0,-325.0,131.19047619047618,-325.0,-300.55555555555554,-45.95238095238095,120.07936507936508,168.8095238095238,-110.87301587301587,175.95238095238093,-166.42857142857142,-17.698412698412696,134.04761904761904,-31.98412698412698,-110.07936507936508,-103.88888888888889,-3.095238095238095,1.507936507936508,-321.8253968253968
-138.17460317460316,-299.9206349206349,166.9047619047619,-104.2063492063492,-33.888888888888886,-325.0,-325.0,131.19047619047618,-325.0,-300.55555555555554,-45.95238095238095,120.07936507936508,168.8095238095238,-110.87301587301587,175.95238095238093,-166.42857142857142,-17.698412698412696,134.04761904761904,-31.98412698412698,-110.07936507936508,-103.88888888888889,-3.095238095238095,1.507936507936508,-321.8253968253968
-138.17460317460316,-299.9206349206349,166.9047619047619,-104.2063492063492,-33.888888888888886,-325.0,-325.0,131.19047619047618,-325.0,-300.55555555555554,-45.95238095238095,120.07936507936508,168.8095238095238,-110.87301587301587,175.95238095238093,-166.42857142857142,-17.698412698412696,134.04761904761904,-31.98412698412698,-110.07936507936508,-103.88888888888889,-3.095238095238095,1.507936507936508,-321.8253968253968
-119.28571428571428,-261.66666666666663,144.36507936507937,-89.76190476190476,-30.238095238095237,-325.0,-306.1111111111111,113.88888888888889,-325.0,-261.1904761904762,-39.76190476190476,103.73015873015872,146.42857142857142,-95.63492063492063,152.93650793650792,-144.68253968253967,-25.0,116.58730158730158,-39.6031746031746,-95.47619047619047,-89.44444444444444,-6.26984126984127,-6.26984126984127,-321.8253968253968
-119.28571428571428,-261.66666666666663,144.36507936507937,-89.76190476190476,-30.238095238095237,-325.0,-306.1111111111111,113.88888888888889,-325.0,-261.1904761904762,-39.76190476190476,103.73015873015872,146.42857142857142,-95.63492063492063,152.93650793650792,-144.68253968253967,-25.0,116.58730158730158,-39.6031746031746,-95.47619047619047,-89.44444444444444,-6.26984126984127,-6.26984126984127,-321.8253968253968
-118.8095238095238,-260.55555555555554,143.73015873015873,-89.44444444444444,-29.920634920634917,-325.0,-304.8412698412698,113.57142857142857,-325.0,-259.9206349206349,-39.6031746031746,103.4126984126984,145.79365079365078,-95.31746031746032,152.46031746031744,-144.04761904761904,-24.68253968253968,116.26984126984127,-38.65079365079365,-95.0,-89.12698412698413,-7.222222222222221,-11.507936507936508,-321.8253968253968
-118.8095238095238,-260.55555555555554,143.73015873015873,-89.44444444444444,-29.920634920634917,-325.0,-304.8412698412698,113.57142857142857,-325.0,-259.9206349206349,-39.6031746031746,103.4126984126984,145.79365079365078,-95.31746031746032,152.46031746031744,-144.04761904761904,-24.68253968253968,116.26984126984127,-38.65079365079365,-95.0,-89.12698412698413,-7.222222222222221,-11.507936507936508,-321.8253968253968
-116.74603174603173,-256.26984126984127,141.19047619047618,-87.85714285714285,-29.6031746031746,-325.0,-299.6031746031746,111.5079365079365,-325.0,-255.63492063492063,-38.96825396825397,101.5079365079365,143.09523809523807,-93.73015873015872,149.9206349206349,-141.66666666666666,-26.428571428571427,114.04761904761904,-181.8253968253968,-93.57142857142857,-87.53968253968253,-6.587301587301587,-11.507936507936508,-166.26984126984127
-116.74603174603173,-256.26984126984127,141.19047619047618,-87.85714285714285,-29.6031746031746,-325.0,-299.6031746031746,111.5079365079365,-325.0,-255.63492063492063,-38.96825396825397,101.5079365079365,143.09523809523807,-93.73015873015872,149.9206349206349,-141.66666666666666,-26.428571428571427,114.04761904761904,-181.8253968253968,-93.57142857142857,-87.53968253968253,-6.587301587301587,-11.507936507936508,-166.26984126984127
-113.25396825396825,-249.12698412698413,136.9047619047619,-85.31746031746032,-28.49206349206349,-325.0,-290.87301587301585,108.17460317460316,-325.0,-247.85714285714283,-37.698412698412696,98.33333333333333,138.96825396825395,-90.87301587301587,145.63492063492063,-137.38095238095238,-24.047619047619047,110.71428571428571,-325.0,-91.03174603174602,-84.68253968253968,4.365079365079365,4.682539682539682,-166.26984126984127
-113.25396825396825,-249.12698412698413,136.9047619047619,-85.31746031746032,-28.49206349206349,-325.0,-290.87301587301585,108.17460317460316,-325.0,-247.85714285714283,-37.698412698412696,98.33333333333333,138.96825396825395,-90.87301587301587,145.63492063492063,-137.38095238095238,-24.047619047619047,110.71428571428571,-325.0,-91.03174603174602,-84.68253968253968,4.365079365079365,4.682539682539682,-166.26984126984127
-111.19047619047619,-244.84126984126982,134.52380952380952,-83.73015873015872,-28.333333333333332,-325.0,-286.26984126984127,106.26984126984127,-325.0,-243.88888888888889,-37.06349206349206,96.58730158730158,136.74603174603175,-89.28571428571428,143.09523809523807,-135.0,-27.698412698412696,108.96825396825396,-325.0,-89.44444444444444,-83.09523809523809,-5.952380952380952,-5.317460317460317,-166.26984126984127
-111.19047619047619,-244.84126984126982,134.52380952380952,-83.73015873015872,-28.333333333333332,-325.0,-286.26984126984127,106.26984126984127,-325.0,-243.88888888888889,-37.06349206349206,96.58730158730158,136.74603174603175,-89.28571428571428,143.09523809523807,-135.0,-27.698412698412696,108.96825396825396,-325.0,-89.44444444444444,-83.09523809523809,-5.952380952380952,-5.317460317460317,-166.26984126984127
-110.71428571428571,-243.7301587301587,134.04761904761904,-83.4126984126984,-28.174603174603174,-325.0,-285.1587301587301,105.95238095238095,-325.0,-242.77777777777777,-36.904761904761905,96.1111111111111,136.11111111111111,-88.80952380952381,142.61904761904762,-134.36507936507937,-28.96825396825397,108.49206349206348,-325.0,-88.96825396825396,-82.61904761904762,-6.904761904761904,-10.714285714285714,-166.26984126984127
-110.71428571428571,-243.7301587301587,134.04761904761904,-83.4126984126984,-28.174603174603174,-325.0,-285.1587301587301,105.95238095238095,-325.0,-242.77777777777777,-36.904761904761905,96.1111111111111,136.11111111111111,-88.80952380952381,142.61904761904762,-134.36507936507937,-28.96825396825397,108.49206349206348,-325.0,-88.96825396825396,-82.61904761904762,-6.904761904761904,-10.714285714285714,-166.26984126984127
-110.71428571428571,-243.7301587301587,134.04761904761904,-83.4126984126984,-28.174603174603174,-325.0,-285.1587301587301,105.95238095238095,-325.0,-242.77777777777777,-36.904761904761905,96.1111111111111,136.11111111111111,-88.80952380952381,142.61904761904762,-134.36507936507937,-28.96825396825397,108.49206349206348,-325.0,-88.96825396825396,-82.61904761904762,-6.904761904761904,-10.714285714285714,-166.26984126984127
-110.71428571428571,-243.7301587301587,134.04761904761904,-83.4126984126984,-28.174603174603174,-325.0,-285.1587301587301,105.95238095238095,-325.0,-242.77777777777777,-36.904761904761905,96.1111111111111,136.11111111111111,-88.80952380952381,142.61904761904762,-134.36507936507937,-28.96825396825397,108.49206349206348,-325.0,-88.96825396825396,-82.61904761904762,-6.904761904761904,-10.714285714285714,-166.26984126984127
-110.71428571428571,-243.7301587301587,134.04761904761904,-83.4126984126984,-28.174603174603174,-325.0,-285.1587301587301,105.95238095238095,-325.0,-242.77777777777777,-36.904761904761905,96.1111111111111,136.11111111111111,-88.80952380952381,142.61904761904762,-134.36507936507937,-28.96825396825397,108.49206349206348,-325.0,-88.96825396825396,-82.61904761904762,-6.904761904761904,-10.714285714285714,-321.8253968253968
-110.71428571428571,-243.7301587301587,134.04761904761904,-83.4126984126984,-28.174603174603174,-325.0,-285.1587301587301,105.95238095238095,-325.0,-242.77777777777777,-36.904761904761905,96.1111111111111,136.11111111111111,-88.80952380952381,142.61904761904762,-134.36507936507937,-28.96825396825397,108.49206349206348,-325.0,-88.96825396825396,-82.61904761904762,-6.904761904761904,-10.714285714285714,-321.8253968253968
-110.71428571428571,-243.7301587301587,134.04761904761904,-83.4126984126984,-28.174603174603174,-325.0,-285.1587301587301,105.95238095238095,-325.0,-242.77777777777777,-36.904761904761905,96.1111111111111,136.11111111111111,-88.80952380952381,142.61904761904762,-134.36507936507937,-28.96825396825397,108.49206349206348,-325.0,-88.96825396825396,-82.61904761904762,-6.904761904761904,-10.714285714285714,-321.8253968253968
-110.71428571428571,-243.7301587301587,134.04761904761904,-83.4126984126984,-28.174603174603174,-325.0,-285.1587301587301,105.95238095238095,-325.0,-242.77777777777777,-36.904761904761905,96.1111111111111,136.11111111111111,-88.80952380952381,142.61904761904762,-134.36507936507937,-28.96825396825397,108.49206349206348,-325.0,-88.96825396825396,-82.61904761904762,-6.904761904761904,-10.714285714285714,-321.8253968253968
-110.71428571428571,-243.7301587301587,134.04761904761904,-83.4126984126984,-28.174603174603174,-325.0,-285.1587301587301,105.95238095238095,-325.0,-242.77777777777777,-36.904761904761905,96.1111111111111,136.11111111111111,-88.80952380952381,142.61904761904762,-134.36507936507937,-28.96825396825397,108.49206349206348,-325.0,-88.96825396825396,-82.61904761904762,-6.904761904761904,-10.714285714285714,-321.8253968253968
-110.71428571428571,-243.7301587301587,134.04761904761904,-83.4126984126984,-28.174603174603174,-325.0,-285.1587301587301,105.95238095238095,-325.0,-242.77777777777777,-36.904761904761905,96.1111111111111,136.11111111111111,-88.80952380952381,142.61904761904762,-134.36507936507937,-28.96825396825397,108.49206349206348,-325.0,-88.96825396825396,-82.61904761904762,-6.904761904761904,-10.714285714285714,-321.8253968253968
-110.71428571428571,-243.7301587301587,134.04761904761904,-83.4126984126984,-28.174603174603174,-325.0,-285.1587301587301,105.95238095238095,-325.0,-242.77777777777777,-36.904761904761905,96.1111111111111,136.11111111111111,-88.80952380952381,142.61904761904762,-134.36507936507937,-28.96825396825397,108.49206349206348,-325.0,-88.96825396825396,-82.61904761904762,-6.904761904761904,-10.714285714285714,-321.8253968253968
-110.71428571428571,-243.7301587301587,134.04761904761904,-83.4126984126984,-28.174603174603174,-325.0,-285.1587301587301,105.95238095238095,-325.0,-242.77777777777777,-36.904761904761905,96.1111111111111,136.11111111111111,-88.80952380952381,142.61904761904762,-134.36507936507937,-28.96825396825397,108.49206349206348,-325.0,-88.96825396825396,-82.61904761904762,-6.904761904761904,-10.714285714285714,-321.8253968253968
-110.71428571428571,-243.7301587301587,134.04761904761904,-83.4126984126984,-28.174603174603174,-325.0,-285.1587301587301,105.95238095238095,-325.0,-242.77777777777777,-36.904761904761905,96.1111111111111,136.11111111111111,-88.80952380952381,142.61904761904762,-134.36507936507937,-28.96825396825397,108.49206349206348,-325.0,-88.96825396825396,-82.61904761904762,-6.904761904761904,-10.714285714285714,-321.8253968253968
-110.71428571428571,-243.7301587301587,134.04761904761904,-83.4126984126984,-28.174603174603174,-325.0,-285.1587301587301,105.95238095238095,-325.0,-242.77777777777777,-36.904761904761905,96.1111111111111,136.11111111111111,-88.80952380952381,142.61904761904762,-134.36507936507937,-28.96825396825397,108.49206349206348,-325.0,-88.96825396825396,-82.61904761904762,-6.904761904761904,-10.714285714285714,-321.8253968253968
-110.71428571428571,-243.7301587301587,134.04761904761904,-83.4126984126984,-28.174603174603174,-325.0,-285.1587301587301,105.95238095238095,-325.0,-242.77777777777777,-36.904761904761905,96.1111111111111,136.11111111111111,-88.80952380952381,142.61904761904762,-134.36507936507937,-28.96825396825397,108.49206349206348,-325.0,-88.96825396825396,-82.61904761904762,-6.904761904761904,-10.714285714285714,-166.26984126984127
-110.71428571428571,-243.7301587301587,134.04761904761904,-83.4126984126984,-28.174603174603174,-325.0,-285.1587301587301,105.95238095238095,-325.0,-242.77777777777777,-36.904761904761905,96.1111111111111,136.11111111111111,-88.80952380952381,142.61904761904762,-134.36507936507937,-28.96825396825397,108.49206349206348,-325.0,-88.96825396825396,-82.61904761904762,-6.904761904761904,-10.714285714285714,-166.26984126984127
-110.71428571428571,-243.7301587301587,134.04761904761904,-83.4126984126984,-28.174603174603174,-325.0,-285.1587301587301,105.95238095238095,-325.0,-242.77777777777777,-36.904761904761905,96.1111111111111,136.11111111111111,-88.80952380952381,142.61904761904762,-134.36507936507937,-28.96825396825397,108.49206349206348,-325.0,-88.96825396825396,-82.61904761904762,-6.904761904761904,-10.714285714285714,-166.26984126984127
-110.71428571428571,-243.7301587301587,134.04761904761904,-83.4126984126984,-28.174603174603174,-325.0,-285.1587301587301,105.95238095238095,-325.0,-242.77777777777777,-36.904761904761905,96.1111111111111,136.11111111111111,-88.80952380952381,142.61904761904762,-134.36507936507937,-28.96825396825397,108.49206349206348,-325.0,-88.96825396825396,-82.61904761904762,-6.904761904761904,-10.714285714285714,-166.26984126984127
-110.71428571428571,-243.7301587301587,134.04761904761904,-83.4126984126984,-28.174603174603174,-325.0,-285.1587301587301,105.95238095238095,-325.0,-242.77777777777777,-36.904761904761905,96.1111111111111,136.11111111111111,-88.80952380952381,142.61904761904762,-134.36507936507937,-28.96825396825397,108.49206349206348,-325.0,-88.96825396825396,-82.61904761904762,-6.904761904761904,-10.714285714285714,-166.26984126984127
-110.71428571428571,-243.7301587301587,134.04761904761904,-83.4126984126984,-28.174603174603174,-325.0,-285.1587301587301,105.95238095238095,-325.0,-242.77777777777777,-36.904761904761905,96.1111111111111,136.11111111111111,-88.80952380952381,142.61904761904762,-134.36507936507937,-28.96825396825397,108.49206349206348,-325.0,-88.96825396825396,-82.61904761904762,-6.904761904761904,-10.714285714285714,-166.26984126984127
-110.71428571428571,-243.7301587301587,134.04761904761904,-83.4126984126984,-28.174603174603174,-325.0,-285.1587301587301,105.95238095238095,-325.0,-242.77777777777777,-36.904761904761905,96.1111111111111,136.11111111111111,-88.80952380952381,142.61904761904762,-134.36507936507937,-28.96825396825397,108.49206349206348,-325.0,-88.96825396825396,-82.61904761904762,-6.904761904761904,-10.714285714285714,-166.26984126984127
-110.71428571428571,-243.7301587301587,134.04761904761904,-83.4126984126984,-28.174603174603174,-325.0,-285.1587301587301,105.95238095238095,-325.0,-242.77777777777777,-36.904761904761905,96.1111111111111,136.11111111111111,-88.80952380952381,142.61904761904762,-134.36507936507937,-28.96825396825397,108.49206349206348,-325.0,-88.96825396825396,-82.61904761904762,-6.904761904761904,-10.714285714285714,-166.26984126984127
107.06349206349206,-220.87301587301587,120.71428571428571,-75.15873015873015,-25.79365079365079,-325.0,-257.53968253968253,95.79365079365078,-325.0,-219.44444444444443,-33.41269841269841,86.58730158730158,122.93650793650794,-80.07936507936508,128.8095238095238,-118.33333333333333,-167.38095238095238,98.17460317460316,-325.0,-80.23809523809523,-74.52380952380952,-1.1904761904761905,-3.888888888888889,-166.26984126984127
107.06349206349206,-220.87301587301587,120.71428571428571,-75.15873015873015,-25.79365079365079,-325.0,-257.53968253968253,95.79365079365078,-325.0,-219.44444444444443,-33.41269841269841,86.58730158730158,122.93650793650794,-80.07936507936508,128.8095238095238,-118.33333333333333,-167.38095238095238,98.17460317460316,-325.0,-80.23809523809523,-74.52380952380952,-1.1904761904761905,-3.888888888888889,-166.26984126984127
325.0,-196.26984126984127,106.58730158730158,-66.26984126984127,-23.41269841269841,-325.0,-228.015873015873,85.0,-318.4920634920635,-194.52380952380952,-29.444444444444443,76.42857142857143,108.65079365079364,-70.71428571428571,114.04761904761904,-51.507936507936506,-310.07936507936506,87.06349206349206,-325.0,-71.03174603174602,-65.79365079365078,-0.7142857142857142,0.3968253968253968,-321.8253968253968
325.0,-196.26984126984127,106.58730158730158,-66.26984126984127,-23.41269841269841,-325.0,-228.015873015873,85.0,-318.4920634920635,-194.52380952380952,-29.444444444444443,76.42857142857143,108.65079365079364,-70.71428571428571,114.04761904761904,-51.507936507936506,-310.07936507936506,87.06349206349206,-325.0,-71.03174603174602,-65.79365079365078,-0.7142857142857142,0.3968253968253968,-321.8253968253968
325.0,-192.93650793650792,104.68253968253968,-65.47619047619047,-22.936507936507937,-325.0,-224.2063492063492,83.73015873015872,-213.09523809523807,-190.87301587301587,-28.96825396825397,75.15873015873015,107.06349206349206,-69.76190476190476,112.30158730158729,2.619047619047619,-325.0,85.47619047619047,-325.0,-69.76190476190476,-64.68253968253968,-7.698412698412698,-10.714285714285714,-321.8253968253968
325.0,-192.93650793650792,104.68253968253968,-65.47619047619047,-22.936507936507937,-325.0,-224.2063492063492,83.73015873015872,-213.09523809523807,-190.87301587301587,-28.96825396825397,75.15873015873015,107.06349206349206,-69.76190476190476,112.30158730158729,2.619047619047619,-325.0,85.47619047619047,-325.0,-69.76190476190476,-64.68253968253968,-7.698412698412698,-10.714285714285714,-321.8253968253968
325.0,-190.55555555555554,103.25396825396825,-64.52380952380952,-22.619047619047617,-325.0,-221.34920634920633,82.61904761904762,-269.1269841269841,-188.4920634920635,-28.65079365079365,74.2063492063492,105.63492063492063,-68.80952380952381,110.87301587301587,22.936507936507937,-325.0,84.36507936507937,-325.0,-68.80952380952381,-63.73015873015873,-6.26984126984127,-6.746031746031746,-321.8253968253968
325.0,-190.55555555555554,103.25396825396825,-64.52380952380952,-22.619047619047617,-325.0,-221.34920634920633,82.61904761904762,-269.1269841269841,-188.4920634920635,-28.65079365079365,74.2063492063492,105.63492063492063,-68.80952380952381,110.87301587301587,22.936507936507937,-325.0,84.36507936507937,-325.0,-68.80952380952381,-63.73015873015873,-6.26984126984127,-6.746031746031746,-321.8253968253968
325.0,-185.95238095238093,100.55555555555554,-62.61904761904761,-22.142857142857142,-325.0,-215.63492063492063,69.12698412698413,-325.0,-183.7301587301587,-27.857142857142854,72.14285714285714,102.61904761904762,-66.74603174603175,108.01587301587301,-14.523809523809524,-325.0,82.14285714285714,-325.0,-67.06349206349206,-61.98412698412698,-0.7142857142857142,-4.682539682539682,-321.8253968253968
325.0,-185.95238095238093,100.55555555555554,-62.61904761904761,-22.142857142857142,-325.0,-215.63492063492063,69.12698412698413,-325.0,-183.7301587301587,-27.857142857142854,72.14285714285714,102.61904761904762,-66.74603174603175,108.01587301587301,-14.523809523809524,-325.0,82.14285714285714,-325.0,-67.06349206349206,-61.98412698412698,-0.7142857142857142,-4.682539682539682,-321.8253968253968
325.0,-183.7301587301587,99.28571428571428,-61.82539682539682,-21.825396825396822,-325.0,-212.93650793650792,69.12698412698413,-325.0,-181.5079365079365,-27.38095238095238,71.34920634920634,101.19047619047619,-65.95238095238095,106.58730158730158,15.317460317460316,-325.0,81.19047619047619,-325.0,-66.26984126984127,-61.03174603174603,-0.873015873015873,-0.873015873015873,-321.8253968253968
325.0,-183.7301587301587,99.28571428571428,-61.82539682539682,-21.825396825396822,-325.0,-212.93650793650792,69.12698412698413,-325.0,-181.5079365079365,-27.38095238095238,71.34920634920634,101.19047619047619,-65.95238095238095,106.58730158730158,15.317460317460316,-325.0,81.19047619047619,-325.0,-66.26984126984127,-61.03174603174603,-0.873015873015873,-0.873015873015873,-321.8253968253968
325.0,-180.3968253968254,97.53968253968253,-60.71428571428571,-21.349206349206348,-325.0,-209.28571428571428,-17.22222222222222,-325.0,-178.33333333333331,-27.063492063492063,70.07936507936508,99.6031746031746,-64.68253968253968,104.84126984126983,27.063492063492063,-325.0,79.76190476190476,-325.0,-65.0,-60.079365079365076,-0.7142857142857142,-0.5555555555555556,-166.26984126984127
325.0,-180.3968253968254,97.53968253968253,-60.71428571428571,-21.349206349206348,-325.0,-209.28571428571428,-17.22222222222222,-325.0,-178.33333333333331,-27.063492063492063,70.07936507936508,99.6031746031746,-64.68253968253968,104.84126984126983,27.063492063492063,-325.0,79.76190476190476,-325.0,-65.0,-60.079365079365076,-0.7142857142857142,-0.5555555555555556,-166.26984126984127
168.8095238095238,-177.38095238095238,95.95238095238095,-59.6031746031746,-21.03174603174603,-325.0,-205.79365079365078,-42.77777777777778,-325.0,-175.15873015873015,-26.587301587301585,68.96825396825396,98.01587301587301,-63.57142857142857,103.09523809523809,47.698412698412696,-325.0,78.4920634920635,-325.0,-63.73015873015873,-58.96825396825397,-0.7142857142857142,-0.5555555555555556,-166.26984126984127
168.8095238095238,-177.38095238095238,95.95238095238095,-59.6031746031746,-21.03174603174603,-325.0,-205.79365079365078,-42.77777777777778,-325.0,-175.15873015873015,-26.587301587301585,68.96825396825396,98.01587301587301,-63.57142857142857,103.09523809523809,47.698412698412696,-325.0,78.4920634920635,-325.0,-63.73015873015873,-58.96825396825397,-0.7142857142857142,-0.5555555555555556,-166.26984126984127
325.0,-173.73015873015873,93.73015873015872,-58.33333333333333,-20.873015873015873,-325.0,-201.34920634920633,-176.11111111111111,-325.0,-171.66666666666666,-25.952380952380953,67.22222222222221,95.79365079365078,-62.3015873015873,100.71428571428571,61.34920634920635,-325.0,76.74603174603175,-325.0,-62.61904761904761,-57.698412698412696,-1.0317460317460316,-4.523809523809524,-166.26984126984127
325.0,-173.73015873015873,93.73015873015872,-58.33333333333333,-20.873015873015873,-325.0,-201.34920634920633,-176.11111111111111,-325.0,-171.66666666666666,-25.952380952380953,67.22222222222221,95.79365079365078,-62.3015873015873,100.71428571428571,61.34920634920635,-325.0,76.74603174603175,-325.0,-62.61904761904761,-57.698412698412696,-1.0317460317460316,-4.523809523809524,-166.26984126984127
325.0,-172.93650793650792,93.4126984126984,-58.17460317460317,-20.873015873015873,-325.0,-200.55555555555554,-325.0,-325.0,-170.87301587301587,-25.79365079365079,66.9047619047619,95.47619047619047,-61.98412698412698,100.23809523809523,-43.73015873015873,-325.0,76.58730158730158,-325.0,-62.460317460317455,-57.38095238095238,5.158730158730158,2.619047619047619,-166.26984126984127
325.0,-172.93650793650792,93.4126984126984,-58.17460317460317,-20.873015873015873,-325.0,-200.55555555555554,-325.0,-325.0,-170.87301587301587,-25.79365079365079,66.9047619047619,95.47619047619047,-61.98412698412698,100.23809523809523,-43.73015873015873,-325.0,76.58730158730158,-325.0,-62.460317460317455,-57.38095238095238,5.158730158730158,2.619047619047619,-166.26984126984127
325.0,-168.96825396825395,90.87301587301587,-56.74603174603174,214.2063492063492,-325.0,-195.47619047619045,-206.26984126984127,325.0,-166.42857142857142,-25.158730158730158,58.17460317460317,92.93650793650794,-60.55555555555555,88.96825396825396,221.66666666666666,-325.0,74.04761904761904,-325.0,-60.873015873015866,-55.95238095238095,-4.841269841269841,-10.079365079365079,-166.26984126984127
325.0,-168.96825396825395,90.87301587301587,-56.74603174603174,214.2063492063492,-325.0,-195.47619047619045,-206.26984126984127,325.0,-166.42857142857142,-25.158730158730158,58.17460317460317,92.93650793650794,-60.55555555555555,88.96825396825396,221.66666666666666,-325.0,74.04761904761904,-325.0,-60.873015873015866,-55.95238095238095,-4.841269841269841,-10.079365079365079,-166.26984126984127
-255.0,-165.63492063492063,89.44444444444444,-55.15873015873016,-36.74603174603175,-325.0,-191.66666666666666,-325.0,-325.0,-163.25396825396825,-24.365079365079364,62.77777777777777,91.19047619047619,-58.96825396825397,84.52380952380952,-16.11111111111111,-325.0,72.93650793650794,-325.0,-59.285714285714285,-54.36507936507936,6.26984126984127,10.079365079365079,-321.8253968253968
-255.0,-165.63492063492063,89.44444444444444,-55.15873015873016,-36.74603174603175,-325.0,-191.66666666666666,-325.0,-325.0,-163.25396825396825,-24.365079365079364,62.77777777777777,91.19047619047619,-58.96825396825397,84.52380952380952,-16.11111111111111,-325.0,72.93650793650794,-325.0,-59.285714285714285,-54.36507936507936,6.26984126984127,10.079365079365079,-321.8253968253968
-290.07936507936506,-163.57142857142856,88.17460317460316,-54.36507936507936,-32.460317460317455,-325.0,-189.28571428571428,-325.0,-325.0,-161.19047619047618,-24.047619047619047,18.174603174603174,90.07936507936508,-58.17460317460317,-43.25396825396825,-1.507936507936508,-325.0,53.73015873015873,-325.0,-58.650793650793645,-53.57142857142857,6.428571428571428,6.428571428571428,-321.8253968253968
-290.07936507936506,-163.57142857142856,88.17460317460316,-54.36507936507936,-32.460317460317455,-325.0,-189.28571428571428,-325.0,-325.0,-161.19047619047618,-24.047619047619047,18.174603174603174,90.07936507936508,-58.17460317460317,-43.25396825396825,-1.507936507936508,-325.0,53.73015873015873,-325.0,-58.650793650793645,-53.57142857142857,6.428571428571428,6.428571428571428,-321.8253968253968
-322.77777777777777,-160.07936507936506,86.1111111111111,-53.25396825396825,-28.015873015873016,-325.0,-185.15873015873015,-325.0,-325.0,-157.69841269841268,-23.57142857142857,10.396825396825395,88.17460317460316,-50.079365079365076,-122.77777777777777,168.96825396825395,-325.0,51.03174603174603,-325.0,-57.38095238095238,-52.61904761904761,-0.07936507936507936,-0.7142857142857142,-321.8253968253968
-322.77777777777777,-160.07936507936506,86.1111111111111,-53.25396825396825,-28.015873015873016,-325.0,-185.15873015873015,-325.0,-325.0,-157.69841269841268,-23.57142857142857,10.396825396825395,88.17460317460316,-50.079365079365076,-122.77777777777777,168.96825396825395,-325.0,51.03174603174603,-325.0,-57.38095238095238,-52.61904761904761,-0.07936507936507936,-0.7142857142857142,-321.8253968253968
-317.53968253968253,-157.2222222222222,46.42857142857142,-52.460317460317455,-27.38095238095238,-325.0,-181.8253968253968,-325.0,-325.0,-154.68253968253967,-23.095238095238095,-85.63492063492063,86.74603174603175,-48.49206349206349,-199.76190476190476,193.88888888888889,-325.0,-35.15873015873016,-325.0,-56.11111111111111,-51.666666666666664,0.23809523809523808,-0.3968253968253968,-321.8253968253968
-317.53968253968253,-157.2222222222222,46.42857142857142,-52.460317460317455,-27.38095238095238,-325.0,-181.8253968253968,-325.0,-325.0,-154.68253968253967,-23.095238095238095,-85.63492063492063,86.74603174603175,-48.49206349206349,-199.76190476190476,193.88888888888889,-325.0,-35.15873015873016,-325.0,-56.11111111111111,-51.666666666666664,0.23809523809523808,-0.3968253968253968,-321.8253968253968
-311.5079365079365,-154.68253968253967,48.33333333333333,-51.34920634920635,-26.746031746031743,-325.0,-178.8095238095238,-325.0,-325.0,-151.984126984127,-22.619047619047617,-124.04761904761904,85.31746031746032,55.63492063492063,-325.0,193.88888888888889,-325.0,-62.61904761904761,-325.0,-55.0,-50.39682539682539,-0.3968253968253968,-0.873015873015873,-321.8253968253968
-311.5079365079365,-154.68253968253967,48.33333333333333,-51.34920634920635,-26.746031746031743,-325.0,-178.8095238095238,-325.0,-325.0,-151.984126984127,-22.619047619047617,-124.04761904761904,85.31746031746032,55.63492063492063,-325.0,193.88888888888889,-325.0,-62.61904761904761,-325.0,-55.0,-50.39682539682539,-0.3968253968253968,-0.873015873015873,-321.8253968253968
-305.95238095238096,-151.984126984127,-108.01587301587301,-50.55555555555555,-26.26984126984127,-325.0,-175.79365079365078,-325.0,-325.0,-149.28571428571428,-22.3015873015873,-158.96825396825395,53.095238095238095,147.85714285714286,-325.0,325.0,-325.0,-98.49206349206348,-325.0,-54.36507936507936,-49.76190476190476,-4.841269841269841,-10.873015873015872,-166.26984126984127
-305.95238095238096,-151.984126984127,-108.01587301587301,-50.55555555555555,-26.26984126984127,-325.0,-175.79365079365078,-325.0,-325.0,-149.28571428571428,-22.3015873015873,-158.96825396825395,53.095238095238095,147.85714285714286,-325.0,325.0,-325.0,-98.49206349206348,-325.0,-54.36507936507936,-49.76190476190476,-4.841269841269841,-10.873015873015872,-166.26984126984127
-305.95238095238096,-151.984126984127,-108.01587301587301,-50.55555555555555,-26.26984126984127,-325.0,-175.79365079365078,-325.0,-325.0,-149.28571428571428,-22.3015873015873,-158.96825396825395,53.095238095238095,147.85714285714286,-325.0,325.0,-325.0,-98.49206349206348,-325.0,-54.36507936507936,-49.76190476190476,-4.841269841269841,-10.873015873015872,-166.26984126984127
-305.95238095238096,-151.984126984127,-108.01587301587301,-50.55555555555555,-26.26984126984127,-325.0,-175.79365079365078,-325.0,-325.0,-149.28571428571428,-22.3015873015873,-158.96825396825395,53.095238095238095,147.85714285714286,-325.0,325.0,-325.0,-98.49206349206348,-325.0,-54.36507936507936,-49.76190476190476,-4.841269841269841,-10.873015873015872,-166.26984126984127
-293.25396825396825,-146.42857142857142,-43.25396825396825,-48.49206349206349,-25.317460317460316,-325.0,-169.12698412698413,-325.0,-325.0,-143.88888888888889,-21.349206349206348,-305.0,79.76190476190476,261.1904761904762,-325.0,231.34920634920633,-325.0,-280.39682539682536,-325.0,-52.14285714285714,-47.698412698412696,0.7142857142857142,-2.7777777777777777,-166.26984126984127
-293.25396825396825,-146.42857142857142,-43.25396825396825,-48.49206349206349,-25.317460317460316,-325.0,-169.12698412698413,-325.0,-325.0,-143.88888888888889,-21.349206349206348,-305.0,79.76190476190476,261.1904761904762,-325.0,231.34920634920633,-325.0,-280.39682539682536,-325.0,-52.14285714285714,-47.698412698412696,0.7142857142857142,-2.7777777777777777,-166.26984126984127
-288.968253968254,-144.52380952380952,10.714285714285714,-47.857142857142854,-24.84126984126984,-325.0,-166.9047619047619,-325.0,-325.0,-141.66666666666666,-21.03174603174603,-325.0,79.76190476190476,261.1904761904762,-325.0,231.34920634920633,-325.0,-325.0,-325.0,-51.507936507936506,-47.06349206349206,-1.0317460317460316,-0.23809523809523808,-166.26984126984127
-288.968253968254,-144.52380952380952,10.714285714285714,-47.857142857142854,-24.84126984126984,-325.0,-166.9047619047619,-325.0,-325.0,-141.66666666666666,-21.03174603174603,-325.0,79.76190476190476,261.1904761904762,-325.0,231.34920634920633,-325.0,-325.0,-325.0,-51.507936507936506,-47.06349206349206,-1.0317460317460316,-0.23809523809523808,-166.26984126984127
-282.46031746031747,-141.34920634920636,-232.46031746031744,-46.904761904761905,-24.365079365079364,-325.0,-163.09523809523807,-325.0,-325.0,-138.8095238095238,-20.71428571428571,-325.0,-37.06349206349206,325.0,-325.0,253.09523809523807,-325.0,-325.0,-321.984126984127,-50.39682539682539,-45.79365079365079,2.142857142857143,-1.6666666666666665,-166.26984126984127
-282.46031746031747,-141.34920634920636,-232.46031746031744,-46.904761904761905,-24.365079365079364,-325.0,-163.09523809523807,-325.0,-325.0,-138.8095238095238,-20.71428571428571,-325.0,-37.06349206349206,325.0,-325.0,253.09523809523807,-325.0,-325.0,-321.984126984127,-50.39682539682539,-45.79365079365079,2.142857142857143,-1.6666666666666665,-166.26984126984127
-278.3333333333333,-139.6031746031746,-248.17460317460316,-45.95238095238095,-23.88888888888889,-325.0,-160.87301587301587,-325.0,-325.0,-136.9047619047619,-20.238095238095237,-325.0,5.7936507936507935,325.0,-325.0,253.09523809523807,-325.0,-325.0,-317.53968253968253,-49.6031746031746,-45.15873015873016,0.07936507936507936,-0.07936507936507936,-321.8253968253968
-278.3333333333333,-139.6031746031746,-248.17460317460316,-45.95238095238095,-23.88888888888889,-325.0,-160.87301587301587,-325.0,-325.0,-136.9047619047619,-20.238095238095237,-325.0,5.7936507936507935,325.0,-325.0,253.09523809523807,-325.0,-325.0,-317.53968253968253,-49.6031746031746,-45.15873015873016,0.07936507936507936,-0.07936507936507936,-321.8253968253968
-271.66666666666663,-136.42857142857142,-325.0,-44.68253968253968,-23.253968253968253,-325.0,-157.53968253968253,-325.0,-325.0,-133.88888888888889,-19.6031746031746,-325.0,-325.0,325.0,-325.0,271.5079365079365,-325.0,-325.0,-310.7142857142857,-48.49206349206349,-43.888888888888886,1.349206349206349,-3.571428571428571,-321.8253968253968
-271.66666666666663,-136.42857142857142,-325.0,-44.68253968253968,-23.253968253968253,-325.0,-157.53968253968253,-325.0,-325.0,-133.88888888888889,-19.6031746031746,-325.0,-325.0,325.0,-325.0,271.5079365079365,-325.0,-325.0,-310.7142857142857,-48.49206349206349,-43.888888888888886,1.349206349206349,-3.571428571428571,-321.8253968253968
-270.23809523809524,-135.79365079365078,-325.0,-44.36507936507936,-22.936507936507937,-325.0,-156.74603174603175,-325.0,-325.0,-133.0952380952381,-19.444444444444443,-325.0,-325.0,325.0,-325.0,218.015873015873,-325.0,-325.0,-309.2857142857143,-48.01587301587301,-43.41269841269841,6.26984126984127,2.7777777777777777,-321.8253968253968
-270.23809523809524,-135.79365079365078,-325.0,-44.36507936507936,-22.936507936507937,-325.0,-156.74603174603175,-325.0,-325.0,-133.0952380952381,-19.444444444444443,-325.0,-325.0,325.0,-325.0,218.015873015873,-325.0,-325.0,-309.2857142857143,-48.01587301587301,-43.41269841269841,6.26984126984127,2.7777777777777777,-321.8253968253968
-260.39682539682536,-128.33333333333331,-325.0,-42.93650793650794,-22.3015873015873,-325.0,-151.19047619047618,-325.0,-325.0,-128.8095238095238,-18.96825396825397,-325.0,-325.0,325.0,-325.0,241.98412698412696,-325.0,-325.0,-298.968253968254,-46.74603174603175,-42.460317460317455,6.428571428571428,2.7777777777777777,-321.8253968253968
-260.39682539682536,-128.33333333333331,-325.0,-42.93650793650794,-22.3015873015873,-325.0,-151.19047619047618,-325.0,-325.0,-128.8095238095238,-18.96825396825397,-325.0,-325.0,325.0,-325.0,241.98412698412696,-325.0,-325.0,-298.968253968254,-46.74603174603175,-42.460317460317455,6.428571428571428,2.7777777777777777,-321.8253968253968
-256.90476190476187,-128.8095238095238,-208.8095238095238,-42.61904761904761,-22.142857142857142,-325.0,-149.44444444444443,-325.0,-325.0,-127.22222222222221,-18.80952380952381,-325.0,-129.6031746031746,325.0,-325.0,283.4126984126984,-325.0,-325.0,-295.3174603174603,-46.269841269841265,-41.98412698412698,-0.7142857142857142,-4.523809523809524,-321.8253968253968
-256.90476190476187,-128.8095238095238,-208.8095238095238,-42.61904761904761,-22.142857142857142,-325.0,-149.44444444444443,-325.0,-325.0,-127.22222222222221,-18.80952380952381,-325.0,-129.6031746031746,325.0,-325.0,283.4126984126984,-325.0,-325.0,-295.3174603174603,-46.269841269841265,-41.98412698412698,-0.7142857142857142,-4.523809523809524,-321.8253968253968
-251.03174603174602,-128.33333333333331,-292.46031746031747,-41.82539682539682,-21.825396825396822,-325.0,-146.58730158730157,-325.0,-325.0,-124.68253968253967,-18.49206349206349,-325.0,66.26984126984127,325.0,-325.0,273.88888888888886,-325.0,-325.0,-289.2857142857143,-45.476190476190474,-41.03174603174603,5.476190476190476,3.73015873015873,-166.26984126984127
-251.03174603174602,-128.33333333333331,-292.46031746031747,-41.82539682539682,-21.825396825396822,-325.0,-146.58730158730157,-325.0,-325.0,-124.68253968253967,-18.49206349206349,-325.0,66.26984126984127,325.0,-325.0,273.88888888888886,-325.0,-325.0,-289.2857142857143,-45.476190476190474,-41.03174603174603,5.476190476190476,3.73015873015873,-166.26984126984127
-182.46031746031744,-113.57142857142857,-185.47619047619045,-41.507936507936506,-21.666666666666664,-325.0,-144.84126984126982,-325.0,-325.0,-123.09523809523809,-18.333333333333332,-325.0,79.28571428571428,325.0,-325.0,299.4444444444444,-325.0,-325.0,-285.7936507936508,-44.84126984126984,-40.55555555555555,0.23809523809523808,-3.571428571428571,-166.26984126984127
-182.46031746031744,-113.57142857142857,-185.47619047619045,-41.507936507936506,-21.666666666666664,-325.0,-144.84126984126982,-325.0,-325.0,-123.09523809523809,-18.333333333333332,-325.0,79.28571428571428,325.0,-325.0,299.4444444444444,-325.0,-325.0,-285.7936507936508,-44.84126984126984,-40.55555555555555,0.23809523809523808,-3.571428571428571,-166.26984126984127
-151.984126984127,-121.19047619047619,-325.0,-40.39682539682539,-21.03174603174603,-325.0,-141.66666666666666,-325.0,-325.0,-120.39682539682539,-18.174603174603174,-325.0,-81.82539682539682,325.0,-325.0,299.2857142857143,-325.0,-325.0,-279.76190476190476,-43.57142857142857,-39.76190476190476,6.746031746031746,3.253968253968254,-166.26984126984127
-151.984126984127,-121.19047619047619,-325.0,-40.39682539682539,-21.03174603174603,-325.0,-141.66666666666666,-325.0,-325.0,-120.39682539682539,-18.174603174603174,-325.0,-81.82539682539682,325.0,-325.0,299.2857142857143,-325.0,-325.0,-279.76190476190476,-43.57142857142857,-39.76190476190476,6.746031746031746,3.253968253968254,-166.26984126984127
-242.77777777777777,12.936507936507935,-325.0,-39.92063492063492,-20.71428571428571,-324.36507936507934,-139.44444444444443,-325.0,-325.0,-118.33333333333333,-17.698412698412696,-325.0,31.98412698412698,325.0,-325.0,325.0,-325.0,-325.0,-274.8412698412698,-42.93650793650794,-38.96825396825397,-7.3809523809523805,-5.7936507936507935,-166.26984126984127
-242.77777777777777,12.936507936507935,-325.0,-39.92063492063492,-20.71428571428571,-324.36507936507934,-139.44444444444443,-325.0,-325.0,-118.33333333333333,-17.698412698412696,-325.0,31.98412698412698,325.0,-325.0,325.0,-325.0,-325.0,-274.8412698412698,-42.93650793650794,-38.96825396825397,-7.3809523809523805,-5.7936507936507935,-166.26984126984127
-242.77777777777777,12.936507936507935,-325.0,-39.92063492063492,-20.71428571428571,-324.36507936507934,-139.44444444444443,-325.0,-325.0,-118.33333333333333,-17.698412698412696,-325.0,31.98412698412698,325.0,-325.0,325.0,-325.0,-325.0,-274.8412698412698,-42.93650793650794,-38.96825396825397,-7.3809523809523805,-5.7936507936507935,-166.26984126984127
-242.77777777777777,12.936507936507935,-325.0,-39.92063492063492,-20.71428571428571,-324.36507936507934,-139.44444444444443,-325.0,-325.0,-118.33333333333333,-17.698412698412696,-325.0,31.98412698412698,325.0,-325.0,325.0,-325.0,-325.0,-274.8412698412698,-42.93650793650794,-38.96825396825397,-7.3809523809523805,-5.7936507936507935,-166.26984126984127
-283.88888888888886,75.31746031746032,-325.0,142.46031746031744,-172.93650793650792,-212.77777777777777,-232.3015873015873,-262.3015873015873,-271.66666666666663,-87.38095238095238,-171.34920634920633,-270.87301587301585,-146.58730158730157,272.1428571428571,-325.0,311.19047619047615,-211.03174603174602,-277.6984126984127,-178.015873015873,141.03174603174602,142.93650793650792,0.07936507936507936,1.6666666666666665,-321.8253968253968
-283.88888888888886,75.31746031746032,-325.0,142.46031746031744,-172.93650793650792,-212.77777777777777,-232.3015873015873,-262.3015873015873,-271.66666666666663,-87.38095238095238,-171.34920634920633,-270.87301587301585,-146.58730158730157,272.1428571428571,-325.0,311.19047619047615,-211.03174603174602,-277.6984126984127,-178.015873015873,141.03174603174602,142.93650793650792,0.07936507936507936,1.6666666666666665,-321.8253968253968
-325.0,210.2380952380952,-325.0,325.0,-325.0,-98.49206349206348,-325.0,-194.68253968253967,-212.93650793650792,98.17460317460316,-325.0,-211.19047619047618,-325.0,213.57142857142856,-325.0,312.3015873015873,-94.36507936507935,-225.0,-79.12698412698413,325.0,325.0,3.571428571428571,-2.3015873015873014,-321.8253968253968
-325.0,210.2380952380952,-325.0,325.0,-325.0,-98.49206349206348,-325.0,-194.68253968253967,-212.93650793650792,98.17460317460316,-325.0,-211.19047619047618,-325.0,213.57142857142856,-325.0,312.3015873015873,-94.36507936507935,-225.0,-79.12698412698413,325.0,325.0,3.571428571428571,-2.3015873015873014,-321.8253968253968
325.0,325.0,-325.0,325.0,325.0,-85.79365079365078,325.0,-169.76190476190476,-168.8095238095238,147.2222222222222,325.0,-183.25396825396825,-325.0,183.09523809523807,-318.17460317460313,259.2857142857143,-81.98412698412697,-196.42857142857142,-68.96825396825396,325.0,325.0,1.349206349206349,4.841269841269841,-321.8253968253968
325.0,325.0,-325.0,325.0,325.0,-85.79365079365078,325.0,-169.76190476190476,-168.8095238095238,147.2222222222222,325.0,-183.25396825396825,-325.0,183.09523809523807,-318.17460317460313,259.2857142857143,-81.98412698412697,-196.42857142857142,-68.96825396825396,325.0,325.0,1.349206349206349,4.841269841269841,-321.8253968253968
-291.031746031746,325.0,-240.2380952380952,325.0,-301.19047619047615,-58.49206349206349,-240.2380952380952,-117.22222222222221,-125.47619047619047,325.0,-285.1587301587301,-124.36507936507935,-252.77777777777777,122.77777777777777,-218.96825396825395,200.23809523809524,-54.52380952380952,-135.79365079365078,-46.269841269841265,234.52380952380952,261.5079365079365,-6.587301587301587,-11.19047619047619,-321.8253968253968
-291.031746031746,325.0,-240.2380952380952,325.0,-301.19047619047615,-58.49206349206349,-240.2380952380952,-117.22222222222221,-125.47619047619047,325.0,-285.1587301587301,-124.36507936507935,-252.77777777777777,122.77777777777777,-218.96825396825395,200.23809523809524,-54.52380952380952,-135.79365079365078,-46.269841269841265,234.52380952380952,261.5079365079365,-6.587301587301587,-11.19047619047619,-321.8253968253968
-291.031746031746,325.0,-240.2380952380952,325.0,-301.19047619047615,-58.49206349206349,-240.2380952380952,-117.22222222222221,-125.47619047619047,325.0,-285.1587301587301,-124.36507936507935,-252.77777777777777,122.77777777777777,-218.96825396825395,200.23809523809524,-54.52380952380952,-135.79365079365078,-46.269841269841265,234.52380952380952,261.5079365079365,-6.587301587301587,-11.19047619047619,-321.8253968253968
-291.031746031746,325.0,-240.2380952380952,325.0,-301.19047619047615,-58.49206349206349,-240.2380952380952,-117.22222222222221,-125.47619047619047,325.0,-285.1587301587301,-124.36507936507935,-252.77777777777777,122.77777777777777,-218.96825396825395,200.23809523809524,-54.52380952380952,-135.79365079365078,-46.269841269841265,234.52380952380952,261.5079365079365,-6.587301587301587,-11.19047619047619,-321.8253968253968
-291.031746031746,325.0,-240.2380952380952,325.0,-301.19047619047615,-58.49206349206349,-240.2380952380952,-117.22222222222221,-125.47619047619047,325.0,-285.1587301587301,-124.36507936507935,-252.77777777777777,122.77777777777777,-218.96825396825395,200.23809523809524,-54.52380952380952,-135.79365079365078,-46.269841269841265,234.52380952380952,261.5079365079365,-6.587301587301587,-11.19047619047619,-166.26984126984127
-291.031746031746,325.0,-240.2380952380952,325.0,-301.19047619047615,-58.49206349206349,-240.2380952380952,-117.22222222222221,-125.47619047619047,325.0,-285.1587301587301,-124.36507936507935,-252.77777777777777,122.77777777777777,-218.96825396825395,200.23809523809524,-54.52380952380952,-135.79365079365078,-46.269841269841265,234.52380952380952,261.5079365079365,-6.587301587301587,-11.19047619047619,-166.26984126984127
-291.031746031746,325.0,-240.2380952380952,325.0,-301.19047619047615,-58.49206349206349,-240.2380952380952,-117.22222222222221,-125.47619047619047,325.0,-285.1587301587301,-124.36507936507935,-252.77777777777777,122.77777777777777,-218.96825396825395,200.23809523809524,-54.52380952380952,-135.79365079365078,-46.269841269841265,234.52380952380952,261.5079365079365,-6.587301587301587,-11.19047619047619,-166.26984126984127
-291.031746031746,325.0,-240.2380952380952,325.0,-301.19047619047615,-58.49206349206349,-240.2380952380952,-117.22222222222221,-125.47619047619047,325.0,-285.1587301587301,-124.36507936507935,-252.77777777777777,122.77777777777777,-218.96825396825395,200.23809523809524,-54.52380952380952,-135.79365079365078,-46.269841269841265,234.52380952380952,261.5079365079365,-6.587301587301587,-11.19047619047619,-166.26984126984127
-291.031746031746,325.0,-240.2380952380952,325.0,-301.19047619047615,-58.49206349206349,-240.2380952380952,-117.22222222222221,-125.47619047619047,325.0,-285.1587301587301,-124.36507936507935,-252.77777777777777,122.77777777777777,-218.96825396825395,200.23809523809524,-54.52380952380952,-135.79365079365078,-46.269841269841265,234.52380952380952,261.5079365079365,-6.587301587301587,-11.19047619047619,-166.26984126984127
-291.031746031746,325.0,-240.2380952380952,325.0,-301.19047619047615,-58.49206349206349,-240.2380952380952,-117.22222222222221,-125.47619047619047,325.0,-285.1587301587301,-124.36507936507935,-252.77777777777777,122.77777777777777,-218.96825396825395,200.23809523809524,-54.52380952380952,-135.79365079365078,-46.269841269841265,234.52380952380952,261.5079365079365,-6.587301587301587,-11.19047619047619,-166.26984126984127
-291.031746031746,325.0,-240.2380952380952,325.0,-301.19047619047615,-58.49206349206349,-240.2380952380952,-117.22222222222221,-125.47619047619047,325.0,-285.1587301587301,-124.36507936507935,-252.77777777777777,122.77777777777777,-218.96825396825395,200.23809523809524,-54.52380952380952,-135.79365079365078,-46.269841269841265,234.52380952380952,261.5079365079365,-6.587301587301587,-11.19047619047619,-166.26984126984127
-291.031746031746,325.0,-240.2380952380952,325.0,-301.19047619047615,-58.49206349206349,-240.2380952380952,-117.22222222222221,-125.47619047619047,325.0,-285.1587301587301,-124.36507936507935,-252.77777777777777,122.77777777777777,-218.96825396825395,200.23809523809524,-54.52380952380952,-135.79365079365078,-46.269841269841265,234.52380952380952,261.5079365079365,-6.587301587301587,-11.19047619047619,-166.26984126984127
-291.031746031746,325.0,-240.2380952380952,325.0,-301.19047619047615,-58.49206349206349,-240.2380952380952,-117.22222222222221,-125.47619047619047,325.0,-285.1587301587301,-124.36507936507935,-252.77777777777777,122.77777777777777,-218.96825396825395,200.23809523809524,-54.52380952380952,-135.79365079365078,-46.269841269841265,234.52380952380952,261.5079365079365,-6.587301587301587,-11.19047619047619,-166.26984126984127
-291.031746031746,325.0,-240.2380952380952,325.0,-301.19047619047615,-58.49206349206349,-240.2380952380952,-117.22222222222221,-125.47619047619047,325.0,-285.1587301587301,-124.36507936507935,-252.77777777777777,122.77777777777777,-218.96825396825395,200.23809523809524,-54.52380952380952,-135.79365079365078,-46.269841269841265,234.52380952380952,261.5079365079365,-6.587301587301587,-11.19047619047619,-166.26984126984127
-45.15873015873016,-313.73015873015873,-213.4126984126984,302.1428571428571,325.0,-51.98412698412698,-212.77777777777777,-104.68253968253968,-111.82539682539682,187.38095238095238,178.4920634920635,-110.87301587301587,-224.52380952380952,108.33333333333333,-195.3174603174603,133.73015873015873,-48.17460317460317,-121.19047619047619,92.14285714285714,208.4920634920635,231.66666666666666,7.857142857142857,11.349206349206348,-321.8253968253968
-45.15873015873016,-313.73015873015873,-213.4126984126984,302.1428571428571,325.0,-51.98412698412698,-212.77777777777777,-104.68253968253968,-111.82539682539682,187.38095238095238,178.4920634920635,-110.87301587301587,-224.52380952380952,108.33333333333333,-195.3174603174603,133.73015873015873,-48.17460317460317,-121.19047619047619,92.14285714285714,208.4920634920635,231.66666666666666,7.857142857142857,11.349206349206348,-321.8253968253968
-45.15873015873016,-313.73015873015873,-213.4126984126984,302.1428571428571,325.0,-51.98412698412698,-212.77777777777777,-104.68253968253968,-111.82539682539682,187.38095238095238,178.4920634920635,-110.87301587301587,-224.52380952380952,108.33333333333333,-195.3174603174603,133.73015873015873,-48.17460317460317,-121.19047619047619,92.14285714285714,208.4920634920635,231.66666666666666,7.857142857142857,11.349206349206348,-321.8253968253968
-45.15873015873016,-313.73015873015873,-213.4126984126984,302.1428571428571,325.0,-51.98412698412698,-212.77777777777777,-104.68253968253968,-111.82539682539682,187.38095238095238,178.4920634920635,-110.87301587301587,-224.52380952380952,108.33333333333333,-195.3174603174603,133.73015873015873,-48.17460317460317,-121.19047619047619,92.14285714285714,208.4920634920635,231.66666666666666,7.857142857142857,11.349206349206348,-321.8253968253968
-45.15873015873016,-313.73015873015873,-213.4126984126984,302.1428571428571,325.0,-51.98412698412698,-212.77777777777777,-104.68253968253968,-111.82539682539682,187.38095238095238,178.4920634920635,-110.87301587301587,-224.52380952380952,108.33333333333333,-195.3174603174603,133.73015873015873,-48.17460317460317,-121.19047619047619,92.14285714285714,208.4920634920635,231.66666666666666,7.857142857142857,11.349206349206348,-321.8253968253968
-45.15873015873016,-313.73015873015873,-213.4126984126984,302.1428571428571,325.0,-51.98412698412698,-212.77777777777777,-104.68253968253968,-111.82539682539682,187.38095238095238,178.4920634920635,-110.87301587301587,-224.52380952380952,108.33333333333333,-195.3174603174603,133.73015873015873,-48.17460317460317,-121.19047619047619,92.14285714285714,208.4920634920635,231.66666666666666,7.857142857142857,11.349206349206348,-321.8253968253968
139.9206349206349,-105.79365079365078,55.79365079365079,180.07936507936506,325.0,-20.396825396825395,56.11111111111111,-64.2063492063492,106.58730158730158,138.33333333333331,251.66666666666666,-66.9047619047619,50.238095238095234,64.36507936507937,64.84126984126983,25.634920634920633,138.33333333333331,-74.2063492063492,180.7142857142857,131.03174603174602,-46.74603174603175,5.476190476190476,4.2063492063492065,-321.8253968253968
139.9206349206349,-105.79365079365078,55.79365079365079,180.07936507936506,325.0,-20.396825396825395,56.11111111111111,-64.2063492063492,106.58730158730158,138.33333333333331,251.66666666666666,-66.9047619047619,50.238095238095234,64.36507936507937,64.84126984126983,25.634920634920633,138.33333333333331,-74.2063492063492,180.7142857142857,131.03174603174602,-46.74603174603175,5.476190476190476,4.2063492063492065,-321.8253968253968
325.0,102.14285714285714,325.0,58.01587301587301,325.0,11.19047619047619,325.0,-23.730158730158728,325.0,89.44444444444444,325.0,-22.936507936507937,325.0,20.396825396825395,325.0,-82.3015873015873,325.0,-27.063492063492063,269.44444444444446,53.57142857142857,-325.0,3.095238095238095,-2.9365079365079363,-321.8253968253968
325.0,102.14285714285714,325.0,58.01587301587301,325.0,11.19047619047619,325.0,-23.730158730158728,325.0,89.44444444444444,325.0,-22.936507936507937,325.0,20.396825396825395,325.0,-82.3015873015873,325.0,-27.063492063492063,269.44444444444446,53.57142857142857,-325.0,3.095238095238095,-2.9365079365079363,-321.8253968253968
314.2063492063492,325.0,325.0,52.61904761904761,317.69841269841265,134.2063492063492,325.0,-21.19047619047619,325.0,244.36507936507934,325.0,-20.396825396825395,325.0,18.015873015873016,325.0,50.71428571428571,325.0,-24.365079365079364,238.65079365079364,47.22222222222222,-296.1111111111111,-5.952380952380952,-4.523809523809524,-166.26984126984127
314.2063492063492,325.0,325.0,52.61904761904761,317.69841269841265,134.2063492063492,325.0,-21.19047619047619,325.0,244.36507936507934,325.0,-20.396825396825395,325.0,18.015873015873016,325.0,50.71428571428571,325.0,-24.365079365079364,238.65079365079364,47.22222222222222,-296.1111111111111,-5.952380952380952,-4.523809523809524,-166.26984126984127
7.3809523809523805,184.68253968253967,55.317460317460316,23.095238095238095,-9.126984126984127,174.04761904761904,6.746031746031746,11.507936507936508,39.76190476190476,162.61904761904762,0.7142857142857142,6.26984126984127,55.476190476190474,10.396825396825395,49.285714285714285,37.38095238095238,18.80952380952381,-3.095238095238095,135.3174603174603,-139.76190476190476,-124.36507936507935,-4.0476190476190474,-9.126984126984127,-166.26984126984127
7.3809523809523805,184.68253968253967,55.317460317460316,23.095238095238095,-9.126984126984127,174.04761904761904,6.746031746031746,11.507936507936508,39.76190476190476,162.61904761904762,0.7142857142857142,6.26984126984127,55.476190476190474,10.396825396825395,49.285714285714285,37.38095238095238,18.80952380952381,-3.095238095238095,135.3174603174603,-139.76190476190476,-124.36507936507935,-4.0476190476190474,-9.126984126984127,-166.26984126984127
-287.53968253968253,325.0,-214.36507936507937,15.95238095238095,-324.5238095238095,138.17460317460316,-308.3333333333333,43.57142857142857,-245.47619047619045,2.142857142857143,-320.87301587301585,32.14285714285714,-214.04761904761904,3.571428571428571,-226.26984126984127,-37.22222222222222,-287.38095238095235,17.22222222222222,40.87301587301587,-325.0,76.42857142857143,0.873015873015873,-6.428571428571428,-166.26984126984127
-287.53968253968253,325.0,-214.36507936507937,15.95238095238095,-324.5238095238095,138.17460317460316,-308.3333333333333,43.57142857142857,-245.47619047619045,2.142857142857143,-320.87301587301585,32.14285714285714,-214.04761904761904,3.571428571428571,-226.26984126984127,-37.22222222222222,-287.38095238095235,17.22222222222222,40.87301587301587,-325.0,76.42857142857143,0.873015873015873,-6.428571428571428,-166.26984126984127
-287.53968253968253,325.0,-214.36507936507937,15.95238095238095,-324.5238095238095,138.17460317460316,-308.3333333333333,43.57142857142857,-245.47619047619045,2.142857142857143,-320.87301587301585,32.14285714285714,-214.04761904761904,3.571428571428571,-226.26984126984127,-37.22222222222222,-287.38095238095235,17.22222222222222,40.87301587301587,-325.0,76.42857142857143,0.873015873015873,-6.428571428571428,-166.26984126984127
-287.53968253968253,325.0,-214.36507936507937,15.95238095238095,-324.5238095238095,138.17460317460316,-308.3333333333333,43.57142857142857,-245.47619047619045,2.142857142857143,-320.87301587301585,32.14285714285714,-214.04761904761904,3.571428571428571,-226.26984126984127,-37.22222222222222,-287.38095238095235,17.22222222222222,40.87301587301587,-325.0,76.42857142857143,0.873015873015873,-6.428571428571428,-166.26984126984127
-287.53968253968253,325.0,-214.36507936507937,15.95238095238095,-324.5238095238095,138.17460317460316,-308.3333333333333,43.57142857142857,-245.47619047619045,2.142857142857143,-320.87301587301585,32.14285714285714,-214.04761904761904,3.571428571428571,-226.26984126984127,-37.22222222222222,-287.38095238095235,17.22222222222222,40.87301587301587,-325.0,76.42857142857143,0.873015873015873,-6.428571428571428,-166.26984126984127
-287.53968253968253,325.0,-214.36507936507937,15.95238095238095,-324.5238095238095,138.17460317460316,-308.3333333333333,43.57142857142857,-245.47619047619045,2.142857142857143,-320.87301587301585,32.14285714285714,-214.04761904761904,3.571428571428571,-226.26984126984127,-37.22222222222222,-287.38095238095235,17.22222222222222,40.87301587301587,-325.0,76.42857142857143,0.873015873015873,-6.428571428571428,-166.26984126984127
-287.53968253968253,325.0,-214.36507936507937,15.95238095238095,-324.5238095238095,138.17460317460316,-308.3333333333333,43.57142857142857,-245.47619047619045,2.142857142857143,-320.87301587301585,32.14285714285714,-214.04761904761904,3.571428571428571,-226.26984126984127,-37.22222222222222,-287.38095238095235,17.22222222222222,40.87301587301587,-325.0,76.42857142857143,0.873015873015873,-6.428571428571428,-321.8253968253968
-287.53968253968253,325.0,-214.36507936507937,15.95238095238095,-324.5238095238095,138.17460317460316,-308.3333333333333,43.57142857142857,-245.47619047619045,2.142857142857143,-320.87301587301585,32.14285714285714,-214.04761904761904,3.571428571428571,-226.26984126984127,-37.22222222222222,-287.38095238095235,17.22222222222222,40.87301587301587,-325.0,76.42857142857143,0.873015873015873,-6.428571428571428,-321.8253968253968
-287.53968253968253,325.0,-214.36507936507937,15.95238095238095,-324.5238095238095,138.17460317460316,-308.3333333333333,43.57142857142857,-245.47619047619045,2.142857142857143,-320.87301587301585,32.14285714285714,-214.04761904761904,3.571428571428571,-226.26984126984127,-37.22222222222222,-287.38095238095235,17.22222222222222,40.87301587301587,-325.0,76.42857142857143,0.873015873015873,-6.428571428571428,-321.8253968253968
-287.53968253968253,325.0,-214.36507936507937,15.95238095238095,-324.5238095238095,138.17460317460316,-308.3333333333333,43.57142857142857,-245.47619047619045,2.142857142857143,-320.87301587301585,32.14285714285714,-214.04761904761904,3.571428571428571,-226.26984126984127,-37.22222222222222,-287.38095238095235,17.22222222222222,40.87301587301587,-325.0,76.42857142857143,0.873015873015873,-6.428571428571428,-321.8253968253968
-287.53968253968253,325.0,-214.36507936507937,15.95238095238095,-324.5238095238095,138.17460317460316,-308.3333333333333,43.57142857142857,-245.47619047619045,2.142857142857143,-320.87301587301585,32.14285714285714,-214.04761904761904,3.571428571428571,-226.26984126984127,-37.22222222222222,-287.38095238095235,17.22222222222222,40.87301587301587,-325.0,76.42857142857143,0.873015873015873,-6.428571428571428,-321.8253968253968
-287.53968253968253,325.0,-214.36507936507937,15.95238095238095,-324.5238095238095,138.17460317460316,-308.3333333333333,43.57142857142857,-245.47619047619045,2.142857142857143,-320.87301587301585,32.14285714285714,-214.04761904761904,3.571428571428571,-226.26984126984127,-37.22222222222222,-287.38095238095235,17.22222222222222,40.87301587301587,-325.0,76.42857142857143,0.873015873015873,-6.428571428571428,-321.8253968253968
-287.53968253968253,325.0,-214.36507936507937,15.95238095238095,-324.5238095238095,138.17460317460316,-308.3333333333333,43.57142857142857,-245.47619047619045,2.142857142857143,-320.87301587301585,32.14285714285714,-214.04761904761904,3.571428571428571,-226.26984126984127,-37.22222222222222,-287.38095238095235,17.22222222222222,40.87301587301587,-325.0,76.42857142857143,0.873015873015873,-6.428571428571428,-321.8253968253968
-287.53968253968253,325.0,-214.36507936507937,15.95238095238095,-324.5238095238095,138.17460317460316,-308.3333333333333,43.57142857142857,-245.47619047619045,2.142857142857143,-320.87301587301585,32.14285714285714,-214.04761904761904,3.571428571428571,-226.26984126984127,-37.22222222222222,-287.38095238095235,17.22222222222222,40.87301587301587,-325.0,76.42857142857143,0.873015873015873,-6.428571428571428,-321.8253968253968
-287.53968253968253,325.0,-214.36507936507937,15.95238095238095,-324.5238095238095,138.17460317460316,-308.3333333333333,43.57142857142857,-245.47619047619045,2.142857142857143,-320.87301587301585,32.14285714285714,-214.04761904761904,3.571428571428571,-226.26984126984127,-37.22222222222222,-287.38095238095235,17.22222222222222,40.87301587301587,-325.0,76.42857142857143,0.873015873015873,-6.428571428571428,-321.8253968253968
-287.53968253968253,325.0,-214.36507936507937,15.95238095238095,-324.5238095238095,138.17460317460316,-308.3333333333333,43.57142857142857,-245.47619047619045,2.142857142857143,-320.87301587301585,32.14285714285714,-214.04761904761904,3.571428571428571,-226.26984126984127,-37.22222222222222,-287.38095238095235,17.22222222222222,40.87301587301587,-325.0,76.42857142857143,0.873015873015873,-6.428571428571428,-321.8253968253968
-248.17460317460316,-325.0,-185.3174603174603,14.047619047619047,-282.6190476190476,-153.88888888888889,-266.90476190476187,-37.857142857142854,-212.93650793650792,-277.22222222222223,-279.6031746031746,-36.58730158730159,-184.68253968253967,-18.49206349206349,-196.42857142857142,-268.3333333333333,-248.49206349206347,-25.158730158730158,35.476190476190474,-325.0,65.79365079365078,11.825396825396824,10.555555555555555,-166.26984126984127
-248.17460317460316,-325.0,-185.3174603174603,14.047619047619047,-282.6190476190476,-153.88888888888889,-266.90476190476187,-37.857142857142854,-212.93650793650792,-277.22222222222223,-279.6031746031746,-36.58730158730159,-184.68253968253967,-18.49206349206349,-196.42857142857142,-268.3333333333333,-248.49206349206347,-25.158730158730158,35.476190476190474,-325.0,65.79365079365078,11.825396825396824,10.555555555555555,-166.26984126984127
-244.04761904761904,-325.0,-181.984126984127,13.412698412698411,-278.17460317460313,325.0,-262.77777777777777,184.84126984126982,-209.60317460317458,217.38095238095238,-274.8412698412698,194.84126984126982,-181.66666666666666,5.476190476190476,-193.4126984126984,149.44444444444443,-244.36507936507934,128.96825396825395,34.84126984126984,-325.0,64.52380952380952,-10.873015873015872,-11.666666666666666,-166.26984126984127
-244.04761904761904,-325.0,-181.984126984127,13.412698412698411,-278.17460317460313,325.0,-262.77777777777777,184.84126984126982,-209.60317460317458,217.38095238095238,-274.8412698412698,194.84126984126982,-181.66666666666666,5.476190476190476,-193.4126984126984,149.44444444444443,-244.36507936507934,128.96825396825395,34.84126984126984,-325.0,64.52380952380952,-10.873015873015872,-11.666666666666666,-166.26984126984127
-228.49206349206347,-325.0,-170.87301587301587,12.777777777777777,-261.66666666666663,-21.349206349206348,-246.1111111111111,1.507936507936508,-196.58730158730157,-141.8253968253968,-258.3333333333333,-2.9365079365079363,-170.07936507936506,0.07936507936507936,-181.8253968253968,-151.984126984127,-228.96825396825395,-4.523809523809524,32.77777777777778,-307.38095238095235,60.39682539682539,5.476190476190476,2.46031746031746,-166.26984126984127
-228.49206349206347,-325.0,-170.87301587301587,12.777777777777777,-261.66666666666663,-21.349206349206348,-246.1111111111111,1.507936507936508,-196.58730158730157,-141.8253968253968,-258.3333333333333,-2.9365079365079363,-170.07936507936506,0.07936507936507936,-181.8253968253968,-151.984126984127,-228.96825396825395,-4.523809523809524,32.77777777777778,-307.38095238095235,60.39682539682539,5.476190476190476,2.46031746031746,-166.26984126984127
50.71428571428571,-317.22222222222223,78.80952380952381,-156.26984126984127,34.36507936507936,-19.285714285714285,42.14285714285714,12.142857142857142,66.26984126984127,-126.58730158730158,35.95238095238095,20.07936507936508,79.28571428571428,-8.174603174603174,73.57142857142857,-152.46031746031744,50.39682539682539,18.174603174603174,29.444444444444443,11.984126984126984,-133.0952380952381,4.682539682539682,6.746031746031746,-166.26984126984127
50.71428571428571,-317.22222222222223,78.80952380952381,-156.26984126984127,34.36507936507936,-19.285714285714285,42.14285714285714,12.142857142857142,66.26984126984127,-126.58730158730158,35.95238095238095,20.07936507936508,79.28571428571428,-8.174603174603174,73.57142857142857,-152.46031746031744,50.39682539682539,18.174603174603174,29.444444444444443,11.984126984126984,-133.0952380952381,4.682539682539682,6.746031746031746,-166.26984126984127
325.0,-169.44444444444443,325.0,-325.0,325.0,81.03174603174602,325.0,92.61904761904762,325.0,-18.80952380952381,325.0,101.03174603174602,325.0,-46.74603174603175,325.0,-85.47619047619047,325.0,77.38095238095238,26.428571428571427,325.0,-325.0,-0.5555555555555556,-1.0317460317460316,-166.26984126984127
325.0,-169.44444444444443,325.0,-325.0,325.0,81.03174603174602,325.0,92.61904761904762,325.0,-18.80952380952381,325.0,101.03174603174602,325.0,-46.74603174603175,325.0,-85.47619047619047,325.0,77.38095238095238,26.428571428571427,325.0,-325.0,-0.5555555555555556,-1.0317460317460316,-166.26984126984127
325.0,-132.93650793650792,325.0,-325.0,325.0,88.33333333333333,325.0,91.98412698412697,325.0,-16.904761904761905,325.0,101.66666666666666,325.0,-48.96825396825397,325.0,-89.6031746031746,325.0,76.58730158730158,25.634920634920633,325.0,-325.0,-0.07936507936507936,-0.23809523809523808,-321.8253968253968
325.0,-132.93650793650792,325.0,-325.0,325.0,88.33333333333333,325.0,91.98412698412697,325.0,-16.904761904761905,325.0,101.66666666666666,325.0,-48.96825396825397,325.0,-89.6031746031746,325.0,76.58730158730158,25.634920634920633,325.0,-325.0,-0.07936507936507936,-0.23809523809523808,-321.8253968253968
325.0,-71.03174603174602,325.0,-325.0,325.0,89.76190476190476,325.0,107.38095238095238,325.0,-13.73015873015873,325.0,113.88888888888889,325.0,-53.73015873015873,325.0,-83.4126984126984,325.0,88.80952380952381,24.68253968253968,325.0,-325.0,-1.349206349206349,-0.873015873015873,-321.8253968253968
325.0,-71.03174603174602,325.0,-325.0,325.0,89.76190476190476,325.0,107.38095238095238,325.0,-13.73015873015873,325.0,113.88888888888889,325.0,-53.73015873015873,325.0,-83.4126984126984,325.0,88.80952380952381,24.68253968253968,325.0,-325.0,-1.349206349206349,-0.873015873015873,-321.8253968253968
325.0,-13.253968253968253,325.0,-325.0,325.0,-13.888888888888888,325.0,8.65079365079365,325.0,-153.73015873015873,325.0,-1.507936507936508,325.0,-100.39682539682539,325.0,-212.3015873015873,325.0,3.095238095238095,24.206349206349206,325.0,-325.0,5.7936507936507935,4.2063492063492065,-321.8253968253968
325.0,-13.253968253968253,325.0,-325.0,325.0,-13.888888888888888,325.0,8.65079365079365,325.0,-153.73015873015873,325.0,-1.507936507936508,325.0,-100.39682539682539,325.0,-212.3015873015873,325.0,3.095238095238095,24.206349206349206,325.0,-325.0,5.7936507936507935,4.2063492063492065,-321.8253968253968
325.0,233.88888888888889,325.0,-325.0,325.0,240.7142857142857,325.0,192.3015873015873,325.0,129.6031746031746,325.0,209.60317460317458,325.0,-1.1904761904761905,325.0,33.41269841269841,325.0,167.53968253968253,23.41269841269841,325.0,-325.0,-7.063492063492063,-4.0476190476190474,-321.8253968253968
325.0,233.88888888888889,325.0,-325.0,325.0,240.7142857142857,325.0,192.3015873015873,325.0,129.6031746031746,325.0,209.60317460317458,325.0,-1.1904761904761905,325.0,33.41269841269841,325.0,167.53968253968253,23.41269841269841,325.0,-325.0,-7.063492063492063,-4.0476190476190474,-321.8253968253968
325.0,-325.0,325.0,-325.0,325.0,-155.15873015873015,325.0,-71.82539682539682,325.0,-260.07936507936506,325.0,-75.31746031746032,325.0,-138.015873015873,325.0,-301.66666666666663,325.0,-53.095238095238095,23.095238095238095,325.0,-325.0,10.238095238095237,12.46031746031746,-321.8253968253968
325.0,-325.0,325.0,-325.0,325.0,-155.15873015873015,325.0,-71.82539682539682,325.0,-260.07936507936506,325.0,-75.31746031746032,325.0,-138.015873015873,325.0,-301.66666666666663,325.0,-53.095238095238095,23.095238095238095,325.0,-325.0,10.238095238095237,12.46031746031746,-321.8253968253968
325.0,-18.49206349206349,325.0,-325.0,325.0,84.84126984126983,325.0,112.46031746031746,325.0,-21.03174603174603,325.0,121.34920634920634,325.0,-53.095238095238095,325.0,-93.88888888888889,325.0,100.39682539682539,21.19047619047619,325.0,-325.0,-0.7142857142857142,0.07936507936507936,-166.26984126984127
325.0,-18.49206349206349,325.0,-325.0,325.0,84.84126984126983,325.0,112.46031746031746,325.0,-21.03174603174603,325.0,121.34920634920634,325.0,-53.095238095238095,325.0,-93.88888888888889,325.0,100.39682539682539,21.19047619047619,325.0,-325.0,-0.7142857142857142,0.07936507936507936,-166.26984126984127
325.0,-325.0,325.0,-325.0,325.0,14.523809523809524,325.0,25.0,325.0,-95.79365079365078,325.0,28.809523809523807,325.0,-65.95238095238095,325.0,-149.44444444444443,325.0,24.84126984126984,18.80952380952381,325.0,-325.0,2.46031746031746,6.428571428571428,-166.26984126984127
325.0,-325.0,325.0,-325.0,325.0,14.523809523809524,325.0,25.0,325.0,-95.79365079365078,325.0,28.809523809523807,325.0,-65.95238095238095,325.0,-149.44444444444443,325.0,24.84126984126984,18.80952380952381,325.0,-325.0,2.46031746031746,6.428571428571428,-166.26984126984127
325.0,-251.03174603174602,325.0,-325.0,325.0,184.68253968253967,325.0,161.5079365079365,325.0,44.68253968253968,325.0,165.3174603174603,325.0,-35.476190476190474,325.0,-35.317460317460316,325.0,131.03174603174602,18.49206349206349,325.0,-325.0,-4.2063492063492065,-6.587301587301587,-166.26984126984127
325.0,-251.03174603174602,325.0,-325.0,325.0,184.68253968253967,325.0,161.5079365079365,325.0,44.68253968253968,325.0,165.3174603174603,325.0,-35.476190476190474,325.0,-35.317460317460316,325.0,131.03174603174602,18.49206349206349,325.0,-325.0,-4.2063492063492065,-6.587301587301587,-166.26984126984127
325.0,-325.0,325.0,-325.0,325.0,44.52380952380952,325.0,41.34920634920635,325.0,-116.58730158730158,325.0,32.14285714285714,325.0,-105.15873015873015,325.0,-174.2063492063492,325.0,25.476190476190474,18.333333333333332,325.0,-325.0,4.2063492063492065,-0.7142857142857142,-166.26984126984127
325.0,-325.0,325.0,-325.0,325.0,44.52380952380952,325.0,41.34920634920635,325.0,-116.58730158730158,325.0,32.14285714285714,325.0,-105.15873015873015,325.0,-174.2063492063492,325.0,25.476190476190474,18.333333333333332,325.0,-325.0,4.2063492063492065,-0.7142857142857142,-166.26984126984127
325.0,-325.0,325.0,-325.0,325.0,46.11111111111111,325.0,45.15873015873016,325.0,-112.93650793650794,325.0,34.047619047619044,325.0,-88.4920634920635,325.0,-169.76190476190476,325.0,26.11111111111111,18.015873015873016,325.0,-325.0,4.365079365079365,-0.873015873015873,-166.26984126984127
325.0,-325.0,325.0,-325.0,325.0,46.11111111111111,325.0,45.15873015873016,325.0,-112.93650793650794,325.0,34.047619047619044,325.0,-88.4920634920635,325.0,-169.76190476190476,325.0,26.11111111111111,18.015873015873016,325.0,-325.0,4.365079365079365,-0.873015873015873,-166.26984126984127
325.0,-325.0,325.0,-325.0,325.0,-158.4920634920635,325.0,-75.47619047619047,325.0,-248.8095238095238,325.0,-86.9047619047619,325.0,-84.52380952380952,325.0,-271.66666666666663,325.0,-70.55555555555556,17.698412698412696,325.0,-325.0,9.920634920634921,11.984126984126984,-321.8253968253968
325.0,-325.0,325.0,-325.0,325.0,-158.4920634920635,325.0,-75.47619047619047,325.0,-248.8095238095238,325.0,-86.9047619047619,325.0,-84.52380952380952,325.0,-271.66666666666663,325.0,-70.55555555555556,17.698412698412696,325.0,-325.0,9.920634920634921,11.984126984126984,-321.8253968253968
325.0,-179.28571428571428,325.0,-325.0,325.0,178.8095238095238,325.0,166.58730158730157,325.0,38.17460317460317,325.0,166.11111111111111,325.0,-19.76190476190476,325.0,-37.22222222222222,325.0,135.3174603174603,17.539682539682538,325.0,-325.0,-2.619047619047619,-7.222222222222221,-321.8253968253968
325.0,-179.28571428571428,325.0,-325.0,325.0,178.8095238095238,325.0,166.58730158730157,325.0,38.17460317460317,325.0,166.11111111111111,325.0,-19.76190476190476,325.0,-37.22222222222222,325.0,135.3174603174603,17.539682539682538,325.0,-325.0,-2.619047619047619,-7.222222222222221,-321.8253968253968
325.0,-199.44444444444443,325.0,-325.0,325.0,35.0,325.0,51.82539682539682,325.0,-81.82539682539682,325.0,56.904761904761905,325.0,-30.71428571428571,325.0,-129.6031746031746,325.0,50.39682539682539,17.22222222222222,325.0,-325.0,2.46031746031746,6.111111111111111,-321.8253968253968
325.0,-199.44444444444443,325.0,-325.0,325.0,35.0,325.0,51.82539682539682,325.0,-81.82539682539682,325.0,56.904761904761905,325.0,-30.71428571428571,325.0,-129.6031746031746,325.0,50.39682539682539,17.22222222222222,325.0,-325.0,2.46031746031746,6.111111111111111,-321.8253968253968
325.0,8.333333333333332,325.0,-325.0,325.0,188.33333333333331,325.0,192.61904761904762,325.0,59.285714285714285,325.0,181.66666666666666,325.0,-17.063492063492063,325.0,-16.587301587301585,325.0,156.58730158730157,16.746031746031743,325.0,-325.0,-2.7777777777777777,-5.476190476190476,-321.8253968253968
325.0,8.333333333333332,325.0,-325.0,325.0,188.33333333333331,325.0,192.61904761904762,325.0,59.285714285714285,325.0,181.66666666666666,325.0,-17.063492063492063,325.0,-16.587301587301585,325.0,156.58730158730157,16.746031746031743,325.0,-325.0,-2.7777777777777777,-5.476190476190476,-321.8253968253968
325.0,-74.68253968253968,325.0,-325.0,325.0,47.06349206349206,325.0,53.73015873015873,325.0,-77.06349206349206,325.0,56.42857142857142,325.0,-31.349206349206348,325.0,-121.5079365079365,325.0,51.666666666666664,16.587301587301585,325.0,-325.0,1.984126984126984,5.158730158730158,-321.8253968253968
325.0,-74.68253968253968,325.0,-325.0,325.0,47.06349206349206,325.0,53.73015873015873,325.0,-77.06349206349206,325.0,56.42857142857142,325.0,-31.349206349206348,325.0,-121.5079365079365,325.0,51.666666666666664,16.587301587301585,325.0,-325.0,1.984126984126984,5.158730158730158,-321.8253968253968
325.0,317.06349206349205,325.0,-325.0,325.0,191.19047619047618,325.0,182.77777777777777,325.0,54.2063492063492,325.0,178.8095238095238,325.0,-17.38095238095238,325.0,-24.523809523809522,325.0,147.69841269841268,16.26984126984127,325.0,-325.0,-2.46031746031746,-5.634920634920634,-166.26984126984127
325.0,317.06349206349205,325.0,-325.0,325.0,191.19047619047618,325.0,182.77777777777777,325.0,54.2063492063492,325.0,178.8095238095238,325.0,-17.38095238095238,325.0,-24.523809523809522,325.0,147.69841269841268,16.26984126984127,325.0,-325.0,-2.46031746031746,-5.634920634920634,-166.26984126984127
325.0,317.06349206349205,325.0,-325.0,325.0,58.01587301587301,325.0,58.8095238095238,325.0,-105.47619047619047,325.0,39.285714285714285,325.0,-79.6031746031746,325.0,-164.36507936507937,325.0,29.126984126984127,15.793650793650793,325.0,-325.0,5.317460317460317,1.1904761904761905,-166.26984126984127
325.0,317.06349206349205,325.0,-325.0,325.0,58.01587301587301,325.0,58.8095238095238,325.0,-105.47619047619047,325.0,39.285714285714285,325.0,-79.6031746031746,325.0,-164.36507936507937,325.0,29.126984126984127,15.793650793650793,325.0,-325.0,5.317460317460317,1.1904761904761905,-166.26984126984127
325.0,325.0,325.0,-325.0,325.0,177.06349206349205,325.0,142.14285714285714,325.0,15.634920634920634,325.0,148.96825396825395,325.0,-29.76190476190476,325.0,-52.460317460317455,325.0,124.68253968253967,15.476190476190474,325.0,-325.0,-1.0317460317460316,-0.3968253968253968,-166.26984126984127
325.0,325.0,325.0,-325.0,325.0,177.06349206349205,325.0,142.14285714285714,325.0,15.634920634920634,325.0,148.96825396825395,325.0,-29.76190476190476,325.0,-52.460317460317455,325.0,124.68253968253967,15.476190476190474,325.0,-325.0,-1.0317460317460316,-0.3968253968253968,-166.26984126984127
325.0,325.0,325.0,-325.0,325.0,192.93650793650792,325.0,195.15873015873015,325.0,68.33333333333333,325.0,186.11111111111111,325.0,-14.365079365079364,325.0,-16.587301587301585,325.0,171.5079365079365,15.317460317460316,325.0,-325.0,-1.6666666666666665,-5.952380952380952,-166.26984126984127
325.0,325.0,325.0,-325.0,325.0,192.93650793650792,325.0,195.15873015873015,325.0,68.33333333333333,325.0,186.11111111111111,325.0,-14.365079365079364,325.0,-16.587301587301585,325.0,171.5079365079365,15.317460317460316,325.0,-325.0,-1.6666666666666665,-5.952380952380952,-166.26984126984127
325.0,325.0,325.0,-325.0,325.0,172.77777777777777,325.0,139.12698412698413,325.0,13.253968253968253,325.0,148.33333333333331,325.0,-23.41269841269841,325.0,-60.39682539682539,325.0,123.88888888888889,15.158730158730158,325.0,-325.0,-0.3968253968253968,-0.7142857142857142,-166.26984126984127
325.0,325.0,325.0,-325.0,325.0,172.77777777777777,325.0,139.12698412698413,325.0,13.253968253968253,325.0,148.33333333333331,325.0,-23.41269841269841,325.0,-60.39682539682539,325.0,123.88888888888889,15.158730158730158,325.0,-325.0,-0.3968253968253968,-0.7142857142857142,-166.26984126984127
325.0,325.0,325.0,-325.0,325.0,187.53968253968253,325.0,190.7142857142857,325.0,58.650793650793645,325.0,181.984126984127,325.0,-26.11111111111111,325.0,-31.825396825396822,325.0,160.87301587301587,14.84126984126984,325.0,-325.0,-1.6666666666666665,-6.111111111111111,-321.8253968253968
325.0,325.0,325.0,-325.0,325.0,187.53968253968253,325.0,190.7142857142857,325.0,58.650793650793645,325.0,181.984126984127,325.0,-26.11111111111111,325.0,-31.825396825396822,325.0,160.87301587301587,14.84126984126984,325.0,-325.0,-1.6666666666666665,-6.111111111111111,-321.8253968253968
325.0,325.0,325.0,-325.0,325.0,164.68253968253967,325.0,134.68253968253967,325.0,13.095238095238095,325.0,141.03174603174602,325.0,-35.15873015873016,325.0,-67.85714285714285,325.0,119.12698412698413,14.682539682539682,325.0,-325.0,-0.5555555555555556,-0.3968253968253968,-321.8253968253968
325.0,325.0,325.0,-325.0,325.0,164.68253968253967,325.0,134.68253968253967,325.0,13.095238095238095,325.0,141.03174603174602,325.0,-35.15873015873016,325.0,-67.85714285714285,325.0,119.12698412698413,14.682539682539682,325.0,-325.0,-0.5555555555555556,-0.3968253968253968,-321.8253968253968
325.0,325.0,325.0,-325.0,325.0,179.12698412698413,325.0,184.68253968253967,325.0,54.36507936507936,325.0,176.26984126984127,325.0,-23.253968253968253,325.0,-35.476190476190474,325.0,156.26984126984127,14.365079365079364,325.0,-325.0,-1.507936507936508,-5.952380952380952,-321.8253968253968
325.0,325.0,325.0,-325.0,325.0,179.12698412698413,325.0,184.68253968253967,325.0,54.36507936507936,325.0,176.26984126984127,325.0,-23.253968253968253,325.0,-35.476190476190474,325.0,156.26984126984127,14.365079365079364,325.0,-325.0,-1.507936507936508,-5.952380952380952,-321.8253968253968
325.0,325.0,325.0,-325.0,325.0,33.25396825396825,325.0,52.14285714285714,325.0,-112.93650793650794,325.0,27.539682539682538,325.0,-89.44444444444444,325.0,-183.57142857142856,325.0,26.9047619047619,14.365079365079364,325.0,-325.0,5.7936507936507935,0.3968253968253968,-321.8253968253968
325.0,325.0,325.0,-325.0,325.0,33.25396825396825,325.0,52.14285714285714,325.0,-112.93650793650794,325.0,27.539682539682538,325.0,-89.44444444444444,325.0,-183.57142857142856,325.0,26.9047619047619,14.365079365079364,325.0,-325.0,5.7936507936507935,0.3968253968253968,-321.8253968253968
325.0,165.63492063492063,325.0,-325.0,325.0,168.8095238095238,325.0,172.46031746031744,325.0,46.11111111111111,325.0,158.33333333333331,325.0,-47.53968253968254,325.0,-53.57142857142857,325.0,145.79365079365078,13.888888888888888,325.0,-325.0,-0.3968253968253968,-5.317460317460317,-321.8253968253968
325.0,165.63492063492063,325.0,-325.0,325.0,168.8095238095238,325.0,172.46031746031744,325.0,46.11111111111111,325.0,158.33333333333331,325.0,-47.53968253968254,325.0,-53.57142857142857,325.0,145.79365079365078,13.888888888888888,325.0,-325.0,-0.3968253968253968,-5.317460317460317,-321.8253968253968
325.0,15.0,325.0,-325.0,325.0,151.19047619047618,325.0,137.85714285714286,325.0,19.6031746031746,325.0,124.04761904761904,325.0,-58.8095238095238,325.0,-70.55555555555556,325.0,131.34920634920636,13.73015873015873,325.0,-325.0,-0.5555555555555556,-0.5555555555555556,-166.26984126984127
325.0,15.0,325.0,-325.0,325.0,151.19047619047618,325.0,137.85714285714286,325.0,19.6031746031746,325.0,124.04761904761904,325.0,-58.8095238095238,325.0,-70.55555555555556,325.0,131.34920634920636,13.73015873015873,325.0,-325.0,-0.5555555555555556,-0.5555555555555556,-166.26984126984127
284.36507936507934,50.71428571428571,175.63492063492063,-314.2063492063492,12.777777777777777,203.88888888888889,188.17460317460316,-53.888888888888886,22.777777777777775,20.238095238095237,298.8095238095238,232.14285714285714,195.0,-0.3968253968253968,324.5238095238095,180.87301587301587,314.8412698412698,271.984126984127,162.61904761904762,314.36507936507934,-169.12698412698413,157.69841269841268,159.9206349206349,-166.26984126984127
284.36507936507934,50.71428571428571,175.63492063492063,-314.2063492063492,12.777777777777777,203.88888888888889,188.17460317460316,-53.888888888888886,22.777777777777775,20.238095238095237,298.8095238095238,232.14285714285714,195.0,-0.3968253968253968,324.5238095238095,180.87301587301587,314.8412698412698,271.984126984127,162.61904761904762,314.36507936507934,-169.12698412698413,157.69841269841268,159.9206349206349,-166.26984126984127
325.0,195.95238095238093,325.0,-325.0,325.0,155.79365079365078,325.0,161.34920634920633,325.0,34.84126984126984,325.0,139.9206349206349,325.0,-64.84126984126983,325.0,-65.79365079365078,325.0,142.14285714285714,13.095238095238095,325.0,-325.0,-1.1904761904761905,-4.365079365079365,-166.26984126984127
325.0,195.95238095238093,325.0,-325.0,325.0,155.79365079365078,325.0,161.34920634920633,325.0,34.84126984126984,325.0,139.9206349206349,325.0,-64.84126984126983,325.0,-65.79365079365078,325.0,142.14285714285714,13.095238095238095,325.0,-325.0,-1.1904761904761905,-4.365079365079365,-166.26984126984127
325.0,167.53968253968253,325.0,-325.0,325.0,135.15873015873015,325.0,129.12698412698413,325.0,7.063492063492063,325.0,111.5079365079365,325.0,-69.28571428571428,325.0,-77.38095238095238,325.0,122.6190476190476,12.936507936507935,325.0,-325.0,-0.7142857142857142,-0.23809523809523808,-166.26984126984127
325.0,167.53968253968253,325.0,-325.0,325.0,135.15873015873015,325.0,129.12698412698413,325.0,7.063492063492063,325.0,111.5079365079365,325.0,-69.28571428571428,325.0,-77.38095238095238,325.0,122.6190476190476,12.936507936507935,325.0,-325.0,-0.7142857142857142,-0.23809523809523808,-166.26984126984127
325.0,118.49206349206348,325.0,-325.0,325.0,151.8253968253968,325.0,163.57142857142856,325.0,25.476190476190474,325.0,138.8095238095238,325.0,-68.4920634920635,325.0,-60.238095238095234,325.0,141.03174603174602,12.619047619047619,325.0,-325.0,-0.3968253968253968,-4.682539682539682,-166.26984126984127
325.0,118.49206349206348,325.0,-325.0,325.0,151.8253968253968,325.0,163.57142857142856,325.0,25.476190476190474,325.0,138.8095238095238,325.0,-68.4920634920635,325.0,-60.238095238095234,325.0,141.03174603174602,12.619047619047619,325.0,-325.0,-0.3968253968253968,-4.682539682539682,-166.26984126984127
325.0,-34.36507936507936,325.0,-325.0,325.0,125.95238095238095,325.0,126.9047619047619,325.0,0.23809523809523808,325.0,114.84126984126983,325.0,-75.63492063492063,325.0,-76.74603174603175,325.0,119.92063492063491,12.3015873015873,325.0,-325.0,-0.873015873015873,-0.873015873015873,-321.8253968253968
325.0,-34.36507936507936,325.0,-325.0,325.0,125.95238095238095,325.0,126.9047619047619,325.0,0.23809523809523808,325.0,114.84126984126983,325.0,-75.63492063492063,325.0,-76.74603174603175,325.0,119.92063492063491,12.3015873015873,325.0,-325.0,-0.873015873015873,-0.873015873015873,-321.8253968253968
325.0,-150.3968253968254,325.0,-325.0,325.0,140.3968253968254,325.0,146.26984126984127,325.0,4.0476190476190474,325.0,133.25396825396825,325.0,-93.73015873015872,325.0,-80.71428571428571,325.0,127.85714285714285,11.825396825396824,325.0,-325.0,-0.3968253968253968,-5.0,-321.8253968253968
325.0,-150.3968253968254,325.0,-325.0,325.0,140.3968253968254,325.0,146.26984126984127,325.0,4.0476190476190474,325.0,133.25396825396825,325.0,-93.73015873015872,325.0,-80.71428571428571,325.0,127.85714285714285,11.825396825396824,325.0,-325.0,-0.3968253968253968,-5.0,-321.8253968253968
325.0,-325.0,325.0,-325.0,325.0,119.44444444444444,325.0,119.76190476190476,325.0,-15.476190476190474,325.0,113.73015873015872,325.0,-92.46031746031746,325.0,-90.23809523809523,325.0,116.9047619047619,11.984126984126984,325.0,-325.0,-0.23809523809523808,-0.5555555555555556,-321.8253968253968
325.0,-325.0,325.0,-325.0,325.0,119.44444444444444,325.0,119.76190476190476,325.0,-15.476190476190474,325.0,113.73015873015872,325.0,-92.46031746031746,325.0,-90.23809523809523,325.0,116.9047619047619,11.984126984126984,325.0,-325.0,-0.23809523809523808,-0.5555555555555556,-321.8253968253968
325.0,-233.88888888888889,325.0,-325.0,325.0,139.76190476190476,325.0,150.07936507936506,325.0,10.238095238095237,325.0,127.06349206349206,325.0,-80.23809523809523,325.0,-72.77777777777777,325.0,133.0952380952381,11.984126984126984,324.2063492063492,-325.0,-1.349206349206349,-4.2063492063492065,-321.8253968253968
325.0,-233.88888888888889,325.0,-325.0,325.0,139.76190476190476,325.0,150.07936507936506,325.0,10.238095238095237,325.0,127.06349206349206,325.0,-80.23809523809523,325.0,-72.77777777777777,325.0,133.0952380952381,11.984126984126984,324.2063492063492,-325.0,-1.349206349206349,-4.2063492063492065,-321.8253968253968
323.0952380952381,-190.87301587301587,325.0,-325.0,325.0,117.06349206349206,325.0,121.19047619047619,325.0,-10.079365079365079,325.0,105.0,325.0,-81.66666666666666,325.0,-81.19047619047619,325.0,117.22222222222221,11.825396825396824,320.55555555555554,-324.2063492063492,-1.0317460317460316,-0.873015873015873,-321.8253968253968
323.0952380952381,-190.87301587301587,325.0,-325.0,325.0,117.06349206349206,325.0,121.19047619047619,325.0,-10.079365079365079,325.0,105.0,325.0,-81.66666666666666,325.0,-81.19047619047619,325.0,117.22222222222221,11.825396825396824,320.55555555555554,-324.2063492063492,-1.0317460317460316,-0.873015873015873,-321.8253968253968
316.74603174603175,-155.79365079365078,325.0,-325.0,325.0,132.77777777777777,322.46031746031747,143.25396825396825,325.0,7.063492063492063,325.0,121.5079365079365,325.0,-93.73015873015872,325.0,-76.26984126984127,321.3492063492063,122.46031746031746,10.714285714285714,313.73015873015873,-319.76190476190476,-1.8253968253968254,-4.365079365079365,-166.26984126984127
316.74603174603175,-155.79365079365078,325.0,-325.0,325.0,132.77777777777777,322.46031746031747,143.25396825396825,325.0,7.063492063492063,325.0,121.5079365079365,325.0,-93.73015873015872,325.0,-76.26984126984127,321.3492063492063,122.46031746031746,10.714285714285714,313.73015873015873,-319.76190476190476,-1.8253968253968254,-4.365079365079365,-166.26984126984127
315.4761904761905,-325.0,325.0,-325.0,325.0,-59.285714285714285,321.3492063492063,1.1904761904761905,325.0,-165.0,325.0,-34.52380952380952,325.0,-198.96825396825395,325.0,-225.95238095238093,320.07936507936506,-14.84126984126984,10.714285714285714,312.3015873015873,-318.3333333333333,6.26984126984127,2.9365079365079363,-166.26984126984127
315.4761904761905,-325.0,325.0,-325.0,325.0,-59.285714285714285,321.3492063492063,1.1904761904761905,325.0,-165.0,325.0,-34.52380952380952,325.0,-198.96825396825395,325.0,-225.95238095238093,320.07936507936506,-14.84126984126984,10.714285714285714,312.3015873015873,-318.3333333333333,6.26984126984127,2.9365079365079363,-166.26984126984127
306.1111111111111,-209.60317460317458,316.58730158730157,-320.07936507936506,319.4444444444444,126.26984126984127,311.8253968253968,132.14285714285714,320.87301587301585,-4.682539682539682,318.17460317460313,111.5079365079365,317.53968253968253,-91.5079365079365,324.8412698412698,-85.31746031746032,310.39682539682536,114.68253968253967,9.761904761904761,303.25396825396825,-308.968253968254,-0.873015873015873,-4.841269841269841,-166.26984126984127
306.1111111111111,-209.60317460317458,316.58730158730157,-320.07936507936506,319.4444444444444,126.26984126984127,311.8253968253968,132.14285714285714,320.87301587301585,-4.682539682539682,318.17460317460313,111.5079365079365,317.53968253968253,-91.5079365079365,324.8412698412698,-85.31746031746032,310.39682539682536,114.68253968253967,9.761904761904761,303.25396825396825,-308.968253968254,-0.873015873015873,-4.841269841269841,-166.26984126984127
300.7142857142857,-34.36507936507936,311.19047619047615,-314.5238095238095,314.5238095238095,59.92063492063492,306.74603174603175,76.58730158730158,315.4761904761905,-29.444444444444443,312.9365079365079,73.73015873015872,312.1428571428571,-61.03174603174603,320.87301587301585,-88.33333333333333,305.1587301587301,80.23809523809523,10.873015873015872,298.17460317460313,-303.25396825396825,-0.873015873015873,2.142857142857143,-166.26984126984127
300.7142857142857,-34.36507936507936,311.19047619047615,-314.5238095238095,314.5238095238095,59.92063492063492,306.74603174603175,76.58730158730158,315.4761904761905,-29.444444444444443,312.9365079365079,73.73015873015872,312.1428571428571,-61.03174603174603,320.87301587301585,-88.33333333333333,305.1587301587301,80.23809523809523,10.873015873015872,298.17460317460313,-303.25396825396825,-0.873015873015873,2.142857142857143,-166.26984126984127
295.6349206349206,222.14285714285714,305.95238095238096,-309.4444444444444,309.2857142857143,118.49206349206348,301.66666666666663,123.57142857142857,310.39682539682536,-10.555555555555555,307.85714285714283,106.26984126984127,306.90476190476187,-83.57142857142857,315.6349206349206,-82.3015873015873,299.9206349206349,103.09523809523809,9.603174603174603,293.4126984126984,-298.4920634920635,-1.349206349206349,-5.0,-166.26984126984127
295.6349206349206,222.14285714285714,305.95238095238096,-309.4444444444444,309.2857142857143,118.49206349206348,301.66666666666663,123.57142857142857,310.39682539682536,-10.555555555555555,307.85714285714283,106.26984126984127,306.90476190476187,-83.57142857142857,315.6349206349206,-82.3015873015873,299.9206349206349,103.09523809523809,9.603174603174603,293.4126984126984,-298.4920634920635,-1.349206349206349,-5.0,-166.26984126984127
294.36507936507934,119.44444444444444,304.68253968253964,-308.015873015873,308.17460317460313,-88.01587301587301,300.39682539682536,-20.71428571428571,309.1269841269841,-182.93650793650792,306.4285714285714,-53.73015873015873,305.6349206349206,-182.93650793650792,314.5238095238095,-231.34920634920633,298.8095238095238,-34.682539682539684,9.761904761904761,292.1428571428571,-297.22222222222223,6.904761904761904,2.46031746031746,-321.8253968253968
294.36507936507934,119.44444444444444,304.68253968253964,-308.015873015873,308.17460317460313,-88.01587301587301,300.39682539682536,-20.71428571428571,309.1269841269841,-182.93650793650792,306.4285714285714,-53.73015873015873,305.6349206349206,-182.93650793650792,314.5238095238095,-231.34920634920633,298.8095238095238,-34.682539682539684,9.761904761904761,292.1428571428571,-297.22222222222223,6.904761904761904,2.46031746031746,-321.8253968253968
286.4285714285714,325.0,296.90476190476187,-300.39682539682536,300.87301587301585,325.0,292.77777777777777,262.9365079365079,301.5079365079365,147.85714285714286,298.968253968254,262.46031746031747,297.85714285714283,8.333333333333332,306.74603174603175,59.6031746031746,291.19047619047615,238.65079365079364,9.285714285714285,285.0,-289.6031746031746,-8.174603174603174,-11.825396825396824,-321.8253968253968
286.4285714285714,325.0,296.90476190476187,-300.39682539682536,300.87301587301585,325.0,292.77777777777777,262.9365079365079,301.5079365079365,147.85714285714286,298.968253968254,262.46031746031747,297.85714285714283,8.333333333333332,306.74603174603175,59.6031746031746,291.19047619047615,238.65079365079364,9.285714285714285,285.0,-289.6031746031746,-8.174603174603174,-11.825396825396824,-321.8253968253968
282.77777777777777,325.0,293.0952380952381,-296.58730158730157,297.06349206349205,305.95238095238096,289.1269841269841,250.55555555555554,297.6984126984127,145.0,295.1587301587301,260.07936507936506,294.04761904761904,18.80952380952381,302.9365079365079,68.17460317460318,287.38095238095235,239.28571428571428,9.761904761904761,281.5079365079365,-285.7936507936508,-8.968253968253968,-8.968253968253968,-321.8253968253968
282.77777777777777,325.0,293.0952380952381,-296.58730158730157,297.06349206349205,305.95238095238096,289.1269841269841,250.55555555555554,297.6984126984127,145.0,295.1587301587301,260.07936507936506,294.04761904761904,18.80952380952381,302.9365079365079,68.17460317460318,287.38095238095235,239.28571428571428,9.761904761904761,281.5079365079365,-285.7936507936508,-8.968253968253968,-8.968253968253968,-321.8253968253968
275.6349206349206,315.3174603174603,285.7936507936508,-289.2857142857143,289.76190476190476,112.6190476190476,281.66666666666663,121.5079365079365,290.23809523809524,-25.79365079365079,288.17460317460313,102.30158730158729,286.90476190476187,-86.9047619047619,295.3174603174603,-84.36507936507937,280.07936507936506,101.5079365079365,9.603174603174603,274.2063492063492,-278.6507936507936,-0.23809523809523808,-3.73015873015873,-321.8253968253968
275.6349206349206,315.3174603174603,285.7936507936508,-289.2857142857143,289.76190476190476,112.6190476190476,281.66666666666663,121.5079365079365,290.23809523809524,-25.79365079365079,288.17460317460313,102.30158730158729,286.90476190476187,-86.9047619047619,295.3174603174603,-84.36507936507937,280.07936507936506,101.5079365079365,9.603174603174603,274.2063492063492,-278.6507936507936,-0.23809523809523808,-3.73015873015873,-321.8253968253968
272.1428571428571,315.3174603174603,282.1428571428571,-285.4761904761905,286.1111111111111,88.96825396825396,278.17460317460313,101.19047619047619,286.4285714285714,-32.14285714285714,284.68253968253964,97.85714285714285,283.25396825396825,-77.38095238095238,291.66666666666663,-81.98412698412697,276.58730158730157,95.95238095238095,9.920634920634921,270.87301587301585,-275.0,-1.0317460317460316,-0.5555555555555556,-321.8253968253968
272.1428571428571,315.3174603174603,282.1428571428571,-285.4761904761905,286.1111111111111,88.96825396825396,278.17460317460313,101.19047619047619,286.4285714285714,-32.14285714285714,284.68253968253964,97.85714285714285,283.25396825396825,-77.38095238095238,291.66666666666663,-81.98412698412697,276.58730158730157,95.95238095238095,9.920634920634921,270.87301587301585,-275.0,-1.0317460317460316,-0.5555555555555556,-321.8253968253968
266.1111111111111,254.52380952380952,276.1111111111111,-279.76190476190476,280.39682539682536,94.68253968253968,272.46031746031747,103.09523809523809,280.55555555555554,-40.55555555555555,278.8095238095238,91.03174603174602,277.22222222222223,-89.28571428571428,285.7936507936508,-97.6984126984127,270.87301587301585,86.26984126984127,8.015873015873016,265.3174603174603,-269.2857142857143,-0.07936507936507936,-3.888888888888889,-166.26984126984127
266.1111111111111,254.52380952380952,276.1111111111111,-279.76190476190476,280.39682539682536,94.68253968253968,272.46031746031747,103.09523809523809,280.55555555555554,-40.55555555555555,278.8095238095238,91.03174603174602,277.22222222222223,-89.28571428571428,285.7936507936508,-97.6984126984127,270.87301587301585,86.26984126984127,8.015873015873016,265.3174603174603,-269.2857142857143,-0.07936507936507936,-3.888888888888889,-166.26984126984127
261.66666666666663,286.74603174603175,271.3492063492063,-274.68253968253964,275.7936507936508,67.53968253968253,267.85714285714283,82.93650793650794,275.95238095238096,-25.476190476190474,274.2063492063492,87.22222222222221,272.77777777777777,-44.68253968253968,280.7142857142857,-71.19047619047619,266.1111111111111,88.33333333333333,9.761904761904761,260.7142857142857,-264.36507936507934,-1.507936507936508,2.7777777777777777,-166.26984126984127
261.66666666666663,286.74603174603175,271.3492063492063,-274.68253968253964,275.7936507936508,67.53968253968253,267.85714285714283,82.93650793650794,275.95238095238096,-25.476190476190474,274.2063492063492,87.22222222222221,272.77777777777777,-44.68253968253968,280.7142857142857,-71.19047619047619,266.1111111111111,88.33333333333333,9.761904761904761,260.7142857142857,-264.36507936507934,-1.507936507936508,2.7777777777777777,-166.26984126984127
257.06349206349205,226.74603174603175,266.58730158730157,-270.39682539682536,271.3492063492063,87.22222222222221,263.4126984126984,99.12698412698413,271.3492063492063,-46.74603174603175,269.76190476190476,88.33333333333333,268.015873015873,-97.85714285714285,276.26984126984127,-102.61904761904762,261.5079365079365,84.36507936507937,8.015873015873016,256.58730158730157,-260.07936507936506,0.873015873015873,-2.7777777777777777,-166.26984126984127
257.06349206349205,226.74603174603175,266.58730158730157,-270.39682539682536,271.3492063492063,87.22222222222221,263.4126984126984,99.12698412698413,271.3492063492063,-46.74603174603175,269.76190476190476,88.33333333333333,268.015873015873,-97.85714285714285,276.26984126984127,-102.61904761904762,261.5079365079365,84.36507936507937,8.015873015873016,256.58730158730157,-260.07936507936506,0.873015873015873,-2.7777777777777777,-166.26984126984127
253.7301587301587,226.74603174603175,263.25396825396825,-266.74603174603175,267.85714285714283,77.22222222222221,259.9206349206349,93.4126984126984,268.015873015873,-37.06349206349206,266.26984126984127,97.53968253968253,264.5238095238095,-81.82539682539682,272.9365079365079,-87.38095238095238,258.17460317460313,93.88888888888889,8.968253968253968,253.4126984126984,-256.58730158730157,-0.873015873015873,-0.873015873015873,-166.26984126984127
253.7301587301587,226.74603174603175,263.25396825396825,-266.74603174603175,267.85714285714283,77.22222222222221,259.9206349206349,93.4126984126984,268.015873015873,-37.06349206349206,266.26984126984127,97.53968253968253,264.5238095238095,-81.82539682539682,272.9365079365079,-87.38095238095238,258.17460317460313,93.88888888888889,8.968253968253968,253.4126984126984,-256.58730158730157,-0.873015873015873,-0.873015873015873,-166.26984126984127
247.06349206349205,88.33333333333333,256.58730158730157,-260.07936507936506,261.3492063492063,78.96825396825396,253.4126984126984,93.57142857142857,261.3492063492063,-28.015873015873016,259.9206349206349,90.23809523809523,257.85714285714283,-65.31746031746032,266.1111111111111,-78.17460317460316,251.5079365079365,88.17460317460316,9.126984126984127,246.74603174603172,-249.9206349206349,1.6666666666666665,0.07936507936507936,-166.26984126984127
247.06349206349205,88.33333333333333,256.58730158730157,-260.07936507936506,261.3492063492063,78.96825396825396,253.4126984126984,93.57142857142857,261.3492063492063,-28.015873015873016,259.9206349206349,90.23809523809523,257.85714285714283,-65.31746031746032,266.1111111111111,-78.17460317460316,251.5079365079365,88.17460317460316,9.126984126984127,246.74603174603172,-249.9206349206349,1.6666666666666665,0.07936507936507936,-166.26984126984127
241.66666666666666,183.4126984126984,251.03174603174602,-254.68253968253967,256.1111111111111,277.06349206349205,248.015873015873,241.8253968253968,255.95238095238093,142.61904761904762,254.36507936507934,247.53968253968253,252.46031746031744,27.22222222222222,260.55555555555554,71.03174603174602,246.1111111111111,235.63492063492063,8.968253968253968,241.66666666666666,-244.68253968253967,-8.174603174603174,-8.333333333333332,-321.8253968253968
241.66666666666666,183.4126984126984,251.03174603174602,-254.68253968253967,256.1111111111111,277.06349206349205,248.015873015873,241.8253968253968,255.95238095238093,142.61904761904762,254.36507936507934,247.53968253968253,252.46031746031744,27.22222222222222,260.55555555555554,71.03174603174602,246.1111111111111,235.63492063492063,8.968253968253968,241.66666666666666,-244.68253968253967,-8.174603174603174,-8.333333333333332,-321.8253968253968
238.49206349206347,-186.58730158730157,247.85714285714283,-251.34920634920633,252.77777777777777,-153.88888888888889,244.84126984126982,-56.42857142857142,252.93650793650792,-246.58730158730157,251.34920634920633,-88.33333333333333,249.28571428571428,-200.87301587301587,257.38095238095235,-260.55555555555554,243.25396825396825,-59.76190476190476,8.968253968253968,238.65079365079364,-241.5079365079365,8.492063492063492,3.4126984126984126,-321.8253968253968
238.49206349206347,-186.58730158730157,247.85714285714283,-251.34920634920633,252.77777777777777,-153.88888888888889,244.84126984126982,-56.42857142857142,252.93650793650792,-246.58730158730157,251.34920634920633,-88.33333333333333,249.28571428571428,-200.87301587301587,257.38095238095235,-260.55555555555554,243.25396825396825,-59.76190476190476,8.968253968253968,238.65079365079364,-241.5079365079365,8.492063492063492,3.4126984126984126,-321.8253968253968
234.04761904761904,199.28571428571428,243.57142857142856,-238.8095238095238,248.8095238095238,276.58730158730157,240.87301587301587,244.04761904761904,248.65079365079364,158.8095238095238,247.06349206349205,262.9365079365079,245.0,50.71428571428571,253.25396825396825,103.57142857142857,238.96825396825395,252.14285714285714,8.968253968253968,234.84126984126982,-237.2222222222222,-11.507936507936508,-7.063492063492063,-321.8253968253968
234.04761904761904,199.28571428571428,243.57142857142856,-238.8095238095238,248.8095238095238,276.58730158730157,240.87301587301587,244.04761904761904,248.65079365079364,158.8095238095238,247.06349206349205,262.9365079365079,245.0,50.71428571428571,253.25396825396825,103.57142857142857,238.96825396825395,252.14285714285714,8.968253968253968,234.84126984126982,-237.2222222222222,-11.507936507936508,-7.063492063492063,-321.8253968253968
230.2380952380952,-325.0,239.60317460317458,-217.06349206349205,244.52380952380952,-153.09523809523807,236.42857142857142,-55.476190476190474,244.52380952380952,-243.09523809523807,243.09523809523807,-87.6984126984127,241.03174603174602,-202.77777777777777,249.12698412698413,-249.9206349206349,234.68253968253967,-59.92063492063492,8.968253968253968,230.7142857142857,-184.68253968253967,10.079365079365079,4.841269841269841,-321.8253968253968
230.2380952380952,-325.0,239.60317460317458,-217.06349206349205,244.52380952380952,-153.09523809523807,236.42857142857142,-55.476190476190474,244.52380952380952,-243.09523809523807,243.09523809523807,-87.6984126984127,241.03174603174602,-202.77777777777777,249.12698412698413,-249.9206349206349,234.68253968253967,-59.92063492063492,8.968253968253968,230.7142857142857,-184.68253968253967,10.079365079365079,4.841269841269841,-321.8253968253968
227.2222222222222,-294.5238095238095,236.42857142857142,-225.15873015873015,241.5079365079365,53.888888888888886,233.4126984126984,85.15873015873015,241.5079365079365,-65.15873015873015,240.07936507936506,66.58730158730158,238.015873015873,-99.92063492063491,245.95238095238093,-98.33333333333333,231.66666666666666,72.77777777777777,8.809523809523808,227.85714285714283,-207.06349206349205,1.507936507936508,-3.4126984126984126,-321.8253968253968
227.2222222222222,-294.5238095238095,236.42857142857142,-225.15873015873015,241.5079365079365,53.888888888888886,233.4126984126984,85.15873015873015,241.5079365079365,-65.15873015873015,240.07936507936506,66.58730158730158,238.015873015873,-99.92063492063491,245.95238095238093,-98.33333333333333,231.66666666666666,72.77777777777777,8.809523809523808,227.85714285714283,-207.06349206349205,1.507936507936508,-3.4126984126984126,-321.8253968253968
