Fp1[1],Fp2[2],F3[3],F4[4],C3[5],C4[6],P3[7],P4[8],O1[9],O2[10],F7[11],F8[12],T3[13],T4[14],T5[15],T6[16],Fz[17],Pz[18],Cz[19],Pg1[20],Pg2[21],EOGR[22],EOOGL[23],EMG[24]
266.1111111111111,294.5238095238095,152.3015873015873,144.04761904761904,-72.14285714285714,242.46031746031744,246.9047619047619,-9.126984126984127,316.58730158730157,325.0,-110.71428571428571,162.14285714285714,315.3174603174603,144.36507936507937,153.09523809523807,325.0,145.3174603174603,325.0,155.3174603174603,-73.09523809523809,46.42857142857142,-65.0,51.507936507936506,-166.26984126984127
266.1111111111111,294.5238095238095,152.3015873015873,144.04761904761904,-72.14285714285714,242.46031746031744,246.9047619047619,-9.126984126984127,316.58730158730157,325.0,-110.71428571428571,162.14285714285714,315.3174603174603,144.36507936507937,153.09523809523807,325.0,145.3174603174603,325.0,155.3174603174603,-73.09523809523809,46.42857142857142,-65.0,51.507936507936506,-166.26984126984127
325.0,325.0,325.0,-14.84126984126984,-106.9047619047619,182.14285714285714,325.0,23.253968253968253,325.0,325.0,-325.0,20.71428571428571,325.0,-14.365079365079364,315.6349206349206,325.0,-33.57142857142857,325.0,190.87301587301587,-15.158730158730158,-12.619047619047619,7.063492063492063,5.952380952380952,-166.26984126984127
325.0,325.0,325.0,-14.84126984126984,-106.9047619047619,182.14285714285714,325.0,23.253968253968253,325.0,325.0,-325.0,20.71428571428571,325.0,-14.365079365079364,315.6349206349206,325.0,-33.57142857142857,325.0,190.87301587301587,-15.158730158730158,-12.619047619047619,7.063492063492063,5.952380952380952,-166.26984126984127
325.0,325.0,325.0,-14.206349206349206,-103.25396825396825,175.3174603174603,325.0,22.3015873015873,325.0,325.0,-325.0,19.76190476190476,325.0,-13.888888888888888,304.68253968253964,-325.0,-32.3015873015873,325.0,209.12698412698413,-14.682539682539682,-12.142857142857142,8.015873015873016,5.7936507936507935,-166.26984126984127
325.0,325.0,325.0,-14.206349206349206,-103.25396825396825,175.3174603174603,325.0,22.3015873015873,325.0,325.0,-325.0,19.76190476190476,325.0,-13.888888888888888,304.68253968253964,-325.0,-32.3015873015873,325.0,209.12698412698413,-14.682539682539682,-12.142857142857142,8.015873015873016,5.7936507936507935,-166.26984126984127
325.0,325.0,325.0,-13.253968253968253,-96.58730158730158,162.61904761904762,325.0,20.71428571428571,325.0,325.0,-303.4126984126984,18.333333333333332,325.0,-12.936507936507935,284.36507936507934,-325.0,-30.07936507936508,325.0,219.60317460317458,-13.888888888888888,-11.507936507936508,7.698412698412698,6.111111111111111,-166.26984126984127
325.0,325.0,325.0,-13.253968253968253,-96.58730158730158,162.61904761904762,325.0,20.71428571428571,325.0,325.0,-303.4126984126984,18.333333333333332,325.0,-12.936507936507935,284.36507936507934,-325.0,-30.07936507936508,325.0,219.60317460317458,-13.888888888888888,-11.507936507936508,7.698412698412698,6.111111111111111,-166.26984126984127
325.0,325.0,325.0,-13.253968253968253,-95.15873015873015,159.44444444444443,325.0,20.396825396825395,325.0,325.0,-298.17460317460313,18.015873015873016,325.0,-12.936507936507935,279.6031746031746,-325.0,-29.76190476190476,325.0,217.85714285714283,-13.571428571428571,-11.19047619047619,-7.222222222222221,-7.5396825396825395,-166.26984126984127
325.0,325.0,325.0,-13.253968253968253,-95.15873015873015,159.44444444444443,325.0,20.396825396825395,325.0,325.0,-298.17460317460313,18.015873015873016,325.0,-12.936507936507935,279.6031746031746,-325.0,-29.76190476190476,325.0,217.85714285714283,-13.571428571428571,-11.19047619047619,-7.222222222222221,-7.5396825396825395,-166.26984126984127
325.0,-0.07936507936507936,325.0,-12.3015873015873,-89.12698412698413,148.17460317460316,325.0,18.80952380952381,325.0,325.0,-278.4920634920635,16.746031746031743,325.0,-11.984126984126984,261.5079365079365,-308.3333333333333,-27.698412698412696,325.0,76.1111111111111,-12.619047619047619,-10.396825396825395,-7.5396825396825395,-8.174603174603174,-321.8253968253968
325.0,-0.07936507936507936,325.0,-12.3015873015873,-89.12698412698413,148.17460317460316,325.0,18.80952380952381,325.0,325.0,-278.4920634920635,16.746031746031743,325.0,-11.984126984126984,261.5079365079365,-308.3333333333333,-27.698412698412696,325.0,76.1111111111111,-12.619047619047619,-10.396825396825395,-7.5396825396825395,-8.174603174603174,-321.8253968253968
325.0,-325.0,325.0,-11.031746031746032,-82.14285714285714,135.79365079365078,325.0,17.22222222222222,325.0,325.0,-256.4285714285714,15.158730158730158,325.0,-10.714285714285714,241.19047619047618,-289.1269841269841,-25.158730158730158,325.0,-64.84126984126983,-11.349206349206348,-9.285714285714285,-2.3015873015873014,-8.015873015873016,-321.8253968253968
325.0,-325.0,325.0,-11.031746031746032,-82.14285714285714,135.79365079365078,325.0,17.22222222222222,325.0,325.0,-256.4285714285714,15.158730158730158,325.0,-10.714285714285714,241.19047619047618,-289.1269841269841,-25.158730158730158,325.0,-64.84126984126983,-11.349206349206348,-9.285714285714285,-2.3015873015873014,-8.015873015873016,-321.8253968253968
325.0,-325.0,325.0,-11.031746031746032,-82.14285714285714,135.79365079365078,325.0,17.22222222222222,325.0,325.0,-256.4285714285714,15.158730158730158,325.0,-10.714285714285714,241.19047619047618,-289.1269841269841,-25.158730158730158,325.0,-64.84126984126983,-11.349206349206348,-9.285714285714285,-2.3015873015873014,-8.015873015873016,-321.8253968253968
325.0,-325.0,325.0,-11.031746031746032,-82.14285714285714,135.79365079365078,325.0,17.22222222222222,325.0,325.0,-256.4285714285714,15.158730158730158,325.0,-10.714285714285714,241.19047619047618,-289.1269841269841,-25.158730158730158,325.0,-64.84126984126983,-11.349206349206348,-9.285714285714285,-2.3015873015873014,-8.015873015873016,-321.8253968253968
325.0,-325.0,325.0,-11.031746031746032,-82.14285714285714,135.79365079365078,325.0,17.22222222222222,325.0,325.0,-256.4285714285714,15.158730158730158,325.0,-10.714285714285714,241.19047619047618,-289.1269841269841,-25.158730158730158,325.0,-64.84126984126983,-11.349206349206348,-9.285714285714285,-2.3015873015873014,-8.015873015873016,-321.8253968253968
325.0,-325.0,325.0,-11.031746031746032,-82.14285714285714,135.79365079365078,325.0,17.22222222222222,325.0,325.0,-256.4285714285714,15.158730158730158,325.0,-10.714285714285714,241.19047619047618,-289.1269841269841,-25.158730158730158,325.0,-64.84126984126983,-11.349206349206348,-9.285714285714285,-2.3015873015873014,-8.015873015873016,-321.8253968253968
292.77777777777777,-325.0,325.0,-10.555555555555555,-76.74603174603175,125.31746031746032,325.0,16.11111111111111,325.0,325.0,-238.17460317460316,13.888888888888888,323.88888888888886,-10.238095238095237,224.04761904761904,-268.015873015873,-23.57142857142857,325.0,-59.6031746031746,-10.714285714285714,-8.809523809523808,-4.365079365079365,-2.46031746031746,-321.8253968253968
292.77777777777777,-325.0,325.0,-10.555555555555555,-76.74603174603175,125.31746031746032,325.0,16.11111111111111,325.0,325.0,-238.17460317460316,13.888888888888888,323.88888888888886,-10.238095238095237,224.04761904761904,-268.015873015873,-23.57142857142857,325.0,-59.6031746031746,-10.714285714285714,-8.809523809523808,-4.365079365079365,-2.46031746031746,-321.8253968253968
-325.0,-325.0,320.39682539682536,-9.603174603174603,-72.61904761904762,118.01587301587301,325.0,15.0,325.0,325.0,-224.84126984126982,13.095238095238095,309.1269841269841,-9.444444444444445,211.8253968253968,-252.46031746031744,-22.46031746031746,325.0,-55.63492063492063,-10.079365079365079,-8.015873015873016,-8.809523809523808,-9.444444444444445,-166.26984126984127
-325.0,-325.0,320.39682539682536,-9.603174603174603,-72.61904761904762,118.01587301587301,325.0,15.0,325.0,325.0,-224.84126984126982,13.095238095238095,309.1269841269841,-9.444444444444445,211.8253968253968,-252.46031746031744,-22.46031746031746,325.0,-55.63492063492063,-10.079365079365079,-8.015873015873016,-8.809523809523808,-9.444444444444445,-166.26984126984127
-325.0,-325.0,305.1587301587301,-9.285714285714285,-69.44444444444444,111.82539682539682,325.0,14.206349206349206,325.0,-115.95238095238095,-214.36507936507937,12.619047619047619,294.5238095238095,-9.126984126984127,201.98412698412696,-240.87301587301587,-21.349206349206348,325.0,-52.61904761904761,-9.603174603174603,-8.015873015873016,-5.0,-3.4126984126984126,-166.26984126984127
-325.0,-325.0,305.1587301587301,-9.285714285714285,-69.44444444444444,111.82539682539682,325.0,14.206349206349206,325.0,-115.95238095238095,-214.36507936507937,12.619047619047619,294.5238095238095,-9.126984126984127,201.98412698412696,-240.87301587301587,-21.349206349206348,325.0,-52.61904761904761,-9.603174603174603,-8.015873015873016,-5.0,-3.4126984126984126,-166.26984126984127
-147.53968253968253,-84.52380952380952,287.53968253968253,-20.873015873015873,28.96825396825397,24.047619047619047,40.55555555555555,-3.888888888888889,6.111111111111111,-31.19047619047619,15.317460317460316,-23.730158730158728,163.88888888888889,138.33333333333331,152.14285714285714,-214.84126984126982,-20.873015873015873,314.8412698412698,-61.34920634920635,-19.92063492063492,-17.698412698412696,-18.49206349206349,-20.71428571428571,-166.26984126984127
-147.53968253968253,-84.52380952380952,287.53968253968253,-20.873015873015873,28.96825396825397,24.047619047619047,40.55555555555555,-3.888888888888889,6.111111111111111,-31.19047619047619,15.317460317460316,-23.730158730158728,163.88888888888889,138.33333333333331,152.14285714285714,-214.84126984126982,-20.873015873015873,314.8412698412698,-61.34920634920635,-19.92063492063492,-17.698412698412696,-18.49206349206349,-20.71428571428571,-166.26984126984127
-325.0,-291.3492063492063,221.8253968253968,-7.3809523809523805,-51.98412698412698,79.76190476190476,325.0,10.396825396825395,282.77777777777777,-325.0,-157.06349206349205,9.285714285714285,214.68253968253967,-7.698412698412698,147.53968253968253,-174.84126984126982,-16.428571428571427,-136.58730158730157,-37.22222222222222,-7.857142857142857,-6.26984126984127,5.317460317460317,3.571428571428571,-166.26984126984127
-325.0,-291.3492063492063,221.8253968253968,-7.3809523809523805,-51.98412698412698,79.76190476190476,325.0,10.396825396825395,282.77777777777777,-325.0,-157.06349206349205,9.285714285714285,214.68253968253967,-7.698412698412698,147.53968253968253,-174.84126984126982,-16.428571428571427,-136.58730158730157,-37.22222222222222,-7.857142857142857,-6.26984126984127,5.317460317460317,3.571428571428571,-166.26984126984127
-325.0,-289.9206349206349,220.87301587301587,-7.222222222222221,-51.666666666666664,79.28571428571428,325.0,10.396825396825395,281.5079365079365,-325.0,-156.42857142857142,9.285714285714285,213.88888888888889,-7.698412698412698,146.9047619047619,-174.04761904761904,-16.11111111111111,-325.0,-36.904761904761905,-7.698412698412698,-6.26984126984127,7.857142857142857,8.809523809523808,-166.26984126984127
-325.0,-289.9206349206349,220.87301587301587,-7.222222222222221,-51.666666666666664,79.28571428571428,325.0,10.396825396825395,281.5079365079365,-325.0,-156.42857142857142,9.285714285714285,213.88888888888889,-7.698412698412698,146.9047619047619,-174.04761904761904,-16.11111111111111,-325.0,-36.904761904761905,-7.698412698412698,-6.26984126984127,7.857142857142857,8.809523809523808,-166.26984126984127
-325.0,-282.3015873015873,215.0,-7.3809523809523805,-50.39682539682539,76.9047619047619,285.3174603174603,10.396825396825395,274.5238095238095,-325.0,-152.61904761904762,9.285714285714285,208.015873015873,-7.063492063492063,143.25396825396825,-169.44444444444443,-15.793650793650793,-325.0,-35.95238095238095,-7.3809523809523805,-6.26984126984127,2.3015873015873014,-2.7777777777777777,-321.8253968253968
-325.0,-282.3015873015873,215.0,-7.3809523809523805,-50.39682539682539,76.9047619047619,285.3174603174603,10.396825396825395,274.5238095238095,-325.0,-152.61904761904762,9.285714285714285,208.015873015873,-7.063492063492063,143.25396825396825,-169.44444444444443,-15.793650793650793,-325.0,-35.95238095238095,-7.3809523809523805,-6.26984126984127,2.3015873015873014,-2.7777777777777777,-321.8253968253968
-240.87301587301587,-172.14285714285714,128.4920634920635,-5.0,-32.460317460317455,-71.5079365079365,-325.0,6.587301587301587,167.69841269841268,-268.015873015873,-94.52380952380952,5.7936507936507935,125.15873015873015,-5.317460317460317,86.42857142857143,-101.66666666666666,-10.555555555555555,-325.0,-20.71428571428571,-5.7936507936507935,-4.523809523809524,-0.07936507936507936,-4.841269841269841,-321.8253968253968
-240.87301587301587,-172.14285714285714,128.4920634920635,-5.0,-32.460317460317455,-71.5079365079365,-325.0,6.587301587301587,167.69841269841268,-268.015873015873,-94.52380952380952,5.7936507936507935,125.15873015873015,-5.317460317460317,86.42857142857143,-101.66666666666666,-10.555555555555555,-325.0,-20.71428571428571,-5.7936507936507935,-4.523809523809524,-0.07936507936507936,-4.841269841269841,-321.8253968253968
-231.5079365079365,-165.3174603174603,123.25396825396825,-5.158730158730158,-31.19047619047619,-325.0,-325.0,6.428571428571428,161.19047619047618,-257.53968253968253,-91.19047619047619,5.7936507936507935,120.23809523809523,-5.317460317460317,83.09523809523809,-97.6984126984127,-10.238095238095237,-325.0,-20.07936507936508,-5.476190476190476,-4.523809523809524,-0.23809523809523808,-0.3968253968253968,-321.8253968253968
-231.5079365079365,-165.3174603174603,123.25396825396825,-5.158730158730158,-31.19047619047619,-325.0,-325.0,6.428571428571428,161.19047619047618,-257.53968253968253,-91.19047619047619,5.7936507936507935,120.23809523809523,-5.317460317460317,83.09523809523809,-97.6984126984127,-10.238095238095237,-325.0,-20.07936507936508,-5.476190476190476,-4.523809523809524,-0.23809523809523808,-0.3968253968253968,-321.8253968253968
-229.44444444444443,-163.88888888888889,122.30158730158729,-5.317460317460317,-30.87301587301587,-325.0,-325.0,6.428571428571428,159.6031746031746,-255.15873015873015,-90.39682539682539,5.634920634920634,119.44444444444444,-5.317460317460317,82.3015873015873,-96.74603174603175,-10.079365079365079,-325.0,-20.07936507936508,-5.317460317460317,-4.365079365079365,-6.428571428571428,-10.873015873015872,-321.8253968253968
-229.44444444444443,-163.88888888888889,122.30158730158729,-5.317460317460317,-30.87301587301587,-325.0,-325.0,6.428571428571428,159.6031746031746,-255.15873015873015,-90.39682539682539,5.634920634920634,119.44444444444444,-5.317460317460317,82.3015873015873,-96.74603174603175,-10.079365079365079,-325.0,-20.07936507936508,-5.317460317460317,-4.365079365079365,-6.428571428571428,-10.873015873015872,-321.8253968253968
-229.44444444444443,-163.88888888888889,122.30158730158729,-5.317460317460317,-30.87301587301587,-325.0,-325.0,6.428571428571428,159.6031746031746,-255.15873015873015,-90.39682539682539,5.634920634920634,119.44444444444444,-5.317460317460317,82.3015873015873,-96.74603174603175,-10.079365079365079,-325.0,-20.07936507936508,-5.317460317460317,-4.365079365079365,-6.428571428571428,-10.873015873015872,-321.8253968253968
-229.44444444444443,-163.88888888888889,122.30158730158729,-5.317460317460317,-30.87301587301587,-325.0,-325.0,6.428571428571428,159.6031746031746,-255.15873015873015,-90.39682539682539,5.634920634920634,119.44444444444444,-5.317460317460317,82.3015873015873,-96.74603174603175,-10.079365079365079,-325.0,-20.07936507936508,-5.317460317460317,-4.365079365079365,-6.428571428571428,-10.873015873015872,-321.8253968253968
-229.44444444444443,-163.88888888888889,122.30158730158729,-5.317460317460317,-30.87301587301587,-325.0,-325.0,6.428571428571428,159.6031746031746,-255.15873015873015,-90.39682539682539,5.634920634920634,119.44444444444444,-5.317460317460317,82.3015873015873,-96.74603174603175,-10.079365079365079,-325.0,-20.07936507936508,-5.317460317460317,-4.365079365079365,-6.428571428571428,-10.873015873015872,-166.26984126984127
-229.44444444444443,-163.88888888888889,122.30158730158729,-5.317460317460317,-30.87301587301587,-325.0,-325.0,6.428571428571428,159.6031746031746,-255.15873015873015,-90.39682539682539,5.634920634920634,119.44444444444444,-5.317460317460317,82.3015873015873,-96.74603174603175,-10.079365079365079,-325.0,-20.07936507936508,-5.317460317460317,-4.365079365079365,-6.428571428571428,-10.873015873015872,-166.26984126984127
-207.53968253968253,-148.65079365079364,110.23809523809523,-5.0,-28.49206349206349,-325.0,-325.0,5.7936507936507935,144.68253968253967,-231.19047619047618,-82.3015873015873,5.158730158730158,107.85714285714285,-5.158730158730158,74.52380952380952,-87.38095238095238,-9.444444444444445,-325.0,-18.174603174603174,-5.0,-4.0476190476190474,-5.158730158730158,-10.555555555555555,-166.26984126984127
-207.53968253968253,-148.65079365079364,110.23809523809523,-5.0,-28.49206349206349,-325.0,-325.0,5.7936507936507935,144.68253968253967,-231.19047619047618,-82.3015873015873,5.158730158730158,107.85714285714285,-5.158730158730158,74.52380952380952,-87.38095238095238,-9.444444444444445,-325.0,-18.174603174603174,-5.0,-4.0476190476190474,-5.158730158730158,-10.555555555555555,-166.26984126984127
-183.57142857142856,-131.34920634920636,97.06349206349206,-4.523809523809524,-25.634920634920633,-325.0,-325.0,5.0,128.33333333333331,-204.36507936507937,-73.4126984126984,4.841269841269841,94.84126984126983,-4.841269841269841,66.11111111111111,-77.22222222222221,-8.65079365079365,-325.0,-16.11111111111111,-4.682539682539682,-3.888888888888889,5.476190476190476,5.317460317460317,-166.26984126984127
-183.57142857142856,-131.34920634920636,97.06349206349206,-4.523809523809524,-25.634920634920633,-325.0,-325.0,5.0,128.33333333333331,-204.36507936507937,-73.4126984126984,4.841269841269841,94.84126984126983,-4.841269841269841,66.11111111111111,-77.22222222222221,-8.65079365079365,-325.0,-16.11111111111111,-4.682539682539682,-3.888888888888889,5.476190476190476,5.317460317460317,-166.26984126984127
-180.87301587301587,-129.76190476190476,95.79365079365078,-4.365079365079365,-25.317460317460316,-325.0,-325.0,5.0,126.58730158730158,-201.8253968253968,-72.46031746031746,4.365079365079365,93.88888888888889,-4.682539682539682,65.31746031746032,-75.79365079365078,-8.65079365079365,-325.0,-15.793650793650793,-4.682539682539682,-3.73015873015873,-7.3809523809523805,-5.158730158730158,-166.26984126984127
-180.87301587301587,-129.76190476190476,95.79365079365078,-4.365079365079365,-25.317460317460316,-325.0,-325.0,5.0,126.58730158730158,-201.8253968253968,-72.46031746031746,4.365079365079365,93.88888888888889,-4.682539682539682,65.31746031746032,-75.79365079365078,-8.65079365079365,-325.0,-15.793650793650793,-4.682539682539682,-3.73015873015873,-7.3809523809523805,-5.158730158730158,-166.26984126984127
-177.85714285714286,-127.38095238095238,94.04761904761904,-4.365079365079365,-25.0,-325.0,-325.0,4.841269841269841,124.52380952380952,-198.4920634920635,-71.34920634920634,4.523809523809524,92.14285714285714,-4.682539682539682,64.2063492063492,-74.68253968253968,-8.492063492063492,-325.0,-15.634920634920634,-4.682539682539682,-3.888888888888889,-7.222222222222221,-5.0,-166.26984126984127
-177.85714285714286,-127.38095238095238,94.04761904761904,-4.365079365079365,-25.0,-325.0,-325.0,4.841269841269841,124.52380952380952,-198.4920634920635,-71.34920634920634,4.523809523809524,92.14285714285714,-4.682539682539682,64.2063492063492,-74.68253968253968,-8.492063492063492,-325.0,-15.634920634920634,-4.682539682539682,-3.888888888888889,-7.222222222222221,-5.0,-166.26984126984127
-172.46031746031744,-123.57142857142857,91.03174603174602,-4.523809523809524,-24.365079365079364,-325.0,-325.0,5.0,-85.15873015873015,-192.46031746031744,-69.12698412698413,4.523809523809524,89.44444444444444,-4.682539682539682,62.14285714285714,-72.3015873015873,-8.333333333333332,-325.0,-15.158730158730158,-4.523809523809524,-3.73015873015873,1.6666666666666665,-2.7777777777777777,-321.8253968253968
-172.46031746031744,-123.57142857142857,91.03174603174602,-4.523809523809524,-24.365079365079364,-325.0,-325.0,5.0,-85.15873015873015,-192.46031746031744,-69.12698412698413,4.523809523809524,89.44444444444444,-4.682539682539682,62.14285714285714,-72.3015873015873,-8.333333333333332,-325.0,-15.158730158730158,-4.523809523809524,-3.73015873015873,1.6666666666666665,-2.7777777777777777,-321.8253968253968
-170.23809523809524,-121.98412698412697,89.76190476190476,-4.523809523809524,-23.88888888888889,-325.0,-325.0,4.841269841269841,-49.92063492063492,-189.9206349206349,-68.17460317460318,4.365079365079365,88.17460317460316,-4.682539682539682,61.34920634920635,-71.34920634920634,-8.174603174603174,-325.0,-15.0,-4.523809523809524,-3.73015873015873,-0.3968253968253968,-0.3968253968253968,-321.8253968253968
-170.23809523809524,-121.98412698412697,89.76190476190476,-4.523809523809524,-23.88888888888889,-325.0,-325.0,4.841269841269841,-49.92063492063492,-189.9206349206349,-68.17460317460318,4.365079365079365,88.17460317460316,-4.682539682539682,61.34920634920635,-71.34920634920634,-8.174603174603174,-325.0,-15.0,-4.523809523809524,-3.73015873015873,-0.3968253968253968,-0.3968253968253968,-321.8253968253968
-166.74603174603175,-119.28571428571428,87.85714285714285,-4.365079365079365,-23.57142857142857,-325.0,-325.0,4.523809523809524,-262.3015873015873,-185.79365079365078,-66.9047619047619,4.523809523809524,85.95238095238095,-4.682539682539682,60.079365079365076,-69.92063492063491,-8.015873015873016,-322.1428571428571,-14.682539682539682,-4.365079365079365,-3.73015873015873,2.142857142857143,-1.984126984126984,-321.8253968253968
-166.74603174603175,-119.28571428571428,87.85714285714285,-4.365079365079365,-23.57142857142857,-325.0,-325.0,4.523809523809524,-262.3015873015873,-185.79365079365078,-66.9047619047619,4.523809523809524,85.95238095238095,-4.682539682539682,60.079365079365076,-69.92063492063491,-8.015873015873016,-322.1428571428571,-14.682539682539682,-4.365079365079365,-3.73015873015873,2.142857142857143,-1.984126984126984,-321.8253968253968
-165.79365079365078,-118.65079365079364,87.53968253968253,-4.2063492063492065,-23.41269841269841,-325.0,-325.0,4.523809523809524,-325.0,-184.84126984126982,-66.58730158730158,4.365079365079365,85.47619047619047,-4.365079365079365,59.76190476190476,-69.44444444444444,-8.015873015873016,-320.87301587301585,-14.365079365079364,-4.365079365079365,-3.571428571428571,7.698412698412698,4.682539682539682,-321.8253968253968
-165.79365079365078,-118.65079365079364,87.53968253968253,-4.2063492063492065,-23.41269841269841,-325.0,-325.0,4.523809523809524,-325.0,-184.84126984126982,-66.58730158730158,4.365079365079365,85.47619047619047,-4.365079365079365,59.76190476190476,-69.44444444444444,-8.015873015873016,-320.87301587301585,-14.365079365079364,-4.365079365079365,-3.571428571428571,7.698412698412698,4.682539682539682,-321.8253968253968
-159.44444444444443,-114.04761904761904,84.04761904761904,-4.2063492063492065,-22.619047619047617,-325.0,-323.73015873015873,4.682539682539682,-325.0,-177.85714285714286,-64.36507936507937,4.2063492063492065,82.46031746031746,-4.365079365079365,57.53968253968254,-66.74603174603175,-7.857142857142857,-309.2857142857143,-14.047619047619047,-4.365079365079365,-3.571428571428571,4.2063492063492065,6.111111111111111,-321.8253968253968
-159.44444444444443,-114.04761904761904,84.04761904761904,-4.2063492063492065,-22.619047619047617,-325.0,-323.73015873015873,4.682539682539682,-325.0,-177.85714285714286,-64.36507936507937,4.2063492063492065,82.46031746031746,-4.365079365079365,57.53968253968254,-66.74603174603175,-7.857142857142857,-309.2857142857143,-14.047619047619047,-4.365079365079365,-3.571428571428571,4.2063492063492065,6.111111111111111,-321.8253968253968
-156.11111111111111,-111.82539682539682,82.3015873015873,-4.365079365079365,-22.3015873015873,-325.0,-316.90476190476187,4.523809523809524,-325.0,-174.04761904761904,-62.93650793650793,4.365079365079365,80.55555555555556,-4.2063492063492065,56.42857142857142,-65.47619047619047,-7.698412698412698,-302.9365079365079,-13.571428571428571,-4.523809523809524,-3.571428571428571,-3.888888888888889,-8.809523809523808,-166.26984126984127
-156.11111111111111,-111.82539682539682,82.3015873015873,-4.365079365079365,-22.3015873015873,-325.0,-316.90476190476187,4.523809523809524,-325.0,-174.04761904761904,-62.93650793650793,4.365079365079365,80.55555555555556,-4.2063492063492065,56.42857142857142,-65.47619047619047,-7.698412698412698,-302.9365079365079,-13.571428571428571,-4.523809523809524,-3.571428571428571,-3.888888888888889,-8.809523809523808,-166.26984126984127
-156.11111111111111,-111.82539682539682,82.3015873015873,-4.365079365079365,-22.3015873015873,-325.0,-316.90476190476187,4.523809523809524,-325.0,-174.04761904761904,-62.93650793650793,4.365079365079365,80.55555555555556,-4.2063492063492065,56.42857142857142,-65.47619047619047,-7.698412698412698,-302.9365079365079,-13.571428571428571,-4.523809523809524,-3.571428571428571,-3.888888888888889,-8.809523809523808,-166.26984126984127
-156.11111111111111,-111.82539682539682,82.3015873015873,-4.365079365079365,-22.3015873015873,-325.0,-316.90476190476187,4.523809523809524,-325.0,-174.04761904761904,-62.93650793650793,4.365079365079365,80.55555555555556,-4.2063492063492065,56.42857142857142,-65.47619047619047,-7.698412698412698,-302.9365079365079,-13.571428571428571,-4.523809523809524,-3.571428571428571,-3.888888888888889,-8.809523809523808,-166.26984126984127
-150.55555555555554,-108.01587301587301,78.96825396825396,-4.0476190476190474,-21.507936507936506,-325.0,-306.26984126984127,4.365079365079365,-325.0,-168.015873015873,-60.873015873015866,4.365079365079365,77.6984126984127,-4.2063492063492065,54.52380952380952,-63.095238095238095,-7.5396825396825395,-293.57142857142856,-13.253968253968253,-4.365079365079365,-3.4126984126984126,-3.4126984126984126,-8.492063492063492,-166.26984126984127
-150.55555555555554,-108.01587301587301,78.96825396825396,-4.0476190476190474,-21.507936507936506,-325.0,-306.26984126984127,4.365079365079365,-325.0,-168.015873015873,-60.873015873015866,4.365079365079365,77.6984126984127,-4.2063492063492065,54.52380952380952,-63.095238095238095,-7.5396825396825395,-293.57142857142856,-13.253968253968253,-4.365079365079365,-3.4126984126984126,-3.4126984126984126,-8.492063492063492,-166.26984126984127
-150.55555555555554,-108.01587301587301,78.96825396825396,-4.0476190476190474,-21.507936507936506,-325.0,-306.26984126984127,4.365079365079365,-325.0,-168.015873015873,-60.873015873015866,4.365079365079365,77.6984126984127,-4.2063492063492065,54.52380952380952,-63.095238095238095,-7.5396825396825395,-293.57142857142856,-13.253968253968253,-4.365079365079365,-3.4126984126984126,-3.4126984126984126,-8.492063492063492,-166.26984126984127
-150.55555555555554,-108.01587301587301,78.96825396825396,-4.0476190476190474,-21.507936507936506,-325.0,-306.26984126984127,4.365079365079365,-325.0,-168.015873015873,-60.873015873015866,4.365079365079365,77.6984126984127,-4.2063492063492065,54.52380952380952,-63.095238095238095,-7.5396825396825395,-293.57142857142856,-13.253968253968253,-4.365079365079365,-3.4126984126984126,-3.4126984126984126,-8.492063492063492,-166.26984126984127
-147.38095238095238,-105.63492063492063,77.38095238095238,-4.0476190476190474,-21.349206349206348,-325.0,-299.9206349206349,4.2063492063492065,-325.0,-164.36507936507937,-59.92063492063492,4.0476190476190474,76.1111111111111,-4.2063492063492065,53.41269841269841,-61.82539682539682,-7.3809523809523805,-287.6984126984127,-13.095238095238095,-4.365079365079365,-3.4126984126984126,1.507936507936508,-1.984126984126984,-166.26984126984127
-147.38095238095238,-105.63492063492063,77.38095238095238,-4.0476190476190474,-21.349206349206348,-325.0,-299.9206349206349,4.2063492063492065,-325.0,-164.36507936507937,-59.92063492063492,4.0476190476190474,76.1111111111111,-4.2063492063492065,53.41269841269841,-61.82539682539682,-7.3809523809523805,-287.6984126984127,-13.095238095238095,-4.365079365079365,-3.4126984126984126,1.507936507936508,-1.984126984126984,-166.26984126984127
-144.2063492063492,-103.25396825396825,75.95238095238095,-3.888888888888889,-21.03174603174603,-325.0,-293.57142857142856,4.2063492063492065,-325.0,-160.7142857142857,-58.8095238095238,3.888888888888889,74.52380952380952,-4.0476190476190474,52.3015873015873,-60.39682539682539,-7.222222222222221,-281.8253968253968,-12.777777777777777,-4.2063492063492065,-3.253968253968254,6.428571428571428,4.682539682539682,-321.8253968253968
-144.2063492063492,-103.25396825396825,75.95238095238095,-3.888888888888889,-21.03174603174603,-325.0,-293.57142857142856,4.2063492063492065,-325.0,-160.7142857142857,-58.8095238095238,3.888888888888889,74.52380952380952,-4.0476190476190474,52.3015873015873,-60.39682539682539,-7.222222222222221,-281.8253968253968,-12.777777777777777,-4.2063492063492065,-3.253968253968254,6.428571428571428,4.682539682539682,-321.8253968253968
-140.07936507936506,-100.23809523809523,73.25396825396825,-4.0476190476190474,-20.396825396825395,-325.0,-285.1587301587301,-22.619047619047617,-325.0,-156.11111111111111,-56.904761904761905,3.888888888888889,72.14285714285714,-4.2063492063492065,50.39682539682539,-55.476190476190474,-7.222222222222221,-274.04761904761904,-12.46031746031746,-4.2063492063492065,-3.571428571428571,1.507936507936508,-1.507936507936508,-321.8253968253968
-140.07936507936506,-100.23809523809523,73.25396825396825,-4.0476190476190474,-20.396825396825395,-325.0,-285.1587301587301,-22.619047619047617,-325.0,-156.11111111111111,-56.904761904761905,3.888888888888889,72.14285714285714,-4.2063492063492065,50.39682539682539,-55.476190476190474,-7.222222222222221,-274.04761904761904,-12.46031746031746,-4.2063492063492065,-3.571428571428571,1.507936507936508,-1.507936507936508,-321.8253968253968
-137.69841269841268,-98.49206349206348,71.98412698412697,-3.888888888888889,-20.238095238095237,-325.0,-280.23809523809524,-11.349206349206348,-325.0,-153.25396825396825,-56.11111111111111,3.73015873015873,70.87301587301587,-4.365079365079365,49.6031746031746,-27.857142857142854,-7.063492063492063,-269.6031746031746,-12.3015873015873,-4.2063492063492065,-3.4126984126984126,-2.46031746031746,0.7142857142857142,-321.8253968253968
-137.69841269841268,-98.49206349206348,71.98412698412697,-3.888888888888889,-20.238095238095237,-325.0,-280.23809523809524,-11.349206349206348,-325.0,-153.25396825396825,-56.11111111111111,3.73015873015873,70.87301587301587,-4.365079365079365,49.6031746031746,-27.857142857142854,-7.063492063492063,-269.6031746031746,-12.3015873015873,-4.2063492063492065,-3.4126984126984126,-2.46031746031746,0.7142857142857142,-321.8253968253968
-135.3174603174603,-96.9047619047619,70.87301587301587,-4.0476190476190474,-19.76190476190476,-325.0,-275.6349206349206,-197.38095238095238,-325.0,-150.7142857142857,-55.317460317460316,3.73015873015873,69.76190476190476,-4.0476190476190474,48.96825396825397,-43.73015873015873,-7.063492063492063,-265.1587301587301,-11.984126984126984,-4.0476190476190474,-3.253968253968254,2.619047619047619,-0.873015873015873,-321.8253968253968
-135.3174603174603,-96.9047619047619,70.87301587301587,-4.0476190476190474,-19.76190476190476,-325.0,-275.6349206349206,-197.38095238095238,-325.0,-150.7142857142857,-55.317460317460316,3.73015873015873,69.76190476190476,-4.0476190476190474,48.96825396825397,-43.73015873015873,-7.063492063492063,-265.1587301587301,-11.984126984126984,-4.0476190476190474,-3.253968253968254,2.619047619047619,-0.873015873015873,-321.8253968253968
-133.57142857142856,-95.47619047619047,69.92063492063491,-3.888888888888889,-19.444444444444443,-325.0,-272.1428571428571,-242.93650793650792,-325.0,-148.65079365079364,-54.68253968253968,3.73015873015873,68.80952380952381,-4.0476190476190474,48.33333333333333,-0.7142857142857142,-6.904761904761904,-261.8253968253968,-11.825396825396824,-4.0476190476190474,-3.253968253968254,-0.7142857142857142,-0.5555555555555556,-321.8253968253968
-133.57142857142856,-95.47619047619047,69.92063492063491,-3.888888888888889,-19.444444444444443,-325.0,-272.1428571428571,-242.93650793650792,-325.0,-148.65079365079364,-54.68253968253968,3.73015873015873,68.80952380952381,-4.0476190476190474,48.33333333333333,-0.7142857142857142,-6.904761904761904,-261.8253968253968,-11.825396825396824,-4.0476190476190474,-3.253968253968254,-0.7142857142857142,-0.5555555555555556,-321.8253968253968
-130.55555555555554,-93.4126984126984,68.33333333333333,-3.888888888888889,-19.6031746031746,-325.0,-266.26984126984127,-325.0,-325.0,-145.47619047619048,-53.41269841269841,3.888888888888889,67.22222222222221,-3.888888888888889,47.22222222222222,-29.126984126984127,-6.904761904761904,-256.58730158730157,-11.666666666666666,-4.2063492063492065,-3.4126984126984126,2.7777777777777777,-1.984126984126984,-166.26984126984127
-130.55555555555554,-93.4126984126984,68.33333333333333,-3.888888888888889,-19.6031746031746,-325.0,-266.26984126984127,-325.0,-325.0,-145.47619047619048,-53.41269841269841,3.888888888888889,67.22222222222221,-3.888888888888889,47.22222222222222,-29.126984126984127,-6.904761904761904,-256.58730158730157,-11.666666666666666,-4.2063492063492065,-3.4126984126984126,2.7777777777777777,-1.984126984126984,-166.26984126984127
-129.76190476190476,-93.09523809523809,68.01587301587301,-3.73015873015873,-19.6031746031746,-325.0,-265.1587301587301,-325.0,-325.0,-144.84126984126982,-53.095238095238095,3.888888888888889,67.06349206349206,-3.888888888888889,46.904761904761905,-53.888888888888886,-6.746031746031746,-255.47619047619045,-11.507936507936508,-4.2063492063492065,-3.095238095238095,8.015873015873016,5.7936507936507935,-166.26984126984127
-129.76190476190476,-93.09523809523809,68.01587301587301,-3.73015873015873,-19.6031746031746,-325.0,-265.1587301587301,-325.0,-325.0,-144.84126984126982,-53.095238095238095,3.888888888888889,67.06349206349206,-3.888888888888889,46.904761904761905,-53.888888888888886,-6.746031746031746,-255.47619047619045,-11.507936507936508,-4.2063492063492065,-3.095238095238095,8.015873015873016,5.7936507936507935,-166.26984126984127
-125.31746031746032,-89.6031746031746,65.63492063492063,-3.73015873015873,-18.49206349206349,-325.0,-256.1111111111111,-325.0,-325.0,-139.44444444444443,-51.507936507936506,1.349206349206349,65.0,-3.888888888888889,42.14285714285714,-47.22222222222222,-6.428571428571428,-247.2222222222222,-11.349206349206348,-3.73015873015873,-3.095238095238095,7.3809523809523805,6.904761904761904,-166.26984126984127
-125.31746031746032,-89.6031746031746,65.63492063492063,-3.73015873015873,-18.49206349206349,-325.0,-256.1111111111111,-325.0,-325.0,-139.44444444444443,-51.507936507936506,1.349206349206349,65.0,-3.888888888888889,42.14285714285714,-47.22222222222222,-6.428571428571428,-247.2222222222222,-11.349206349206348,-3.73015873015873,-3.095238095238095,7.3809523809523805,6.904761904761904,-166.26984126984127
-125.31746031746032,-89.6031746031746,65.63492063492063,-3.73015873015873,-18.49206349206349,-325.0,-256.1111111111111,-325.0,-325.0,-139.44444444444443,-51.507936507936506,1.349206349206349,65.0,-3.888888888888889,42.14285714285714,-47.22222222222222,-6.428571428571428,-247.2222222222222,-11.349206349206348,-3.73015873015873,-3.095238095238095,7.3809523809523805,6.904761904761904,-166.26984126984127
-125.31746031746032,-89.6031746031746,65.63492063492063,-3.73015873015873,-18.49206349206349,-325.0,-256.1111111111111,-325.0,-325.0,-139.44444444444443,-51.507936507936506,1.349206349206349,65.0,-3.888888888888889,42.14285714285714,-47.22222222222222,-6.428571428571428,-247.2222222222222,-11.349206349206348,-3.73015873015873,-3.095238095238095,7.3809523809523805,6.904761904761904,-166.26984126984127
-125.31746031746032,-89.6031746031746,65.63492063492063,-3.73015873015873,-18.49206349206349,-325.0,-256.1111111111111,-325.0,-325.0,-139.44444444444443,-51.507936507936506,1.349206349206349,65.0,-3.888888888888889,42.14285714285714,-47.22222222222222,-6.428571428571428,-247.2222222222222,-11.349206349206348,-3.73015873015873,-3.095238095238095,7.3809523809523805,6.904761904761904,-166.26984126984127
-125.31746031746032,-89.6031746031746,65.63492063492063,-3.73015873015873,-18.49206349206349,-325.0,-256.1111111111111,-325.0,-325.0,-139.44444444444443,-51.507936507936506,1.349206349206349,65.0,-3.888888888888889,42.14285714285714,-47.22222222222222,-6.428571428571428,-247.2222222222222,-11.349206349206348,-3.73015873015873,-3.095238095238095,7.3809523809523805,6.904761904761904,-166.26984126984127
-118.65079365079364,-84.84126984126983,61.98412698412698,-3.571428571428571,-17.698412698412696,-325.0,-242.46031746031744,-325.0,-325.0,-131.8253968253968,-48.80952380952381,-96.74603174603175,61.19047619047619,-3.73015873015873,-169.9206349206349,232.6190476190476,-6.26984126984127,-234.52380952380952,-10.555555555555555,-3.73015873015873,-3.095238095238095,-4.523809523809524,-8.015873015873016,-321.8253968253968
-118.65079365079364,-84.84126984126983,61.98412698412698,-3.571428571428571,-17.698412698412696,-325.0,-242.46031746031744,-325.0,-325.0,-131.8253968253968,-48.80952380952381,-96.74603174603175,61.19047619047619,-3.73015873015873,-169.9206349206349,232.6190476190476,-6.26984126984127,-234.52380952380952,-10.555555555555555,-3.73015873015873,-3.095238095238095,-4.523809523809524,-8.015873015873016,-321.8253968253968
-116.74603174603173,-83.4126984126984,61.19047619047619,-3.4126984126984126,-17.22222222222222,-325.0,-239.60317460317458,-325.0,-325.0,-129.9206349206349,-48.01587301587301,-325.0,60.39682539682539,-3.571428571428571,-325.0,-21.19047619047619,-6.111111111111111,-231.34920634920633,-10.238095238095237,-3.571428571428571,-2.9365079365079363,9.126984126984127,6.904761904761904,-321.8253968253968
-116.74603174603173,-83.4126984126984,61.19047619047619,-3.4126984126984126,-17.22222222222222,-325.0,-239.60317460317458,-325.0,-325.0,-129.9206349206349,-48.01587301587301,-325.0,60.39682539682539,-3.571428571428571,-325.0,-21.19047619047619,-6.111111111111111,-231.34920634920633,-10.238095238095237,-3.571428571428571,-2.9365079365079363,9.126984126984127,6.904761904761904,-321.8253968253968
-113.4126984126984,-80.87301587301587,59.12698412698413,-3.4126984126984126,-17.22222222222222,-325.0,-232.3015873015873,-325.0,-325.0,-126.26984126984127,-46.74603174603175,-325.0,58.49206349206349,-3.73015873015873,-271.66666666666663,126.1111111111111,-5.952380952380952,-225.0,-10.079365079365079,-3.571428571428571,-3.095238095238095,3.888888888888889,0.23809523809523808,-321.8253968253968
-113.4126984126984,-80.87301587301587,59.12698412698413,-3.4126984126984126,-17.22222222222222,-325.0,-232.3015873015873,-325.0,-325.0,-126.26984126984127,-46.74603174603175,-325.0,58.49206349206349,-3.73015873015873,-271.66666666666663,126.1111111111111,-5.952380952380952,-225.0,-10.079365079365079,-3.571428571428571,-3.095238095238095,3.888888888888889,0.23809523809523808,-321.8253968253968
-111.82539682539682,-79.76190476190476,58.33333333333333,-3.253968253968254,-16.904761904761905,-325.0,-229.12698412698413,-325.0,-325.0,-124.52380952380952,-46.11111111111111,-325.0,57.698412698412696,-3.571428571428571,-325.0,169.12698412698413,-5.952380952380952,-222.3015873015873,-10.079365079365079,-3.4126984126984126,-2.9365079365079363,-0.07936507936507936,-0.3968253968253968,-321.8253968253968
-111.82539682539682,-79.76190476190476,58.33333333333333,-3.253968253968254,-16.904761904761905,-325.0,-229.12698412698413,-325.0,-325.0,-124.52380952380952,-46.11111111111111,-325.0,57.698412698412696,-3.571428571428571,-325.0,169.12698412698413,-5.952380952380952,-222.3015873015873,-10.079365079365079,-3.4126984126984126,-2.9365079365079363,-0.07936507936507936,-0.3968253968253968,-321.8253968253968
-109.92063492063491,-78.4920634920635,57.38095238095238,-3.4126984126984126,-16.587301587301585,-325.0,-225.3174603174603,-325.0,-325.0,-122.30158730158729,-45.317460317460316,-325.0,56.904761904761905,-3.571428571428571,-325.0,195.0,-5.952380952380952,-218.4920634920635,-9.920634920634921,-3.4126984126984126,-2.7777777777777777,-0.5555555555555556,-0.873015873015873,-321.8253968253968
-109.92063492063491,-78.4920634920635,57.38095238095238,-3.4126984126984126,-16.587301587301585,-325.0,-225.3174603174603,-325.0,-325.0,-122.30158730158729,-45.317460317460316,-325.0,56.904761904761905,-3.571428571428571,-325.0,195.0,-5.952380952380952,-218.4920634920635,-9.920634920634921,-3.4126984126984126,-2.7777777777777777,-0.5555555555555556,-0.873015873015873,-321.8253968253968
-108.01587301587301,-77.22222222222221,56.42857142857142,-3.095238095238095,-16.428571428571427,-325.0,-221.5079365079365,-325.0,-325.0,-120.39682539682539,-44.52380952380952,-325.0,55.79365079365079,-3.4126984126984126,-325.0,195.0,-5.7936507936507935,-215.15873015873015,-9.761904761904761,-3.4126984126984126,-2.7777777777777777,-0.23809523809523808,-0.7142857142857142,-166.26984126984127
-108.01587301587301,-77.22222222222221,56.42857142857142,-3.095238095238095,-16.428571428571427,-325.0,-221.5079365079365,-325.0,-325.0,-120.39682539682539,-44.52380952380952,-325.0,55.79365079365079,-3.4126984126984126,-325.0,195.0,-5.7936507936507935,-215.15873015873015,-9.761904761904761,-3.4126984126984126,-2.7777777777777777,-0.23809523809523808,-0.7142857142857142,-166.26984126984127
-105.79365079365078,-75.47619047619047,55.15873015873016,-3.253968253968254,-15.95238095238095,-325.0,-216.9047619047619,-325.0,-325.0,-117.6984126984127,-43.888888888888886,-325.0,54.52380952380952,-3.4126984126984126,-325.0,230.07936507936506,-5.952380952380952,-210.55555555555554,-9.444444444444445,-3.4126984126984126,-2.619047619047619,3.095238095238095,-0.3968253968253968,-166.26984126984127
-105.79365079365078,-75.47619047619047,55.15873015873016,-3.253968253968254,-15.95238095238095,-325.0,-216.9047619047619,-325.0,-325.0,-117.6984126984127,-43.888888888888886,-325.0,54.52380952380952,-3.4126984126984126,-325.0,230.07936507936506,-5.952380952380952,-210.55555555555554,-9.444444444444445,-3.4126984126984126,-2.619047619047619,3.095238095238095,-0.3968253968253968,-166.26984126984127
-103.88888888888889,-74.2063492063492,54.2063492063492,-2.9365079365079363,-15.95238095238095,-325.0,-213.4126984126984,-325.0,-325.0,-115.63492063492063,-43.095238095238095,-325.0,53.888888888888886,-3.4126984126984126,-325.0,311.5079365079365,-5.476190476190476,-207.2222222222222,-9.444444444444445,-3.253968253968254,-2.619047619047619,-4.365079365079365,-1.6666666666666665,-166.26984126984127
-103.88888888888889,-74.2063492063492,54.2063492063492,-2.9365079365079363,-15.95238095238095,-325.0,-213.4126984126984,-325.0,-325.0,-115.63492063492063,-43.095238095238095,-325.0,53.888888888888886,-3.4126984126984126,-325.0,311.5079365079365,-5.476190476190476,-207.2222222222222,-9.444444444444445,-3.253968253968254,-2.619047619047619,-4.365079365079365,-1.6666666666666665,-166.26984126984127
-100.71428571428571,-71.82539682539682,51.34920634920635,-3.095238095238095,-15.634920634920634,-325.0,-206.9047619047619,-325.0,-325.0,-112.46031746031746,-41.82539682539682,-325.0,52.14285714285714,-3.253968253968254,-325.0,252.93650793650792,-5.476190476190476,-201.34920634920633,-9.126984126984127,-3.4126984126984126,-2.9365079365079363,-0.873015873015873,-0.07936507936507936,-166.26984126984127
-100.71428571428571,-71.82539682539682,51.34920634920635,-3.095238095238095,-15.634920634920634,-325.0,-206.9047619047619,-325.0,-325.0,-112.46031746031746,-41.82539682539682,-325.0,52.14285714285714,-3.253968253968254,-325.0,252.93650793650792,-5.476190476190476,-201.34920634920633,-9.126984126984127,-3.4126984126984126,-2.9365079365079363,-0.873015873015873,-0.07936507936507936,-166.26984126984127
-98.65079365079364,-70.23809523809524,-51.03174603174603,-3.253968253968254,-15.158730158730158,-325.0,-202.61904761904762,-325.0,-325.0,-109.76190476190476,-41.03174603174603,-325.0,51.19047619047619,-3.4126984126984126,-325.0,281.5079365079365,-5.317460317460317,-197.2222222222222,-9.126984126984127,-3.253968253968254,-2.619047619047619,3.4126984126984126,1.984126984126984,-166.26984126984127
-98.65079365079364,-70.23809523809524,-51.03174603174603,-3.253968253968254,-15.158730158730158,-325.0,-202.61904761904762,-325.0,-325.0,-109.76190476190476,-41.03174603174603,-325.0,51.19047619047619,-3.4126984126984126,-325.0,281.5079365079365,-5.317460317460317,-197.2222222222222,-9.126984126984127,-3.253968253968254,-2.619047619047619,3.4126984126984126,1.984126984126984,-166.26984126984127
-96.9047619047619,-69.12698412698413,44.84126984126984,-3.095238095238095,-15.0,-325.0,-199.12698412698413,-325.0,-325.0,-107.85714285714285,-40.39682539682539,-325.0,50.079365079365076,-3.4126984126984126,-325.0,325.0,-5.317460317460317,-194.04761904761904,-8.809523809523808,-3.253968253968254,-2.619047619047619,-5.158730158730158,-1.984126984126984,-321.8253968253968
-96.9047619047619,-69.12698412698413,44.84126984126984,-3.095238095238095,-15.0,-325.0,-199.12698412698413,-325.0,-325.0,-107.85714285714285,-40.39682539682539,-325.0,50.079365079365076,-3.4126984126984126,-325.0,325.0,-5.317460317460317,-194.04761904761904,-8.809523809523808,-3.253968253968254,-2.619047619047619,-5.158730158730158,-1.984126984126984,-321.8253968253968
-95.31746031746032,-67.85714285714285,-123.73015873015872,-2.9365079365079363,-14.682539682539682,-325.0,-195.79365079365078,-325.0,-325.0,-105.79365079365078,-39.76190476190476,-325.0,37.38095238095238,-3.253968253968254,-325.0,305.95238095238096,-5.317460317460317,-190.87301587301587,-8.65079365079365,-3.095238095238095,-2.619047619047619,3.73015873015873,0.7142857142857142,-321.8253968253968
-95.31746031746032,-67.85714285714285,-123.73015873015872,-2.9365079365079363,-14.682539682539682,-325.0,-195.79365079365078,-325.0,-325.0,-105.79365079365078,-39.76190476190476,-325.0,37.38095238095238,-3.253968253968254,-325.0,305.95238095238096,-5.317460317460317,-190.87301587301587,-8.65079365079365,-3.095238095238095,-2.619047619047619,3.73015873015873,0.7142857142857142,-321.8253968253968
-93.73015873015872,-66.74603174603175,-35.63492063492063,-3.095238095238095,-14.365079365079364,-325.0,-192.61904761904762,-325.0,-325.0,-104.2063492063492,-39.285714285714285,-325.0,48.80952380952381,-3.4126984126984126,-325.0,325.0,-5.317460317460317,-187.85714285714283,-8.65079365079365,-3.095238095238095,-2.46031746031746,-4.523809523809524,-1.984126984126984,-321.8253968253968
-93.73015873015872,-66.74603174603175,-35.63492063492063,-3.095238095238095,-14.365079365079364,-325.0,-192.61904761904762,-325.0,-325.0,-104.2063492063492,-39.285714285714285,-325.0,48.80952380952381,-3.4126984126984126,-325.0,325.0,-5.317460317460317,-187.85714285714283,-8.65079365079365,-3.095238095238095,-2.46031746031746,-4.523809523809524,-1.984126984126984,-321.8253968253968
-92.14285714285714,-65.63492063492063,-61.98412698412698,-3.095238095238095,-14.206349206349206,-325.0,-189.44444444444443,-325.0,-325.0,-102.61904761904762,-38.65079365079365,-325.0,48.01587301587301,-3.253968253968254,-325.0,325.0,-5.317460317460317,-184.84126984126982,-8.333333333333332,-3.4126984126984126,-2.619047619047619,3.73015873015873,0.873015873015873,-321.8253968253968
-92.14285714285714,-65.63492063492063,-61.98412698412698,-3.095238095238095,-14.206349206349206,-325.0,-189.44444444444443,-325.0,-325.0,-102.61904761904762,-38.65079365079365,-325.0,48.01587301587301,-3.253968253968254,-325.0,325.0,-5.317460317460317,-184.84126984126982,-8.333333333333332,-3.4126984126984126,-2.619047619047619,3.73015873015873,0.873015873015873,-321.8253968253968
-90.39682539682539,-64.36507936507937,-56.269841269841265,-3.095238095238095,-14.365079365079364,-325.0,-186.26984126984127,-325.0,-325.0,-100.87301587301587,-38.01587301587301,-325.0,47.06349206349206,-3.253968253968254,-325.0,325.0,-5.158730158730158,-181.8253968253968,-8.333333333333332,-3.253968253968254,-2.7777777777777777,-4.682539682539682,-2.7777777777777777,-321.8253968253968
-90.39682539682539,-64.36507936507937,-56.269841269841265,-3.095238095238095,-14.365079365079364,-325.0,-186.26984126984127,-325.0,-325.0,-100.87301587301587,-38.01587301587301,-325.0,47.06349206349206,-3.253968253968254,-325.0,325.0,-5.158730158730158,-181.8253968253968,-8.333333333333332,-3.253968253968254,-2.7777777777777777,-4.682539682539682,-2.7777777777777777,-321.8253968253968
-88.4920634920635,-63.095238095238095,-43.25396825396825,-3.095238095238095,-14.047619047619047,-325.0,-182.3015873015873,-325.0,-325.0,-98.65079365079364,-37.38095238095238,-325.0,46.904761904761905,-3.4126984126984126,-325.0,325.0,-5.158730158730158,-178.17460317460316,-8.333333333333332,-3.253968253968254,-2.619047619047619,-8.333333333333332,-9.285714285714285,-166.26984126984127
-88.4920634920635,-63.095238095238095,-43.25396825396825,-3.095238095238095,-14.047619047619047,-325.0,-182.3015873015873,-325.0,-325.0,-98.65079365079364,-37.38095238095238,-325.0,46.904761904761905,-3.4126984126984126,-325.0,325.0,-5.158730158730158,-178.17460317460316,-8.333333333333332,-3.253968253968254,-2.619047619047619,-8.333333333333332,-9.285714285714285,-166.26984126984127
-85.15873015873015,-60.55555555555555,-325.0,-2.7777777777777777,-13.253968253968253,-325.0,-175.3174603174603,-325.0,-325.0,-94.68253968253968,-35.79365079365079,-325.0,-111.66666666666666,-3.095238095238095,-325.0,325.0,-5.0,-171.5079365079365,-7.857142857142857,-2.7777777777777777,-2.3015873015873014,3.571428571428571,6.26984126984127,-166.26984126984127
-85.15873015873015,-60.55555555555555,-325.0,-2.7777777777777777,-13.253968253968253,-325.0,-175.3174603174603,-325.0,-325.0,-94.68253968253968,-35.79365079365079,-325.0,-111.66666666666666,-3.095238095238095,-325.0,325.0,-5.0,-171.5079365079365,-7.857142857142857,-2.7777777777777777,-2.3015873015873014,3.571428571428571,6.26984126984127,-166.26984126984127
-83.57142857142857,-59.44444444444444,-325.0,-2.9365079365079363,-13.253968253968253,-325.0,-172.61904761904762,-325.0,-325.0,-93.25396825396825,-35.317460317460316,-325.0,-180.23809523809524,-3.095238095238095,-325.0,325.0,-4.841269841269841,-168.8095238095238,-7.857142857142857,-3.095238095238095,-2.3015873015873014,-3.888888888888889,-7.063492063492063,-166.26984126984127
-83.57142857142857,-59.44444444444444,-325.0,-2.9365079365079363,-13.253968253968253,-325.0,-172.61904761904762,-325.0,-325.0,-93.25396825396825,-35.317460317460316,-325.0,-180.23809523809524,-3.095238095238095,-325.0,325.0,-4.841269841269841,-168.8095238095238,-7.857142857142857,-3.095238095238095,-2.3015873015873014,-3.888888888888889,-7.063492063492063,-166.26984126984127
-81.98412698412697,-58.33333333333333,-325.0,-2.619047619047619,-13.095238095238095,-322.6190476190476,-169.44444444444443,-325.0,-325.0,-91.66666666666666,-34.84126984126984,-325.0,-325.0,-2.9365079365079363,-325.0,325.0,-4.682539682539682,-166.11111111111111,-7.5396825396825395,-3.095238095238095,-2.142857142857143,2.619047619047619,6.111111111111111,-166.26984126984127
-81.98412698412697,-58.33333333333333,-325.0,-2.619047619047619,-13.095238095238095,-322.6190476190476,-169.44444444444443,-325.0,-325.0,-91.66666666666666,-34.84126984126984,-325.0,-325.0,-2.9365079365079363,-325.0,325.0,-4.682539682539682,-166.11111111111111,-7.5396825396825395,-3.095238095238095,-2.142857142857143,2.619047619047619,6.111111111111111,-166.26984126984127
-80.23809523809523,-57.06349206349206,-325.0,-2.7777777777777777,-12.936507936507935,-316.26984126984127,-165.79365079365078,-325.0,-325.0,-89.76190476190476,-34.047619047619044,-325.0,-325.0,-2.9365079365079363,-325.0,325.0,-4.682539682539682,-162.61904761904762,-7.3809523809523805,-2.9365079365079363,-2.142857142857143,-2.7777777777777777,3.571428571428571,-166.26984126984127
-80.23809523809523,-57.06349206349206,-325.0,-2.7777777777777777,-12.936507936507935,-316.26984126984127,-165.79365079365078,-325.0,-325.0,-89.76190476190476,-34.047619047619044,-325.0,-325.0,-2.9365079365079363,-325.0,325.0,-4.682539682539682,-162.61904761904762,-7.3809523809523805,-2.9365079365079363,-2.142857142857143,-2.7777777777777777,3.571428571428571,-166.26984126984127
-77.6984126984127,-55.317460317460316,-325.0,-2.619047619047619,-12.619047619047619,-307.38095238095235,-161.03174603174602,-325.0,-325.0,-86.9047619047619,-33.095238095238095,-325.0,-325.0,-2.9365079365079363,-325.0,325.0,-4.523809523809524,-158.17460317460316,-7.3809523809523805,-3.095238095238095,-2.3015873015873014,-3.253968253968254,-7.3809523809523805,-321.8253968253968
-77.6984126984127,-55.317460317460316,-325.0,-2.619047619047619,-12.619047619047619,-307.38095238095235,-161.03174603174602,-325.0,-325.0,-86.9047619047619,-33.095238095238095,-325.0,-325.0,-2.9365079365079363,-325.0,325.0,-4.523809523809524,-158.17460317460316,-7.3809523809523805,-3.095238095238095,-2.3015873015873014,-3.253968253968254,-7.3809523809523805,-321.8253968253968
-76.9047619047619,-54.36507936507936,-325.0,-2.9365079365079363,-12.142857142857142,-303.73015873015873,-158.8095238095238,-325.0,-325.0,-85.47619047619047,-32.77777777777778,-325.0,-325.0,-3.095238095238095,-325.0,325.0,-4.365079365079365,-155.95238095238093,-7.3809523809523805,-2.619047619047619,-2.142857142857143,8.174603174603174,8.65079365079365,-321.8253968253968
-76.9047619047619,-54.36507936507936,-325.0,-2.9365079365079363,-12.142857142857142,-303.73015873015873,-158.8095238095238,-325.0,-325.0,-85.47619047619047,-32.77777777777778,-325.0,-325.0,-3.095238095238095,-325.0,325.0,-4.365079365079365,-155.95238095238093,-7.3809523809523805,-2.619047619047619,-2.142857142857143,8.174603174603174,8.65079365079365,-321.8253968253968
-76.9047619047619,-54.36507936507936,-325.0,-2.9365079365079363,-12.142857142857142,-303.73015873015873,-158.8095238095238,-325.0,-325.0,-85.47619047619047,-32.77777777777778,-325.0,-325.0,-3.095238095238095,-325.0,325.0,-4.365079365079365,-155.95238095238093,-7.3809523809523805,-2.619047619047619,-2.142857142857143,8.174603174603174,8.65079365079365,-321.8253968253968
-76.9047619047619,-54.36507936507936,-325.0,-2.9365079365079363,-12.142857142857142,-303.73015873015873,-158.8095238095238,-325.0,-325.0,-85.47619047619047,-32.77777777777778,-325.0,-325.0,-3.095238095238095,-325.0,325.0,-4.365079365079365,-155.95238095238093,-7.3809523809523805,-2.619047619047619,-2.142857142857143,8.174603174603174,8.65079365079365,-321.8253968253968
-76.9047619047619,-54.36507936507936,-325.0,-2.9365079365079363,-12.142857142857142,-303.73015873015873,-158.8095238095238,-325.0,-325.0,-85.47619047619047,-32.77777777777778,-325.0,-325.0,-3.095238095238095,-325.0,325.0,-4.365079365079365,-155.95238095238093,-7.3809523809523805,-2.619047619047619,-2.142857142857143,8.174603174603174,8.65079365079365,-321.8253968253968
-76.9047619047619,-54.36507936507936,-325.0,-2.9365079365079363,-12.142857142857142,-303.73015873015873,-158.8095238095238,-325.0,-325.0,-85.47619047619047,-32.77777777777778,-325.0,-325.0,-3.095238095238095,-325.0,325.0,-4.365079365079365,-155.95238095238093,-7.3809523809523805,-2.619047619047619,-2.142857142857143,8.174603174603174,8.65079365079365,-321.8253968253968
-76.9047619047619,-54.36507936507936,-325.0,-2.9365079365079363,-12.142857142857142,-303.73015873015873,-158.8095238095238,-325.0,-325.0,-85.47619047619047,-32.77777777777778,-325.0,-325.0,-3.095238095238095,-325.0,325.0,-4.365079365079365,-155.95238095238093,-7.3809523809523805,-2.619047619047619,-2.142857142857143,8.174603174603174,8.65079365079365,-321.8253968253968
-76.9047619047619,-54.36507936507936,-325.0,-2.9365079365079363,-12.142857142857142,-303.73015873015873,-158.8095238095238,-325.0,-325.0,-85.47619047619047,-32.77777777777778,-325.0,-325.0,-3.095238095238095,-325.0,325.0,-4.365079365079365,-155.95238095238093,-7.3809523809523805,-2.619047619047619,-2.142857142857143,8.174603174603174,8.65079365079365,-321.8253968253968
-76.9047619047619,-54.36507936507936,-325.0,-2.9365079365079363,-12.142857142857142,-303.73015873015873,-158.8095238095238,-325.0,-325.0,-85.47619047619047,-32.77777777777778,-325.0,-325.0,-3.095238095238095,-325.0,325.0,-4.365079365079365,-155.95238095238093,-7.3809523809523805,-2.619047619047619,-2.142857142857143,8.174603174603174,8.65079365079365,-166.26984126984127
-76.9047619047619,-54.36507936507936,-325.0,-2.9365079365079363,-12.142857142857142,-303.73015873015873,-158.8095238095238,-325.0,-325.0,-85.47619047619047,-32.77777777777778,-325.0,-325.0,-3.095238095238095,-325.0,325.0,-4.365079365079365,-155.95238095238093,-7.3809523809523805,-2.619047619047619,-2.142857142857143,8.174603174603174,8.65079365079365,-166.26984126984127
-70.39682539682539,146.9047619047619,-325.0,-2.46031746031746,325.0,-280.07936507936506,-146.11111111111111,-325.0,-325.0,-78.65079365079364,-30.396825396825395,-325.0,-325.0,325.0,-325.0,325.0,-4.365079365079365,-143.88888888888889,-6.587301587301587,-2.9365079365079363,-2.3015873015873014,-9.603174603174603,-10.714285714285714,-166.26984126984127
-70.39682539682539,146.9047619047619,-325.0,-2.46031746031746,325.0,-280.07936507936506,-146.11111111111111,-325.0,-325.0,-78.65079365079364,-30.396825396825395,-325.0,-325.0,325.0,-325.0,325.0,-4.365079365079365,-143.88888888888889,-6.587301587301587,-2.9365079365079363,-2.3015873015873014,-9.603174603174603,-10.714285714285714,-166.26984126984127
-69.12698412698413,13.253968253968253,-325.0,-2.619047619047619,325.0,-274.68253968253964,-143.09523809523807,-325.0,-325.0,-77.06349206349206,-29.920634920634917,-325.0,-325.0,278.968253968254,-325.0,325.0,-4.365079365079365,-141.19047619047618,-6.587301587301587,-2.7777777777777777,-2.3015873015873014,3.095238095238095,5.158730158730158,-166.26984126984127
-69.12698412698413,13.253968253968253,-325.0,-2.619047619047619,325.0,-274.68253968253964,-143.09523809523807,-325.0,-325.0,-77.06349206349206,-29.920634920634917,-325.0,-325.0,278.968253968254,-325.0,325.0,-4.365079365079365,-141.19047619047618,-6.587301587301587,-2.7777777777777777,-2.3015873015873014,3.095238095238095,5.158730158730158,-166.26984126984127
-68.01587301587301,232.93650793650792,-325.0,-2.9365079365079363,325.0,-270.39682539682536,-140.7142857142857,-325.0,-325.0,-75.63492063492063,-29.444444444444443,-325.0,-325.0,325.0,-325.0,325.0,-4.523809523809524,-138.4920634920635,-6.746031746031746,-2.9365079365079363,-2.619047619047619,-3.095238095238095,-6.428571428571428,-166.26984126984127
-68.01587301587301,232.93650793650792,-325.0,-2.9365079365079363,325.0,-270.39682539682536,-140.7142857142857,-325.0,-325.0,-75.63492063492063,-29.444444444444443,-325.0,-325.0,325.0,-325.0,325.0,-4.523809523809524,-138.4920634920635,-6.746031746031746,-2.9365079365079363,-2.619047619047619,-3.095238095238095,-6.428571428571428,-166.26984126984127
-66.74603174603175,7.857142857142857,-325.0,-2.619047619047619,325.0,-265.95238095238096,-138.33333333333331,-325.0,-325.0,-74.36507936507937,-28.96825396825397,-325.0,-325.0,325.0,-325.0,325.0,-4.365079365079365,-136.42857142857142,-6.587301587301587,-2.7777777777777777,-2.46031746031746,2.142857142857143,5.7936507936507935,-166.26984126984127
-66.74603174603175,7.857142857142857,-325.0,-2.619047619047619,325.0,-265.95238095238096,-138.33333333333331,-325.0,-325.0,-74.36507936507937,-28.96825396825397,-325.0,-325.0,325.0,-325.0,325.0,-4.365079365079365,-136.42857142857142,-6.587301587301587,-2.7777777777777777,-2.46031746031746,2.142857142857143,5.7936507936507935,-166.26984126984127
-65.63492063492063,220.7142857142857,-325.0,-2.7777777777777777,325.0,-261.66666666666663,-136.11111111111111,-325.0,-325.0,-73.25396825396825,-28.49206349206349,-325.0,-325.0,325.0,-325.0,325.0,-4.365079365079365,-134.52380952380952,-6.587301587301587,-2.9365079365079363,-2.46031746031746,-2.619047619047619,-5.952380952380952,-321.8253968253968
-65.63492063492063,220.7142857142857,-325.0,-2.7777777777777777,325.0,-261.66666666666663,-136.11111111111111,-325.0,-325.0,-73.25396825396825,-28.49206349206349,-325.0,-325.0,325.0,-325.0,325.0,-4.365079365079365,-134.52380952380952,-6.587301587301587,-2.9365079365079363,-2.46031746031746,-2.619047619047619,-5.952380952380952,-321.8253968253968
-64.52380952380952,75.47619047619047,-325.0,-2.9365079365079363,325.0,-257.22222222222223,-133.73015873015873,-325.0,-325.0,-71.82539682539682,-28.174603174603174,-325.0,-325.0,325.0,-325.0,325.0,-4.2063492063492065,-131.66666666666666,-6.587301587301587,-2.7777777777777777,-2.46031746031746,1.984126984126984,4.841269841269841,-321.8253968253968
-64.52380952380952,75.47619047619047,-325.0,-2.9365079365079363,325.0,-257.22222222222223,-133.73015873015873,-325.0,-325.0,-71.82539682539682,-28.174603174603174,-325.0,-325.0,325.0,-325.0,325.0,-4.2063492063492065,-131.66666666666666,-6.587301587301587,-2.7777777777777777,-2.46031746031746,1.984126984126984,4.841269841269841,-321.8253968253968
-63.25396825396825,286.4285714285714,-325.0,-2.7777777777777777,325.0,-253.25396825396825,-131.5079365079365,-325.0,-325.0,-70.39682539682539,-27.698412698412696,-325.0,-325.0,325.0,-325.0,325.0,-4.2063492063492065,-115.47619047619047,-6.428571428571428,-2.9365079365079363,-2.3015873015873014,-2.3015873015873014,-6.746031746031746,-321.8253968253968
-63.25396825396825,286.4285714285714,-325.0,-2.7777777777777777,325.0,-253.25396825396825,-131.5079365079365,-325.0,-325.0,-70.39682539682539,-27.698412698412696,-325.0,-325.0,325.0,-325.0,325.0,-4.2063492063492065,-115.47619047619047,-6.428571428571428,-2.9365079365079363,-2.3015873015873014,-2.3015873015873014,-6.746031746031746,-321.8253968253968
-62.460317460317455,251.03174603174602,-325.0,-2.7777777777777777,325.0,-250.2380952380952,-129.9206349206349,-325.0,-325.0,-69.6031746031746,-27.38095238095238,-325.0,-325.0,325.0,-325.0,325.0,-4.2063492063492065,-125.0,-6.428571428571428,-2.7777777777777777,-2.3015873015873014,-0.07936507936507936,-0.873015873015873,-321.8253968253968
-62.460317460317455,251.03174603174602,-325.0,-2.7777777777777777,325.0,-250.2380952380952,-129.9206349206349,-325.0,-325.0,-69.6031746031746,-27.38095238095238,-325.0,-325.0,325.0,-325.0,325.0,-4.2063492063492065,-125.0,-6.428571428571428,-2.7777777777777777,-2.3015873015873014,-0.07936507936507936,-0.873015873015873,-321.8253968253968
-61.19047619047619,325.0,-325.0,-2.7777777777777777,325.0,-245.15873015873015,-127.06349206349206,-325.0,-321.8253968253968,-68.33333333333333,-26.9047619047619,-325.0,-325.0,325.0,-325.0,325.0,-4.365079365079365,-112.46031746031746,-6.428571428571428,-2.9365079365079363,-2.46031746031746,-1.984126984126984,-6.111111111111111,-321.8253968253968
-61.19047619047619,325.0,-325.0,-2.7777777777777777,325.0,-245.15873015873015,-127.06349206349206,-325.0,-321.8253968253968,-68.33333333333333,-26.9047619047619,-325.0,-325.0,325.0,-325.0,325.0,-4.365079365079365,-112.46031746031746,-6.428571428571428,-2.9365079365079363,-2.46031746031746,-1.984126984126984,-6.111111111111111,-321.8253968253968
-36.58730158730159,325.0,-325.0,-2.619047619047619,325.0,-239.28571428571428,-123.88888888888889,-325.0,-314.04761904761904,-66.42857142857143,-8.492063492063492,-325.0,-325.0,325.0,-325.0,325.0,-4.365079365079365,-116.58730158730158,-6.26984126984127,-2.9365079365079363,-2.46031746031746,-4.365079365079365,-4.0476190476190474,-166.26984126984127
-36.58730158730159,325.0,-325.0,-2.619047619047619,325.0,-239.28571428571428,-123.88888888888889,-325.0,-314.04761904761904,-66.42857142857143,-8.492063492063492,-325.0,-325.0,325.0,-325.0,325.0,-4.365079365079365,-116.58730158730158,-6.26984126984127,-2.9365079365079363,-2.46031746031746,-4.365079365079365,-4.0476190476190474,-166.26984126984127
-17.539682539682538,325.0,-325.0,-2.7777777777777777,325.0,-235.3174603174603,-122.14285714285714,-325.0,-308.968253968254,-65.31746031746032,31.349206349206348,-325.0,-325.0,325.0,-325.0,325.0,-4.2063492063492065,-120.55555555555554,-6.26984126984127,-2.9365079365079363,-2.46031746031746,5.952380952380952,4.2063492063492065,-166.26984126984127
-17.539682539682538,325.0,-325.0,-2.7777777777777777,325.0,-235.3174603174603,-122.14285714285714,-325.0,-308.968253968254,-65.31746031746032,31.349206349206348,-325.0,-325.0,325.0,-325.0,325.0,-4.2063492063492065,-120.55555555555554,-6.26984126984127,-2.9365079365079363,-2.46031746031746,5.952380952380952,4.2063492063492065,-166.26984126984127
325.0,325.0,-325.0,-2.7777777777777777,325.0,-229.9206349206349,-119.12698412698413,-325.0,-301.3492063492063,-63.888888888888886,325.0,-325.0,-325.0,325.0,-325.0,325.0,-4.365079365079365,-113.88888888888889,-6.26984126984127,-2.9365079365079363,-2.46031746031746,-2.619047619047619,-6.587301587301587,-166.26984126984127
325.0,325.0,-325.0,-2.7777777777777777,325.0,-229.9206349206349,-119.12698412698413,-325.0,-301.3492063492063,-63.888888888888886,325.0,-325.0,-325.0,325.0,-325.0,325.0,-4.365079365079365,-113.88888888888889,-6.26984126984127,-2.9365079365079363,-2.46031746031746,-2.619047619047619,-6.587301587301587,-166.26984126984127
178.17460317460316,325.0,-325.0,-2.46031746031746,325.0,-226.9047619047619,-117.53968253968253,-325.0,-297.6984126984127,-63.095238095238095,301.5079365079365,-325.0,-325.0,325.0,-325.0,325.0,-4.0476190476190474,-117.6984126984127,-5.7936507936507935,-2.7777777777777777,-2.46031746031746,7.063492063492063,9.761904761904761,-166.26984126984127
178.17460317460316,325.0,-325.0,-2.46031746031746,325.0,-226.9047619047619,-117.53968253968253,-325.0,-297.6984126984127,-63.095238095238095,301.5079365079365,-325.0,-325.0,325.0,-325.0,325.0,-4.0476190476190474,-117.6984126984127,-5.7936507936507935,-2.7777777777777777,-2.46031746031746,7.063492063492063,9.761904761904761,-166.26984126984127
-77.06349206349206,325.0,-325.0,-2.619047619047619,325.0,-222.46031746031744,-115.0,-325.0,-291.66666666666663,-61.666666666666664,-28.96825396825397,-325.0,-325.0,325.0,-325.0,325.0,-3.888888888888889,-37.53968253968254,-5.952380952380952,-2.7777777777777777,-2.46031746031746,-1.349206349206349,-5.476190476190476,-166.26984126984127
-77.06349206349206,325.0,-325.0,-2.619047619047619,325.0,-222.46031746031744,-115.0,-325.0,-291.66666666666663,-61.666666666666664,-28.96825396825397,-325.0,-325.0,325.0,-325.0,325.0,-3.888888888888889,-37.53968253968254,-5.952380952380952,-2.7777777777777777,-2.46031746031746,-1.349206349206349,-5.476190476190476,-166.26984126984127
-68.17460317460318,325.0,-325.0,-2.619047619047619,325.0,-214.36507936507937,-110.71428571428571,-325.0,-281.031746031746,-59.285714285714285,-28.96825396825397,-325.0,-325.0,325.0,-325.0,325.0,-4.0476190476190474,-20.873015873015873,-5.7936507936507935,-2.9365079365079363,-2.3015873015873014,-0.873015873015873,-0.5555555555555556,-321.8253968253968
-68.17460317460318,325.0,-325.0,-2.619047619047619,325.0,-214.36507936507937,-110.71428571428571,-325.0,-281.031746031746,-59.285714285714285,-28.96825396825397,-325.0,-325.0,325.0,-325.0,325.0,-4.0476190476190474,-20.873015873015873,-5.7936507936507935,-2.9365079365079363,-2.3015873015873014,-0.873015873015873,-0.5555555555555556,-321.8253968253968
-66.42857142857143,325.0,-325.0,-2.619047619047619,325.0,-209.9206349206349,-108.33333333333333,-325.0,-275.3174603174603,-57.857142857142854,-23.730158730158728,-325.0,-325.0,325.0,-325.0,325.0,-3.888888888888889,-88.17460317460316,-5.7936507936507935,-2.9365079365079363,9.920634920634921,-6.26984126984127,-5.317460317460317,-321.8253968253968
-66.42857142857143,325.0,-325.0,-2.619047619047619,325.0,-209.9206349206349,-108.33333333333333,-325.0,-275.3174603174603,-57.857142857142854,-23.730158730158728,-325.0,-325.0,325.0,-325.0,325.0,-3.888888888888889,-88.17460317460316,-5.7936507936507935,-2.9365079365079363,9.920634920634921,-6.26984126984127,-5.317460317460317,-321.8253968253968
-65.15873015873015,325.0,-325.0,-2.46031746031746,325.0,-206.58730158730157,-106.58730158730158,-325.0,-270.87301587301585,-56.904761904761905,-21.349206349206348,-325.0,-325.0,325.0,-325.0,325.0,-3.73015873015873,-108.49206349206348,-5.634920634920634,-2.619047619047619,73.57142857142857,5.634920634920634,3.888888888888889,-321.8253968253968
-65.15873015873015,325.0,-325.0,-2.46031746031746,325.0,-206.58730158730157,-106.58730158730158,-325.0,-270.87301587301585,-56.904761904761905,-21.349206349206348,-325.0,-325.0,325.0,-325.0,325.0,-3.73015873015873,-108.49206349206348,-5.634920634920634,-2.619047619047619,73.57142857142857,5.634920634920634,3.888888888888889,-321.8253968253968
-53.095238095238095,325.0,-325.0,-2.46031746031746,325.0,-203.25396825396825,-104.84126984126983,-325.0,-266.26984126984127,-56.11111111111111,205.3174603174603,-325.0,-325.0,325.0,-325.0,325.0,-3.888888888888889,-112.14285714285714,-5.634920634920634,-2.7777777777777777,71.66666666666666,-4.841269841269841,-4.841269841269841,-321.8253968253968
-53.095238095238095,325.0,-325.0,-2.46031746031746,325.0,-203.25396825396825,-104.84126984126983,-325.0,-266.26984126984127,-56.11111111111111,205.3174603174603,-325.0,-325.0,325.0,-325.0,325.0,-3.888888888888889,-112.14285714285714,-5.634920634920634,-2.7777777777777777,71.66666666666666,-4.841269841269841,-4.841269841269841,-321.8253968253968
-57.22222222222222,325.0,-325.0,-2.3015873015873014,325.0,-200.3968253968254,-103.4126984126984,-325.0,-262.9365079365079,-55.317460317460316,48.33333333333333,-325.0,-325.0,325.0,-325.0,325.0,-3.888888888888889,-109.76190476190476,-5.476190476190476,-2.619047619047619,325.0,4.0476190476190474,0.3968253968253968,-321.8253968253968
-57.22222222222222,325.0,-325.0,-2.3015873015873014,325.0,-200.3968253968254,-103.4126984126984,-325.0,-262.9365079365079,-55.317460317460316,48.33333333333333,-325.0,-325.0,325.0,-325.0,325.0,-3.888888888888889,-109.76190476190476,-5.476190476190476,-2.619047619047619,325.0,4.0476190476190474,0.3968253968253968,-321.8253968253968
-59.44444444444444,325.0,-325.0,-2.46031746031746,325.0,-198.17460317460316,-102.14285714285714,-325.0,-259.76190476190476,-54.52380952380952,-0.07936507936507936,-325.0,-325.0,325.0,-325.0,325.0,-4.0476190476190474,-108.49206349206348,-5.476190476190476,1.507936507936508,325.0,-1.507936507936508,-5.0,-166.26984126984127
-59.44444444444444,325.0,-325.0,-2.46031746031746,325.0,-198.17460317460316,-102.14285714285714,-325.0,-259.76190476190476,-54.52380952380952,-0.07936507936507936,-325.0,-325.0,325.0,-325.0,325.0,-4.0476190476190474,-108.49206349206348,-5.476190476190476,1.507936507936508,325.0,-1.507936507936508,-5.0,-166.26984126984127
-60.873015873015866,286.4285714285714,-325.0,-2.46031746031746,325.0,-193.4126984126984,-99.6031746031746,-325.0,-253.09523809523807,-53.095238095238095,-45.63492063492063,-325.0,-325.0,325.0,-325.0,325.0,-3.73015873015873,-105.79365079365078,-5.158730158730158,23.095238095238095,325.0,4.523809523809524,3.888888888888889,-166.26984126984127
-60.873015873015866,286.4285714285714,-325.0,-2.46031746031746,325.0,-193.4126984126984,-99.6031746031746,-325.0,-253.09523809523807,-53.095238095238095,-45.63492063492063,-325.0,-325.0,325.0,-325.0,325.0,-3.73015873015873,-105.79365079365078,-5.158730158730158,23.095238095238095,325.0,4.523809523809524,3.888888888888889,-166.26984126984127
-59.76190476190476,325.0,-325.0,-2.619047619047619,325.0,-190.3968253968254,-98.01587301587301,-325.0,-249.28571428571428,-52.3015873015873,-45.0,-325.0,-325.0,325.0,-325.0,325.0,-3.73015873015873,-104.04761904761904,-5.317460317460317,95.95238095238095,325.0,-6.428571428571428,-5.476190476190476,-166.26984126984127
-59.76190476190476,325.0,-325.0,-2.619047619047619,325.0,-190.3968253968254,-98.01587301587301,-325.0,-249.28571428571428,-52.3015873015873,-45.0,-325.0,-325.0,325.0,-325.0,325.0,-3.73015873015873,-104.04761904761904,-5.317460317460317,95.95238095238095,325.0,-6.428571428571428,-5.476190476190476,-166.26984126984127
-58.96825396825397,232.3015873015873,-325.0,-2.46031746031746,325.0,-188.015873015873,-96.74603174603175,-325.0,-246.1111111111111,-51.666666666666664,-34.047619047619044,-325.0,-325.0,325.0,-325.0,325.0,-3.73015873015873,-102.77777777777777,-5.158730158730158,240.55555555555554,325.0,-0.07936507936507936,-0.23809523809523808,-166.26984126984127
-58.96825396825397,232.3015873015873,-325.0,-2.46031746031746,325.0,-188.015873015873,-96.74603174603175,-325.0,-246.1111111111111,-51.666666666666664,-34.047619047619044,-325.0,-325.0,325.0,-325.0,325.0,-3.73015873015873,-102.77777777777777,-5.158730158730158,240.55555555555554,325.0,-0.07936507936507936,-0.23809523809523808,-166.26984126984127
-57.857142857142854,325.0,-325.0,-2.619047619047619,325.0,-184.84126984126982,-95.0,-325.0,-241.98412698412696,-50.71428571428571,264.2063492063492,-325.0,-325.0,325.0,-325.0,325.0,-3.571428571428571,-100.39682539682539,-5.158730158730158,224.04761904761904,325.0,-4.2063492063492065,-0.3968253968253968,-166.26984126984127
-57.857142857142854,325.0,-325.0,-2.619047619047619,325.0,-184.84126984126982,-95.0,-325.0,-241.98412698412696,-50.71428571428571,264.2063492063492,-325.0,-325.0,325.0,-325.0,325.0,-3.571428571428571,-100.39682539682539,-5.158730158730158,224.04761904761904,325.0,-4.2063492063492065,-0.3968253968253968,-166.26984126984127
-55.317460317460316,305.3174603174603,-325.0,-2.619047619047619,325.0,-177.69841269841268,-91.34920634920634,-312.9365079365079,-232.46031746031744,-48.96825396825397,325.0,-325.0,-325.0,325.0,-325.0,325.0,-3.73015873015873,-97.53968253968253,-5.0,325.0,325.0,0.3968253968253968,-0.07936507936507936,-321.8253968253968
-55.317460317460316,305.3174603174603,-325.0,-2.619047619047619,325.0,-177.69841269841268,-91.34920634920634,-312.9365079365079,-232.46031746031744,-48.96825396825397,325.0,-325.0,-325.0,325.0,-325.0,325.0,-3.73015873015873,-97.53968253968253,-5.0,325.0,325.0,0.3968253968253968,-0.07936507936507936,-321.8253968253968
-54.36507936507936,305.3174603174603,-325.0,-2.619047619047619,325.0,-174.84126984126982,-89.76190476190476,-307.85714285714283,-228.65079365079364,-45.476190476190474,325.0,-325.0,-325.0,325.0,-325.0,325.0,-3.73015873015873,-87.6984126984127,-5.0,325.0,325.0,0.5555555555555556,-0.7142857142857142,-321.8253968253968
-54.36507936507936,305.3174603174603,-325.0,-2.619047619047619,325.0,-174.84126984126982,-89.76190476190476,-307.85714285714283,-228.65079365079364,-45.476190476190474,325.0,-325.0,-325.0,325.0,-325.0,325.0,-3.73015873015873,-87.6984126984127,-5.0,325.0,325.0,0.5555555555555556,-0.7142857142857142,-321.8253968253968
-49.44444444444444,290.7142857142857,-325.0,-2.619047619047619,325.0,-170.55555555555554,-87.6984126984127,-300.55555555555554,-222.93650793650792,-45.79365079365079,325.0,-323.73015873015873,-325.0,325.0,-325.0,325.0,-3.888888888888889,-92.46031746031746,-5.0,325.0,325.0,5.952380952380952,1.349206349206349,-321.8253968253968
-49.44444444444444,290.7142857142857,-325.0,-2.619047619047619,325.0,-170.55555555555554,-87.6984126984127,-300.55555555555554,-222.93650793650792,-45.79365079365079,325.0,-323.73015873015873,-325.0,325.0,-325.0,325.0,-3.888888888888889,-92.46031746031746,-5.0,325.0,325.0,5.952380952380952,1.349206349206349,-321.8253968253968
152.46031746031744,238.8095238095238,-151.66666666666666,-31.03174603174603,182.77777777777777,-126.9047619047619,76.58730158730158,-295.95238095238096,-66.74603174603175,-31.825396825396822,162.46031746031744,-308.015873015873,-152.3015873015873,325.0,-151.984126984127,325.0,159.12698412698413,-71.03174603174602,147.53968253968253,325.0,325.0,-5.634920634920634,161.8253968253968,-321.8253968253968
152.46031746031744,238.8095238095238,-151.66666666666666,-31.03174603174603,182.77777777777777,-126.9047619047619,76.58730158730158,-295.95238095238096,-66.74603174603175,-31.825396825396822,162.46031746031744,-308.015873015873,-152.3015873015873,325.0,-151.984126984127,325.0,159.12698412698413,-71.03174603174602,147.53968253968253,325.0,325.0,-5.634920634920634,161.8253968253968,-321.8253968253968
242.6190476190476,152.77777777777777,21.666666666666664,-59.285714285714285,40.55555555555555,-86.26984126984127,239.12698412698413,-295.95238095238096,85.63492063492063,-31.825396825396822,-0.07936507936507936,-297.85714285714283,20.396825396825395,325.0,20.71428571428571,325.0,321.66666666666663,-60.873015873015866,299.9206349206349,325.0,325.0,-5.634920634920634,324.36507936507934,-321.8253968253968
242.6190476190476,152.77777777777777,21.666666666666664,-59.285714285714285,40.55555555555555,-86.26984126984127,239.12698412698413,-295.95238095238096,85.63492063492063,-31.825396825396822,-0.07936507936507936,-297.85714285714283,20.396825396825395,325.0,20.71428571428571,325.0,321.66666666666663,-60.873015873015866,299.9206349206349,325.0,325.0,-5.634920634920634,324.36507936507934,-321.8253968253968
-50.87301587301587,325.0,-325.0,-2.7777777777777777,325.0,-150.7142857142857,-77.06349206349206,-266.4285714285714,-197.2222222222222,38.80952380952381,325.0,-285.7936507936508,-325.0,325.0,-292.3015873015873,325.0,-3.4126984126984126,-79.12698412698413,-4.841269841269841,325.0,325.0,-6.746031746031746,-9.761904761904761,-166.26984126984127
-50.87301587301587,325.0,-325.0,-2.7777777777777777,325.0,-150.7142857142857,-77.06349206349206,-266.4285714285714,-197.2222222222222,38.80952380952381,325.0,-285.7936507936508,-325.0,325.0,-292.3015873015873,325.0,-3.4126984126984126,-79.12698412698413,-4.841269841269841,325.0,325.0,-6.746031746031746,-9.761904761904761,-166.26984126984127
-49.76190476190476,278.015873015873,-325.0,68.4920634920635,325.0,-147.53968253968253,-75.47619047619047,-261.3492063492063,-193.09523809523807,7.222222222222221,325.0,-279.76190476190476,-325.0,325.0,-286.58730158730157,325.0,-3.4126984126984126,-85.63492063492063,-4.682539682539682,325.0,325.0,-0.3968253968253968,-3.73015873015873,-166.26984126984127
-49.76190476190476,278.015873015873,-325.0,68.4920634920635,325.0,-147.53968253968253,-75.47619047619047,-261.3492063492063,-193.09523809523807,7.222222222222221,325.0,-279.76190476190476,-325.0,325.0,-286.58730158730157,325.0,-3.4126984126984126,-85.63492063492063,-4.682539682539682,325.0,325.0,-0.3968253968253968,-3.73015873015873,-166.26984126984127
-45.95238095238095,278.015873015873,-325.0,150.23809523809524,325.0,-143.25396825396825,-73.09523809523809,-254.2063492063492,-187.38095238095238,43.095238095238095,325.0,-271.66666666666663,-325.0,325.0,-278.4920634920635,325.0,-3.4126984126984126,-91.5079365079365,-4.365079365079365,325.0,325.0,0.3968253968253968,-0.5555555555555556,-166.26984126984127
-45.95238095238095,278.015873015873,-325.0,150.23809523809524,325.0,-143.25396825396825,-73.09523809523809,-254.2063492063492,-187.38095238095238,43.095238095238095,325.0,-271.66666666666663,-325.0,325.0,-278.4920634920635,325.0,-3.4126984126984126,-91.5079365079365,-4.365079365079365,325.0,325.0,0.3968253968253968,-0.5555555555555556,-166.26984126984127
18.80952380952381,325.0,-325.0,311.3492063492063,325.0,-140.3968253968254,-71.82539682539682,-249.12698412698413,-183.57142857142856,46.904761904761905,325.0,-266.26984126984127,-325.0,325.0,-272.9365079365079,325.0,-3.571428571428571,-89.28571428571428,-4.523809523809524,325.0,325.0,0.07936507936507936,-3.888888888888889,-166.26984126984127
18.80952380952381,325.0,-325.0,311.3492063492063,325.0,-140.3968253968254,-71.82539682539682,-249.12698412698413,-183.57142857142856,46.904761904761905,325.0,-266.26984126984127,-325.0,325.0,-272.9365079365079,325.0,-3.571428571428571,-89.28571428571428,-4.523809523809524,325.0,325.0,0.07936507936507936,-3.888888888888889,-166.26984126984127
-18.174603174603174,325.0,-325.0,325.0,325.0,-138.8095238095238,-70.87301587301587,-246.26984126984127,-181.34920634920633,63.41269841269841,325.0,-262.9365079365079,-325.0,325.0,-269.6031746031746,325.0,-3.571428571428571,-88.17460317460316,-4.365079365079365,325.0,325.0,-0.3968253968253968,0.23809523809523808,-166.26984126984127
-18.174603174603174,325.0,-325.0,325.0,325.0,-138.8095238095238,-70.87301587301587,-246.26984126984127,-181.34920634920633,63.41269841269841,325.0,-262.9365079365079,-325.0,325.0,-269.6031746031746,325.0,-3.571428571428571,-88.17460317460316,-4.365079365079365,325.0,325.0,-0.3968253968253968,0.23809523809523808,-166.26984126984127
-47.53968253968254,325.0,-325.0,325.0,325.0,-135.95238095238093,-69.44444444444444,-241.34920634920633,-177.53968253968253,64.68253968253968,325.0,-257.38095238095235,-325.0,325.0,-264.04761904761904,325.0,-3.253968253968254,-86.26984126984127,-4.2063492063492065,325.0,325.0,0.23809523809523808,-3.73015873015873,-321.8253968253968
-47.53968253968254,325.0,-325.0,325.0,325.0,-135.95238095238093,-69.44444444444444,-241.34920634920633,-177.53968253968253,64.68253968253968,325.0,-257.38095238095235,-325.0,325.0,-264.04761904761904,325.0,-3.253968253968254,-86.26984126984127,-4.2063492063492065,325.0,325.0,0.23809523809523808,-3.73015873015873,-321.8253968253968
-46.74603174603175,325.0,-325.0,325.0,325.0,-135.3174603174603,-69.12698412698413,-240.55555555555554,-176.58730158730157,-12.619047619047619,325.0,-256.4285714285714,-325.0,325.0,-263.0952380952381,325.0,-3.095238095238095,-85.79365079365078,-4.2063492063492065,325.0,325.0,6.111111111111111,2.46031746031746,-321.8253968253968
-46.74603174603175,325.0,-325.0,325.0,325.0,-135.3174603174603,-69.12698412698413,-240.55555555555554,-176.58730158730157,-12.619047619047619,325.0,-256.4285714285714,-325.0,325.0,-263.0952380952381,325.0,-3.095238095238095,-85.79365079365078,-4.2063492063492065,325.0,325.0,6.111111111111111,2.46031746031746,-321.8253968253968
8.968253968253968,325.0,-323.0952380952381,325.0,325.0,-133.25396825396825,-68.17460317460318,-236.58730158730157,-173.88888888888889,-8.492063492063492,325.0,-252.14285714285714,-325.0,325.0,-258.8095238095238,325.0,-3.253968253968254,-84.36507936507937,-4.2063492063492065,325.0,325.0,6.26984126984127,2.46031746031746,-321.8253968253968
8.968253968253968,325.0,-323.0952380952381,325.0,325.0,-133.25396825396825,-68.17460317460318,-236.58730158730157,-173.88888888888889,-8.492063492063492,325.0,-252.14285714285714,-325.0,325.0,-258.8095238095238,325.0,-3.253968253968254,-84.36507936507937,-4.2063492063492065,325.0,325.0,6.26984126984127,2.46031746031746,-321.8253968253968
64.68253968253968,325.0,-321.19047619047615,325.0,325.0,-131.03174603174602,-67.22222222222221,-232.6190476190476,-171.03174603174602,-4.2063492063492065,325.0,-247.69841269841268,-325.0,325.0,-254.52380952380952,325.0,-3.4126984126984126,-82.93650793650794,-4.0476190476190474,325.0,325.0,6.428571428571428,2.46031746031746,-321.8253968253968
64.68253968253968,325.0,-321.19047619047615,325.0,325.0,-131.03174603174602,-67.22222222222221,-232.6190476190476,-171.03174603174602,-4.2063492063492065,325.0,-247.69841269841268,-325.0,325.0,-254.52380952380952,325.0,-3.4126984126984126,-82.93650793650794,-4.0476190476190474,325.0,325.0,6.428571428571428,2.46031746031746,-321.8253968253968
95.47619047619047,325.0,-310.55555555555554,325.0,325.0,-126.74603174603173,-64.68253968253968,-225.3174603174603,-165.47619047619045,88.4920634920635,325.0,-239.76190476190476,-325.0,325.0,-246.58730158730157,325.0,-3.253968253968254,-80.23809523809523,-4.0476190476190474,325.0,325.0,-0.5555555555555556,-1.0317460317460316,-321.8253968253968
95.47619047619047,325.0,-310.55555555555554,325.0,325.0,-126.74603174603173,-64.68253968253968,-225.3174603174603,-165.47619047619045,88.4920634920635,325.0,-239.76190476190476,-325.0,325.0,-246.58730158730157,325.0,-3.253968253968254,-80.23809523809523,-4.0476190476190474,325.0,325.0,-0.5555555555555556,-1.0317460317460316,-321.8253968253968
-13.73015873015873,325.0,-304.2063492063492,325.0,325.0,-124.2063492063492,-63.41269841269841,-220.87301587301587,-161.984126984127,245.3174603174603,325.0,-234.52380952380952,-321.19047619047615,325.0,-241.34920634920633,325.0,-3.095238095238095,-41.19047619047619,-4.0476190476190474,325.0,325.0,-6.428571428571428,-7.222222222222221,-166.26984126984127
-13.73015873015873,325.0,-304.2063492063492,325.0,325.0,-124.2063492063492,-63.41269841269841,-220.87301587301587,-161.984126984127,245.3174603174603,325.0,-234.52380952380952,-321.19047619047615,325.0,-241.34920634920633,325.0,-3.095238095238095,-41.19047619047619,-4.0476190476190474,325.0,325.0,-6.428571428571428,-7.222222222222221,-166.26984126984127
-35.476190476190474,325.0,-300.39682539682536,325.0,325.0,-122.6190476190476,-62.460317460317455,-218.17460317460316,-159.9206349206349,11.031746031746032,325.0,-231.66666666666666,-317.22222222222223,325.0,-238.49206349206347,325.0,-3.095238095238095,-71.98412698412697,-3.888888888888889,325.0,325.0,7.222222222222221,3.571428571428571,-166.26984126984127
-35.476190476190474,325.0,-300.39682539682536,325.0,325.0,-122.6190476190476,-62.460317460317455,-218.17460317460316,-159.9206349206349,11.031746031746032,325.0,-231.66666666666666,-317.22222222222223,325.0,-238.49206349206347,325.0,-3.095238095238095,-71.98412698412697,-3.888888888888889,325.0,325.0,7.222222222222221,3.571428571428571,-166.26984126984127
294.36507936507934,325.0,-291.66666666666663,325.0,325.0,-119.12698412698413,-60.873015873015866,-212.3015873015873,-155.47619047619048,144.52380952380952,325.0,-225.15873015873015,-308.015873015873,325.0,-231.98412698412696,325.0,-3.095238095238095,-11.825396825396824,-4.0476190476190474,325.0,325.0,1.1904761904761905,-2.7777777777777777,-166.26984126984127
294.36507936507934,325.0,-291.66666666666663,325.0,325.0,-119.12698412698413,-60.873015873015866,-212.3015873015873,-155.47619047619048,144.52380952380952,325.0,-225.15873015873015,-308.015873015873,325.0,-231.98412698412696,325.0,-3.095238095238095,-11.825396825396824,-4.0476190476190474,325.0,325.0,1.1904761904761905,-2.7777777777777777,-166.26984126984127
325.0,325.0,-290.39682539682536,325.0,325.0,-118.65079365079364,-60.55555555555555,-211.34920634920633,-155.0,15.793650793650793,325.0,-224.2063492063492,-306.58730158730157,325.0,-231.03174603174602,325.0,-3.095238095238095,-57.698412698412696,-4.0476190476190474,325.0,325.0,6.904761904761904,3.73015873015873,-166.26984126984127
325.0,325.0,-290.39682539682536,325.0,325.0,-118.65079365079364,-60.55555555555555,-211.34920634920633,-155.0,15.793650793650793,325.0,-224.2063492063492,-306.58730158730157,325.0,-231.03174603174602,325.0,-3.095238095238095,-57.698412698412696,-4.0476190476190474,325.0,325.0,6.904761904761904,3.73015873015873,-166.26984126984127
325.0,325.0,-282.3015873015873,325.0,325.0,-115.47619047619047,-58.8095238095238,-205.47619047619045,-150.23809523809524,162.46031746031744,325.0,-217.53968253968253,-298.015873015873,325.0,-224.52380952380952,325.0,-3.095238095238095,210.3968253968254,-4.0476190476190474,325.0,325.0,1.1904761904761905,-1.507936507936508,-166.26984126984127
325.0,325.0,-282.3015873015873,325.0,325.0,-115.47619047619047,-58.8095238095238,-205.47619047619045,-150.23809523809524,162.46031746031744,325.0,-217.53968253968253,-298.015873015873,325.0,-224.52380952380952,325.0,-3.095238095238095,210.3968253968254,-4.0476190476190474,325.0,325.0,1.1904761904761905,-1.507936507936508,-166.26984126984127
325.0,325.0,-281.031746031746,325.0,325.0,-114.84126984126983,-58.49206349206349,-204.68253968253967,-149.44444444444443,23.730158730158728,325.0,-216.58730158730157,-296.74603174603175,325.0,-223.4126984126984,325.0,-2.9365079365079363,95.95238095238095,-3.888888888888889,325.0,325.0,6.904761904761904,5.476190476190476,-321.8253968253968
325.0,325.0,-281.031746031746,325.0,325.0,-114.84126984126983,-58.49206349206349,-204.68253968253967,-149.44444444444443,23.730158730158728,325.0,-216.58730158730157,-296.74603174603175,325.0,-223.4126984126984,325.0,-2.9365079365079363,95.95238095238095,-3.888888888888889,325.0,325.0,6.904761904761904,5.476190476190476,-321.8253968253968
325.0,325.0,-273.0952380952381,325.0,325.0,-111.5079365079365,-56.74603174603174,-199.12698412698413,-145.3174603174603,181.19047619047618,325.0,-210.55555555555554,-288.015873015873,325.0,-217.38095238095238,324.68253968253964,-3.253968253968254,323.57142857142856,-3.888888888888889,325.0,325.0,1.8253968253968254,-2.142857142857143,-321.8253968253968
325.0,325.0,-273.0952380952381,325.0,325.0,-111.5079365079365,-56.74603174603174,-199.12698412698413,-145.3174603174603,181.19047619047618,325.0,-210.55555555555554,-288.015873015873,325.0,-217.38095238095238,324.68253968253964,-3.253968253968254,323.57142857142856,-3.888888888888889,325.0,325.0,1.8253968253968254,-2.142857142857143,-321.8253968253968
325.0,325.0,-271.66666666666663,325.0,325.0,-110.87301587301587,-56.58730158730158,-198.17460317460316,-144.68253968253967,37.38095238095238,325.0,-209.76190476190476,-286.58730158730157,325.0,-216.42857142857142,324.5238095238095,-3.095238095238095,322.3015873015873,-3.888888888888889,325.0,325.0,7.222222222222221,4.841269841269841,-321.8253968253968
325.0,325.0,-271.66666666666663,325.0,325.0,-110.87301587301587,-56.58730158730158,-198.17460317460316,-144.68253968253967,37.38095238095238,325.0,-209.76190476190476,-286.58730158730157,325.0,-216.42857142857142,324.5238095238095,-3.095238095238095,322.3015873015873,-3.888888888888889,325.0,325.0,7.222222222222221,4.841269841269841,-321.8253968253968
300.39682539682536,325.0,-263.88888888888886,325.0,325.0,-107.85714285714285,-55.0,-192.77777777777777,-140.55555555555554,184.36507936507937,325.0,-203.57142857142856,-278.4920634920635,325.0,-210.07936507936506,315.1587301587301,-3.571428571428571,278.968253968254,-3.888888888888889,325.0,325.0,1.984126984126984,-2.7777777777777777,-321.8253968253968
300.39682539682536,325.0,-263.88888888888886,325.0,325.0,-107.85714285714285,-55.0,-192.77777777777777,-140.55555555555554,184.36507936507937,325.0,-203.57142857142856,-278.4920634920635,325.0,-210.07936507936506,315.1587301587301,-3.571428571428571,278.968253968254,-3.888888888888889,325.0,325.0,1.984126984126984,-2.7777777777777777,-321.8253968253968
209.44444444444443,325.0,-260.39682539682536,325.0,325.0,-106.58730158730158,-54.36507936507936,-190.3968253968254,-138.65079365079364,184.36507936507937,325.0,-201.03174603174602,-275.0,325.0,-207.53968253968253,311.19047619047615,-3.571428571428571,278.968253968254,-3.73015873015873,325.0,325.0,0.23809523809523808,-0.5555555555555556,-321.8253968253968
209.44444444444443,325.0,-260.39682539682536,325.0,325.0,-106.58730158730158,-54.36507936507936,-190.3968253968254,-138.65079365079364,184.36507936507937,325.0,-201.03174603174602,-275.0,325.0,-207.53968253968253,311.19047619047615,-3.571428571428571,278.968253968254,-3.73015873015873,325.0,325.0,0.23809523809523808,-0.5555555555555556,-321.8253968253968
143.09523809523807,325.0,-258.17460317460313,325.0,325.0,-105.63492063492063,-54.047619047619044,-188.8095238095238,-137.53968253968253,325.0,325.0,-199.44444444444443,-272.6190476190476,325.0,-205.79365079365078,308.8095238095238,-3.4126984126984126,325.0,-3.571428571428571,325.0,325.0,-7.5396825396825395,-4.841269841269841,-166.26984126984127
143.09523809523807,325.0,-258.17460317460313,325.0,325.0,-105.63492063492063,-54.047619047619044,-188.8095238095238,-137.53968253968253,325.0,325.0,-199.44444444444443,-272.6190476190476,325.0,-205.79365079365078,308.8095238095238,-3.4126984126984126,325.0,-3.571428571428571,325.0,325.0,-7.5396825396825395,-4.841269841269841,-166.26984126984127
166.9047619047619,325.0,-246.42857142857142,325.0,324.36507936507934,-101.03174603174602,-51.666666666666664,-180.55555555555554,-131.34920634920636,191.66666666666666,325.0,-190.23809523809524,-260.39682539682536,322.77777777777777,-196.9047619047619,294.36507936507934,-2.3015873015873014,325.0,-2.3015873015873014,325.0,325.0,3.095238095238095,-2.142857142857143,-166.26984126984127
166.9047619047619,325.0,-246.42857142857142,325.0,324.36507936507934,-101.03174603174602,-51.666666666666664,-180.55555555555554,-131.34920634920636,191.66666666666666,325.0,-190.23809523809524,-260.39682539682536,322.77777777777777,-196.9047619047619,294.36507936507934,-2.3015873015873014,325.0,-2.3015873015873014,325.0,325.0,3.095238095238095,-2.142857142857143,-166.26984126984127
8.968253968253968,325.0,-245.3174603174603,325.0,323.88888888888886,-100.55555555555554,-51.34920634920635,-179.76190476190476,-130.87301587301587,58.49206349206349,325.0,-189.44444444444443,-259.1269841269841,321.3492063492063,-195.95238095238093,292.77777777777777,-5.317460317460317,325.0,-1.0317460317460316,325.0,325.0,8.492063492063492,4.523809523809524,-166.26984126984127
8.968253968253968,325.0,-245.3174603174603,325.0,323.88888888888886,-100.55555555555554,-51.34920634920635,-179.76190476190476,-130.87301587301587,58.49206349206349,325.0,-189.44444444444443,-259.1269841269841,321.3492063492063,-195.95238095238093,292.77777777777777,-5.317460317460317,325.0,-1.0317460317460316,325.0,325.0,8.492063492063492,4.523809523809524,-166.26984126984127
-157.53968253968253,321.8253968253968,-238.33333333333331,325.0,314.8412698412698,-97.6984126984127,-49.6031746031746,-174.84126984126982,-127.06349206349206,204.36507936507937,325.0,-183.7301587301587,-251.66666666666666,311.8253968253968,-190.3968253968254,285.1587301587301,-3.73015873015873,325.0,16.587301587301585,325.0,325.0,2.619047619047619,-1.1904761904761905,-166.26984126984127
-157.53968253968253,321.8253968253968,-238.33333333333331,325.0,314.8412698412698,-97.6984126984127,-49.6031746031746,-174.84126984126982,-127.06349206349206,204.36507936507937,325.0,-183.7301587301587,-251.66666666666666,311.8253968253968,-190.3968253968254,285.1587301587301,-3.73015873015873,325.0,16.587301587301585,325.0,325.0,2.619047619047619,-1.1904761904761905,-166.26984126984127
-155.0,318.6507936507936,-237.38095238095238,325.0,313.57142857142856,-97.38095238095238,-49.285714285714285,-174.2063492063492,-126.42857142857142,83.88888888888889,325.0,-182.93650793650792,-250.7142857142857,310.39682539682536,-189.60317460317458,283.88888888888886,-3.73015873015873,325.0,18.80952380952381,325.0,325.0,8.333333333333332,5.634920634920634,-166.26984126984127
-155.0,318.6507936507936,-237.38095238095238,325.0,313.57142857142856,-97.38095238095238,-49.285714285714285,-174.2063492063492,-126.42857142857142,83.88888888888889,325.0,-182.93650793650792,-250.7142857142857,310.39682539682536,-189.60317460317458,283.88888888888886,-3.73015873015873,325.0,18.80952380952381,325.0,325.0,8.333333333333332,5.634920634920634,-166.26984126984127
-5.7936507936507935,325.0,-229.44444444444443,325.0,303.4126984126984,-94.04761904761904,-48.01587301587301,-168.65079365079364,-122.46031746031746,245.0,325.0,-177.06349206349205,-242.14285714285714,299.76190476190476,-183.57142857142856,274.68253968253964,25.158730158730158,325.0,34.2063492063492,325.0,325.0,-0.23809523809523808,-0.23809523809523808,-321.8253968253968
-5.7936507936507935,325.0,-229.44444444444443,325.0,303.4126984126984,-94.04761904761904,-48.01587301587301,-168.65079365079364,-122.46031746031746,245.0,325.0,-177.06349206349205,-242.14285714285714,299.76190476190476,-183.57142857142856,274.68253968253964,25.158730158730158,325.0,34.2063492063492,325.0,325.0,-0.23809523809523808,-0.23809523809523808,-321.8253968253968
267.22222222222223,325.0,-224.84126984126982,325.0,297.38095238095235,-92.14285714285714,-46.904761904761905,-165.3174603174603,-119.76190476190476,325.0,325.0,-173.4126984126984,-237.38095238095238,293.4126984126984,-180.23809523809524,269.1269841269841,101.66666666666666,325.0,42.93650793650794,325.0,325.0,-6.111111111111111,-7.222222222222221,-321.8253968253968
267.22222222222223,325.0,-224.84126984126982,325.0,297.38095238095235,-92.14285714285714,-46.904761904761905,-165.3174603174603,-119.76190476190476,325.0,325.0,-173.4126984126984,-237.38095238095238,293.4126984126984,-180.23809523809524,269.1269841269841,101.66666666666666,325.0,42.93650793650794,325.0,325.0,-6.111111111111111,-7.222222222222221,-321.8253968253968
325.0,291.19047619047615,-221.98412698412696,325.0,293.88888888888886,-91.03174603174602,-46.269841269841265,-163.09523809523807,-118.33333333333333,122.30158730158729,325.0,-171.34920634920633,-234.04761904761904,289.4444444444444,-177.69841269841268,265.7936507936508,195.3174603174603,325.0,47.06349206349206,325.0,325.0,7.857142857142857,5.317460317460317,-321.8253968253968
325.0,291.19047619047615,-221.98412698412696,325.0,293.88888888888886,-91.03174603174602,-46.269841269841265,-163.09523809523807,-118.33333333333333,122.30158730158729,325.0,-171.34920634920633,-234.04761904761904,289.4444444444444,-177.69841269841268,265.7936507936508,195.3174603174603,325.0,47.06349206349206,325.0,325.0,7.857142857142857,5.317460317460317,-321.8253968253968
325.0,308.015873015873,-218.4920634920635,325.0,288.968253968254,-89.6031746031746,-45.476190476190474,-160.7142857142857,-116.42857142857142,124.68253968253967,325.0,-168.4920634920635,-230.3968253968254,284.5238095238095,-174.84126984126982,261.031746031746,252.77777777777777,325.0,54.2063492063492,325.0,325.0,8.333333333333332,5.317460317460317,-321.8253968253968
325.0,308.015873015873,-218.4920634920635,325.0,288.968253968254,-89.6031746031746,-45.476190476190474,-160.7142857142857,-116.42857142857142,124.68253968253967,325.0,-168.4920634920635,-230.3968253968254,284.5238095238095,-174.84126984126982,261.031746031746,252.77777777777777,325.0,54.2063492063492,325.0,325.0,8.333333333333332,5.317460317460317,-321.8253968253968
325.0,325.0,-214.84126984126982,325.0,284.2063492063492,-88.17460317460316,-44.68253968253968,-158.17460317460316,-114.36507936507935,127.22222222222221,325.0,-165.47619047619045,-226.58730158730157,279.76190476190476,-171.984126984127,256.26984126984127,310.23809523809524,325.0,61.34920634920635,325.0,325.0,8.809523809523808,5.317460317460317,-321.8253968253968
325.0,325.0,-214.84126984126982,325.0,284.2063492063492,-88.17460317460316,-44.68253968253968,-158.17460317460316,-114.36507936507935,127.22222222222221,325.0,-165.47619047619045,-226.58730158730157,279.76190476190476,-171.984126984127,256.26984126984127,310.23809523809524,325.0,61.34920634920635,325.0,325.0,8.809523809523808,5.317460317460317,-321.8253968253968
322.3015873015873,325.0,-208.33333333333331,325.0,276.26984126984127,-85.47619047619047,-43.73015873015873,-153.73015873015873,-111.19047619047619,238.49206349206347,325.0,-161.03174603174602,-219.9206349206349,271.3492063492063,-167.2222222222222,249.76190476190476,325.0,252.77777777777777,71.82539682539682,325.0,325.0,2.7777777777777777,-0.7142857142857142,-166.26984126984127
322.3015873015873,325.0,-208.33333333333331,325.0,276.26984126984127,-85.47619047619047,-43.73015873015873,-153.73015873015873,-111.19047619047619,238.49206349206347,325.0,-161.03174603174602,-219.9206349206349,271.3492063492063,-167.2222222222222,249.76190476190476,325.0,252.77777777777777,71.82539682539682,325.0,325.0,2.7777777777777777,-0.7142857142857142,-166.26984126984127
322.3015873015873,325.0,-205.63492063492063,325.0,272.9365079365079,-84.36507936507937,-43.25396825396825,-151.984126984127,-109.76190476190476,238.49206349206347,325.0,-158.96825396825395,-217.06349206349205,267.85714285714283,-165.15873015873015,246.58730158730157,325.0,252.77777777777777,76.9047619047619,325.0,325.0,-0.23809523809523808,-0.3968253968253968,-166.26984126984127
322.3015873015873,325.0,-205.63492063492063,325.0,272.9365079365079,-84.36507936507937,-43.25396825396825,-151.984126984127,-109.76190476190476,238.49206349206347,325.0,-158.96825396825395,-217.06349206349205,267.85714285714283,-165.15873015873015,246.58730158730157,325.0,252.77777777777777,76.9047619047619,325.0,325.0,-0.23809523809523808,-0.3968253968253968,-166.26984126984127
325.0,325.0,-202.14285714285714,325.0,268.6507936507936,-83.09523809523809,-42.77777777777778,-149.44444444444443,-108.01587301587301,325.0,325.0,-156.42857142857142,-213.4126984126984,263.25396825396825,-162.46031746031744,242.77777777777777,325.0,325.0,82.61904761904762,325.0,325.0,-1.6666666666666665,-7.857142857142857,-166.26984126984127
325.0,325.0,-202.14285714285714,325.0,268.6507936507936,-83.09523809523809,-42.77777777777778,-149.44444444444443,-108.01587301587301,325.0,325.0,-156.42857142857142,-213.4126984126984,263.25396825396825,-162.46031746031744,242.77777777777777,325.0,325.0,82.61904761904762,325.0,325.0,-1.6666666666666665,-7.857142857142857,-166.26984126984127
325.0,325.0,-196.42857142857142,325.0,261.1904761904762,-81.03174603174602,-41.507936507936506,-145.15873015873015,-104.84126984126983,325.0,325.0,-151.66666666666666,-207.06349206349205,255.3174603174603,-157.85714285714286,235.47619047619045,325.0,325.0,92.30158730158729,325.0,325.0,-4.841269841269841,-7.857142857142857,-166.26984126984127
325.0,325.0,-196.42857142857142,325.0,261.1904761904762,-81.03174603174602,-41.507936507936506,-145.15873015873015,-104.84126984126983,325.0,325.0,-151.66666666666666,-207.06349206349205,255.3174603174603,-157.85714285714286,235.47619047619045,325.0,325.0,92.30158730158729,325.0,325.0,-4.841269841269841,-7.857142857142857,-166.26984126984127
325.0,325.0,-193.25396825396825,325.0,256.90476190476187,-79.92063492063491,25.0,-142.93650793650792,-103.09523809523809,325.0,325.0,-149.12698412698413,-203.7301587301587,251.03174603174602,-155.3174603174603,231.5079365079365,325.0,325.0,97.22222222222221,325.0,325.0,-4.2063492063492065,-7.063492063492063,-166.26984126984127
325.0,325.0,-193.25396825396825,325.0,256.90476190476187,-79.92063492063491,25.0,-142.93650793650792,-103.09523809523809,325.0,325.0,-149.12698412698413,-203.7301587301587,251.03174603174602,-155.3174603174603,231.5079365079365,325.0,325.0,97.22222222222221,325.0,325.0,-4.2063492063492065,-7.063492063492063,-166.26984126984127
325.0,325.0,-188.33333333333331,325.0,250.3968253968254,-77.53968253968253,21.507936507936506,-139.44444444444443,-100.55555555555554,261.8253968253968,325.0,-145.47619047619048,-198.4920634920635,244.52380952380952,-151.34920634920633,225.79365079365078,325.0,296.4285714285714,104.36507936507935,325.0,325.0,2.9365079365079363,-0.873015873015873,-321.8253968253968
325.0,325.0,-188.33333333333331,325.0,250.3968253968254,-77.53968253968253,21.507936507936506,-139.44444444444443,-100.55555555555554,261.8253968253968,325.0,-145.47619047619048,-198.4920634920635,244.52380952380952,-151.34920634920633,225.79365079365078,325.0,296.4285714285714,104.36507936507935,325.0,325.0,2.9365079365079363,-0.873015873015873,-321.8253968253968
325.0,325.0,-187.38095238095238,325.0,249.60317460317458,-77.06349206349206,-25.952380952380953,-138.8095238095238,-100.07936507936508,198.65079365079364,325.0,-144.52380952380952,-197.53968253968253,243.4126984126984,-150.55555555555554,224.84126984126982,325.0,267.85714285714283,105.63492063492063,325.0,325.0,7.698412698412698,5.317460317460317,-321.8253968253968
325.0,325.0,-187.38095238095238,325.0,249.60317460317458,-77.06349206349206,-25.952380952380953,-138.8095238095238,-100.07936507936508,198.65079365079364,325.0,-144.52380952380952,-197.53968253968253,243.4126984126984,-150.55555555555554,224.84126984126982,325.0,267.85714285714283,105.63492063492063,325.0,325.0,7.698412698412698,5.317460317460317,-321.8253968253968
325.0,325.0,-184.36507936507937,325.0,245.47619047619045,-75.95238095238095,-34.047619047619044,-136.58730158730157,-98.33333333333333,198.015873015873,325.0,-142.14285714285714,-194.36507936507937,239.28571428571428,-148.17460317460316,221.03174603174602,325.0,185.79365079365078,110.87301587301587,325.0,324.36507936507934,8.015873015873016,5.7936507936507935,-321.8253968253968
325.0,325.0,-184.36507936507937,325.0,245.47619047619045,-75.95238095238095,-34.047619047619044,-136.58730158730157,-98.33333333333333,198.015873015873,325.0,-142.14285714285714,-194.36507936507937,239.28571428571428,-148.17460317460316,221.03174603174602,325.0,185.79365079365078,110.87301587301587,325.0,324.36507936507934,8.015873015873016,5.7936507936507935,-321.8253968253968
325.0,325.0,-178.33333333333331,325.0,237.53968253968253,-73.4126984126984,13.412698412698411,-132.3015873015873,-95.15873015873015,320.87301587301585,325.0,-137.53968253968253,-188.015873015873,231.03174603174602,-143.73015873015873,213.88888888888889,325.0,293.25396825396825,120.55555555555554,325.0,318.17460317460313,0.07936507936507936,-1.0317460317460316,-321.8253968253968
325.0,325.0,-178.33333333333331,325.0,237.53968253968253,-73.4126984126984,13.412698412698411,-132.3015873015873,-95.15873015873015,320.87301587301585,325.0,-137.53968253968253,-188.015873015873,231.03174603174602,-143.73015873015873,213.88888888888889,325.0,293.25396825396825,120.55555555555554,325.0,318.17460317460313,0.07936507936507936,-1.0317460317460316,-321.8253968253968
325.0,325.0,-173.73015873015873,325.0,231.8253968253968,-71.5079365079365,-50.55555555555555,-128.96825396825395,-92.77777777777777,319.6031746031746,325.0,-134.04761904761904,-183.09523809523807,224.84126984126982,-139.9206349206349,208.17460317460316,325.0,325.0,126.26984126984127,325.0,309.9206349206349,0.5555555555555556,5.634920634920634,-321.8253968253968
325.0,325.0,-173.73015873015873,325.0,231.8253968253968,-71.5079365079365,-50.55555555555555,-128.96825396825395,-92.77777777777777,319.6031746031746,325.0,-134.04761904761904,-183.09523809523807,224.84126984126982,-139.9206349206349,208.17460317460316,325.0,325.0,126.26984126984127,325.0,309.9206349206349,0.5555555555555556,5.634920634920634,-321.8253968253968
178.65079365079364,119.6031746031746,35.0,261.5079365079365,215.47619047619045,45.15873015873016,167.85714285714286,93.73015873015872,12.3015873015873,97.38095238095238,222.77777777777777,-15.793650793650793,58.17460317460317,268.015873015873,32.61904761904762,193.4126984126984,274.36507936507934,315.4761904761905,117.6984126984127,31.03174603174603,168.33333333333331,-112.77777777777777,155.79365079365078,-166.26984126984127
178.65079365079364,119.6031746031746,35.0,261.5079365079365,215.47619047619045,45.15873015873016,167.85714285714286,93.73015873015872,12.3015873015873,97.38095238095238,222.77777777777777,-15.793650793650793,58.17460317460317,268.015873015873,32.61904761904762,193.4126984126984,274.36507936507934,315.4761904761905,117.6984126984127,31.03174603174603,168.33333333333331,-112.77777777777777,155.79365079365078,-166.26984126984127
178.65079365079364,119.6031746031746,39.285714285714285,261.5079365079365,209.9206349206349,46.904761904761905,227.53968253968253,96.9047619047619,14.523809523809524,97.38095238095238,222.77777777777777,-12.46031746031746,62.61904761904761,262.3015873015873,36.11111111111111,188.17460317460316,274.36507936507934,51.82539682539682,123.4126984126984,26.428571428571427,160.7142857142857,-112.14285714285714,161.5079365079365,-166.26984126984127
178.65079365079364,119.6031746031746,39.285714285714285,261.5079365079365,209.9206349206349,46.904761904761905,227.53968253968253,96.9047619047619,14.523809523809524,97.38095238095238,222.77777777777777,-12.46031746031746,62.61904761904761,262.3015873015873,36.11111111111111,188.17460317460316,274.36507936507934,51.82539682539682,123.4126984126984,26.428571428571427,160.7142857142857,-112.14285714285714,161.5079365079365,-166.26984126984127
325.0,325.0,-160.23809523809524,325.0,214.36507936507937,-66.26984126984127,294.68253968253964,-119.6031746031746,-85.63492063492063,325.0,325.0,-123.73015873015872,-169.12698412698413,207.06349206349205,-129.6031746031746,192.77777777777777,325.0,-77.85714285714285,142.77777777777777,312.1428571428571,285.6349206349206,-3.73015873015873,-8.174603174603174,-166.26984126984127
325.0,325.0,-160.23809523809524,325.0,214.36507936507937,-66.26984126984127,294.68253968253964,-119.6031746031746,-85.63492063492063,325.0,325.0,-123.73015873015872,-169.12698412698413,207.06349206349205,-129.6031746031746,192.77777777777777,325.0,-77.85714285714285,142.77777777777777,312.1428571428571,285.6349206349206,-3.73015873015873,-8.174603174603174,-166.26984126984127
325.0,325.0,-157.53968253968253,325.0,210.87301587301587,-65.0,61.507936507936506,-117.53968253968253,-84.04761904761904,258.968253968254,325.0,-121.5079365079365,-166.11111111111111,203.4126984126984,-127.22222222222221,186.42857142857142,325.0,-182.93650793650792,146.11111111111111,307.06349206349205,280.87301587301585,3.888888888888889,6.428571428571428,-166.26984126984127
325.0,325.0,-157.53968253968253,325.0,210.87301587301587,-65.0,61.507936507936506,-117.53968253968253,-84.04761904761904,258.968253968254,325.0,-121.5079365079365,-166.11111111111111,203.4126984126984,-127.22222222222221,186.42857142857142,325.0,-182.93650793650792,146.11111111111111,307.06349206349205,280.87301587301585,3.888888888888889,6.428571428571428,-166.26984126984127
325.0,325.0,-156.74603174603175,325.0,209.9206349206349,-64.84126984126983,91.34920634920634,-116.9047619047619,-83.57142857142857,325.0,325.0,-121.03174603174602,-165.3174603174603,202.46031746031744,-126.58730158730158,187.06349206349205,325.0,-40.87301587301587,147.69841269841268,305.7936507936508,279.6031746031746,0.07936507936507936,5.476190476190476,-166.26984126984127
325.0,325.0,-156.74603174603175,325.0,209.9206349206349,-64.84126984126983,91.34920634920634,-116.9047619047619,-83.57142857142857,325.0,325.0,-121.03174603174602,-165.3174603174603,202.46031746031744,-126.58730158730158,187.06349206349205,325.0,-40.87301587301587,147.69841269841268,305.7936507936508,279.6031746031746,0.07936507936507936,5.476190476190476,-166.26984126984127
325.0,310.23809523809524,-152.3015873015873,325.0,204.04761904761904,-62.93650793650793,-39.285714285714285,-113.73015873015872,-81.19047619047619,254.36507936507934,325.0,-117.38095238095238,-160.7142857142857,196.42857142857142,-123.09523809523809,180.23809523809524,325.0,20.873015873015873,152.46031746031744,297.06349206349205,271.19047619047615,4.523809523809524,5.7936507936507935,-321.8253968253968
325.0,310.23809523809524,-152.3015873015873,325.0,204.04761904761904,-62.93650793650793,-39.285714285714285,-113.73015873015872,-81.19047619047619,254.36507936507934,325.0,-117.38095238095238,-160.7142857142857,196.42857142857142,-123.09523809523809,180.23809523809524,325.0,20.873015873015873,152.46031746031744,297.06349206349205,271.19047619047615,4.523809523809524,5.7936507936507935,-321.8253968253968
325.0,325.0,-150.23809523809524,325.0,201.66666666666666,-61.98412698412698,-5.634920634920634,-112.30158730158729,-80.39682539682539,325.0,325.0,-116.26984126984127,-158.33333333333331,193.88888888888889,-121.66666666666666,181.19047619047618,325.0,296.1111111111111,154.52380952380952,293.57142857142856,268.015873015873,-8.968253968253968,-8.65079365079365,-321.8253968253968
325.0,325.0,-150.23809523809524,325.0,201.66666666666666,-61.98412698412698,-5.634920634920634,-112.30158730158729,-80.39682539682539,325.0,325.0,-116.26984126984127,-158.33333333333331,193.88888888888889,-121.66666666666666,181.19047619047618,325.0,296.1111111111111,154.52380952380952,293.57142857142856,268.015873015873,-8.968253968253968,-8.65079365079365,-321.8253968253968
-240.3968253968254,288.17460317460313,-146.9047619047619,325.0,197.38095238095238,-60.71428571428571,-59.92063492063492,-110.07936507936508,-78.65079365079364,264.8412698412698,325.0,-113.73015873015872,-155.0,189.76190476190476,-119.12698412698413,175.63492063492063,325.0,66.74603174603175,187.69841269841268,287.22222222222223,262.3015873015873,3.73015873015873,5.952380952380952,-321.8253968253968
-240.3968253968254,288.17460317460313,-146.9047619047619,325.0,197.38095238095238,-60.71428571428571,-59.92063492063492,-110.07936507936508,-78.65079365079364,264.8412698412698,325.0,-113.73015873015872,-155.0,189.76190476190476,-119.12698412698413,175.63492063492063,325.0,66.74603174603175,187.69841269841268,287.22222222222223,262.3015873015873,3.73015873015873,5.952380952380952,-321.8253968253968
-278.968253968254,309.9206349206349,-143.25396825396825,325.0,192.46031746031744,-59.285714285714285,-58.01587301587301,-107.53968253968253,-76.58730158730158,265.6349206349206,324.04761904761904,-110.71428571428571,-151.19047619047618,184.84126984126982,-116.1111111111111,171.66666666666666,325.0,-140.3968253968254,218.4920634920635,280.23809523809524,255.47619047619045,3.095238095238095,0.5555555555555556,-321.8253968253968
-278.968253968254,309.9206349206349,-143.25396825396825,325.0,192.46031746031744,-59.285714285714285,-58.01587301587301,-107.53968253968253,-76.58730158730158,265.6349206349206,324.04761904761904,-110.71428571428571,-151.19047619047618,184.84126984126982,-116.1111111111111,171.66666666666666,325.0,-140.3968253968254,218.4920634920635,280.23809523809524,255.47619047619045,3.095238095238095,0.5555555555555556,-321.8253968253968
-278.8095238095238,308.3333333333333,-140.7142857142857,325.0,189.28571428571428,-58.17460317460317,-56.74603174603174,-105.79365079365078,-75.31746031746032,325.0,318.968253968254,-108.65079365079364,-148.4920634920635,181.5079365079365,-114.2063492063492,169.60317460317458,325.0,-28.015873015873016,232.3015873015873,275.7936507936508,250.87301587301585,-4.523809523809524,-3.253968253968254,-321.8253968253968
-278.8095238095238,308.3333333333333,-140.7142857142857,325.0,189.28571428571428,-58.17460317460317,-56.74603174603174,-105.79365079365078,-75.31746031746032,325.0,318.968253968254,-108.65079365079364,-148.4920634920635,181.5079365079365,-114.2063492063492,169.60317460317458,325.0,-28.015873015873016,232.3015873015873,275.7936507936508,250.87301587301585,-4.523809523809524,-3.253968253968254,-321.8253968253968
-21.984126984126984,303.57142857142856,-137.38095238095238,325.0,184.84126984126982,-57.06349206349206,-52.77777777777777,-103.25396825396825,-73.4126984126984,325.0,311.19047619047615,-106.1111111111111,-145.0,176.9047619047619,-111.5079365079365,165.79365079365078,325.0,178.4920634920635,216.74603174603175,269.1269841269841,244.52380952380952,-4.0476190476190474,-8.174603174603174,-166.26984126984127
-21.984126984126984,303.57142857142856,-137.38095238095238,325.0,184.84126984126982,-57.06349206349206,-52.77777777777777,-103.25396825396825,-73.4126984126984,325.0,311.19047619047615,-106.1111111111111,-145.0,176.9047619047619,-111.5079365079365,165.79365079365078,325.0,178.4920634920635,216.74603174603175,269.1269841269841,244.52380952380952,-4.0476190476190474,-8.174603174603174,-166.26984126984127
241.5079365079365,285.3174603174603,-132.77777777777777,325.0,178.8095238095238,-55.15873015873016,20.71428571428571,-99.92063492063491,-71.03174603174602,242.6190476190476,301.19047619047615,-102.77777777777777,-139.9206349206349,170.7142857142857,-107.85714285714285,152.46031746031744,325.0,62.14285714285714,325.0,260.07936507936506,236.1111111111111,3.095238095238095,5.7936507936507935,-166.26984126984127
241.5079365079365,285.3174603174603,-132.77777777777777,325.0,178.8095238095238,-55.15873015873016,20.71428571428571,-99.92063492063491,-71.03174603174602,242.6190476190476,301.19047619047615,-102.77777777777777,-139.9206349206349,170.7142857142857,-107.85714285714285,152.46031746031744,325.0,62.14285714285714,325.0,260.07936507936506,236.1111111111111,3.095238095238095,5.7936507936507935,-166.26984126984127
325.0,288.6507936507936,-130.7142857142857,325.0,175.79365079365078,-54.52380952380952,228.8095238095238,-98.65079365079364,-69.92063492063491,325.0,296.1111111111111,-100.87301587301587,-137.69841269841268,167.69841269841268,-106.26984126984127,157.69841269841268,325.0,320.87301587301585,278.6507936507936,255.95238095238093,232.14285714285714,-4.682539682539682,-7.698412698412698,-166.26984126984127
325.0,288.6507936507936,-130.7142857142857,325.0,175.79365079365078,-54.52380952380952,228.8095238095238,-98.65079365079364,-69.92063492063491,325.0,296.1111111111111,-100.87301587301587,-137.69841269841268,167.69841269841268,-106.26984126984127,157.69841269841268,325.0,320.87301587301585,278.6507936507936,255.95238095238093,232.14285714285714,-4.682539682539682,-7.698412698412698,-166.26984126984127
276.58730158730157,284.04761904761904,-128.33333333333331,325.0,172.77777777777777,-53.25396825396825,-51.666666666666664,-96.74603174603175,-68.80952380952381,247.85714285714283,291.3492063492063,-99.28571428571428,-135.15873015873015,164.68253968253967,-104.36507936507935,146.9047619047619,325.0,251.66666666666666,325.0,251.66666666666666,228.17460317460316,2.7777777777777777,5.317460317460317,-166.26984126984127
276.58730158730157,284.04761904761904,-128.33333333333331,325.0,172.77777777777777,-53.25396825396825,-51.666666666666664,-96.74603174603175,-68.80952380952381,247.85714285714283,291.3492063492063,-99.28571428571428,-135.15873015873015,164.68253968253967,-104.36507936507935,146.9047619047619,325.0,251.66666666666666,325.0,251.66666666666666,228.17460317460316,2.7777777777777777,5.317460317460317,-166.26984126984127
325.0,279.1269841269841,-126.26984126984127,324.36507936507934,169.9206349206349,-52.460317460317455,287.85714285714283,-95.47619047619047,-67.53968253968253,325.0,286.74603174603175,-97.53968253968253,-133.25396825396825,161.8253968253968,-102.77777777777777,152.61904761904762,325.0,325.0,307.22222222222223,247.38095238095238,224.2063492063492,-3.253968253968254,-8.333333333333332,-166.26984126984127
325.0,279.1269841269841,-126.26984126984127,324.36507936507934,169.9206349206349,-52.460317460317455,287.85714285714283,-95.47619047619047,-67.53968253968253,325.0,286.74603174603175,-97.53968253968253,-133.25396825396825,161.8253968253968,-102.77777777777777,152.61904761904762,325.0,325.0,307.22222222222223,247.38095238095238,224.2063492063492,-3.253968253968254,-8.333333333333332,-166.26984126984127
325.0,252.3015873015873,-124.04761904761904,320.07936507936506,167.2222222222222,-51.666666666666664,114.04761904761904,-93.88888888888889,-66.42857142857143,256.1111111111111,281.984126984127,-95.95238095238095,-130.7142857142857,159.12698412698413,-101.19047619047619,143.09523809523807,325.0,325.0,325.0,243.4126984126984,220.3968253968254,2.7777777777777777,5.158730158730158,-321.8253968253968
325.0,252.3015873015873,-124.04761904761904,320.07936507936506,167.2222222222222,-51.666666666666664,114.04761904761904,-93.88888888888889,-66.42857142857143,256.1111111111111,281.984126984127,-95.95238095238095,-130.7142857142857,159.12698412698413,-101.19047619047619,143.09523809523807,325.0,325.0,325.0,243.4126984126984,220.3968253968254,2.7777777777777777,5.158730158730158,-321.8253968253968
325.0,256.58730158730157,-121.03174603174602,311.984126984127,163.09523809523807,-50.55555555555555,220.3968253968254,-91.66666666666666,-64.84126984126983,246.9047619047619,275.0,-93.57142857142857,-127.22222222222221,154.84126984126982,-98.65079365079364,136.42857142857142,325.0,325.0,325.0,237.53968253968253,214.68253968253967,4.682539682539682,1.349206349206349,-321.8253968253968
325.0,256.58730158730157,-121.03174603174602,311.984126984127,163.09523809523807,-50.55555555555555,220.3968253968254,-91.66666666666666,-64.84126984126983,246.9047619047619,275.0,-93.57142857142857,-127.22222222222221,154.84126984126982,-98.65079365079364,136.42857142857142,325.0,325.0,325.0,237.53968253968253,214.68253968253967,4.682539682539682,1.349206349206349,-321.8253968253968
325.0,256.4285714285714,-119.28571428571428,307.85714285714283,161.03174603174602,-49.76190476190476,325.0,-90.39682539682539,-64.04761904761905,325.0,271.8253968253968,-92.61904761904762,-125.79365079365078,152.93650793650792,-97.38095238095238,139.12698412698413,325.0,325.0,325.0,234.36507936507934,211.98412698412696,-3.4126984126984126,1.8253968253968254,-321.8253968253968
325.0,256.4285714285714,-119.28571428571428,307.85714285714283,161.03174603174602,-49.76190476190476,325.0,-90.39682539682539,-64.04761904761905,325.0,271.8253968253968,-92.61904761904762,-125.79365079365078,152.93650793650792,-97.38095238095238,139.12698412698413,325.0,325.0,325.0,234.36507936507934,211.98412698412696,-3.4126984126984126,1.8253968253968254,-321.8253968253968
