Fp1[1],Fp2[2],F3[3],F4[4],C3[5],C4[6],P3[7],P4[8],O1[9],O2[10],F7[11],F8[12],T3[13],T4[14],T5[15],T6[16],Fz[17],Pz[18],Cz[19],Pg1[20],Pg2[21],EOGR[22],EOOGL[23],EMG[24]
8.174603174603174,0.23809523809523808,6.746031746031746,0.23809523809523808,5.158730158730158,0.5555555555555556,7.063492063492063,-1.0317460317460316,6.26984126984127,2.142857142857143,7.857142857142857,-0.07936507936507936,4.841269841269841,-0.7142857142857142,6.904761904761904,1.0317460317460316,-4.365079365079365,0.873015873015873,-325.0,-325.0,-325.0,-325.0,-325.0,-7.5396825396825395
8.174603174603174,0.23809523809523808,6.746031746031746,0.23809523809523808,5.158730158730158,0.5555555555555556,7.063492063492063,-1.0317460317460316,6.26984126984127,2.142857142857143,7.857142857142857,-0.07936507936507936,4.841269841269841,-0.7142857142857142,6.904761904761904,1.0317460317460316,-4.365079365079365,0.873015873015873,-325.0,-325.0,-325.0,-325.0,-325.0,-7.5396825396825395
-1.1904761904761905,1.0317460317460316,-1.984126984126984,3.253968253968254,-0.23809523809523808,1.349206349206349,-1.1904761904761905,4.2063492063492065,0.07936507936507936,4.2063492063492065,1.1904761904761905,2.46031746031746,-0.7142857142857142,2.9365079365079363,0.23809523809523808,2.619047619047619,-3.095238095238095,0.7142857142857142,-325.0,-325.0,-325.0,-325.0,-325.0,-7.5396825396825395
-1.1904761904761905,1.0317460317460316,-1.984126984126984,3.253968253968254,-0.23809523809523808,1.349206349206349,-1.1904761904761905,4.2063492063492065,0.07936507936507936,4.2063492063492065,1.1904761904761905,2.46031746031746,-0.7142857142857142,2.9365079365079363,0.23809523809523808,2.619047619047619,-3.095238095238095,0.7142857142857142,-325.0,-325.0,-325.0,-325.0,-325.0,-7.5396825396825395
-1.984126984126984,1.6666666666666665,-0.873015873015873,3.4126984126984126,-0.3968253968253968,2.46031746031746,-1.349206349206349,0.23809523809523808,0.5555555555555556,0.3968253968253968,1.6666666666666665,1.6666666666666665,0.23809523809523808,-1.349206349206349,0.5555555555555556,0.07936507936507936,-3.4126984126984126,0.873015873015873,-325.0,-325.0,-325.0,-325.0,-325.0,-7.5396825396825395
-1.984126984126984,1.6666666666666665,-0.873015873015873,3.4126984126984126,-0.3968253968253968,2.46031746031746,-1.349206349206349,0.23809523809523808,0.5555555555555556,0.3968253968253968,1.6666666666666665,1.6666666666666665,0.23809523809523808,-1.349206349206349,0.5555555555555556,0.07936507936507936,-3.4126984126984126,0.873015873015873,-325.0,-325.0,-325.0,-325.0,-325.0,-7.5396825396825395
-1.0317460317460316,2.46031746031746,-1.507936507936508,2.619047619047619,-1.8253968253968254,3.888888888888889,-0.873015873015873,0.07936507936507936,0.23809523809523808,0.3968253968253968,1.8253968253968254,2.9365079365079363,-0.873015873015873,-1.0317460317460316,1.984126984126984,1.0317460317460316,-2.46031746031746,0.7142857142857142,-325.0,-325.0,-325.0,-325.0,-325.0,-7.5396825396825395
-1.0317460317460316,2.46031746031746,-1.507936507936508,2.619047619047619,-1.8253968253968254,3.888888888888889,-0.873015873015873,0.07936507936507936,0.23809523809523808,0.3968253968253968,1.8253968253968254,2.9365079365079363,-0.873015873015873,-1.0317460317460316,1.984126984126984,1.0317460317460316,-2.46031746031746,0.7142857142857142,-325.0,-325.0,-325.0,-325.0,-325.0,-7.5396825396825395
-0.873015873015873,-1.1904761904761905,0.873015873015873,-1.507936507936508,2.9365079365079363,-1.507936507936508,2.619047619047619,-1.349206349206349,3.253968253968254,-2.619047619047619,2.7777777777777777,0.7142857142857142,2.3015873015873014,-4.0476190476190474,4.523809523809524,0.3968253968253968,-3.73015873015873,0.7142857142857142,-325.0,-325.0,-325.0,-325.0,-325.0,-7.5396825396825395
-0.873015873015873,-1.1904761904761905,0.873015873015873,-1.507936507936508,2.9365079365079363,-1.507936507936508,2.619047619047619,-1.349206349206349,3.253968253968254,-2.619047619047619,2.7777777777777777,0.7142857142857142,2.3015873015873014,-4.0476190476190474,4.523809523809524,0.3968253968253968,-3.73015873015873,0.7142857142857142,-325.0,-325.0,-325.0,-325.0,-325.0,-7.5396825396825395
0.23809523809523808,0.07936507936507936,2.142857142857143,1.1904761904761905,2.619047619047619,0.7142857142857142,1.8253968253968254,-1.0317460317460316,2.3015873015873014,1.1904761904761905,3.4126984126984126,1.8253968253968254,3.095238095238095,-0.3968253968253968,4.682539682539682,-3.095238095238095,-3.73015873015873,1.0317460317460316,-325.0,-325.0,-325.0,-325.0,-325.0,-321.8253968253968
0.23809523809523808,0.07936507936507936,2.142857142857143,1.1904761904761905,2.619047619047619,0.7142857142857142,1.8253968253968254,-1.0317460317460316,2.3015873015873014,1.1904761904761905,3.4126984126984126,1.8253968253968254,3.095238095238095,-0.3968253968253968,4.682539682539682,-3.095238095238095,-3.73015873015873,1.0317460317460316,-325.0,-325.0,-325.0,-325.0,-325.0,-321.8253968253968
0.07936507936507936,1.984126984126984,1.6666666666666665,0.5555555555555556,-1.0317460317460316,1.6666666666666665,-0.23809523809523808,-1.349206349206349,1.507936507936508,-1.6666666666666665,-0.23809523809523808,2.7777777777777777,1.1904761904761905,0.07936507936507936,3.253968253968254,-1.0317460317460316,-3.4126984126984126,1.349206349206349,-325.0,-325.0,-325.0,-325.0,-325.0,-321.8253968253968
0.07936507936507936,1.984126984126984,1.6666666666666665,0.5555555555555556,-1.0317460317460316,1.6666666666666665,-0.23809523809523808,-1.349206349206349,1.507936507936508,-1.6666666666666665,-0.23809523809523808,2.7777777777777777,1.1904761904761905,0.07936507936507936,3.253968253968254,-1.0317460317460316,-3.4126984126984126,1.349206349206349,-325.0,-325.0,-325.0,-325.0,-325.0,-321.8253968253968
-0.7142857142857142,2.46031746031746,0.3968253968253968,-0.5555555555555556,-0.3968253968253968,0.23809523809523808,3.253968253968254,-1.1904761904761905,0.873015873015873,0.873015873015873,2.619047619047619,3.73015873015873,-0.07936507936507936,-2.3015873015873014,1.0317460317460316,-2.3015873015873014,-2.7777777777777777,1.349206349206349,-325.0,-325.0,-325.0,-325.0,-325.0,-321.8253968253968
-0.7142857142857142,2.46031746031746,0.3968253968253968,-0.5555555555555556,-0.3968253968253968,0.23809523809523808,3.253968253968254,-1.1904761904761905,0.873015873015873,0.873015873015873,2.619047619047619,3.73015873015873,-0.07936507936507936,-2.3015873015873014,1.0317460317460316,-2.3015873015873014,-2.7777777777777777,1.349206349206349,-325.0,-325.0,-325.0,-325.0,-325.0,-321.8253968253968
-1.507936507936508,1.8253968253968254,-1.507936507936508,2.3015873015873014,-1.8253968253968254,1.984126984126984,-0.3968253968253968,1.1904761904761905,-0.7142857142857142,2.9365079365079363,-1.349206349206349,1.984126984126984,-2.9365079365079363,-3.095238095238095,-0.873015873015873,-0.5555555555555556,-2.9365079365079363,1.0317460317460316,-325.0,-325.0,-325.0,-325.0,-325.0,-321.8253968253968
-1.507936507936508,1.8253968253968254,-1.507936507936508,2.3015873015873014,-1.8253968253968254,1.984126984126984,-0.3968253968253968,1.1904761904761905,-0.7142857142857142,2.9365079365079363,-1.349206349206349,1.984126984126984,-2.9365079365079363,-3.095238095238095,-0.873015873015873,-0.5555555555555556,-2.9365079365079363,1.0317460317460316,-325.0,-325.0,-325.0,-325.0,-325.0,-321.8253968253968
-2.142857142857143,0.07936507936507936,-0.7142857142857142,1.0317460317460316,1.349206349206349,1.0317460317460316,-1.349206349206349,-1.0317460317460316,-0.5555555555555556,0.07936507936507936,-0.5555555555555556,2.3015873015873014,-3.253968253968254,-4.2063492063492065,-0.873015873015873,-1.1904761904761905,-3.253968253968254,1.349206349206349,-325.0,-325.0,-325.0,-325.0,-325.0,-321.8253968253968
-2.142857142857143,0.07936507936507936,-0.7142857142857142,1.0317460317460316,1.349206349206349,1.0317460317460316,-1.349206349206349,-1.0317460317460316,-0.5555555555555556,0.07936507936507936,-0.5555555555555556,2.3015873015873014,-3.253968253968254,-4.2063492063492065,-0.873015873015873,-1.1904761904761905,-3.253968253968254,1.349206349206349,-325.0,-325.0,-325.0,-325.0,-325.0,-321.8253968253968
-4.682539682539682,3.4126984126984126,-2.9365079365079363,3.095238095238095,-2.46031746031746,4.2063492063492065,-1.507936507936508,2.619047619047619,-0.3968253968253968,2.46031746031746,1.6666666666666665,3.571428571428571,-2.142857142857143,0.7142857142857142,-0.873015873015873,0.873015873015873,-3.253968253968254,1.0317460317460316,-325.0,-325.0,-325.0,-325.0,-325.0,-7.5396825396825395
-4.682539682539682,3.4126984126984126,-2.9365079365079363,3.095238095238095,-2.46031746031746,4.2063492063492065,-1.507936507936508,2.619047619047619,-0.3968253968253968,2.46031746031746,1.6666666666666665,3.571428571428571,-2.142857142857143,0.7142857142857142,-0.873015873015873,0.873015873015873,-3.253968253968254,1.0317460317460316,-325.0,-325.0,-325.0,-325.0,-325.0,-7.5396825396825395
-4.0476190476190474,4.523809523809524,-3.571428571428571,3.4126984126984126,-3.095238095238095,2.9365079365079363,-2.7777777777777777,1.1904761904761905,-0.873015873015873,1.1904761904761905,1.6666666666666665,4.2063492063492065,-4.2063492063492065,1.1904761904761905,-1.6666666666666665,2.142857142857143,-3.095238095238095,1.507936507936508,-325.0,-325.0,-325.0,-325.0,-325.0,-7.5396825396825395
-4.0476190476190474,4.523809523809524,-3.571428571428571,3.4126984126984126,-3.095238095238095,2.9365079365079363,-2.7777777777777777,1.1904761904761905,-0.873015873015873,1.1904761904761905,1.6666666666666665,4.2063492063492065,-4.2063492063492065,1.1904761904761905,-1.6666666666666665,2.142857142857143,-3.095238095238095,1.507936507936508,-325.0,-325.0,-325.0,-325.0,-325.0,-7.5396825396825395
-0.7142857142857142,2.142857142857143,-1.8253968253968254,3.095238095238095,0.5555555555555556,2.619047619047619,0.23809523809523808,2.9365079365079363,2.46031746031746,3.571428571428571,2.7777777777777777,2.9365079365079363,-0.07936507936507936,-2.46031746031746,0.7142857142857142,1.6666666666666665,-3.571428571428571,0.7142857142857142,-325.0,-325.0,-325.0,-325.0,-325.0,-7.5396825396825395
-0.7142857142857142,2.142857142857143,-1.8253968253968254,3.095238095238095,0.5555555555555556,2.619047619047619,0.23809523809523808,2.9365079365079363,2.46031746031746,3.571428571428571,2.7777777777777777,2.9365079365079363,-0.07936507936507936,-2.46031746031746,0.7142857142857142,1.6666666666666665,-3.571428571428571,0.7142857142857142,-325.0,-325.0,-325.0,-325.0,-325.0,-7.5396825396825395
-1.349206349206349,-1.8253968253968254,-1.1904761904761905,-0.3968253968253968,1.507936507936508,1.0317460317460316,-1.0317460317460316,1.349206349206349,0.7142857142857142,0.873015873015873,0.3968253968253968,1.8253968253968254,-1.507936507936508,-1.1904761904761905,2.7777777777777777,-0.07936507936507936,-3.4126984126984126,0.7142857142857142,-325.0,-325.0,-325.0,-325.0,-325.0,-7.5396825396825395
-1.349206349206349,-1.8253968253968254,-1.1904761904761905,-0.3968253968253968,1.507936507936508,1.0317460317460316,-1.0317460317460316,1.349206349206349,0.7142857142857142,0.873015873015873,0.3968253968253968,1.8253968253968254,-1.507936507936508,-1.1904761904761905,2.7777777777777777,-0.07936507936507936,-3.4126984126984126,0.7142857142857142,-325.0,-325.0,-325.0,-325.0,-325.0,-7.5396825396825395
0.7142857142857142,-3.095238095238095,1.1904761904761905,-1.6666666666666665,2.142857142857143,-2.7777777777777777,0.5555555555555556,-2.46031746031746,0.7142857142857142,-2.3015873015873014,4.2063492063492065,-0.5555555555555556,-0.3968253968253968,-4.365079365079365,2.7777777777777777,-3.253968253968254,-3.095238095238095,1.0317460317460316,-325.0,-325.0,-325.0,-325.0,-325.0,-7.5396825396825395
0.7142857142857142,-3.095238095238095,1.1904761904761905,-1.6666666666666665,2.142857142857143,-2.7777777777777777,0.5555555555555556,-2.46031746031746,0.7142857142857142,-2.3015873015873014,4.2063492063492065,-0.5555555555555556,-0.3968253968253968,-4.365079365079365,2.7777777777777777,-3.253968253968254,-3.095238095238095,1.0317460317460316,-325.0,-325.0,-325.0,-325.0,-325.0,-7.5396825396825395
-1.507936507936508,0.3968253968253968,-1.0317460317460316,2.619047619047619,-1.507936507936508,1.349206349206349,-0.7142857142857142,1.0317460317460316,1.984126984126984,1.507936507936508,0.5555555555555556,0.7142857142857142,0.07936507936507936,-0.07936507936507936,1.984126984126984,-1.349206349206349,-3.4126984126984126,0.873015873015873,-325.0,-325.0,-325.0,-325.0,-325.0,-321.8253968253968
-1.507936507936508,0.3968253968253968,-1.0317460317460316,2.619047619047619,-1.507936507936508,1.349206349206349,-0.7142857142857142,1.0317460317460316,1.984126984126984,1.507936507936508,0.5555555555555556,0.7142857142857142,0.07936507936507936,-0.07936507936507936,1.984126984126984,-1.349206349206349,-3.4126984126984126,0.873015873015873,-325.0,-325.0,-325.0,-325.0,-325.0,-321.8253968253968
-0.3968253968253968,1.1904761904761905,-0.873015873015873,0.873015873015873,-1.0317460317460316,1.349206349206349,-0.873015873015873,2.3015873015873014,-1.0317460317460316,-0.5555555555555556,1.349206349206349,2.3015873015873014,-2.619047619047619,-2.619047619047619,2.142857142857143,-0.873015873015873,-3.73015873015873,0.7142857142857142,-325.0,-325.0,-325.0,-325.0,-325.0,-321.8253968253968
-0.3968253968253968,1.1904761904761905,-0.873015873015873,0.873015873015873,-1.0317460317460316,1.349206349206349,-0.873015873015873,2.3015873015873014,-1.0317460317460316,-0.5555555555555556,1.349206349206349,2.3015873015873014,-2.619047619047619,-2.619047619047619,2.142857142857143,-0.873015873015873,-3.73015873015873,0.7142857142857142,-325.0,-325.0,-325.0,-325.0,-325.0,-321.8253968253968
-0.3968253968253968,0.873015873015873,1.507936507936508,0.7142857142857142,1.8253968253968254,0.5555555555555556,1.984126984126984,2.46031746031746,3.571428571428571,2.7777777777777777,5.158730158730158,2.7777777777777777,2.9365079365079363,-2.619047619047619,2.619047619047619,1.507936507936508,-3.253968253968254,0.873015873015873,-325.0,-325.0,-325.0,-325.0,-325.0,-321.8253968253968
-0.3968253968253968,0.873015873015873,1.507936507936508,0.7142857142857142,1.8253968253968254,0.5555555555555556,1.984126984126984,2.46031746031746,3.571428571428571,2.7777777777777777,5.158730158730158,2.7777777777777777,2.9365079365079363,-2.619047619047619,2.619047619047619,1.507936507936508,-3.253968253968254,0.873015873015873,-325.0,-325.0,-325.0,-325.0,-325.0,-321.8253968253968
-2.7777777777777777,-0.3968253968253968,-2.142857142857143,-1.507936507936508,-0.07936507936507936,-0.3968253968253968,0.3968253968253968,-2.142857142857143,1.8253968253968254,-1.349206349206349,1.349206349206349,-0.7142857142857142,-0.5555555555555556,-0.3968253968253968,0.23809523809523808,-1.6666666666666665,-3.095238095238095,0.873015873015873,-325.0,-325.0,-325.0,-325.0,-325.0,-321.8253968253968
-2.7777777777777777,-0.3968253968253968,-2.142857142857143,-1.507936507936508,-0.07936507936507936,-0.3968253968253968,0.3968253968253968,-2.142857142857143,1.8253968253968254,-1.349206349206349,1.349206349206349,-0.7142857142857142,-0.5555555555555556,-0.3968253968253968,0.23809523809523808,-1.6666666666666665,-3.095238095238095,0.873015873015873,-325.0,-325.0,-325.0,-325.0,-325.0,-321.8253968253968
-1.6666666666666665,0.23809523809523808,-1.8253968253968254,-0.7142857142857142,-0.07936507936507936,0.873015873015873,-2.46031746031746,0.07936507936507936,0.07936507936507936,-0.5555555555555556,-0.873015873015873,2.3015873015873014,-2.46031746031746,-1.349206349206349,0.07936507936507936,-0.5555555555555556,-2.7777777777777777,1.0317460317460316,-325.0,-325.0,-325.0,-325.0,-325.0,-321.8253968253968
-1.6666666666666665,0.23809523809523808,-1.8253968253968254,-0.7142857142857142,-0.07936507936507936,0.873015873015873,-2.46031746031746,0.07936507936507936,0.07936507936507936,-0.5555555555555556,-0.873015873015873,2.3015873015873014,-2.46031746031746,-1.349206349206349,0.07936507936507936,-0.5555555555555556,-2.7777777777777777,1.0317460317460316,-325.0,-325.0,-325.0,-325.0,-325.0,-321.8253968253968
-2.619047619047619,-2.3015873015873014,-0.07936507936507936,-1.349206349206349,0.07936507936507936,-1.507936507936508,0.5555555555555556,-0.3968253968253968,0.5555555555555556,0.23809523809523808,1.0317460317460316,1.507936507936508,-2.142857142857143,-0.07936507936507936,2.3015873015873014,-0.7142857142857142,-2.7777777777777777,1.349206349206349,-325.0,-325.0,-325.0,-325.0,-325.0,-7.5396825396825395
-2.619047619047619,-2.3015873015873014,-0.07936507936507936,-1.349206349206349,0.07936507936507936,-1.507936507936508,0.5555555555555556,-0.3968253968253968,0.5555555555555556,0.23809523809523808,1.0317460317460316,1.507936507936508,-2.142857142857143,-0.07936507936507936,2.3015873015873014,-0.7142857142857142,-2.7777777777777777,1.349206349206349,-325.0,-325.0,-325.0,-325.0,-325.0,-7.5396825396825395
-3.4126984126984126,-2.619047619047619,-2.46031746031746,-0.3968253968253968,-1.1904761904761905,0.3968253968253968,-0.873015873015873,-2.7777777777777777,0.5555555555555556,-0.3968253968253968,0.3968253968253968,-0.873015873015873,-1.8253968253968254,-6.428571428571428,-0.7142857142857142,-2.3015873015873014,-2.7777777777777777,0.873015873015873,-325.0,-325.0,-325.0,-325.0,-325.0,-7.5396825396825395
-3.4126984126984126,-2.619047619047619,-2.46031746031746,-0.3968253968253968,-1.1904761904761905,0.3968253968253968,-0.873015873015873,-2.7777777777777777,0.5555555555555556,-0.3968253968253968,0.3968253968253968,-0.873015873015873,-1.8253968253968254,-6.428571428571428,-0.7142857142857142,-2.3015873015873014,-2.7777777777777777,0.873015873015873,-325.0,-325.0,-325.0,-325.0,-325.0,-7.5396825396825395
-2.7777777777777777,-1.1904761904761905,-3.571428571428571,3.253968253968254,-0.5555555555555556,0.7142857142857142,-1.0317460317460316,1.8253968253968254,-0.07936507936507936,-0.23809523809523808,1.349206349206349,1.8253968253968254,-1.0317460317460316,0.07936507936507936,1.507936507936508,-0.23809523809523808,-2.3015873015873014,0.873015873015873,-325.0,-325.0,-325.0,-325.0,-325.0,-7.5396825396825395
-2.7777777777777777,-1.1904761904761905,-3.571428571428571,3.253968253968254,-0.5555555555555556,0.7142857142857142,-1.0317460317460316,1.8253968253968254,-0.07936507936507936,-0.23809523809523808,1.349206349206349,1.8253968253968254,-1.0317460317460316,0.07936507936507936,1.507936507936508,-0.23809523809523808,-2.3015873015873014,0.873015873015873,-325.0,-325.0,-325.0,-325.0,-325.0,-7.5396825396825395
-1.507936507936508,4.0476190476190474,-2.9365079365079363,4.523809523809524,0.7142857142857142,1.6666666666666665,1.507936507936508,1.984126984126984,0.07936507936507936,3.571428571428571,0.7142857142857142,3.253968253968254,0.7142857142857142,1.507936507936508,1.6666666666666665,3.4126984126984126,-2.7777777777777777,0.5555555555555556,-325.0,-325.0,-325.0,-325.0,-325.0,-7.5396825396825395
-1.507936507936508,4.0476190476190474,-2.9365079365079363,4.523809523809524,0.7142857142857142,1.6666666666666665,1.507936507936508,1.984126984126984,0.07936507936507936,3.571428571428571,0.7142857142857142,3.253968253968254,0.7142857142857142,1.507936507936508,1.6666666666666665,3.4126984126984126,-2.7777777777777777,0.5555555555555556,-325.0,-325.0,-325.0,-325.0,-325.0,-7.5396825396825395
-1.349206349206349,2.142857142857143,-3.4126984126984126,1.1904761904761905,-1.507936507936508,-0.7142857142857142,0.873015873015873,-0.23809523809523808,1.0317460317460316,0.07936507936507936,1.6666666666666665,1.349206349206349,-1.6666666666666665,-2.7777777777777777,-1.8253968253968254,-2.46031746031746,-2.142857142857143,0.07936507936507936,-325.0,-325.0,-325.0,-325.0,-325.0,-7.5396825396825395
-1.349206349206349,2.142857142857143,-3.4126984126984126,1.1904761904761905,-1.507936507936508,-0.7142857142857142,0.873015873015873,-0.23809523809523808,1.0317460317460316,0.07936507936507936,1.6666666666666665,1.349206349206349,-1.6666666666666665,-2.7777777777777777,-1.8253968253968254,-2.46031746031746,-2.142857142857143,0.07936507936507936,-325.0,-325.0,-325.0,-325.0,-325.0,-7.5396825396825395
-1.8253968253968254,1.349206349206349,-1.349206349206349,2.619047619047619,-1.8253968253968254,1.984126984126984,-0.23809523809523808,1.1904761904761905,-0.3968253968253968,0.873015873015873,0.873015873015873,1.6666666666666665,-0.07936507936507936,-1.8253968253968254,0.5555555555555556,-0.5555555555555556,-2.619047619047619,0.5555555555555556,-325.0,-325.0,-325.0,-325.0,-325.0,-321.8253968253968
-1.8253968253968254,1.349206349206349,-1.349206349206349,2.619047619047619,-1.8253968253968254,1.984126984126984,-0.23809523809523808,1.1904761904761905,-0.3968253968253968,0.873015873015873,0.873015873015873,1.6666666666666665,-0.07936507936507936,-1.8253968253968254,0.5555555555555556,-0.5555555555555556,-2.619047619047619,0.5555555555555556,-325.0,-325.0,-325.0,-325.0,-325.0,-321.8253968253968
-0.5555555555555556,-1.349206349206349,1.349206349206349,0.873015873015873,1.349206349206349,0.07936507936507936,0.873015873015873,-0.5555555555555556,2.142857142857143,-2.46031746031746,2.46031746031746,0.3968253968253968,2.3015873015873014,-4.2063492063492065,4.0476190476190474,0.07936507936507936,-3.73015873015873,0.5555555555555556,-325.0,-325.0,-325.0,-325.0,-325.0,-321.8253968253968
-0.5555555555555556,-1.349206349206349,1.349206349206349,0.873015873015873,1.349206349206349,0.07936507936507936,0.873015873015873,-0.5555555555555556,2.142857142857143,-2.46031746031746,2.46031746031746,0.3968253968253968,2.3015873015873014,-4.2063492063492065,4.0476190476190474,0.07936507936507936,-3.73015873015873,0.5555555555555556,-325.0,-325.0,-325.0,-325.0,-325.0,-321.8253968253968
-1.1904761904761905,1.349206349206349,-1.507936507936508,2.142857142857143,-0.7142857142857142,2.9365079365079363,1.984126984126984,2.3015873015873014,0.5555555555555556,4.365079365079365,2.46031746031746,2.619047619047619,-1.507936507936508,-1.8253968253968254,1.1904761904761905,1.0317460317460316,-2.46031746031746,0.5555555555555556,-325.0,-325.0,-325.0,-325.0,-325.0,-321.8253968253968
-1.1904761904761905,1.349206349206349,-1.507936507936508,2.142857142857143,-0.7142857142857142,2.9365079365079363,1.984126984126984,2.3015873015873014,0.5555555555555556,4.365079365079365,2.46031746031746,2.619047619047619,-1.507936507936508,-1.8253968253968254,1.1904761904761905,1.0317460317460316,-2.46031746031746,0.5555555555555556,-325.0,-325.0,-325.0,-325.0,-325.0,-321.8253968253968
-1.6666666666666665,1.6666666666666665,-2.3015873015873014,2.142857142857143,0.7142857142857142,0.7142857142857142,0.5555555555555556,1.984126984126984,0.23809523809523808,2.619047619047619,1.349206349206349,3.095238095238095,-0.7142857142857142,-1.0317460317460316,2.46031746031746,0.873015873015873,-3.095238095238095,1.349206349206349,-325.0,-325.0,-325.0,-325.0,-325.0,-321.8253968253968
-1.6666666666666665,1.6666666666666665,-2.3015873015873014,2.142857142857143,0.7142857142857142,0.7142857142857142,0.5555555555555556,1.984126984126984,0.23809523809523808,2.619047619047619,1.349206349206349,3.095238095238095,-0.7142857142857142,-1.0317460317460316,2.46031746031746,0.873015873015873,-3.095238095238095,1.349206349206349,-325.0,-325.0,-325.0,-325.0,-325.0,-321.8253968253968
-1.984126984126984,1.1904761904761905,-1.507936507936508,2.7777777777777777,-1.349206349206349,1.349206349206349,-0.7142857142857142,1.984126984126984,0.07936507936507936,2.3015873015873014,-0.5555555555555556,2.7777777777777777,-0.7142857142857142,-0.3968253968253968,2.9365079365079363,1.6666666666666665,-2.619047619047619,0.873015873015873,-325.0,-325.0,-325.0,-325.0,-325.0,-321.8253968253968
-1.984126984126984,1.1904761904761905,-1.507936507936508,2.7777777777777777,-1.349206349206349,1.349206349206349,-0.7142857142857142,1.984126984126984,0.07936507936507936,2.3015873015873014,-0.5555555555555556,2.7777777777777777,-0.7142857142857142,-0.3968253968253968,2.9365079365079363,1.6666666666666665,-2.619047619047619,0.873015873015873,-325.0,-325.0,-325.0,-325.0,-325.0,-321.8253968253968
-1.1904761904761905,1.349206349206349,-0.23809523809523808,2.9365079365079363,-0.5555555555555556,5.0,0.5555555555555556,0.7142857142857142,1.6666666666666665,1.1904761904761905,0.873015873015873,2.7777777777777777,-1.984126984126984,1.8253968253968254,0.23809523809523808,-0.5555555555555556,-3.253968253968254,0.873015873015873,-325.0,-325.0,-325.0,-325.0,-325.0,-7.5396825396825395
-1.1904761904761905,1.349206349206349,-0.23809523809523808,2.9365079365079363,-0.5555555555555556,5.0,0.5555555555555556,0.7142857142857142,1.6666666666666665,1.1904761904761905,0.873015873015873,2.7777777777777777,-1.984126984126984,1.8253968253968254,0.23809523809523808,-0.5555555555555556,-3.253968253968254,0.873015873015873,-325.0,-325.0,-325.0,-325.0,-325.0,-7.5396825396825395
-0.07936507936507936,1.1904761904761905,1.349206349206349,1.349206349206349,-1.6666666666666665,1.1904761904761905,1.984126984126984,1.8253968253968254,2.3015873015873014,2.3015873015873014,3.888888888888889,2.46031746031746,0.873015873015873,0.873015873015873,2.9365079365079363,0.873015873015873,-3.4126984126984126,1.0317460317460316,-325.0,-325.0,-325.0,-325.0,-325.0,-7.5396825396825395
-0.07936507936507936,1.1904761904761905,1.349206349206349,1.349206349206349,-1.6666666666666665,1.1904761904761905,1.984126984126984,1.8253968253968254,2.3015873015873014,2.3015873015873014,3.888888888888889,2.46031746031746,0.873015873015873,0.873015873015873,2.9365079365079363,0.873015873015873,-3.4126984126984126,1.0317460317460316,-325.0,-325.0,-325.0,-325.0,-325.0,-7.5396825396825395
2.3015873015873014,1.6666666666666665,1.507936507936508,1.349206349206349,1.984126984126984,1.6666666666666665,2.7777777777777777,-0.07936507936507936,3.4126984126984126,1.8253968253968254,4.682539682539682,1.984126984126984,1.984126984126984,-1.349206349206349,4.682539682539682,0.873015873015873,-2.9365079365079363,0.7142857142857142,-325.0,-325.0,-325.0,-325.0,-325.0,-7.5396825396825395
2.3015873015873014,1.6666666666666665,1.507936507936508,1.349206349206349,1.984126984126984,1.6666666666666665,2.7777777777777777,-0.07936507936507936,3.4126984126984126,1.8253968253968254,4.682539682539682,1.984126984126984,1.984126984126984,-1.349206349206349,4.682539682539682,0.873015873015873,-2.9365079365079363,0.7142857142857142,-325.0,-325.0,-325.0,-325.0,-325.0,-7.5396825396825395
1.1904761904761905,5.476190476190476,-1.984126984126984,2.9365079365079363,-1.507936507936508,1.349206349206349,-0.07936507936507936,0.3968253968253968,3.253968253968254,2.7777777777777777,1.8253968253968254,3.253968253968254,-1.8253968253968254,-0.7142857142857142,3.888888888888889,0.873015873015873,-2.7777777777777777,1.0317460317460316,-325.0,-325.0,-325.0,-325.0,-325.0,-7.5396825396825395
1.1904761904761905,5.476190476190476,-1.984126984126984,2.9365079365079363,-1.507936507936508,1.349206349206349,-0.07936507936507936,0.3968253968253968,3.253968253968254,2.7777777777777777,1.8253968253968254,3.253968253968254,-1.8253968253968254,-0.7142857142857142,3.888888888888889,0.873015873015873,-2.7777777777777777,1.0317460317460316,-325.0,-325.0,-325.0,-325.0,-325.0,-7.5396825396825395
-2.9365079365079363,4.365079365079365,-0.873015873015873,3.095238095238095,-1.6666666666666665,1.1904761904761905,0.07936507936507936,2.9365079365079363,1.0317460317460316,3.253968253968254,0.3968253968253968,1.8253968253968254,-1.0317460317460316,0.07936507936507936,2.3015873015873014,0.5555555555555556,-2.9365079365079363,1.1904761904761905,-325.0,-325.0,-325.0,-325.0,-325.0,-7.5396825396825395
-2.9365079365079363,4.365079365079365,-0.873015873015873,3.095238095238095,-1.6666666666666665,1.1904761904761905,0.07936507936507936,2.9365079365079363,1.0317460317460316,3.253968253968254,0.3968253968253968,1.8253968253968254,-1.0317460317460316,0.07936507936507936,2.3015873015873014,0.5555555555555556,-2.9365079365079363,1.1904761904761905,-325.0,-325.0,-325.0,-325.0,-325.0,-7.5396825396825395
-1.6666666666666665,0.873015873015873,0.5555555555555556,0.7142857142857142,0.23809523809523808,1.349206349206349,0.873015873015873,-0.7142857142857142,2.3015873015873014,0.7142857142857142,2.9365079365079363,1.984126984126984,1.984126984126984,-2.46031746031746,2.3015873015873014,-0.7142857142857142,-2.7777777777777777,0.873015873015873,-325.0,-325.0,-325.0,-325.0,-325.0,-321.8253968253968
-1.6666666666666665,0.873015873015873,0.5555555555555556,0.7142857142857142,0.23809523809523808,1.349206349206349,0.873015873015873,-0.7142857142857142,2.3015873015873014,0.7142857142857142,2.9365079365079363,1.984126984126984,1.984126984126984,-2.46031746031746,2.3015873015873014,-0.7142857142857142,-2.7777777777777777,0.873015873015873,-325.0,-325.0,-325.0,-325.0,-325.0,-321.8253968253968
0.7142857142857142,-0.07936507936507936,0.23809523809523808,-0.23809523809523808,0.23809523809523808,1.0317460317460316,-1.349206349206349,-0.873015873015873,1.0317460317460316,-2.142857142857143,0.3968253968253968,-0.7142857142857142,-1.6666666666666665,-2.142857142857143,1.507936507936508,-4.0476190476190474,-3.095238095238095,0.873015873015873,-325.0,-325.0,-325.0,-325.0,-325.0,-321.8253968253968
0.7142857142857142,-0.07936507936507936,0.23809523809523808,-0.23809523809523808,0.23809523809523808,1.0317460317460316,-1.349206349206349,-0.873015873015873,1.0317460317460316,-2.142857142857143,0.3968253968253968,-0.7142857142857142,-1.6666666666666665,-2.142857142857143,1.507936507936508,-4.0476190476190474,-3.095238095238095,0.873015873015873,-325.0,-325.0,-325.0,-325.0,-325.0,-321.8253968253968
1.984126984126984,1.1904761904761905,-0.3968253968253968,-2.7777777777777777,-1.507936507936508,-3.73015873015873,2.3015873015873014,-0.5555555555555556,2.46031746031746,-1.1904761904761905,0.07936507936507936,-1.8253968253968254,-0.23809523809523808,-3.888888888888889,3.253968253968254,-4.0476190476190474,-2.46031746031746,0.873015873015873,-325.0,-325.0,-325.0,-325.0,-325.0,-321.8253968253968
1.984126984126984,1.1904761904761905,-0.3968253968253968,-2.7777777777777777,-1.507936507936508,-3.73015873015873,2.3015873015873014,-0.5555555555555556,2.46031746031746,-1.1904761904761905,0.07936507936507936,-1.8253968253968254,-0.23809523809523808,-3.888888888888889,3.253968253968254,-4.0476190476190474,-2.46031746031746,0.873015873015873,-325.0,-325.0,-325.0,-325.0,-325.0,-321.8253968253968
-1.0317460317460316,-0.5555555555555556,-0.23809523809523808,3.253968253968254,-1.507936507936508,3.253968253968254,1.349206349206349,0.873015873015873,1.1904761904761905,2.619047619047619,1.8253968253968254,2.3015873015873014,-0.23809523809523808,-0.07936507936507936,2.619047619047619,0.873015873015873,-2.3015873015873014,1.1904761904761905,-325.0,-325.0,-325.0,-325.0,-325.0,-321.8253968253968
-1.0317460317460316,-0.5555555555555556,-0.23809523809523808,3.253968253968254,-1.507936507936508,3.253968253968254,1.349206349206349,0.873015873015873,1.1904761904761905,2.619047619047619,1.8253968253968254,2.3015873015873014,-0.23809523809523808,-0.07936507936507936,2.619047619047619,0.873015873015873,-2.3015873015873014,1.1904761904761905,-325.0,-325.0,-325.0,-325.0,-325.0,-321.8253968253968
-4.682539682539682,-0.3968253968253968,0.07936507936507936,2.619047619047619,-1.6666666666666665,3.095238095238095,-1.6666666666666665,0.3968253968253968,1.984126984126984,-1.0317460317460316,-0.7142857142857142,0.873015873015873,-1.8253968253968254,1.8253968253968254,1.8253968253968254,0.5555555555555556,-3.571428571428571,1.1904761904761905,-325.0,-325.0,-325.0,-325.0,-325.0,-321.8253968253968
-4.682539682539682,-0.3968253968253968,0.07936507936507936,2.619047619047619,-1.6666666666666665,3.095238095238095,-1.6666666666666665,0.3968253968253968,1.984126984126984,-1.0317460317460316,-0.7142857142857142,0.873015873015873,-1.8253968253968254,1.8253968253968254,1.8253968253968254,0.5555555555555556,-3.571428571428571,1.1904761904761905,-325.0,-325.0,-325.0,-325.0,-325.0,-321.8253968253968
-1.507936507936508,0.7142857142857142,0.7142857142857142,-0.23809523809523808,1.6666666666666665,1.984126984126984,2.46031746031746,1.0317460317460316,1.8253968253968254,1.0317460317460316,1.0317460317460316,-0.3968253968253968,-0.07936507936507936,0.5555555555555556,2.46031746031746,-0.23809523809523808,-3.4126984126984126,0.873015873015873,-325.0,-325.0,-325.0,-325.0,-325.0,-7.5396825396825395
-1.507936507936508,0.7142857142857142,0.7142857142857142,-0.23809523809523808,1.6666666666666665,1.984126984126984,2.46031746031746,1.0317460317460316,1.8253968253968254,1.0317460317460316,1.0317460317460316,-0.3968253968253968,-0.07936507936507936,0.5555555555555556,2.46031746031746,-0.23809523809523808,-3.4126984126984126,0.873015873015873,-325.0,-325.0,-325.0,-325.0,-325.0,-7.5396825396825395
1.349206349206349,-3.4126984126984126,-1.1904761904761905,-2.142857142857143,4.841269841269841,-2.142857142857143,3.571428571428571,-0.7142857142857142,4.2063492063492065,0.07936507936507936,3.888888888888889,1.6666666666666665,2.142857142857143,-1.507936507936508,2.619047619047619,-0.3968253968253968,-2.9365079365079363,1.349206349206349,-325.0,-325.0,-325.0,-325.0,-325.0,-7.5396825396825395
1.349206349206349,-3.4126984126984126,-1.1904761904761905,-2.142857142857143,4.841269841269841,-2.142857142857143,3.571428571428571,-0.7142857142857142,4.2063492063492065,0.07936507936507936,3.888888888888889,1.6666666666666665,2.142857142857143,-1.507936507936508,2.619047619047619,-0.3968253968253968,-2.9365079365079363,1.349206349206349,-325.0,-325.0,-325.0,-325.0,-325.0,-7.5396825396825395
0.3968253968253968,-2.46031746031746,0.7142857142857142,1.6666666666666665,3.571428571428571,-0.07936507936507936,4.841269841269841,1.1904761904761905,3.888888888888889,0.23809523809523808,4.523809523809524,2.142857142857143,1.0317460317460316,-1.349206349206349,5.317460317460317,0.873015873015873,-2.619047619047619,0.873015873015873,-325.0,-325.0,-325.0,-325.0,-325.0,-7.5396825396825395
0.3968253968253968,-2.46031746031746,0.7142857142857142,1.6666666666666665,3.571428571428571,-0.07936507936507936,4.841269841269841,1.1904761904761905,3.888888888888889,0.23809523809523808,4.523809523809524,2.142857142857143,1.0317460317460316,-1.349206349206349,5.317460317460317,0.873015873015873,-2.619047619047619,0.873015873015873,-325.0,-325.0,-325.0,-325.0,-325.0,-7.5396825396825395
-3.73015873015873,-4.523809523809524,0.23809523809523808,-1.6666666666666665,2.7777777777777777,-2.619047619047619,1.6666666666666665,-0.5555555555555556,1.1904761904761905,-2.9365079365079363,1.507936507936508,-0.3968253968253968,-0.5555555555555556,-4.0476190476190474,3.73015873015873,-4.2063492063492065,-2.142857142857143,0.873015873015873,-325.0,-325.0,-325.0,-325.0,-325.0,-7.5396825396825395
-3.73015873015873,-4.523809523809524,0.23809523809523808,-1.6666666666666665,2.7777777777777777,-2.619047619047619,1.6666666666666665,-0.5555555555555556,1.1904761904761905,-2.9365079365079363,1.507936507936508,-0.3968253968253968,-0.5555555555555556,-4.0476190476190474,3.73015873015873,-4.2063492063492065,-2.142857142857143,0.873015873015873,-325.0,-325.0,-325.0,-325.0,-325.0,-7.5396825396825395
-2.46031746031746,-1.0317460317460316,-0.873015873015873,-0.873015873015873,1.984126984126984,-1.507936507936508,1.507936507936508,-1.507936507936508,1.349206349206349,1.984126984126984,1.0317460317460316,3.253968253968254,-0.3968253968253968,-1.984126984126984,3.4126984126984126,-1.6666666666666665,-3.095238095238095,1.0317460317460316,-325.0,-325.0,-325.0,-325.0,-325.0,-7.5396825396825395
-2.46031746031746,-1.0317460317460316,-0.873015873015873,-0.873015873015873,1.984126984126984,-1.507936507936508,1.507936507936508,-1.507936507936508,1.349206349206349,1.984126984126984,1.0317460317460316,3.253968253968254,-0.3968253968253968,-1.984126984126984,3.4126984126984126,-1.6666666666666665,-3.095238095238095,1.0317460317460316,-325.0,-325.0,-325.0,-325.0,-325.0,-7.5396825396825395
-5.317460317460317,-1.349206349206349,-3.095238095238095,-1.8253968253968254,-0.5555555555555556,0.5555555555555556,-0.5555555555555556,-1.1904761904761905,1.8253968253968254,0.873015873015873,-1.349206349206349,-0.23809523809523808,-1.984126984126984,-2.7777777777777777,-0.23809523809523808,-1.6666666666666665,-3.73015873015873,1.1904761904761905,-325.0,-325.0,-325.0,-325.0,-325.0,-321.8253968253968
-5.317460317460317,-1.349206349206349,-3.095238095238095,-1.8253968253968254,-0.5555555555555556,0.5555555555555556,-0.5555555555555556,-1.1904761904761905,1.8253968253968254,0.873015873015873,-1.349206349206349,-0.23809523809523808,-1.984126984126984,-2.7777777777777777,-0.23809523809523808,-1.6666666666666665,-3.73015873015873,1.1904761904761905,-325.0,-325.0,-325.0,-325.0,-325.0,-321.8253968253968
-3.888888888888889,3.4126984126984126,-4.682539682539682,2.3015873015873014,-3.4126984126984126,2.7777777777777777,-1.8253968253968254,1.349206349206349,1.1904761904761905,3.253968253968254,-0.7142857142857142,4.2063492063492065,-2.46031746031746,-0.5555555555555556,-2.142857142857143,2.46031746031746,-2.9365079365079363,1.0317460317460316,-325.0,-325.0,-325.0,-325.0,-325.0,-321.8253968253968
-3.888888888888889,3.4126984126984126,-4.682539682539682,2.3015873015873014,-3.4126984126984126,2.7777777777777777,-1.8253968253968254,1.349206349206349,1.1904761904761905,3.253968253968254,-0.7142857142857142,4.2063492063492065,-2.46031746031746,-0.5555555555555556,-2.142857142857143,2.46031746031746,-2.9365079365079363,1.0317460317460316,-325.0,-325.0,-325.0,-325.0,-325.0,-321.8253968253968
-3.4126984126984126,-0.3968253968253968,-1.6666666666666665,1.8253968253968254,-1.1904761904761905,0.3968253968253968,-1.349206349206349,1.0317460317460316,-0.873015873015873,1.6666666666666665,-0.07936507936507936,0.23809523809523808,-2.142857142857143,-0.5555555555555556,-1.6666666666666665,0.3968253968253968,-3.73015873015873,1.349206349206349,-325.0,-325.0,-325.0,-325.0,-325.0,-321.8253968253968
-3.4126984126984126,-0.3968253968253968,-1.6666666666666665,1.8253968253968254,-1.1904761904761905,0.3968253968253968,-1.349206349206349,1.0317460317460316,-0.873015873015873,1.6666666666666665,-0.07936507936507936,0.23809523809523808,-2.142857142857143,-0.5555555555555556,-1.6666666666666665,0.3968253968253968,-3.73015873015873,1.349206349206349,-325.0,-325.0,-325.0,-325.0,-325.0,-321.8253968253968
-2.3015873015873014,0.23809523809523808,-0.5555555555555556,2.46031746031746,1.349206349206349,-2.46031746031746,0.873015873015873,2.3015873015873014,1.0317460317460316,0.873015873015873,0.7142857142857142,0.7142857142857142,-2.9365079365079363,-1.0317460317460316,2.46031746031746,-0.23809523809523808,-2.9365079365079363,0.873015873015873,-325.0,-325.0,-325.0,-325.0,-325.0,-321.8253968253968
-2.3015873015873014,0.23809523809523808,-0.5555555555555556,2.46031746031746,1.349206349206349,-2.46031746031746,0.873015873015873,2.3015873015873014,1.0317460317460316,0.873015873015873,0.7142857142857142,0.7142857142857142,-2.9365079365079363,-1.0317460317460316,2.46031746031746,-0.23809523809523808,-2.9365079365079363,0.873015873015873,-325.0,-325.0,-325.0,-325.0,-325.0,-321.8253968253968
-1.984126984126984,3.253968253968254,-0.7142857142857142,2.7777777777777777,1.0317460317460316,5.634920634920634,2.46031746031746,1.349206349206349,1.1904761904761905,2.9365079365079363,-1.1904761904761905,2.46031746031746,-0.07936507936507936,0.873015873015873,3.095238095238095,1.984126984126984,-3.095238095238095,1.349206349206349,-325.0,-325.0,-325.0,-325.0,-325.0,-321.8253968253968
-1.984126984126984,3.253968253968254,-0.7142857142857142,2.7777777777777777,1.0317460317460316,5.634920634920634,2.46031746031746,1.349206349206349,1.1904761904761905,2.9365079365079363,-1.1904761904761905,2.46031746031746,-0.07936507936507936,0.873015873015873,3.095238095238095,1.984126984126984,-3.095238095238095,1.349206349206349,-325.0,-325.0,-325.0,-325.0,-325.0,-321.8253968253968
-0.5555555555555556,1.0317460317460316,-0.7142857142857142,1.6666666666666665,0.7142857142857142,1.6666666666666665,0.5555555555555556,-0.07936507936507936,0.7142857142857142,-0.23809523809523808,2.619047619047619,-1.349206349206349,-0.23809523809523808,-2.3015873015873014,4.365079365079365,-1.984126984126984,-2.9365079365079363,1.349206349206349,-325.0,-325.0,-325.0,-325.0,-325.0,-7.5396825396825395
-0.5555555555555556,1.0317460317460316,-0.7142857142857142,1.6666666666666665,0.7142857142857142,1.6666666666666665,0.5555555555555556,-0.07936507936507936,0.7142857142857142,-0.23809523809523808,2.619047619047619,-1.349206349206349,-0.23809523809523808,-2.3015873015873014,4.365079365079365,-1.984126984126984,-2.9365079365079363,1.349206349206349,-325.0,-325.0,-325.0,-325.0,-325.0,-7.5396825396825395
1.1904761904761905,0.07936507936507936,1.349206349206349,0.3968253968253968,2.619047619047619,1.984126984126984,1.8253968253968254,1.6666666666666665,1.349206349206349,1.507936507936508,0.23809523809523808,-0.23809523809523808,2.9365079365079363,-1.984126984126984,2.619047619047619,0.23809523809523808,-2.7777777777777777,1.1904761904761905,-325.0,-325.0,-325.0,-325.0,-325.0,-7.5396825396825395
1.1904761904761905,0.07936507936507936,1.349206349206349,0.3968253968253968,2.619047619047619,1.984126984126984,1.8253968253968254,1.6666666666666665,1.349206349206349,1.507936507936508,0.23809523809523808,-0.23809523809523808,2.9365079365079363,-1.984126984126984,2.619047619047619,0.23809523809523808,-2.7777777777777777,1.1904761904761905,-325.0,-325.0,-325.0,-325.0,-325.0,-7.5396825396825395
-2.46031746031746,-4.0476190476190474,-1.1904761904761905,-1.8253968253968254,0.873015873015873,-0.873015873015873,0.23809523809523808,-2.7777777777777777,1.6666666666666665,0.3968253968253968,-1.349206349206349,-2.9365079365079363,-2.142857142857143,-2.7777777777777777,1.6666666666666665,-2.7777777777777777,-3.73015873015873,1.0317460317460316,-325.0,-325.0,-325.0,-325.0,-325.0,-7.5396825396825395
-2.46031746031746,-4.0476190476190474,-1.1904761904761905,-1.8253968253968254,0.873015873015873,-0.873015873015873,0.23809523809523808,-2.7777777777777777,1.6666666666666665,0.3968253968253968,-1.349206349206349,-2.9365079365079363,-2.142857142857143,-2.7777777777777777,1.6666666666666665,-2.7777777777777777,-3.73015873015873,1.0317460317460316,-325.0,-325.0,-325.0,-325.0,-325.0,-7.5396825396825395
-2.142857142857143,1.1904761904761905,-0.23809523809523808,3.73015873015873,-3.095238095238095,2.142857142857143,-1.8253968253968254,3.888888888888889,1.1904761904761905,1.8253968253968254,-1.8253968253968254,1.507936507936508,-2.7777777777777777,-1.1904761904761905,-0.07936507936507936,0.3968253968253968,-2.7777777777777777,1.349206349206349,-325.0,-325.0,-325.0,-325.0,-325.0,-7.5396825396825395
-2.142857142857143,1.1904761904761905,-0.23809523809523808,3.73015873015873,-3.095238095238095,2.142857142857143,-1.8253968253968254,3.888888888888889,1.1904761904761905,1.8253968253968254,-1.8253968253968254,1.507936507936508,-2.7777777777777777,-1.1904761904761905,-0.07936507936507936,0.3968253968253968,-2.7777777777777777,1.349206349206349,-325.0,-325.0,-325.0,-325.0,-325.0,-7.5396825396825395
-0.23809523809523808,2.142857142857143,-0.23809523809523808,1.984126984126984,-1.0317460317460316,3.571428571428571,-1.0317460317460316,1.507936507936508,0.07936507936507936,0.23809523809523808,2.142857142857143,0.873015873015873,0.23809523809523808,-2.7777777777777777,3.571428571428571,1.1904761904761905,-3.4126984126984126,0.873015873015873,-325.0,-325.0,-325.0,-325.0,-325.0,-7.5396825396825395
-0.23809523809523808,2.142857142857143,-0.23809523809523808,1.984126984126984,-1.0317460317460316,3.571428571428571,-1.0317460317460316,1.507936507936508,0.07936507936507936,0.23809523809523808,2.142857142857143,0.873015873015873,0.23809523809523808,-2.7777777777777777,3.571428571428571,1.1904761904761905,-3.4126984126984126,0.873015873015873,-325.0,-325.0,-325.0,-325.0,-325.0,-7.5396825396825395
1.984126984126984,2.3015873015873014,3.253968253968254,-0.23809523809523808,2.619047619047619,2.46031746031746,3.73015873015873,2.619047619047619,3.253968253968254,0.7142857142857142,4.365079365079365,1.349206349206349,3.4126984126984126,-1.8253968253968254,5.634920634920634,1.984126984126984,-3.4126984126984126,0.873015873015873,-325.0,-325.0,-325.0,-325.0,-325.0,-321.8253968253968
1.984126984126984,2.3015873015873014,3.253968253968254,-0.23809523809523808,2.619047619047619,2.46031746031746,3.73015873015873,2.619047619047619,3.253968253968254,0.7142857142857142,4.365079365079365,1.349206349206349,3.4126984126984126,-1.8253968253968254,5.634920634920634,1.984126984126984,-3.4126984126984126,0.873015873015873,-325.0,-325.0,-325.0,-325.0,-325.0,-321.8253968253968
1.0317460317460316,-0.5555555555555556,2.142857142857143,0.5555555555555556,1.6666666666666665,-2.3015873015873014,2.46031746031746,0.873015873015873,3.571428571428571,1.507936507936508,4.0476190476190474,4.0476190476190474,1.507936507936508,-1.6666666666666665,3.095238095238095,0.5555555555555556,-4.2063492063492065,0.873015873015873,-325.0,-325.0,-325.0,-325.0,-325.0,-321.8253968253968
1.0317460317460316,-0.5555555555555556,2.142857142857143,0.5555555555555556,1.6666666666666665,-2.3015873015873014,2.46031746031746,0.873015873015873,3.571428571428571,1.507936507936508,4.0476190476190474,4.0476190476190474,1.507936507936508,-1.6666666666666665,3.095238095238095,0.5555555555555556,-4.2063492063492065,0.873015873015873,-325.0,-325.0,-325.0,-325.0,-325.0,-321.8253968253968
0.23809523809523808,1.984126984126984,0.07936507936507936,1.349206349206349,0.7142857142857142,2.142857142857143,1.8253968253968254,-0.873015873015873,3.4126984126984126,1.1904761904761905,5.476190476190476,0.23809523809523808,0.873015873015873,0.3968253968253968,1.984126984126984,-0.3968253968253968,-3.253968253968254,0.873015873015873,-325.0,-325.0,-325.0,-325.0,-325.0,-321.8253968253968
0.23809523809523808,1.984126984126984,0.07936507936507936,1.349206349206349,0.7142857142857142,2.142857142857143,1.8253968253968254,-0.873015873015873,3.4126984126984126,1.1904761904761905,5.476190476190476,0.23809523809523808,0.873015873015873,0.3968253968253968,1.984126984126984,-0.3968253968253968,-3.253968253968254,0.873015873015873,-325.0,-325.0,-325.0,-325.0,-325.0,-321.8253968253968
-0.3968253968253968,3.571428571428571,-2.142857142857143,2.142857142857143,-0.07936507936507936,5.634920634920634,1.1904761904761905,2.3015873015873014,2.7777777777777777,3.4126984126984126,3.095238095238095,4.2063492063492065,0.23809523809523808,0.873015873015873,-0.7142857142857142,-0.5555555555555556,-3.73015873015873,1.1904761904761905,-325.0,-325.0,-325.0,-325.0,-325.0,-321.8253968253968
-0.3968253968253968,3.571428571428571,-2.142857142857143,2.142857142857143,-0.07936507936507936,5.634920634920634,1.1904761904761905,2.3015873015873014,2.7777777777777777,3.4126984126984126,3.095238095238095,4.2063492063492065,0.23809523809523808,0.873015873015873,-0.7142857142857142,-0.5555555555555556,-3.73015873015873,1.1904761904761905,-325.0,-325.0,-325.0,-325.0,-325.0,-321.8253968253968
-2.3015873015873014,2.9365079365079363,-2.142857142857143,3.888888888888889,-2.619047619047619,3.571428571428571,-0.07936507936507936,2.619047619047619,0.873015873015873,3.73015873015873,0.873015873015873,4.2063492063492065,-0.5555555555555556,1.984126984126984,-0.23809523809523808,1.984126984126984,-2.9365079365079363,1.1904761904761905,-325.0,-325.0,-325.0,-325.0,-325.0,-321.8253968253968
-2.3015873015873014,2.9365079365079363,-2.142857142857143,3.888888888888889,-2.619047619047619,3.571428571428571,-0.07936507936507936,2.619047619047619,0.873015873015873,3.73015873015873,0.873015873015873,4.2063492063492065,-0.5555555555555556,1.984126984126984,-0.23809523809523808,1.984126984126984,-2.9365079365079363,1.1904761904761905,-325.0,-325.0,-325.0,-325.0,-325.0,-321.8253968253968
-2.142857142857143,1.0317460317460316,-2.619047619047619,1.0317460317460316,-0.873015873015873,2.9365079365079363,-1.8253968253968254,2.9365079365079363,1.507936507936508,1.0317460317460316,1.349206349206349,2.142857142857143,-1.6666666666666665,1.0317460317460316,0.5555555555555556,0.873015873015873,-3.571428571428571,0.873015873015873,-325.0,-325.0,-325.0,-325.0,-325.0,-7.5396825396825395
-2.142857142857143,1.0317460317460316,-2.619047619047619,1.0317460317460316,-0.873015873015873,2.9365079365079363,-1.8253968253968254,2.9365079365079363,1.507936507936508,1.0317460317460316,1.349206349206349,2.142857142857143,-1.6666666666666665,1.0317460317460316,0.5555555555555556,0.873015873015873,-3.571428571428571,0.873015873015873,-325.0,-325.0,-325.0,-325.0,-325.0,-7.5396825396825395
-3.4126984126984126,1.1904761904761905,-1.0317460317460316,0.07936507936507936,1.507936507936508,3.253968253968254,0.3968253968253968,2.619047619047619,1.507936507936508,3.571428571428571,2.46031746031746,4.365079365079365,-2.142857142857143,1.507936507936508,3.888888888888889,3.4126984126984126,-3.888888888888889,1.6666666666666665,-325.0,-325.0,-325.0,-325.0,-325.0,-7.5396825396825395
-3.4126984126984126,1.1904761904761905,-1.0317460317460316,0.07936507936507936,1.507936507936508,3.253968253968254,0.3968253968253968,2.619047619047619,1.507936507936508,3.571428571428571,2.46031746031746,4.365079365079365,-2.142857142857143,1.507936507936508,3.888888888888889,3.4126984126984126,-3.888888888888889,1.6666666666666665,-325.0,-325.0,-325.0,-325.0,-325.0,-7.5396825396825395
-4.682539682539682,1.349206349206349,-3.888888888888889,3.571428571428571,-3.253968253968254,2.46031746031746,-2.9365079365079363,2.3015873015873014,-3.73015873015873,3.73015873015873,-2.46031746031746,3.253968253968254,-4.365079365079365,0.7142857142857142,-1.8253968253968254,3.888888888888889,-2.9365079365079363,1.349206349206349,-325.0,-325.0,-325.0,-325.0,-325.0,-7.5396825396825395
-4.682539682539682,1.349206349206349,-3.888888888888889,3.571428571428571,-3.253968253968254,2.46031746031746,-2.9365079365079363,2.3015873015873014,-3.73015873015873,3.73015873015873,-2.46031746031746,3.253968253968254,-4.365079365079365,0.7142857142857142,-1.8253968253968254,3.888888888888889,-2.9365079365079363,1.349206349206349,-325.0,-325.0,-325.0,-325.0,-325.0,-7.5396825396825395
1.507936507936508,2.9365079365079363,1.0317460317460316,-0.873015873015873,0.873015873015873,2.3015873015873014,2.3015873015873014,1.349206349206349,2.7777777777777777,3.571428571428571,2.619047619047619,2.7777777777777777,-0.7142857142857142,0.3968253968253968,2.7777777777777777,1.507936507936508,-2.619047619047619,0.873015873015873,-325.0,-325.0,-325.0,-325.0,-325.0,-7.5396825396825395
1.507936507936508,2.9365079365079363,1.0317460317460316,-0.873015873015873,0.873015873015873,2.3015873015873014,2.3015873015873014,1.349206349206349,2.7777777777777777,3.571428571428571,2.619047619047619,2.7777777777777777,-0.7142857142857142,0.3968253968253968,2.7777777777777777,1.507936507936508,-2.619047619047619,0.873015873015873,-325.0,-325.0,-325.0,-325.0,-325.0,-7.5396825396825395
-0.23809523809523808,-1.349206349206349,-0.23809523809523808,-1.984126984126984,1.349206349206349,-1.0317460317460316,0.07936507936507936,-0.23809523809523808,0.873015873015873,-2.3015873015873014,0.7142857142857142,-1.984126984126984,-1.349206349206349,-1.0317460317460316,-1.507936507936508,-1.984126984126984,-2.9365079365079363,1.0317460317460316,-325.0,-325.0,-325.0,-325.0,-325.0,-7.5396825396825395
-0.23809523809523808,-1.349206349206349,-0.23809523809523808,-1.984126984126984,1.349206349206349,-1.0317460317460316,0.07936507936507936,-0.23809523809523808,0.873015873015873,-2.3015873015873014,0.7142857142857142,-1.984126984126984,-1.349206349206349,-1.0317460317460316,-1.507936507936508,-1.984126984126984,-2.9365079365079363,1.0317460317460316,-325.0,-325.0,-325.0,-325.0,-325.0,-7.5396825396825395
-5.476190476190476,1.6666666666666665,-3.571428571428571,2.142857142857143,-1.1904761904761905,0.7142857142857142,0.3968253968253968,-0.5555555555555556,3.73015873015873,3.73015873015873,1.507936507936508,0.5555555555555556,0.07936507936507936,-1.349206349206349,0.3968253968253968,1.349206349206349,-2.142857142857143,0.3968253968253968,-325.0,-325.0,-325.0,-325.0,-325.0,-321.8253968253968
-5.476190476190476,1.6666666666666665,-3.571428571428571,2.142857142857143,-1.1904761904761905,0.7142857142857142,0.3968253968253968,-0.5555555555555556,3.73015873015873,3.73015873015873,1.507936507936508,0.5555555555555556,0.07936507936507936,-1.349206349206349,0.3968253968253968,1.349206349206349,-2.142857142857143,0.3968253968253968,-325.0,-325.0,-325.0,-325.0,-325.0,-321.8253968253968
-1.0317460317460316,-1.1904761904761905,2.3015873015873014,3.095238095238095,1.507936507936508,0.5555555555555556,2.9365079365079363,1.1904761904761905,5.7936507936507935,0.3968253968253968,1.1904761904761905,2.142857142857143,3.73015873015873,-0.5555555555555556,4.523809523809524,-2.142857142857143,-2.46031746031746,0.7142857142857142,-325.0,-325.0,-325.0,-325.0,-325.0,-321.8253968253968
-1.0317460317460316,-1.1904761904761905,2.3015873015873014,3.095238095238095,1.507936507936508,0.5555555555555556,2.9365079365079363,1.1904761904761905,5.7936507936507935,0.3968253968253968,1.1904761904761905,2.142857142857143,3.73015873015873,-0.5555555555555556,4.523809523809524,-2.142857142857143,-2.46031746031746,0.7142857142857142,-325.0,-325.0,-325.0,-325.0,-325.0,-321.8253968253968
-0.7142857142857142,0.3968253968253968,2.3015873015873014,3.888888888888889,0.873015873015873,3.4126984126984126,0.3968253968253968,1.8253968253968254,3.888888888888889,1.984126984126984,2.3015873015873014,3.571428571428571,-0.23809523809523808,-0.23809523809523808,2.3015873015873014,1.349206349206349,-2.619047619047619,0.5555555555555556,-325.0,-325.0,-325.0,-325.0,-325.0,-321.8253968253968
-0.7142857142857142,0.3968253968253968,2.3015873015873014,3.888888888888889,0.873015873015873,3.4126984126984126,0.3968253968253968,1.8253968253968254,3.888888888888889,1.984126984126984,2.3015873015873014,3.571428571428571,-0.23809523809523808,-0.23809523809523808,2.3015873015873014,1.349206349206349,-2.619047619047619,0.5555555555555556,-325.0,-325.0,-325.0,-325.0,-325.0,-321.8253968253968
-0.5555555555555556,0.7142857142857142,1.0317460317460316,4.0476190476190474,1.349206349206349,3.253968253968254,1.507936507936508,2.7777777777777777,4.841269841269841,3.888888888888889,0.873015873015873,6.26984126984127,4.2063492063492065,-0.5555555555555556,3.888888888888889,1.8253968253968254,-2.3015873015873014,0.5555555555555556,-325.0,-325.0,-325.0,-325.0,-325.0,-321.8253968253968
-0.5555555555555556,0.7142857142857142,1.0317460317460316,4.0476190476190474,1.349206349206349,3.253968253968254,1.507936507936508,2.7777777777777777,4.841269841269841,3.888888888888889,0.873015873015873,6.26984126984127,4.2063492063492065,-0.5555555555555556,3.888888888888889,1.8253968253968254,-2.3015873015873014,0.5555555555555556,-325.0,-325.0,-325.0,-325.0,-325.0,-321.8253968253968
-1.8253968253968254,-0.7142857142857142,0.873015873015873,1.0317460317460316,1.984126984126984,0.5555555555555556,0.07936507936507936,0.873015873015873,4.0476190476190474,0.3968253968253968,0.07936507936507936,1.349206349206349,1.349206349206349,-0.5555555555555556,4.2063492063492065,-1.349206349206349,-2.46031746031746,0.7142857142857142,-325.0,-325.0,-325.0,-325.0,-325.0,-321.8253968253968
-1.8253968253968254,-0.7142857142857142,0.873015873015873,1.0317460317460316,1.984126984126984,0.5555555555555556,0.07936507936507936,0.873015873015873,4.0476190476190474,0.3968253968253968,0.07936507936507936,1.349206349206349,1.349206349206349,-0.5555555555555556,4.2063492063492065,-1.349206349206349,-2.46031746031746,0.7142857142857142,-325.0,-325.0,-325.0,-325.0,-325.0,-321.8253968253968
-0.5555555555555556,-0.23809523809523808,3.095238095238095,1.349206349206349,2.3015873015873014,1.8253968253968254,1.507936507936508,1.1904761904761905,3.888888888888889,1.0317460317460316,1.984126984126984,-0.23809523809523808,1.8253968253968254,-0.3968253968253968,5.634920634920634,0.07936507936507936,-2.619047619047619,0.5555555555555556,-325.0,-325.0,-325.0,-325.0,-325.0,-7.5396825396825395
-0.5555555555555556,-0.23809523809523808,3.095238095238095,1.349206349206349,2.3015873015873014,1.8253968253968254,1.507936507936508,1.1904761904761905,3.888888888888889,1.0317460317460316,1.984126984126984,-0.23809523809523808,1.8253968253968254,-0.3968253968253968,5.634920634920634,0.07936507936507936,-2.619047619047619,0.5555555555555556,-325.0,-325.0,-325.0,-325.0,-325.0,-7.5396825396825395
-3.253968253968254,-2.3015873015873014,-1.6666666666666665,1.8253968253968254,0.07936507936507936,2.3015873015873014,0.3968253968253968,0.873015873015873,0.3968253968253968,-1.6666666666666665,0.3968253968253968,-1.349206349206349,-0.873015873015873,-3.73015873015873,1.984126984126984,-0.23809523809523808,-3.095238095238095,1.0317460317460316,-325.0,-325.0,-325.0,-325.0,-325.0,-7.5396825396825395
-3.253968253968254,-2.3015873015873014,-1.6666666666666665,1.8253968253968254,0.07936507936507936,2.3015873015873014,0.3968253968253968,0.873015873015873,0.3968253968253968,-1.6666666666666665,0.3968253968253968,-1.349206349206349,-0.873015873015873,-3.73015873015873,1.984126984126984,-0.23809523809523808,-3.095238095238095,1.0317460317460316,-325.0,-325.0,-325.0,-325.0,-325.0,-7.5396825396825395
-1.1904761904761905,1.349206349206349,0.23809523809523808,3.095238095238095,2.142857142857143,2.9365079365079363,1.0317460317460316,3.095238095238095,1.6666666666666665,4.523809523809524,2.619047619047619,1.6666666666666665,1.0317460317460316,0.07936507936507936,0.7142857142857142,1.507936507936508,-2.9365079365079363,0.5555555555555556,-325.0,-325.0,-325.0,-325.0,-325.0,-7.5396825396825395
-1.1904761904761905,1.349206349206349,0.23809523809523808,3.095238095238095,2.142857142857143,2.9365079365079363,1.0317460317460316,3.095238095238095,1.6666666666666665,4.523809523809524,2.619047619047619,1.6666666666666665,1.0317460317460316,0.07936507936507936,0.7142857142857142,1.507936507936508,-2.9365079365079363,0.5555555555555556,-325.0,-325.0,-325.0,-325.0,-325.0,-7.5396825396825395
-1.349206349206349,1.0317460317460316,-1.8253968253968254,-0.873015873015873,1.8253968253968254,0.23809523809523808,-0.5555555555555556,4.2063492063492065,0.873015873015873,1.8253968253968254,0.7142857142857142,2.7777777777777777,-1.1904761904761905,-4.2063492063492065,-0.5555555555555556,-2.142857142857143,-3.253968253968254,0.5555555555555556,-325.0,-325.0,-325.0,-325.0,-325.0,-7.5396825396825395
-1.349206349206349,1.0317460317460316,-1.8253968253968254,-0.873015873015873,1.8253968253968254,0.23809523809523808,-0.5555555555555556,4.2063492063492065,0.873015873015873,1.8253968253968254,0.7142857142857142,2.7777777777777777,-1.1904761904761905,-4.2063492063492065,-0.5555555555555556,-2.142857142857143,-3.253968253968254,0.5555555555555556,-325.0,-325.0,-325.0,-325.0,-325.0,-7.5396825396825395
-1.1904761904761905,-0.07936507936507936,-1.984126984126984,2.46031746031746,0.3968253968253968,2.46031746031746,1.0317460317460316,5.952380952380952,-0.23809523809523808,2.142857142857143,0.5555555555555556,4.841269841269841,-1.6666666666666665,1.1904761904761905,1.1904761904761905,2.46031746031746,-3.095238095238095,0.5555555555555556,-325.0,-325.0,-325.0,-325.0,-325.0,-7.5396825396825395
-1.1904761904761905,-0.07936507936507936,-1.984126984126984,2.46031746031746,0.3968253968253968,2.46031746031746,1.0317460317460316,5.952380952380952,-0.23809523809523808,2.142857142857143,0.5555555555555556,4.841269841269841,-1.6666666666666665,1.1904761904761905,1.1904761904761905,2.46031746031746,-3.095238095238095,0.5555555555555556,-325.0,-325.0,-325.0,-325.0,-325.0,-7.5396825396825395
-4.2063492063492065,-0.873015873015873,-1.0317460317460316,2.7777777777777777,-1.1904761904761905,0.23809523809523808,2.3015873015873014,1.1904761904761905,-0.07936507936507936,1.1904761904761905,-0.3968253968253968,3.4126984126984126,-0.873015873015873,-2.9365079365079363,0.7142857142857142,0.7142857142857142,-3.571428571428571,0.873015873015873,-325.0,-325.0,-325.0,-325.0,-325.0,-321.8253968253968
-4.2063492063492065,-0.873015873015873,-1.0317460317460316,2.7777777777777777,-1.1904761904761905,0.23809523809523808,2.3015873015873014,1.1904761904761905,-0.07936507936507936,1.1904761904761905,-0.3968253968253968,3.4126984126984126,-0.873015873015873,-2.9365079365079363,0.7142857142857142,0.7142857142857142,-3.571428571428571,0.873015873015873,-325.0,-325.0,-325.0,-325.0,-325.0,-321.8253968253968
-6.428571428571428,-1.984126984126984,-1.6666666666666665,0.5555555555555556,-1.984126984126984,-0.873015873015873,-2.142857142857143,-0.3968253968253968,0.5555555555555556,1.1904761904761905,-1.349206349206349,-0.07936507936507936,-3.571428571428571,-1.6666666666666665,0.3968253968253968,1.1904761904761905,-3.253968253968254,0.7142857142857142,-325.0,-325.0,-325.0,-325.0,-325.0,-321.8253968253968
-6.428571428571428,-1.984126984126984,-1.6666666666666665,0.5555555555555556,-1.984126984126984,-0.873015873015873,-2.142857142857143,-0.3968253968253968,0.5555555555555556,1.1904761904761905,-1.349206349206349,-0.07936507936507936,-3.571428571428571,-1.6666666666666665,0.3968253968253968,1.1904761904761905,-3.253968253968254,0.7142857142857142,-325.0,-325.0,-325.0,-325.0,-325.0,-321.8253968253968
-3.73015873015873,1.0317460317460316,-3.4126984126984126,2.46031746031746,-2.9365079365079363,2.9365079365079363,2.142857142857143,1.1904761904761905,1.349206349206349,5.0,0.23809523809523808,1.984126984126984,-1.6666666666666665,0.5555555555555556,0.3968253968253968,4.0476190476190474,-3.4126984126984126,0.3968253968253968,-325.0,-325.0,-325.0,-325.0,-325.0,-321.8253968253968
-3.73015873015873,1.0317460317460316,-3.4126984126984126,2.46031746031746,-2.9365079365079363,2.9365079365079363,2.142857142857143,1.1904761904761905,1.349206349206349,5.0,0.23809523809523808,1.984126984126984,-1.6666666666666665,0.5555555555555556,0.3968253968253968,4.0476190476190474,-3.4126984126984126,0.3968253968253968,-325.0,-325.0,-325.0,-325.0,-325.0,-321.8253968253968
-1.349206349206349,0.5555555555555556,-3.095238095238095,2.3015873015873014,-1.507936507936508,2.3015873015873014,-1.349206349206349,-1.1904761904761905,-1.507936507936508,1.984126984126984,2.142857142857143,1.507936507936508,-1.984126984126984,0.873015873015873,1.507936507936508,1.507936507936508,-2.7777777777777777,0.07936507936507936,-325.0,-325.0,-325.0,-325.0,-325.0,-321.8253968253968
-1.349206349206349,0.5555555555555556,-3.095238095238095,2.3015873015873014,-1.507936507936508,2.3015873015873014,-1.349206349206349,-1.1904761904761905,-1.507936507936508,1.984126984126984,2.142857142857143,1.507936507936508,-1.984126984126984,0.873015873015873,1.507936507936508,1.507936507936508,-2.7777777777777777,0.07936507936507936,-325.0,-325.0,-325.0,-325.0,-325.0,-321.8253968253968
0.5555555555555556,-1.0317460317460316,-0.5555555555555556,1.1904761904761905,0.3968253968253968,-0.7142857142857142,-1.349206349206349,-2.7777777777777777,1.0317460317460316,1.349206349206349,1.0317460317460316,0.23809523809523808,-1.349206349206349,-0.23809523809523808,-0.23809523809523808,0.7142857142857142,-2.46031746031746,0.873015873015873,-325.0,-325.0,-325.0,-325.0,-325.0,-321.8253968253968
0.5555555555555556,-1.0317460317460316,-0.5555555555555556,1.1904761904761905,0.3968253968253968,-0.7142857142857142,-1.349206349206349,-2.7777777777777777,1.0317460317460316,1.349206349206349,1.0317460317460316,0.23809523809523808,-1.349206349206349,-0.23809523809523808,-0.23809523809523808,0.7142857142857142,-2.46031746031746,0.873015873015873,-325.0,-325.0,-325.0,-325.0,-325.0,-321.8253968253968
-1.1904761904761905,-0.3968253968253968,-2.619047619047619,0.23809523809523808,0.5555555555555556,-1.6666666666666665,0.7142857142857142,-2.46031746031746,0.7142857142857142,-0.7142857142857142,2.46031746031746,-1.507936507936508,0.7142857142857142,-2.3015873015873014,1.984126984126984,-0.3968253968253968,-2.3015873015873014,0.873015873015873,-325.0,-325.0,-325.0,-325.0,-325.0,-7.5396825396825395
-1.1904761904761905,-0.3968253968253968,-2.619047619047619,0.23809523809523808,0.5555555555555556,-1.6666666666666665,0.7142857142857142,-2.46031746031746,0.7142857142857142,-0.7142857142857142,2.46031746031746,-1.507936507936508,0.7142857142857142,-2.3015873015873014,1.984126984126984,-0.3968253968253968,-2.3015873015873014,0.873015873015873,-325.0,-325.0,-325.0,-325.0,-325.0,-7.5396825396825395
-1.6666666666666665,-0.873015873015873,-0.07936507936507936,1.984126984126984,-0.5555555555555556,3.095238095238095,1.1904761904761905,3.4126984126984126,0.23809523809523808,1.0317460317460316,1.349206349206349,3.73015873015873,-1.6666666666666665,0.23809523809523808,3.095238095238095,0.3968253968253968,-2.7777777777777777,1.0317460317460316,-325.0,-325.0,-325.0,-325.0,-325.0,-7.5396825396825395
-1.6666666666666665,-0.873015873015873,-0.07936507936507936,1.984126984126984,-0.5555555555555556,3.095238095238095,1.1904761904761905,3.4126984126984126,0.23809523809523808,1.0317460317460316,1.349206349206349,3.73015873015873,-1.6666666666666665,0.23809523809523808,3.095238095238095,0.3968253968253968,-2.7777777777777777,1.0317460317460316,-325.0,-325.0,-325.0,-325.0,-325.0,-7.5396825396825395
1.0317460317460316,-0.5555555555555556,1.984126984126984,-0.7142857142857142,2.7777777777777777,-0.7142857142857142,5.158730158730158,3.253968253968254,3.095238095238095,0.23809523809523808,5.0,0.5555555555555556,1.507936507936508,-2.9365079365079363,5.0,-1.1904761904761905,-3.4126984126984126,1.349206349206349,-325.0,-325.0,-325.0,-325.0,-325.0,-7.5396825396825395
1.0317460317460316,-0.5555555555555556,1.984126984126984,-0.7142857142857142,2.7777777777777777,-0.7142857142857142,5.158730158730158,3.253968253968254,3.095238095238095,0.23809523809523808,5.0,0.5555555555555556,1.507936507936508,-2.9365079365079363,5.0,-1.1904761904761905,-3.4126984126984126,1.349206349206349,-325.0,-325.0,-325.0,-325.0,-325.0,-7.5396825396825395
-0.7142857142857142,5.317460317460317,-0.7142857142857142,2.619047619047619,-1.8253968253968254,3.253968253968254,3.095238095238095,3.73015873015873,-0.3968253968253968,3.73015873015873,1.8253968253968254,1.984126984126984,0.23809523809523808,1.6666666666666665,3.253968253968254,2.9365079365079363,-4.0476190476190474,1.1904761904761905,-325.0,-325.0,-325.0,-325.0,-325.0,-7.5396825396825395
-0.7142857142857142,5.317460317460317,-0.7142857142857142,2.619047619047619,-1.8253968253968254,3.253968253968254,3.095238095238095,3.73015873015873,-0.3968253968253968,3.73015873015873,1.8253968253968254,1.984126984126984,0.23809523809523808,1.6666666666666665,3.253968253968254,2.9365079365079363,-4.0476190476190474,1.1904761904761905,-325.0,-325.0,-325.0,-325.0,-325.0,-7.5396825396825395
0.07936507936507936,-1.8253968253968254,-1.0317460317460316,0.7142857142857142,-1.1904761904761905,-1.984126984126984,-1.0317460317460316,-1.6666666666666665,0.3968253968253968,-1.507936507936508,0.23809523809523808,0.07936507936507936,1.0317460317460316,-3.095238095238095,1.984126984126984,-4.2063492063492065,-3.73015873015873,1.0317460317460316,-325.0,-325.0,-325.0,-325.0,-325.0,-7.5396825396825395
0.07936507936507936,-1.8253968253968254,-1.0317460317460316,0.7142857142857142,-1.1904761904761905,-1.984126984126984,-1.0317460317460316,-1.6666666666666665,0.3968253968253968,-1.507936507936508,0.23809523809523808,0.07936507936507936,1.0317460317460316,-3.095238095238095,1.984126984126984,-4.2063492063492065,-3.73015873015873,1.0317460317460316,-325.0,-325.0,-325.0,-325.0,-325.0,-7.5396825396825395
-1.984126984126984,-0.23809523809523808,-0.873015873015873,0.07936507936507936,4.2063492063492065,0.07936507936507936,0.5555555555555556,0.7142857142857142,2.619047619047619,1.0317460317460316,1.349206349206349,2.3015873015873014,0.873015873015873,-0.3968253968253968,2.46031746031746,0.5555555555555556,-3.253968253968254,0.7142857142857142,-325.0,-325.0,-325.0,-325.0,-325.0,-321.8253968253968
-1.984126984126984,-0.23809523809523808,-0.873015873015873,0.07936507936507936,4.2063492063492065,0.07936507936507936,0.5555555555555556,0.7142857142857142,2.619047619047619,1.0317460317460316,1.349206349206349,2.3015873015873014,0.873015873015873,-0.3968253968253968,2.46031746031746,0.5555555555555556,-3.253968253968254,0.7142857142857142,-325.0,-325.0,-325.0,-325.0,-325.0,-321.8253968253968
-2.7777777777777777,2.7777777777777777,0.07936507936507936,3.095238095238095,0.23809523809523808,3.4126984126984126,1.1904761904761905,2.142857142857143,2.7777777777777777,2.3015873015873014,-0.5555555555555556,2.3015873015873014,-0.23809523809523808,-0.5555555555555556,3.253968253968254,1.349206349206349,-3.4126984126984126,0.873015873015873,-325.0,-325.0,-325.0,-325.0,-325.0,-321.8253968253968
-2.7777777777777777,2.7777777777777777,0.07936507936507936,3.095238095238095,0.23809523809523808,3.4126984126984126,1.1904761904761905,2.142857142857143,2.7777777777777777,2.3015873015873014,-0.5555555555555556,2.3015873015873014,-0.23809523809523808,-0.5555555555555556,3.253968253968254,1.349206349206349,-3.4126984126984126,0.873015873015873,-325.0,-325.0,-325.0,-325.0,-325.0,-321.8253968253968
-2.142857142857143,1.1904761904761905,-1.8253968253968254,1.984126984126984,-0.3968253968253968,1.6666666666666665,0.5555555555555556,1.6666666666666665,1.984126984126984,2.7777777777777777,0.23809523809523808,1.349206349206349,-0.23809523809523808,-1.349206349206349,4.365079365079365,-0.873015873015873,-2.9365079365079363,1.0317460317460316,-325.0,-325.0,-325.0,-325.0,-325.0,-321.8253968253968
-2.142857142857143,1.1904761904761905,-1.8253968253968254,1.984126984126984,-0.3968253968253968,1.6666666666666665,0.5555555555555556,1.6666666666666665,1.984126984126984,2.7777777777777777,0.23809523809523808,1.349206349206349,-0.23809523809523808,-1.349206349206349,4.365079365079365,-0.873015873015873,-2.9365079365079363,1.0317460317460316,-325.0,-325.0,-325.0,-325.0,-325.0,-321.8253968253968
-5.7936507936507935,1.6666666666666665,-0.5555555555555556,-1.0317460317460316,-2.3015873015873014,-0.3968253968253968,-0.7142857142857142,4.365079365079365,-0.07936507936507936,2.142857142857143,-0.07936507936507936,0.7142857142857142,-1.6666666666666665,-2.3015873015873014,2.9365079365079363,0.07936507936507936,-3.571428571428571,0.3968253968253968,-325.0,-325.0,-325.0,-325.0,-325.0,-321.8253968253968
-5.7936507936507935,1.6666666666666665,-0.5555555555555556,-1.0317460317460316,-2.3015873015873014,-0.3968253968253968,-0.7142857142857142,4.365079365079365,-0.07936507936507936,2.142857142857143,-0.07936507936507936,0.7142857142857142,-1.6666666666666665,-2.3015873015873014,2.9365079365079363,0.07936507936507936,-3.571428571428571,0.3968253968253968,-325.0,-325.0,-325.0,-325.0,-325.0,-321.8253968253968
-1.984126984126984,0.5555555555555556,-0.3968253968253968,-0.23809523809523808,1.6666666666666665,2.46031746031746,1.349206349206349,1.6666666666666665,3.095238095238095,0.7142857142857142,2.46031746031746,0.5555555555555556,2.3015873015873014,0.5555555555555556,3.571428571428571,0.873015873015873,-3.4126984126984126,0.23809523809523808,-325.0,-325.0,-325.0,-325.0,-325.0,-321.8253968253968
-1.984126984126984,0.5555555555555556,-0.3968253968253968,-0.23809523809523808,1.6666666666666665,2.46031746031746,1.349206349206349,1.6666666666666665,3.095238095238095,0.7142857142857142,2.46031746031746,0.5555555555555556,2.3015873015873014,0.5555555555555556,3.571428571428571,0.873015873015873,-3.4126984126984126,0.23809523809523808,-325.0,-325.0,-325.0,-325.0,-325.0,-321.8253968253968
-1.1904761904761905,-2.142857142857143,-4.523809523809524,0.3968253968253968,3.095238095238095,0.23809523809523808,1.507936507936508,0.873015873015873,3.888888888888889,0.873015873015873,0.873015873015873,-0.7142857142857142,0.7142857142857142,1.984126984126984,0.873015873015873,1.349206349206349,-3.571428571428571,1.0317460317460316,-325.0,-325.0,-325.0,-325.0,-325.0,-7.5396825396825395
-1.1904761904761905,-2.142857142857143,-4.523809523809524,0.3968253968253968,3.095238095238095,0.23809523809523808,1.507936507936508,0.873015873015873,3.888888888888889,0.873015873015873,0.873015873015873,-0.7142857142857142,0.7142857142857142,1.984126984126984,0.873015873015873,1.349206349206349,-3.571428571428571,1.0317460317460316,-325.0,-325.0,-325.0,-325.0,-325.0,-7.5396825396825395
-1.6666666666666665,0.3968253968253968,-2.142857142857143,0.3968253968253968,1.8253968253968254,1.6666666666666665,-0.23809523809523808,0.873015873015873,2.7777777777777777,2.142857142857143,-0.07936507936507936,-0.07936507936507936,-0.7142857142857142,0.7142857142857142,1.1904761904761905,2.3015873015873014,-3.253968253968254,0.07936507936507936,-325.0,-325.0,-325.0,-325.0,-325.0,-7.5396825396825395
-1.6666666666666665,0.3968253968253968,-2.142857142857143,0.3968253968253968,1.8253968253968254,1.6666666666666665,-0.23809523809523808,0.873015873015873,2.7777777777777777,2.142857142857143,-0.07936507936507936,-0.07936507936507936,-0.7142857142857142,0.7142857142857142,1.1904761904761905,2.3015873015873014,-3.253968253968254,0.07936507936507936,-325.0,-325.0,-325.0,-325.0,-325.0,-7.5396825396825395
-3.571428571428571,-0.07936507936507936,-1.349206349206349,1.6666666666666665,-2.3015873015873014,0.3968253968253968,-1.0317460317460316,0.7142857142857142,0.3968253968253968,-0.873015873015873,-2.9365079365079363,1.349206349206349,-3.253968253968254,-0.5555555555555556,-1.8253968253968254,0.23809523809523808,-3.571428571428571,0.3968253968253968,-325.0,-325.0,-325.0,-325.0,-325.0,-7.5396825396825395
-3.571428571428571,-0.07936507936507936,-1.349206349206349,1.6666666666666665,-2.3015873015873014,0.3968253968253968,-1.0317460317460316,0.7142857142857142,0.3968253968253968,-0.873015873015873,-2.9365079365079363,1.349206349206349,-3.253968253968254,-0.5555555555555556,-1.8253968253968254,0.23809523809523808,-3.571428571428571,0.3968253968253968,-325.0,-325.0,-325.0,-325.0,-325.0,-7.5396825396825395
-0.7142857142857142,-2.142857142857143,1.349206349206349,-0.23809523809523808,1.6666666666666665,4.365079365079365,2.3015873015873014,2.3015873015873014,2.9365079365079363,1.8253968253968254,1.507936507936508,0.23809523809523808,-1.1904761904761905,-0.5555555555555556,2.142857142857143,0.3968253968253968,-4.0476190476190474,0.7142857142857142,-325.0,-325.0,-325.0,-325.0,-325.0,-7.5396825396825395
-0.7142857142857142,-2.142857142857143,1.349206349206349,-0.23809523809523808,1.6666666666666665,4.365079365079365,2.3015873015873014,2.3015873015873014,2.9365079365079363,1.8253968253968254,1.507936507936508,0.23809523809523808,-1.1904761904761905,-0.5555555555555556,2.142857142857143,0.3968253968253968,-4.0476190476190474,0.7142857142857142,-325.0,-325.0,-325.0,-325.0,-325.0,-7.5396825396825395
-2.7777777777777777,-1.0317460317460316,-0.3968253968253968,0.873015873015873,-0.7142857142857142,1.0317460317460316,1.6666666666666665,0.07936507936507936,2.619047619047619,3.253968253968254,1.507936507936508,0.07936507936507936,2.7777777777777777,-0.873015873015873,2.9365079365079363,1.1904761904761905,-4.0476190476190474,0.5555555555555556,-325.0,-325.0,-325.0,-325.0,-325.0,-7.5396825396825395
-2.7777777777777777,-1.0317460317460316,-0.3968253968253968,0.873015873015873,-0.7142857142857142,1.0317460317460316,1.6666666666666665,0.07936507936507936,2.619047619047619,3.253968253968254,1.507936507936508,0.07936507936507936,2.7777777777777777,-0.873015873015873,2.9365079365079363,1.1904761904761905,-4.0476190476190474,0.5555555555555556,-325.0,-325.0,-325.0,-325.0,-325.0,-7.5396825396825395
-0.3968253968253968,-1.6666666666666665,1.0317460317460316,1.0317460317460316,-1.6666666666666665,0.873015873015873,0.5555555555555556,1.8253968253968254,1.507936507936508,1.6666666666666665,0.3968253968253968,0.5555555555555556,-0.7142857142857142,2.3015873015873014,1.1904761904761905,0.07936507936507936,-3.4126984126984126,0.23809523809523808,-325.0,-325.0,-325.0,-325.0,-325.0,-321.8253968253968
-0.3968253968253968,-1.6666666666666665,1.0317460317460316,1.0317460317460316,-1.6666666666666665,0.873015873015873,0.5555555555555556,1.8253968253968254,1.507936507936508,1.6666666666666665,0.3968253968253968,0.5555555555555556,-0.7142857142857142,2.3015873015873014,1.1904761904761905,0.07936507936507936,-3.4126984126984126,0.23809523809523808,-325.0,-325.0,-325.0,-325.0,-325.0,-321.8253968253968
0.873015873015873,-1.0317460317460316,-1.0317460317460316,2.7777777777777777,0.3968253968253968,1.507936507936508,1.0317460317460316,2.3015873015873014,5.476190476190476,4.523809523809524,1.6666666666666665,1.984126984126984,1.507936507936508,-2.142857142857143,2.619047619047619,-1.349206349206349,-3.253968253968254,0.23809523809523808,-325.0,-325.0,-325.0,-325.0,-325.0,-321.8253968253968
0.873015873015873,-1.0317460317460316,-1.0317460317460316,2.7777777777777777,0.3968253968253968,1.507936507936508,1.0317460317460316,2.3015873015873014,5.476190476190476,4.523809523809524,1.6666666666666665,1.984126984126984,1.507936507936508,-2.142857142857143,2.619047619047619,-1.349206349206349,-3.253968253968254,0.23809523809523808,-325.0,-325.0,-325.0,-325.0,-325.0,-321.8253968253968
-1.984126984126984,1.349206349206349,-0.23809523809523808,0.873015873015873,1.0317460317460316,2.619047619047619,0.23809523809523808,3.095238095238095,1.6666666666666665,4.365079365079365,1.349206349206349,-0.873015873015873,-1.1904761904761905,-1.984126984126984,0.5555555555555556,1.349206349206349,-3.4126984126984126,-0.23809523809523808,-325.0,-325.0,-325.0,-325.0,-325.0,-321.8253968253968
-1.984126984126984,1.349206349206349,-0.23809523809523808,0.873015873015873,1.0317460317460316,2.619047619047619,0.23809523809523808,3.095238095238095,1.6666666666666665,4.365079365079365,1.349206349206349,-0.873015873015873,-1.1904761904761905,-1.984126984126984,0.5555555555555556,1.349206349206349,-3.4126984126984126,-0.23809523809523808,-325.0,-325.0,-325.0,-325.0,-325.0,-321.8253968253968
0.3968253968253968,0.5555555555555556,-1.349206349206349,2.46031746031746,-1.0317460317460316,1.1904761904761905,-0.5555555555555556,-1.1904761904761905,2.619047619047619,3.571428571428571,-0.873015873015873,1.0317460317460316,-1.984126984126984,0.23809523809523808,3.095238095238095,1.6666666666666665,-3.888888888888889,0.07936507936507936,-325.0,-325.0,-325.0,-325.0,-325.0,-321.8253968253968
0.3968253968253968,0.5555555555555556,-1.349206349206349,2.46031746031746,-1.0317460317460316,1.1904761904761905,-0.5555555555555556,-1.1904761904761905,2.619047619047619,3.571428571428571,-0.873015873015873,1.0317460317460316,-1.984126984126984,0.23809523809523808,3.095238095238095,1.6666666666666665,-3.888888888888889,0.07936507936507936,-325.0,-325.0,-325.0,-325.0,-325.0,-321.8253968253968
-1.507936507936508,-1.1904761904761905,0.3968253968253968,1.1904761904761905,2.142857142857143,-0.5555555555555556,3.253968253968254,1.0317460317460316,4.682539682539682,1.349206349206349,3.73015873015873,0.23809523809523808,1.0317460317460316,-0.7142857142857142,5.0,0.873015873015873,-3.253968253968254,0.07936507936507936,-325.0,-325.0,-325.0,-325.0,-325.0,-321.8253968253968
-1.507936507936508,-1.1904761904761905,0.3968253968253968,1.1904761904761905,2.142857142857143,-0.5555555555555556,3.253968253968254,1.0317460317460316,4.682539682539682,1.349206349206349,3.73015873015873,0.23809523809523808,1.0317460317460316,-0.7142857142857142,5.0,0.873015873015873,-3.253968253968254,0.07936507936507936,-325.0,-325.0,-325.0,-325.0,-325.0,-321.8253968253968
-3.4126984126984126,2.7777777777777777,-1.349206349206349,3.571428571428571,0.23809523809523808,1.6666666666666665,1.507936507936508,3.095238095238095,1.349206349206349,1.349206349206349,3.73015873015873,1.6666666666666665,-1.1904761904761905,1.6666666666666665,2.142857142857143,1.1904761904761905,-3.253968253968254,0.3968253968253968,-325.0,-325.0,-325.0,-325.0,-325.0,-7.5396825396825395
-3.4126984126984126,2.7777777777777777,-1.349206349206349,3.571428571428571,0.23809523809523808,1.6666666666666665,1.507936507936508,3.095238095238095,1.349206349206349,1.349206349206349,3.73015873015873,1.6666666666666665,-1.1904761904761905,1.6666666666666665,2.142857142857143,1.1904761904761905,-3.253968253968254,0.3968253968253968,-325.0,-325.0,-325.0,-325.0,-325.0,-7.5396825396825395
-1.984126984126984,2.7777777777777777,-0.873015873015873,2.46031746031746,-0.23809523809523808,2.9365079365079363,-0.873015873015873,3.888888888888889,3.4126984126984126,4.523809523809524,1.507936507936508,4.841269841269841,-0.7142857142857142,0.3968253968253968,0.5555555555555556,2.142857142857143,-3.253968253968254,-0.23809523809523808,-325.0,-325.0,-325.0,-325.0,-325.0,-7.5396825396825395
-1.984126984126984,2.7777777777777777,-0.873015873015873,2.46031746031746,-0.23809523809523808,2.9365079365079363,-0.873015873015873,3.888888888888889,3.4126984126984126,4.523809523809524,1.507936507936508,4.841269841269841,-0.7142857142857142,0.3968253968253968,0.5555555555555556,2.142857142857143,-3.253968253968254,-0.23809523809523808,-325.0,-325.0,-325.0,-325.0,-325.0,-7.5396825396825395
-6.111111111111111,-0.5555555555555556,-4.523809523809524,1.507936507936508,-1.349206349206349,1.1904761904761905,-0.23809523809523808,1.1904761904761905,0.23809523809523808,2.142857142857143,0.23809523809523808,4.365079365079365,-1.349206349206349,-1.8253968253968254,-0.873015873015873,3.73015873015873,-2.619047619047619,0.3968253968253968,-325.0,-325.0,-325.0,-325.0,-325.0,-7.5396825396825395
-6.111111111111111,-0.5555555555555556,-4.523809523809524,1.507936507936508,-1.349206349206349,1.1904761904761905,-0.23809523809523808,1.1904761904761905,0.23809523809523808,2.142857142857143,0.23809523809523808,4.365079365079365,-1.349206349206349,-1.8253968253968254,-0.873015873015873,3.73015873015873,-2.619047619047619,0.3968253968253968,-325.0,-325.0,-325.0,-325.0,-325.0,-7.5396825396825395
-2.619047619047619,1.1904761904761905,-0.7142857142857142,3.571428571428571,0.7142857142857142,3.4126984126984126,2.619047619047619,-0.3968253968253968,2.619047619047619,2.7777777777777777,1.1904761904761905,0.3968253968253968,-0.23809523809523808,1.984126984126984,3.253968253968254,0.23809523809523808,-2.9365079365079363,0.07936507936507936,-325.0,-325.0,-325.0,-325.0,-325.0,-7.5396825396825395
-2.619047619047619,1.1904761904761905,-0.7142857142857142,3.571428571428571,0.7142857142857142,3.4126984126984126,2.619047619047619,-0.3968253968253968,2.619047619047619,2.7777777777777777,1.1904761904761905,0.3968253968253968,-0.23809523809523808,1.984126984126984,3.253968253968254,0.23809523809523808,-2.9365079365079363,0.07936507936507936,-325.0,-325.0,-325.0,-325.0,-325.0,-7.5396825396825395
-3.571428571428571,-0.873015873015873,-1.1904761904761905,2.46031746031746,-1.0317460317460316,0.873015873015873,-0.23809523809523808,0.7142857142857142,1.8253968253968254,3.4126984126984126,-2.619047619047619,1.984126984126984,-0.873015873015873,-1.349206349206349,2.142857142857143,-0.873015873015873,-3.253968253968254,0.3968253968253968,-325.0,-325.0,-325.0,-325.0,-325.0,-7.5396825396825395
-3.571428571428571,-0.873015873015873,-1.1904761904761905,2.46031746031746,-1.0317460317460316,0.873015873015873,-0.23809523809523808,0.7142857142857142,1.8253968253968254,3.4126984126984126,-2.619047619047619,1.984126984126984,-0.873015873015873,-1.349206349206349,2.142857142857143,-0.873015873015873,-3.253968253968254,0.3968253968253968,-325.0,-325.0,-325.0,-325.0,-325.0,-7.5396825396825395
-2.3015873015873014,-0.7142857142857142,-3.888888888888889,0.5555555555555556,-0.873015873015873,3.095238095238095,-0.7142857142857142,1.1904761904761905,-0.5555555555555556,0.07936507936507936,-0.5555555555555556,1.8253968253968254,0.23809523809523808,0.7142857142857142,0.5555555555555556,1.0317460317460316,-2.9365079365079363,0.7142857142857142,-325.0,-325.0,-325.0,-325.0,-325.0,-321.8253968253968
-2.3015873015873014,-0.7142857142857142,-3.888888888888889,0.5555555555555556,-0.873015873015873,3.095238095238095,-0.7142857142857142,1.1904761904761905,-0.5555555555555556,0.07936507936507936,-0.5555555555555556,1.8253968253968254,0.23809523809523808,0.7142857142857142,0.5555555555555556,1.0317460317460316,-2.9365079365079363,0.7142857142857142,-325.0,-325.0,-325.0,-325.0,-325.0,-321.8253968253968
-1.1904761904761905,0.3968253968253968,-0.873015873015873,1.6666666666666665,-0.5555555555555556,0.07936507936507936,-0.873015873015873,3.253968253968254,1.984126984126984,0.5555555555555556,-0.5555555555555556,1.349206349206349,3.095238095238095,-0.23809523809523808,2.3015873015873014,1.0317460317460316,-3.095238095238095,0.873015873015873,-325.0,-325.0,-325.0,-325.0,-325.0,-321.8253968253968
-1.1904761904761905,0.3968253968253968,-0.873015873015873,1.6666666666666665,-0.5555555555555556,0.07936507936507936,-0.873015873015873,3.253968253968254,1.984126984126984,0.5555555555555556,-0.5555555555555556,1.349206349206349,3.095238095238095,-0.23809523809523808,2.3015873015873014,1.0317460317460316,-3.095238095238095,0.873015873015873,-325.0,-325.0,-325.0,-325.0,-325.0,-321.8253968253968
-1.507936507936508,0.873015873015873,-0.7142857142857142,1.6666666666666665,-0.07936507936507936,0.23809523809523808,1.349206349206349,2.9365079365079363,1.8253968253968254,3.888888888888889,0.23809523809523808,3.571428571428571,0.7142857142857142,2.9365079365079363,0.873015873015873,0.873015873015873,-2.9365079365079363,0.7142857142857142,-325.0,-325.0,-325.0,-325.0,-325.0,-321.8253968253968
-1.507936507936508,0.873015873015873,-0.7142857142857142,1.6666666666666665,-0.07936507936507936,0.23809523809523808,1.349206349206349,2.9365079365079363,1.8253968253968254,3.888888888888889,0.23809523809523808,3.571428571428571,0.7142857142857142,2.9365079365079363,0.873015873015873,0.873015873015873,-2.9365079365079363,0.7142857142857142,-325.0,-325.0,-325.0,-325.0,-325.0,-321.8253968253968
-2.3015873015873014,-1.6666666666666665,-2.46031746031746,-1.507936507936508,1.6666666666666665,-0.3968253968253968,2.3015873015873014,-1.1904761904761905,-0.7142857142857142,0.07936507936507936,-0.7142857142857142,1.984126984126984,-0.07936507936507936,-2.619047619047619,-0.873015873015873,-2.619047619047619,-2.3015873015873014,0.5555555555555556,-325.0,-325.0,-325.0,-325.0,-325.0,-321.8253968253968
-2.3015873015873014,-1.6666666666666665,-2.46031746031746,-1.507936507936508,1.6666666666666665,-0.3968253968253968,2.3015873015873014,-1.1904761904761905,-0.7142857142857142,0.07936507936507936,-0.7142857142857142,1.984126984126984,-0.07936507936507936,-2.619047619047619,-0.873015873015873,-2.619047619047619,-2.3015873015873014,0.5555555555555556,-325.0,-325.0,-325.0,-325.0,-325.0,-321.8253968253968
-1.8253968253968254,-2.7777777777777777,-2.3015873015873014,2.7777777777777777,-1.1904761904761905,2.619047619047619,-0.23809523809523808,0.23809523809523808,-0.7142857142857142,1.0317460317460316,-1.507936507936508,1.1904761904761905,-1.8253968253968254,-1.349206349206349,1.8253968253968254,2.7777777777777777,-2.9365079365079363,0.5555555555555556,-325.0,-325.0,-325.0,-325.0,-325.0,-321.8253968253968
-1.8253968253968254,-2.7777777777777777,-2.3015873015873014,2.7777777777777777,-1.1904761904761905,2.619047619047619,-0.23809523809523808,0.23809523809523808,-0.7142857142857142,1.0317460317460316,-1.507936507936508,1.1904761904761905,-1.8253968253968254,-1.349206349206349,1.8253968253968254,2.7777777777777777,-2.9365079365079363,0.5555555555555556,-325.0,-325.0,-325.0,-325.0,-325.0,-321.8253968253968
-0.5555555555555556,0.7142857142857142,0.5555555555555556,2.46031746031746,-0.3968253968253968,1.6666666666666665,0.23809523809523808,1.349206349206349,2.9365079365079363,1.8253968253968254,1.0317460317460316,0.7142857142857142,1.507936507936508,-0.5555555555555556,0.873015873015873,3.4126984126984126,-3.4126984126984126,1.0317460317460316,-325.0,-325.0,-325.0,-325.0,-325.0,-7.5396825396825395
-0.5555555555555556,0.7142857142857142,0.5555555555555556,2.46031746031746,-0.3968253968253968,1.6666666666666665,0.23809523809523808,1.349206349206349,2.9365079365079363,1.8253968253968254,1.0317460317460316,0.7142857142857142,1.507936507936508,-0.5555555555555556,0.873015873015873,3.4126984126984126,-3.4126984126984126,1.0317460317460316,-325.0,-325.0,-325.0,-325.0,-325.0,-7.5396825396825395
-4.682539682539682,3.888888888888889,-4.682539682539682,2.619047619047619,-1.349206349206349,4.365079365079365,-1.507936507936508,1.507936507936508,1.0317460317460316,3.73015873015873,0.7142857142857142,3.253968253968254,-3.4126984126984126,-1.349206349206349,0.3968253968253968,1.8253968253968254,-3.4126984126984126,0.3968253968253968,-325.0,-325.0,-325.0,-325.0,-325.0,-7.5396825396825395
-4.682539682539682,3.888888888888889,-4.682539682539682,2.619047619047619,-1.349206349206349,4.365079365079365,-1.507936507936508,1.507936507936508,1.0317460317460316,3.73015873015873,0.7142857142857142,3.253968253968254,-3.4126984126984126,-1.349206349206349,0.3968253968253968,1.8253968253968254,-3.4126984126984126,0.3968253968253968,-325.0,-325.0,-325.0,-325.0,-325.0,-7.5396825396825395
-2.7777777777777777,-2.142857142857143,0.23809523809523808,1.1904761904761905,-0.7142857142857142,0.3968253968253968,0.3968253968253968,-0.5555555555555556,1.507936507936508,-1.507936507936508,0.07936507936507936,-0.7142857142857142,-0.5555555555555556,-2.619047619047619,3.571428571428571,0.5555555555555556,-2.619047619047619,1.0317460317460316,-325.0,-325.0,-325.0,-325.0,-325.0,-7.5396825396825395
-2.7777777777777777,-2.142857142857143,0.23809523809523808,1.1904761904761905,-0.7142857142857142,0.3968253968253968,0.3968253968253968,-0.5555555555555556,1.507936507936508,-1.507936507936508,0.07936507936507936,-0.7142857142857142,-0.5555555555555556,-2.619047619047619,3.571428571428571,0.5555555555555556,-2.619047619047619,1.0317460317460316,-325.0,-325.0,-325.0,-325.0,-325.0,-7.5396825396825395
-2.3015873015873014,1.349206349206349,0.23809523809523808,-0.873015873015873,2.142857142857143,1.984126984126984,-0.23809523809523808,5.317460317460317,2.46031746031746,2.3015873015873014,1.6666666666666665,0.5555555555555556,2.3015873015873014,-0.07936507936507936,3.095238095238095,0.3968253968253968,-2.9365079365079363,0.873015873015873,-325.0,-325.0,-325.0,-325.0,-325.0,-7.5396825396825395
-2.3015873015873014,1.349206349206349,0.23809523809523808,-0.873015873015873,2.142857142857143,1.984126984126984,-0.23809523809523808,5.317460317460317,2.46031746031746,2.3015873015873014,1.6666666666666665,0.5555555555555556,2.3015873015873014,-0.07936507936507936,3.095238095238095,0.3968253968253968,-2.9365079365079363,0.873015873015873,-325.0,-325.0,-325.0,-325.0,-325.0,-7.5396825396825395
-4.0476190476190474,0.5555555555555556,-3.253968253968254,0.3968253968253968,-0.3968253968253968,1.6666666666666665,-1.6666666666666665,1.1904761904761905,-1.0317460317460316,1.984126984126984,-1.8253968253968254,0.23809523809523808,-3.253968253968254,-0.5555555555555556,0.07936507936507936,-0.873015873015873,-3.095238095238095,0.7142857142857142,-325.0,-325.0,-325.0,-325.0,-325.0,-7.5396825396825395
-4.0476190476190474,0.5555555555555556,-3.253968253968254,0.3968253968253968,-0.3968253968253968,1.6666666666666665,-1.6666666666666665,1.1904761904761905,-1.0317460317460316,1.984126984126984,-1.8253968253968254,0.23809523809523808,-3.253968253968254,-0.5555555555555556,0.07936507936507936,-0.873015873015873,-3.095238095238095,0.7142857142857142,-325.0,-325.0,-325.0,-325.0,-325.0,-7.5396825396825395
-4.2063492063492065,-0.23809523809523808,-2.46031746031746,3.73015873015873,-2.142857142857143,2.7777777777777777,-0.23809523809523808,2.142857142857143,1.8253968253968254,0.873015873015873,-0.07936507936507936,1.984126984126984,-1.0317460317460316,-0.07936507936507936,1.349206349206349,2.619047619047619,-3.095238095238095,0.873015873015873,-325.0,-325.0,-325.0,-325.0,-325.0,-321.8253968253968
-4.2063492063492065,-0.23809523809523808,-2.46031746031746,3.73015873015873,-2.142857142857143,2.7777777777777777,-0.23809523809523808,2.142857142857143,1.8253968253968254,0.873015873015873,-0.07936507936507936,1.984126984126984,-1.0317460317460316,-0.07936507936507936,1.349206349206349,2.619047619047619,-3.095238095238095,0.873015873015873,-325.0,-325.0,-325.0,-325.0,-325.0,-321.8253968253968
-1.349206349206349,-2.142857142857143,2.142857142857143,0.873015873015873,3.73015873015873,0.07936507936507936,5.158730158730158,0.873015873015873,4.682539682539682,-0.3968253968253968,2.9365079365079363,1.349206349206349,1.507936507936508,-3.571428571428571,5.317460317460317,-0.5555555555555556,-3.888888888888889,-0.23809523809523808,-325.0,-325.0,-325.0,-325.0,-325.0,-321.8253968253968
-1.349206349206349,-2.142857142857143,2.142857142857143,0.873015873015873,3.73015873015873,0.07936507936507936,5.158730158730158,0.873015873015873,4.682539682539682,-0.3968253968253968,2.9365079365079363,1.349206349206349,1.507936507936508,-3.571428571428571,5.317460317460317,-0.5555555555555556,-3.888888888888889,-0.23809523809523808,-325.0,-325.0,-325.0,-325.0,-325.0,-321.8253968253968
-2.46031746031746,2.3015873015873014,0.07936507936507936,3.571428571428571,1.8253968253968254,3.571428571428571,-1.349206349206349,4.0476190476190474,3.73015873015873,2.619047619047619,1.1904761904761905,2.619047619047619,-1.8253968253968254,-0.7142857142857142,2.3015873015873014,2.46031746031746,-3.253968253968254,0.07936507936507936,-325.0,-325.0,-325.0,-325.0,-325.0,-321.8253968253968
-2.46031746031746,2.3015873015873014,0.07936507936507936,3.571428571428571,1.8253968253968254,3.571428571428571,-1.349206349206349,4.0476190476190474,3.73015873015873,2.619047619047619,1.1904761904761905,2.619047619047619,-1.8253968253968254,-0.7142857142857142,2.3015873015873014,2.46031746031746,-3.253968253968254,0.07936507936507936,-325.0,-325.0,-325.0,-325.0,-325.0,-321.8253968253968
-2.619047619047619,2.619047619047619,0.3968253968253968,3.571428571428571,1.1904761904761905,1.984126984126984,-0.23809523809523808,4.523809523809524,0.3968253968253968,5.317460317460317,0.5555555555555556,2.9365079365079363,-1.0317460317460316,2.46031746031746,1.507936507936508,4.0476190476190474,-2.9365079365079363,-0.3968253968253968,-325.0,-325.0,-325.0,-325.0,-325.0,-321.8253968253968
-2.619047619047619,2.619047619047619,0.3968253968253968,3.571428571428571,1.1904761904761905,1.984126984126984,-0.23809523809523808,4.523809523809524,0.3968253968253968,5.317460317460317,0.5555555555555556,2.9365079365079363,-1.0317460317460316,2.46031746031746,1.507936507936508,4.0476190476190474,-2.9365079365079363,-0.3968253968253968,-325.0,-325.0,-325.0,-325.0,-325.0,-321.8253968253968
2.7777777777777777,0.873015873015873,1.0317460317460316,-0.5555555555555556,2.46031746031746,0.3968253968253968,4.2063492063492065,2.9365079365079363,1.1904761904761905,2.9365079365079363,4.523809523809524,2.619047619047619,2.142857142857143,-1.0317460317460316,2.7777777777777777,2.9365079365079363,-2.7777777777777777,-0.07936507936507936,-325.0,-325.0,-325.0,-325.0,-325.0,-321.8253968253968
2.7777777777777777,0.873015873015873,1.0317460317460316,-0.5555555555555556,2.46031746031746,0.3968253968253968,4.2063492063492065,2.9365079365079363,1.1904761904761905,2.9365079365079363,4.523809523809524,2.619047619047619,2.142857142857143,-1.0317460317460316,2.7777777777777777,2.9365079365079363,-2.7777777777777777,-0.07936507936507936,-325.0,-325.0,-325.0,-325.0,-325.0,-321.8253968253968
-1.8253968253968254,-1.0317460317460316,-2.9365079365079363,-1.8253968253968254,0.5555555555555556,0.873015873015873,2.619047619047619,-0.23809523809523808,1.6666666666666665,2.142857142857143,1.349206349206349,-1.1904761904761905,-0.23809523809523808,-2.142857142857143,0.873015873015873,-0.07936507936507936,-3.571428571428571,0.07936507936507936,-325.0,-325.0,-325.0,-325.0,-325.0,-7.5396825396825395
-1.8253968253968254,-1.0317460317460316,-2.9365079365079363,-1.8253968253968254,0.5555555555555556,0.873015873015873,2.619047619047619,-0.23809523809523808,1.6666666666666665,2.142857142857143,1.349206349206349,-1.1904761904761905,-0.23809523809523808,-2.142857142857143,0.873015873015873,-0.07936507936507936,-3.571428571428571,0.07936507936507936,-325.0,-325.0,-325.0,-325.0,-325.0,-7.5396825396825395
0.23809523809523808,-1.6666666666666665,-1.507936507936508,2.142857142857143,1.349206349206349,2.619047619047619,2.142857142857143,0.7142857142857142,1.8253968253968254,0.5555555555555556,2.142857142857143,1.507936507936508,0.23809523809523808,-2.3015873015873014,3.095238095238095,1.507936507936508,-3.095238095238095,0.7142857142857142,-325.0,-325.0,-325.0,-325.0,-325.0,-7.5396825396825395
0.23809523809523808,-1.6666666666666665,-1.507936507936508,2.142857142857143,1.349206349206349,2.619047619047619,2.142857142857143,0.7142857142857142,1.8253968253968254,0.5555555555555556,2.142857142857143,1.507936507936508,0.23809523809523808,-2.3015873015873014,3.095238095238095,1.507936507936508,-3.095238095238095,0.7142857142857142,-325.0,-325.0,-325.0,-325.0,-325.0,-7.5396825396825395
-0.23809523809523808,-3.73015873015873,2.142857142857143,-1.0317460317460316,2.7777777777777777,-1.349206349206349,1.8253968253968254,-0.7142857142857142,4.682539682539682,-1.0317460317460316,2.7777777777777777,-3.253968253968254,2.619047619047619,-4.2063492063492065,3.095238095238095,-2.9365079365079363,-3.253968253968254,0.873015873015873,-325.0,-325.0,-325.0,-325.0,-325.0,-7.5396825396825395
-0.23809523809523808,-3.73015873015873,2.142857142857143,-1.0317460317460316,2.7777777777777777,-1.349206349206349,1.8253968253968254,-0.7142857142857142,4.682539682539682,-1.0317460317460316,2.7777777777777777,-3.253968253968254,2.619047619047619,-4.2063492063492065,3.095238095238095,-2.9365079365079363,-3.253968253968254,0.873015873015873,-325.0,-325.0,-325.0,-325.0,-325.0,-7.5396825396825395
-1.6666666666666665,1.0317460317460316,-0.07936507936507936,1.6666666666666665,-0.873015873015873,-0.3968253968253968,-1.507936507936508,1.8253968253968254,1.8253968253968254,0.7142857142857142,0.3968253968253968,1.507936507936508,-2.46031746031746,1.1904761904761905,2.46031746031746,0.07936507936507936,-3.571428571428571,0.3968253968253968,-325.0,-325.0,-325.0,-325.0,-325.0,-7.5396825396825395
-1.6666666666666665,1.0317460317460316,-0.07936507936507936,1.6666666666666665,-0.873015873015873,-0.3968253968253968,-1.507936507936508,1.8253968253968254,1.8253968253968254,0.7142857142857142,0.3968253968253968,1.507936507936508,-2.46031746031746,1.1904761904761905,2.46031746031746,0.07936507936507936,-3.571428571428571,0.3968253968253968,-325.0,-325.0,-325.0,-325.0,-325.0,-7.5396825396825395
-0.23809523809523808,0.3968253968253968,-1.507936507936508,1.507936507936508,1.984126984126984,2.142857142857143,1.349206349206349,1.8253968253968254,3.253968253968254,2.9365079365079363,1.507936507936508,0.23809523809523808,2.142857142857143,0.23809523809523808,3.571428571428571,-0.07936507936507936,-3.888888888888889,0.5555555555555556,-325.0,-325.0,-325.0,-325.0,-325.0,-7.5396825396825395
-0.23809523809523808,0.3968253968253968,-1.507936507936508,1.507936507936508,1.984126984126984,2.142857142857143,1.349206349206349,1.8253968253968254,3.253968253968254,2.9365079365079363,1.507936507936508,0.23809523809523808,2.142857142857143,0.23809523809523808,3.571428571428571,-0.07936507936507936,-3.888888888888889,0.5555555555555556,-325.0,-325.0,-325.0,-325.0,-325.0,-7.5396825396825395
-1.1904761904761905,0.873015873015873,0.7142857142857142,1.1904761904761905,-0.5555555555555556,4.841269841269841,0.873015873015873,3.571428571428571,3.888888888888889,1.6666666666666665,0.23809523809523808,1.349206349206349,1.0317460317460316,-0.3968253968253968,1.6666666666666665,1.0317460317460316,-3.888888888888889,0.7142857142857142,-325.0,-325.0,-325.0,-325.0,-325.0,-321.8253968253968
-1.1904761904761905,0.873015873015873,0.7142857142857142,1.1904761904761905,-0.5555555555555556,4.841269841269841,0.873015873015873,3.571428571428571,3.888888888888889,1.6666666666666665,0.23809523809523808,1.349206349206349,1.0317460317460316,-0.3968253968253968,1.6666666666666665,1.0317460317460316,-3.888888888888889,0.7142857142857142,-325.0,-325.0,-325.0,-325.0,-325.0,-321.8253968253968
-0.3968253968253968,-0.5555555555555556,1.349206349206349,1.1904761904761905,1.984126984126984,2.9365079365079363,4.523809523809524,1.507936507936508,6.904761904761904,0.07936507936507936,2.619047619047619,1.0317460317460316,1.0317460317460316,-0.23809523809523808,4.841269841269841,-0.3968253968253968,-2.7777777777777777,0.873015873015873,-325.0,-325.0,-325.0,-325.0,-325.0,-321.8253968253968
-0.3968253968253968,-0.5555555555555556,1.349206349206349,1.1904761904761905,1.984126984126984,2.9365079365079363,4.523809523809524,1.507936507936508,6.904761904761904,0.07936507936507936,2.619047619047619,1.0317460317460316,1.0317460317460316,-0.23809523809523808,4.841269841269841,-0.3968253968253968,-2.7777777777777777,0.873015873015873,-325.0,-325.0,-325.0,-325.0,-325.0,-321.8253968253968
-3.888888888888889,1.349206349206349,-3.095238095238095,1.6666666666666665,-1.349206349206349,1.349206349206349,0.5555555555555556,1.0317460317460316,1.349206349206349,3.253968253968254,-1.6666666666666665,1.6666666666666665,-1.984126984126984,-0.3968253968253968,1.507936507936508,-1.0317460317460316,-3.4126984126984126,1.349206349206349,-325.0,-325.0,-325.0,-325.0,-325.0,-321.8253968253968
-3.888888888888889,1.349206349206349,-3.095238095238095,1.6666666666666665,-1.349206349206349,1.349206349206349,0.5555555555555556,1.0317460317460316,1.349206349206349,3.253968253968254,-1.6666666666666665,1.6666666666666665,-1.984126984126984,-0.3968253968253968,1.507936507936508,-1.0317460317460316,-3.4126984126984126,1.349206349206349,-325.0,-325.0,-325.0,-325.0,-325.0,-321.8253968253968
-2.619047619047619,0.3968253968253968,-4.0476190476190474,3.253968253968254,0.3968253968253968,4.0476190476190474,0.23809523809523808,2.142857142857143,-1.349206349206349,2.9365079365079363,-2.9365079365079363,1.8253968253968254,-1.1904761904761905,-0.23809523809523808,0.3968253968253968,3.095238095238095,-3.095238095238095,0.7142857142857142,-325.0,-325.0,-325.0,-325.0,-325.0,-321.8253968253968
-2.619047619047619,0.3968253968253968,-4.0476190476190474,3.253968253968254,0.3968253968253968,4.0476190476190474,0.23809523809523808,2.142857142857143,-1.349206349206349,2.9365079365079363,-2.9365079365079363,1.8253968253968254,-1.1904761904761905,-0.23809523809523808,0.3968253968253968,3.095238095238095,-3.095238095238095,0.7142857142857142,-325.0,-325.0,-325.0,-325.0,-325.0,-321.8253968253968
-0.07936507936507936,1.8253968253968254,2.3015873015873014,1.984126984126984,2.9365079365079363,1.6666666666666665,1.507936507936508,-0.07936507936507936,4.682539682539682,4.0476190476190474,0.7142857142857142,1.6666666666666665,1.8253968253968254,1.349206349206349,4.682539682539682,3.095238095238095,-2.9365079365079363,0.7142857142857142,-325.0,-325.0,-325.0,-325.0,-325.0,-321.8253968253968
-0.07936507936507936,1.8253968253968254,2.3015873015873014,1.984126984126984,2.9365079365079363,1.6666666666666665,1.507936507936508,-0.07936507936507936,4.682539682539682,4.0476190476190474,0.7142857142857142,1.6666666666666665,1.8253968253968254,1.349206349206349,4.682539682539682,3.095238095238095,-2.9365079365079363,0.7142857142857142,-325.0,-325.0,-325.0,-325.0,-325.0,-321.8253968253968
-0.23809523809523808,0.3968253968253968,-1.8253968253968254,1.8253968253968254,3.095238095238095,2.619047619047619,-0.7142857142857142,0.3968253968253968,4.2063492063492065,0.7142857142857142,2.619047619047619,2.46031746031746,-0.07936507936507936,1.349206349206349,0.873015873015873,0.3968253968253968,-3.095238095238095,0.873015873015873,-325.0,-325.0,-325.0,-325.0,-325.0,-7.5396825396825395
-0.23809523809523808,0.3968253968253968,-1.8253968253968254,1.8253968253968254,3.095238095238095,2.619047619047619,-0.7142857142857142,0.3968253968253968,4.2063492063492065,0.7142857142857142,2.619047619047619,2.46031746031746,-0.07936507936507936,1.349206349206349,0.873015873015873,0.3968253968253968,-3.095238095238095,0.873015873015873,-325.0,-325.0,-325.0,-325.0,-325.0,-7.5396825396825395
0.23809523809523808,0.873015873015873,-1.0317460317460316,2.7777777777777777,0.873015873015873,4.0476190476190474,1.507936507936508,2.7777777777777777,6.26984126984127,4.682539682539682,2.3015873015873014,2.46031746031746,-0.873015873015873,2.7777777777777777,2.619047619047619,1.984126984126984,-2.7777777777777777,1.1904761904761905,-325.0,-325.0,-325.0,-325.0,-325.0,-7.5396825396825395
0.23809523809523808,0.873015873015873,-1.0317460317460316,2.7777777777777777,0.873015873015873,4.0476190476190474,1.507936507936508,2.7777777777777777,6.26984126984127,4.682539682539682,2.3015873015873014,2.46031746031746,-0.873015873015873,2.7777777777777777,2.619047619047619,1.984126984126984,-2.7777777777777777,1.1904761904761905,-325.0,-325.0,-325.0,-325.0,-325.0,-7.5396825396825395
0.3968253968253968,1.984126984126984,3.571428571428571,4.0476190476190474,1.1904761904761905,6.746031746031746,4.682539682539682,5.158730158730158,4.365079365079365,3.73015873015873,2.3015873015873014,2.3015873015873014,1.349206349206349,2.3015873015873014,4.365079365079365,3.253968253968254,-2.619047619047619,0.5555555555555556,-325.0,-325.0,-325.0,-325.0,-325.0,-7.5396825396825395
0.3968253968253968,1.984126984126984,3.571428571428571,4.0476190476190474,1.1904761904761905,6.746031746031746,4.682539682539682,5.158730158730158,4.365079365079365,3.73015873015873,2.3015873015873014,2.3015873015873014,1.349206349206349,2.3015873015873014,4.365079365079365,3.253968253968254,-2.619047619047619,0.5555555555555556,-325.0,-325.0,-325.0,-325.0,-325.0,-7.5396825396825395
-1.1904761904761905,-1.6666666666666665,1.0317460317460316,0.5555555555555556,0.7142857142857142,2.7777777777777777,0.7142857142857142,1.0317460317460316,5.317460317460317,2.142857142857143,0.3968253968253968,-0.3968253968253968,1.349206349206349,-0.23809523809523808,3.888888888888889,0.7142857142857142,-3.73015873015873,0.873015873015873,-325.0,-325.0,-325.0,-325.0,-325.0,-7.5396825396825395
-1.1904761904761905,-1.6666666666666665,1.0317460317460316,0.5555555555555556,0.7142857142857142,2.7777777777777777,0.7142857142857142,1.0317460317460316,5.317460317460317,2.142857142857143,0.3968253968253968,-0.3968253968253968,1.349206349206349,-0.23809523809523808,3.888888888888889,0.7142857142857142,-3.73015873015873,0.873015873015873,-325.0,-325.0,-325.0,-325.0,-325.0,-7.5396825396825395
-1.8253968253968254,0.07936507936507936,0.3968253968253968,2.46031746031746,2.7777777777777777,2.142857142857143,2.7777777777777777,1.6666666666666665,4.365079365079365,1.507936507936508,0.873015873015873,-0.07936507936507936,1.0317460317460316,3.571428571428571,4.841269841269841,1.8253968253968254,-3.73015873015873,0.873015873015873,-325.0,-325.0,-325.0,-325.0,-325.0,-7.5396825396825395
-1.8253968253968254,0.07936507936507936,0.3968253968253968,2.46031746031746,2.7777777777777777,2.142857142857143,2.7777777777777777,1.6666666666666665,4.365079365079365,1.507936507936508,0.873015873015873,-0.07936507936507936,1.0317460317460316,3.571428571428571,4.841269841269841,1.8253968253968254,-3.73015873015873,0.873015873015873,-325.0,-325.0,-325.0,-325.0,-325.0,-7.5396825396825395
-2.3015873015873014,-1.0317460317460316,-1.0317460317460316,1.507936507936508,-0.5555555555555556,0.23809523809523808,0.07936507936507936,2.142857142857143,1.1904761904761905,3.73015873015873,0.7142857142857142,1.349206349206349,0.7142857142857142,1.8253968253968254,2.46031746031746,1.349206349206349,-3.73015873015873,1.1904761904761905,-325.0,-325.0,-325.0,-325.0,-325.0,-321.8253968253968
-2.3015873015873014,-1.0317460317460316,-1.0317460317460316,1.507936507936508,-0.5555555555555556,0.23809523809523808,0.07936507936507936,2.142857142857143,1.1904761904761905,3.73015873015873,0.7142857142857142,1.349206349206349,0.7142857142857142,1.8253968253968254,2.46031746031746,1.349206349206349,-3.73015873015873,1.1904761904761905,-325.0,-325.0,-325.0,-325.0,-325.0,-321.8253968253968
-1.349206349206349,-2.142857142857143,-3.571428571428571,1.0317460317460316,-0.3968253968253968,-0.3968253968253968,-1.507936507936508,1.349206349206349,1.0317460317460316,1.1904761904761905,1.984126984126984,0.23809523809523808,-0.873015873015873,-0.7142857142857142,2.3015873015873014,0.07936507936507936,-3.4126984126984126,1.349206349206349,-325.0,-325.0,-325.0,-325.0,-325.0,-321.8253968253968
-1.349206349206349,-2.142857142857143,-3.571428571428571,1.0317460317460316,-0.3968253968253968,-0.3968253968253968,-1.507936507936508,1.349206349206349,1.0317460317460316,1.1904761904761905,1.984126984126984,0.23809523809523808,-0.873015873015873,-0.7142857142857142,2.3015873015873014,0.07936507936507936,-3.4126984126984126,1.349206349206349,-325.0,-325.0,-325.0,-325.0,-325.0,-321.8253968253968
-1.8253968253968254,0.3968253968253968,-2.619047619047619,2.46031746031746,2.142857142857143,3.73015873015873,-0.23809523809523808,1.8253968253968254,2.3015873015873014,3.73015873015873,2.3015873015873014,1.8253968253968254,-1.507936507936508,-1.6666666666666665,0.5555555555555556,1.6666666666666665,-1.984126984126984,1.507936507936508,-325.0,-325.0,-325.0,-325.0,-325.0,-321.8253968253968
-1.8253968253968254,0.3968253968253968,-2.619047619047619,2.46031746031746,2.142857142857143,3.73015873015873,-0.23809523809523808,1.8253968253968254,2.3015873015873014,3.73015873015873,2.3015873015873014,1.8253968253968254,-1.507936507936508,-1.6666666666666665,0.5555555555555556,1.6666666666666665,-1.984126984126984,1.507936507936508,-325.0,-325.0,-325.0,-325.0,-325.0,-321.8253968253968
-2.619047619047619,0.7142857142857142,0.873015873015873,-1.1904761904761905,3.253968253968254,1.349206349206349,3.73015873015873,2.46031746031746,4.2063492063492065,1.6666666666666665,2.142857142857143,-0.3968253968253968,3.571428571428571,-0.5555555555555556,3.095238095238095,1.984126984126984,-2.7777777777777777,1.349206349206349,-325.0,-325.0,-325.0,-325.0,-325.0,-321.8253968253968
-2.619047619047619,0.7142857142857142,0.873015873015873,-1.1904761904761905,3.253968253968254,1.349206349206349,3.73015873015873,2.46031746031746,4.2063492063492065,1.6666666666666665,2.142857142857143,-0.3968253968253968,3.571428571428571,-0.5555555555555556,3.095238095238095,1.984126984126984,-2.7777777777777777,1.349206349206349,-325.0,-325.0,-325.0,-325.0,-325.0,-321.8253968253968
-4.0476190476190474,0.7142857142857142,-0.07936507936507936,2.619047619047619,1.984126984126984,2.142857142857143,0.3968253968253968,5.0,4.365079365079365,5.0,1.1904761904761905,3.888888888888889,0.07936507936507936,1.984126984126984,2.142857142857143,2.46031746031746,-3.253968253968254,1.0317460317460316,-325.0,-325.0,-325.0,-325.0,-325.0,-321.8253968253968
-4.0476190476190474,0.7142857142857142,-0.07936507936507936,2.619047619047619,1.984126984126984,2.142857142857143,0.3968253968253968,5.0,4.365079365079365,5.0,1.1904761904761905,3.888888888888889,0.07936507936507936,1.984126984126984,2.142857142857143,2.46031746031746,-3.253968253968254,1.0317460317460316,-325.0,-325.0,-325.0,-325.0,-325.0,-321.8253968253968
-2.9365079365079363,-1.1904761904761905,0.873015873015873,2.142857142857143,-2.142857142857143,1.0317460317460316,-0.23809523809523808,0.3968253968253968,1.984126984126984,3.253968253968254,1.0317460317460316,0.3968253968253968,-0.07936507936507936,-1.6666666666666665,0.07936507936507936,1.0317460317460316,-3.571428571428571,1.0317460317460316,-325.0,-325.0,-325.0,-325.0,-325.0,-7.5396825396825395
-2.9365079365079363,-1.1904761904761905,0.873015873015873,2.142857142857143,-2.142857142857143,1.0317460317460316,-0.23809523809523808,0.3968253968253968,1.984126984126984,3.253968253968254,1.0317460317460316,0.3968253968253968,-0.07936507936507936,-1.6666666666666665,0.07936507936507936,1.0317460317460316,-3.571428571428571,1.0317460317460316,-325.0,-325.0,-325.0,-325.0,-325.0,-7.5396825396825395
-0.7142857142857142,-1.507936507936508,0.3968253968253968,1.1904761904761905,1.984126984126984,1.8253968253968254,3.095238095238095,4.523809523809524,4.841269841269841,3.095238095238095,-0.07936507936507936,1.6666666666666665,1.1904761904761905,-0.7142857142857142,3.253968253968254,1.6666666666666665,-3.095238095238095,1.1904761904761905,-325.0,-325.0,-325.0,-325.0,-325.0,-7.5396825396825395
-0.7142857142857142,-1.507936507936508,0.3968253968253968,1.1904761904761905,1.984126984126984,1.8253968253968254,3.095238095238095,4.523809523809524,4.841269841269841,3.095238095238095,-0.07936507936507936,1.6666666666666665,1.1904761904761905,-0.7142857142857142,3.253968253968254,1.6666666666666665,-3.095238095238095,1.1904761904761905,-325.0,-325.0,-325.0,-325.0,-325.0,-7.5396825396825395
-0.23809523809523808,1.0317460317460316,-0.873015873015873,0.7142857142857142,2.3015873015873014,1.0317460317460316,1.349206349206349,1.984126984126984,1.0317460317460316,1.349206349206349,0.07936507936507936,1.6666666666666665,0.07936507936507936,-2.142857142857143,3.095238095238095,0.7142857142857142,-3.095238095238095,0.7142857142857142,-325.0,-325.0,-325.0,-325.0,-325.0,-7.5396825396825395
-0.23809523809523808,1.0317460317460316,-0.873015873015873,0.7142857142857142,2.3015873015873014,1.0317460317460316,1.349206349206349,1.984126984126984,1.0317460317460316,1.349206349206349,0.07936507936507936,1.6666666666666665,0.07936507936507936,-2.142857142857143,3.095238095238095,0.7142857142857142,-3.095238095238095,0.7142857142857142,-325.0,-325.0,-325.0,-325.0,-325.0,-7.5396825396825395
-2.7777777777777777,-1.0317460317460316,-1.349206349206349,2.142857142857143,-0.07936507936507936,-0.3968253968253968,-0.7142857142857142,2.9365079365079363,-0.5555555555555556,2.46031746031746,-1.0317460317460316,0.23809523809523808,-0.7142857142857142,-3.095238095238095,-1.507936507936508,1.984126984126984,-3.253968253968254,0.7142857142857142,-325.0,-325.0,-325.0,-325.0,-325.0,-7.5396825396825395
-2.7777777777777777,-1.0317460317460316,-1.349206349206349,2.142857142857143,-0.07936507936507936,-0.3968253968253968,-0.7142857142857142,2.9365079365079363,-0.5555555555555556,2.46031746031746,-1.0317460317460316,0.23809523809523808,-0.7142857142857142,-3.095238095238095,-1.507936507936508,1.984126984126984,-3.253968253968254,0.7142857142857142,-325.0,-325.0,-325.0,-325.0,-325.0,-7.5396825396825395
-0.3968253968253968,-3.73015873015873,0.07936507936507936,-1.8253968253968254,1.349206349206349,-3.571428571428571,1.6666666666666665,-0.3968253968253968,2.619047619047619,-3.095238095238095,0.7142857142857142,-1.1904761904761905,1.507936507936508,-2.46031746031746,3.095238095238095,-2.3015873015873014,-3.095238095238095,0.23809523809523808,-325.0,-325.0,-325.0,-325.0,-325.0,-7.5396825396825395
-0.3968253968253968,-3.73015873015873,0.07936507936507936,-1.8253968253968254,1.349206349206349,-3.571428571428571,1.6666666666666665,-0.3968253968253968,2.619047619047619,-3.095238095238095,0.7142857142857142,-1.1904761904761905,1.507936507936508,-2.46031746031746,3.095238095238095,-2.3015873015873014,-3.095238095238095,0.23809523809523808,-325.0,-325.0,-325.0,-325.0,-325.0,-7.5396825396825395
-3.253968253968254,-0.7142857142857142,-2.619047619047619,0.3968253968253968,-1.507936507936508,1.0317460317460316,0.3968253968253968,0.23809523809523808,1.507936507936508,1.507936507936508,-0.873015873015873,0.3968253968253968,-2.9365079365079363,1.349206349206349,1.507936507936508,-0.07936507936507936,-2.9365079365079363,1.0317460317460316,-325.0,-325.0,-325.0,-325.0,-325.0,-321.8253968253968
-3.253968253968254,-0.7142857142857142,-2.619047619047619,0.3968253968253968,-1.507936507936508,1.0317460317460316,0.3968253968253968,0.23809523809523808,1.507936507936508,1.507936507936508,-0.873015873015873,0.3968253968253968,-2.9365079365079363,1.349206349206349,1.507936507936508,-0.07936507936507936,-2.9365079365079363,1.0317460317460316,-325.0,-325.0,-325.0,-325.0,-325.0,-321.8253968253968
-4.2063492063492065,-0.7142857142857142,-1.0317460317460316,0.873015873015873,2.46031746031746,1.984126984126984,3.095238095238095,-1.6666666666666665,1.984126984126984,-1.0317460317460316,-0.3968253968253968,-2.7777777777777777,0.5555555555555556,-1.984126984126984,3.73015873015873,-2.7777777777777777,-3.571428571428571,1.8253968253968254,-325.0,-325.0,-325.0,-325.0,-325.0,-321.8253968253968
-4.2063492063492065,-0.7142857142857142,-1.0317460317460316,0.873015873015873,2.46031746031746,1.984126984126984,3.095238095238095,-1.6666666666666665,1.984126984126984,-1.0317460317460316,-0.3968253968253968,-2.7777777777777777,0.5555555555555556,-1.984126984126984,3.73015873015873,-2.7777777777777777,-3.571428571428571,1.8253968253968254,-325.0,-325.0,-325.0,-325.0,-325.0,-321.8253968253968
-3.095238095238095,0.5555555555555556,0.23809523809523808,3.095238095238095,-0.7142857142857142,4.523809523809524,-0.7142857142857142,1.1904761904761905,1.1904761904761905,0.7142857142857142,-1.507936507936508,1.984126984126984,-3.571428571428571,1.8253968253968254,-0.7142857142857142,1.349206349206349,-3.095238095238095,1.349206349206349,-325.0,-325.0,-325.0,-325.0,-325.0,-321.8253968253968
-3.095238095238095,0.5555555555555556,0.23809523809523808,3.095238095238095,-0.7142857142857142,4.523809523809524,-0.7142857142857142,1.1904761904761905,1.1904761904761905,0.7142857142857142,-1.507936507936508,1.984126984126984,-3.571428571428571,1.8253968253968254,-0.7142857142857142,1.349206349206349,-3.095238095238095,1.349206349206349,-325.0,-325.0,-325.0,-325.0,-325.0,-321.8253968253968
-1.8253968253968254,0.3968253968253968,-1.6666666666666665,1.507936507936508,0.23809523809523808,0.07936507936507936,-0.5555555555555556,1.0317460317460316,0.5555555555555556,1.349206349206349,-0.3968253968253968,1.349206349206349,0.23809523809523808,-1.349206349206349,1.507936507936508,0.3968253968253968,-2.9365079365079363,1.1904761904761905,-325.0,-325.0,-325.0,-325.0,-325.0,-321.8253968253968
-1.8253968253968254,0.3968253968253968,-1.6666666666666665,1.507936507936508,0.23809523809523808,0.07936507936507936,-0.5555555555555556,1.0317460317460316,0.5555555555555556,1.349206349206349,-0.3968253968253968,1.349206349206349,0.23809523809523808,-1.349206349206349,1.507936507936508,0.3968253968253968,-2.9365079365079363,1.1904761904761905,-325.0,-325.0,-325.0,-325.0,-325.0,-321.8253968253968
-5.634920634920634,-0.873015873015873,-3.253968253968254,0.7142857142857142,-1.1904761904761905,1.1904761904761905,0.7142857142857142,2.46031746031746,0.5555555555555556,0.873015873015873,-0.3968253968253968,2.46031746031746,-2.46031746031746,-0.5555555555555556,-0.5555555555555556,-0.07936507936507936,-2.7777777777777777,1.0317460317460316,-325.0,-325.0,-325.0,-325.0,-325.0,-321.8253968253968
-5.634920634920634,-0.873015873015873,-3.253968253968254,0.7142857142857142,-1.1904761904761905,1.1904761904761905,0.7142857142857142,2.46031746031746,0.5555555555555556,0.873015873015873,-0.3968253968253968,2.46031746031746,-2.46031746031746,-0.5555555555555556,-0.5555555555555556,-0.07936507936507936,-2.7777777777777777,1.0317460317460316,-325.0,-325.0,-325.0,-325.0,-325.0,-321.8253968253968
-1.984126984126984,-1.507936507936508,0.5555555555555556,3.095238095238095,1.1904761904761905,2.3015873015873014,1.984126984126984,0.23809523809523808,1.1904761904761905,0.7142857142857142,-1.6666666666666665,-0.3968253968253968,0.873015873015873,-1.0317460317460316,1.507936507936508,2.46031746031746,-3.253968253968254,1.984126984126984,-325.0,-325.0,-325.0,-325.0,-325.0,-7.5396825396825395
-1.984126984126984,-1.507936507936508,0.5555555555555556,3.095238095238095,1.1904761904761905,2.3015873015873014,1.984126984126984,0.23809523809523808,1.1904761904761905,0.7142857142857142,-1.6666666666666665,-0.3968253968253968,0.873015873015873,-1.0317460317460316,1.507936507936508,2.46031746031746,-3.253968253968254,1.984126984126984,-325.0,-325.0,-325.0,-325.0,-325.0,-7.5396825396825395
