Fp1[1],Fp2[2],F3[3],F4[4],C3[5],C4[6],P3[7],P4[8],O1[9],O2[10],F7[11],F8[12],T3[13],T4[14],T5[15],T6[16],Fz[17],Pz[18],Cz[19],Pg1[20],Pg2[21],EOGR[22],EOOGL[23],EMG[24]
5.0,0.5555555555555556,-6.428571428571428,19.92063492063492,7.698412698412698,-30.07936507936508,-0.23809523809523808,-7.698412698412698,-5.952380952380952,7.3809523809523805,10.555555555555555,4.682539682539682,10.238095238095237,-1.8253968253968254,11.984126984126984,4.841269841269841,-2.619047619047619,0.873015873015873,-325.0,-325.0,-325.0,-325.0,-325.0,-7.5396825396825395
5.0,0.5555555555555556,-6.428571428571428,19.92063492063492,7.698412698412698,-30.07936507936508,-0.23809523809523808,-7.698412698412698,-5.952380952380952,7.3809523809523805,10.555555555555555,4.682539682539682,10.238095238095237,-1.8253968253968254,11.984126984126984,4.841269841269841,-2.619047619047619,0.873015873015873,-325.0,-325.0,-325.0,-325.0,-325.0,-7.5396825396825395
0.7142857142857142,1.349206349206349,-13.73015873015873,15.95238095238095,0.873015873015873,-30.396825396825395,-2.9365079365079363,-7.222222222222221,-10.238095238095237,5.952380952380952,6.428571428571428,3.571428571428571,2.7777777777777777,-3.73015873015873,8.809523809523808,2.46031746031746,-1.984126984126984,0.23809523809523808,-325.0,-325.0,-325.0,-325.0,-325.0,-7.5396825396825395
0.7142857142857142,1.349206349206349,-13.73015873015873,15.95238095238095,0.873015873015873,-30.396825396825395,-2.9365079365079363,-7.222222222222221,-10.238095238095237,5.952380952380952,6.428571428571428,3.571428571428571,2.7777777777777777,-3.73015873015873,8.809523809523808,2.46031746031746,-1.984126984126984,0.23809523809523808,-325.0,-325.0,-325.0,-325.0,-325.0,-7.5396825396825395
2.46031746031746,4.0476190476190474,-13.571428571428571,18.333333333333332,1.507936507936508,-26.11111111111111,-2.9365079365079363,-3.4126984126984126,-7.3809523809523805,8.65079365079365,7.5396825396825395,2.46031746031746,4.0476190476190474,0.23809523809523808,8.015873015873016,7.3809523809523805,-2.46031746031746,0.873015873015873,-325.0,-325.0,-325.0,-325.0,-325.0,-7.5396825396825395
2.46031746031746,4.0476190476190474,-13.571428571428571,18.333333333333332,1.507936507936508,-26.11111111111111,-2.9365079365079363,-3.4126984126984126,-7.3809523809523805,8.65079365079365,7.5396825396825395,2.46031746031746,4.0476190476190474,0.23809523809523808,8.015873015873016,7.3809523809523805,-2.46031746031746,0.873015873015873,-325.0,-325.0,-325.0,-325.0,-325.0,-7.5396825396825395
0.5555555555555556,0.23809523809523808,-10.555555555555555,15.793650793650793,2.619047619047619,-25.158730158730158,-3.73015873015873,-5.634920634920634,-6.111111111111111,3.73015873015873,7.222222222222221,2.7777777777777777,4.841269841269841,-0.873015873015873,6.428571428571428,4.523809523809524,-2.142857142857143,1.1904761904761905,-325.0,-325.0,-325.0,-325.0,-325.0,-7.5396825396825395
0.5555555555555556,0.23809523809523808,-10.555555555555555,15.793650793650793,2.619047619047619,-25.158730158730158,-3.73015873015873,-5.634920634920634,-6.111111111111111,3.73015873015873,7.222222222222221,2.7777777777777777,4.841269841269841,-0.873015873015873,6.428571428571428,4.523809523809524,-2.142857142857143,1.1904761904761905,-325.0,-325.0,-325.0,-325.0,-325.0,-7.5396825396825395
-0.7142857142857142,-0.23809523809523808,-11.031746031746032,15.476190476190474,0.873015873015873,-25.952380952380953,-4.365079365079365,-8.015873015873016,-5.7936507936507935,3.73015873015873,6.111111111111111,3.888888888888889,3.4126984126984126,-2.142857142857143,7.5396825396825395,3.253968253968254,-2.142857142857143,1.1904761904761905,-325.0,-325.0,-325.0,-325.0,-325.0,-7.5396825396825395
-0.7142857142857142,-0.23809523809523808,-11.031746031746032,15.476190476190474,0.873015873015873,-25.952380952380953,-4.365079365079365,-8.015873015873016,-5.7936507936507935,3.73015873015873,6.111111111111111,3.888888888888889,3.4126984126984126,-2.142857142857143,7.5396825396825395,3.253968253968254,-2.142857142857143,1.1904761904761905,-325.0,-325.0,-325.0,-325.0,-325.0,-7.5396825396825395
-0.7142857142857142,-1.1904761904761905,-12.142857142857142,14.365079365079364,0.07936507936507936,-22.3015873015873,-4.0476190476190474,-7.222222222222221,-8.174603174603174,4.2063492063492065,7.3809523809523805,2.9365079365079363,3.73015873015873,-4.0476190476190474,4.365079365079365,3.253968253968254,-2.142857142857143,1.349206349206349,-325.0,-325.0,-325.0,-325.0,-325.0,-321.8253968253968
-0.7142857142857142,-1.1904761904761905,-12.142857142857142,14.365079365079364,0.07936507936507936,-22.3015873015873,-4.0476190476190474,-7.222222222222221,-8.174603174603174,4.2063492063492065,7.3809523809523805,2.9365079365079363,3.73015873015873,-4.0476190476190474,4.365079365079365,3.253968253968254,-2.142857142857143,1.349206349206349,-325.0,-325.0,-325.0,-325.0,-325.0,-321.8253968253968
0.5555555555555556,-2.3015873015873014,-10.079365079365079,11.825396825396824,-0.873015873015873,-23.57142857142857,-2.619047619047619,-4.682539682539682,-6.26984126984127,3.253968253968254,8.65079365079365,3.4126984126984126,4.841269841269841,-4.365079365079365,5.7936507936507935,1.8253968253968254,-1.0317460317460316,1.349206349206349,-325.0,-325.0,-325.0,-325.0,-325.0,-321.8253968253968
0.5555555555555556,-2.3015873015873014,-10.079365079365079,11.825396825396824,-0.873015873015873,-23.57142857142857,-2.619047619047619,-4.682539682539682,-6.26984126984127,3.253968253968254,8.65079365079365,3.4126984126984126,4.841269841269841,-4.365079365079365,5.7936507936507935,1.8253968253968254,-1.0317460317460316,1.349206349206349,-325.0,-325.0,-325.0,-325.0,-325.0,-321.8253968253968
-0.7142857142857142,0.5555555555555556,-11.349206349206348,12.777777777777777,-0.5555555555555556,-19.6031746031746,-0.7142857142857142,-4.365079365079365,-8.174603174603174,1.507936507936508,1.984126984126984,3.571428571428571,2.46031746031746,-3.253968253968254,3.888888888888889,7.063492063492063,-1.6666666666666665,1.0317460317460316,-325.0,-325.0,-325.0,-325.0,-325.0,-321.8253968253968
-0.7142857142857142,0.5555555555555556,-11.349206349206348,12.777777777777777,-0.5555555555555556,-19.6031746031746,-0.7142857142857142,-4.365079365079365,-8.174603174603174,1.507936507936508,1.984126984126984,3.571428571428571,2.46031746031746,-3.253968253968254,3.888888888888889,7.063492063492063,-1.6666666666666665,1.0317460317460316,-325.0,-325.0,-325.0,-325.0,-325.0,-321.8253968253968
-1.507936507936508,-0.3968253968253968,-12.936507936507935,10.873015873015872,-1.8253968253968254,-20.07936507936508,-4.0476190476190474,-5.0,-7.3809523809523805,0.7142857142857142,3.095238095238095,1.1904761904761905,3.888888888888889,-4.523809523809524,3.253968253968254,4.0476190476190474,-1.984126984126984,1.1904761904761905,-325.0,-325.0,-325.0,-325.0,-325.0,-321.8253968253968
-1.507936507936508,-0.3968253968253968,-12.936507936507935,10.873015873015872,-1.8253968253968254,-20.07936507936508,-4.0476190476190474,-5.0,-7.3809523809523805,0.7142857142857142,3.095238095238095,1.1904761904761905,3.888888888888889,-4.523809523809524,3.253968253968254,4.0476190476190474,-1.984126984126984,1.1904761904761905,-325.0,-325.0,-325.0,-325.0,-325.0,-321.8253968253968
-2.7777777777777777,1.8253968253968254,-10.238095238095237,10.396825396825395,-0.07936507936507936,-21.825396825396822,-4.841269841269841,-5.317460317460317,-7.222222222222221,2.142857142857143,4.0476190476190474,1.349206349206349,2.46031746031746,-5.317460317460317,2.619047619047619,1.984126984126984,-2.142857142857143,1.349206349206349,-325.0,-325.0,-325.0,-325.0,-325.0,-321.8253968253968
-2.7777777777777777,1.8253968253968254,-10.238095238095237,10.396825396825395,-0.07936507936507936,-21.825396825396822,-4.841269841269841,-5.317460317460317,-7.222222222222221,2.142857142857143,4.0476190476190474,1.349206349206349,2.46031746031746,-5.317460317460317,2.619047619047619,1.984126984126984,-2.142857142857143,1.349206349206349,-325.0,-325.0,-325.0,-325.0,-325.0,-321.8253968253968
-1.349206349206349,5.476190476190476,-12.142857142857142,11.825396825396824,0.7142857142857142,-15.793650793650793,-2.619047619047619,-1.8253968253968254,-6.746031746031746,6.587301587301587,3.73015873015873,6.26984126984127,2.46031746031746,0.873015873015873,4.682539682539682,5.476190476190476,-1.1904761904761905,0.5555555555555556,-325.0,-325.0,-325.0,-325.0,-325.0,-7.5396825396825395
-1.349206349206349,5.476190476190476,-12.142857142857142,11.825396825396824,0.7142857142857142,-15.793650793650793,-2.619047619047619,-1.8253968253968254,-6.746031746031746,6.587301587301587,3.73015873015873,6.26984126984127,2.46031746031746,0.873015873015873,4.682539682539682,5.476190476190476,-1.1904761904761905,0.5555555555555556,-325.0,-325.0,-325.0,-325.0,-325.0,-7.5396825396825395
-0.23809523809523808,3.095238095238095,-7.698412698412698,9.285714285714285,1.984126984126984,-16.746031746031743,0.873015873015873,-2.9365079365079363,-3.571428571428571,5.7936507936507935,3.571428571428571,5.0,-0.23809523809523808,0.3968253968253968,6.428571428571428,3.253968253968254,-1.1904761904761905,1.1904761904761905,-325.0,-325.0,-325.0,-325.0,-325.0,-7.5396825396825395
-0.23809523809523808,3.095238095238095,-7.698412698412698,9.285714285714285,1.984126984126984,-16.746031746031743,0.873015873015873,-2.9365079365079363,-3.571428571428571,5.7936507936507935,3.571428571428571,5.0,-0.23809523809523808,0.3968253968253968,6.428571428571428,3.253968253968254,-1.1904761904761905,1.1904761904761905,-325.0,-325.0,-325.0,-325.0,-325.0,-7.5396825396825395
-1.984126984126984,0.23809523809523808,-8.174603174603174,11.825396825396824,1.349206349206349,-13.571428571428571,-3.253968253968254,-1.984126984126984,-5.7936507936507935,6.904761904761904,1.984126984126984,5.158730158730158,1.0317460317460316,-0.7142857142857142,4.523809523809524,6.428571428571428,-1.6666666666666665,1.0317460317460316,-325.0,-325.0,-325.0,-325.0,-325.0,-7.5396825396825395
-1.984126984126984,0.23809523809523808,-8.174603174603174,11.825396825396824,1.349206349206349,-13.571428571428571,-3.253968253968254,-1.984126984126984,-5.7936507936507935,6.904761904761904,1.984126984126984,5.158730158730158,1.0317460317460316,-0.7142857142857142,4.523809523809524,6.428571428571428,-1.6666666666666665,1.0317460317460316,-325.0,-325.0,-325.0,-325.0,-325.0,-7.5396825396825395
-3.888888888888889,3.253968253968254,-8.492063492063492,12.46031746031746,-0.5555555555555556,-12.46031746031746,-2.3015873015873014,1.349206349206349,-6.111111111111111,6.26984126984127,2.7777777777777777,2.7777777777777777,1.8253968253968254,-0.3968253968253968,2.7777777777777777,5.476190476190476,-1.984126984126984,1.349206349206349,-325.0,-325.0,-325.0,-325.0,-325.0,-7.5396825396825395
-3.888888888888889,3.253968253968254,-8.492063492063492,12.46031746031746,-0.5555555555555556,-12.46031746031746,-2.3015873015873014,1.349206349206349,-6.111111111111111,6.26984126984127,2.7777777777777777,2.7777777777777777,1.8253968253968254,-0.3968253968253968,2.7777777777777777,5.476190476190476,-1.984126984126984,1.349206349206349,-325.0,-325.0,-325.0,-325.0,-325.0,-7.5396825396825395
0.23809523809523808,-0.07936507936507936,-4.523809523809524,12.142857142857142,5.158730158730158,-14.047619047619047,1.8253968253968254,-0.5555555555555556,-0.07936507936507936,2.9365079365079363,7.3809523809523805,2.9365079365079363,5.158730158730158,0.3968253968253968,8.65079365079365,4.523809523809524,-1.984126984126984,1.8253968253968254,-325.0,-325.0,-325.0,-325.0,-325.0,-7.5396825396825395
0.23809523809523808,-0.07936507936507936,-4.523809523809524,12.142857142857142,5.158730158730158,-14.047619047619047,1.8253968253968254,-0.5555555555555556,-0.07936507936507936,2.9365079365079363,7.3809523809523805,2.9365079365079363,5.158730158730158,0.3968253968253968,8.65079365079365,4.523809523809524,-1.984126984126984,1.8253968253968254,-325.0,-325.0,-325.0,-325.0,-325.0,-7.5396825396825395
1.8253968253968254,-0.3968253968253968,-5.634920634920634,7.5396825396825395,4.365079365079365,-13.253968253968253,0.23809523809523808,-2.619047619047619,-0.7142857142857142,3.4126984126984126,5.158730158730158,3.253968253968254,4.682539682539682,-2.3015873015873014,7.5396825396825395,0.873015873015873,-1.984126984126984,1.507936507936508,-325.0,-325.0,-325.0,-325.0,-325.0,-321.8253968253968
1.8253968253968254,-0.3968253968253968,-5.634920634920634,7.5396825396825395,4.365079365079365,-13.253968253968253,0.23809523809523808,-2.619047619047619,-0.7142857142857142,3.4126984126984126,5.158730158730158,3.253968253968254,4.682539682539682,-2.3015873015873014,7.5396825396825395,0.873015873015873,-1.984126984126984,1.507936507936508,-325.0,-325.0,-325.0,-325.0,-325.0,-321.8253968253968
-2.7777777777777777,2.619047619047619,-8.174603174603174,11.19047619047619,0.7142857142857142,-12.142857142857142,-1.6666666666666665,-1.349206349206349,-3.73015873015873,7.063492063492063,2.619047619047619,4.682539682539682,1.349206349206349,2.142857142857143,3.73015873015873,2.619047619047619,-2.3015873015873014,1.349206349206349,-325.0,-325.0,-325.0,-325.0,-325.0,-321.8253968253968
-2.7777777777777777,2.619047619047619,-8.174603174603174,11.19047619047619,0.7142857142857142,-12.142857142857142,-1.6666666666666665,-1.349206349206349,-3.73015873015873,7.063492063492063,2.619047619047619,4.682539682539682,1.349206349206349,2.142857142857143,3.73015873015873,2.619047619047619,-2.3015873015873014,1.349206349206349,-325.0,-325.0,-325.0,-325.0,-325.0,-321.8253968253968
-2.7777777777777777,0.07936507936507936,-7.222222222222221,11.507936507936508,-0.873015873015873,-12.142857142857142,-2.3015873015873014,-0.3968253968253968,-4.0476190476190474,5.0,3.4126984126984126,4.365079365079365,1.0317460317460316,-0.3968253968253968,3.888888888888889,3.888888888888889,-1.6666666666666665,1.0317460317460316,-325.0,-325.0,-325.0,-325.0,-325.0,-321.8253968253968
-2.7777777777777777,0.07936507936507936,-7.222222222222221,11.507936507936508,-0.873015873015873,-12.142857142857142,-2.3015873015873014,-0.3968253968253968,-4.0476190476190474,5.0,3.4126984126984126,4.365079365079365,1.0317460317460316,-0.3968253968253968,3.888888888888889,3.888888888888889,-1.6666666666666665,1.0317460317460316,-325.0,-325.0,-325.0,-325.0,-325.0,-321.8253968253968
-0.873015873015873,-0.3968253968253968,-3.095238095238095,9.603174603174603,2.142857142857143,-10.873015873015872,0.23809523809523808,-3.095238095238095,-2.3015873015873014,3.73015873015873,6.746031746031746,4.682539682539682,3.888888888888889,-0.7142857142857142,4.841269841269841,1.984126984126984,-1.8253968253968254,1.0317460317460316,-325.0,-325.0,-325.0,-325.0,-325.0,-321.8253968253968
-0.873015873015873,-0.3968253968253968,-3.095238095238095,9.603174603174603,2.142857142857143,-10.873015873015872,0.23809523809523808,-3.095238095238095,-2.3015873015873014,3.73015873015873,6.746031746031746,4.682539682539682,3.888888888888889,-0.7142857142857142,4.841269841269841,1.984126984126984,-1.8253968253968254,1.0317460317460316,-325.0,-325.0,-325.0,-325.0,-325.0,-321.8253968253968
-0.7142857142857142,1.1904761904761905,-6.26984126984127,8.65079365079365,1.1904761904761905,-9.761904761904761,-1.507936507936508,-2.46031746031746,-1.507936507936508,3.888888888888889,2.46031746031746,2.619047619047619,4.0476190476190474,-2.142857142857143,3.253968253968254,2.619047619047619,-1.8253968253968254,1.1904761904761905,-325.0,-325.0,-325.0,-325.0,-325.0,-321.8253968253968
-0.7142857142857142,1.1904761904761905,-6.26984126984127,8.65079365079365,1.1904761904761905,-9.761904761904761,-1.507936507936508,-2.46031746031746,-1.507936507936508,3.888888888888889,2.46031746031746,2.619047619047619,4.0476190476190474,-2.142857142857143,3.253968253968254,2.619047619047619,-1.8253968253968254,1.1904761904761905,-325.0,-325.0,-325.0,-325.0,-325.0,-321.8253968253968
4.523809523809524,6.904761904761904,-5.158730158730158,2.46031746031746,-5.952380952380952,-19.6031746031746,-11.19047619047619,-17.063492063492063,-18.65079365079365,-12.619047619047619,12.3015873015873,6.587301587301587,-7.222222222222221,-11.349206349206348,-6.904761904761904,-18.49206349206349,-1.8253968253968254,1.0317460317460316,-325.0,-325.0,-325.0,-325.0,-325.0,-7.5396825396825395
4.523809523809524,6.904761904761904,-5.158730158730158,2.46031746031746,-5.952380952380952,-19.6031746031746,-11.19047619047619,-17.063492063492063,-18.65079365079365,-12.619047619047619,12.3015873015873,6.587301587301587,-7.222222222222221,-11.349206349206348,-6.904761904761904,-18.49206349206349,-1.8253968253968254,1.0317460317460316,-325.0,-325.0,-325.0,-325.0,-325.0,-7.5396825396825395
1.349206349206349,1.8253968253968254,-4.682539682539682,9.126984126984127,3.253968253968254,-8.968253968253968,2.7777777777777777,1.8253968253968254,0.23809523809523808,2.9365079365079363,6.587301587301587,4.365079365079365,4.2063492063492065,-0.3968253968253968,6.428571428571428,2.619047619047619,-1.984126984126984,0.7142857142857142,-325.0,-325.0,-325.0,-325.0,-325.0,-7.5396825396825395
1.349206349206349,1.8253968253968254,-4.682539682539682,9.126984126984127,3.253968253968254,-8.968253968253968,2.7777777777777777,1.8253968253968254,0.23809523809523808,2.9365079365079363,6.587301587301587,4.365079365079365,4.2063492063492065,-0.3968253968253968,6.428571428571428,2.619047619047619,-1.984126984126984,0.7142857142857142,-325.0,-325.0,-325.0,-325.0,-325.0,-7.5396825396825395
3.4126984126984126,-0.23809523809523808,-2.7777777777777777,8.968253968253968,2.142857142857143,-8.492063492063492,2.3015873015873014,-1.349206349206349,1.8253968253968254,3.253968253968254,6.587301587301587,1.507936507936508,4.0476190476190474,2.142857142857143,8.015873015873016,1.0317460317460316,-1.349206349206349,1.349206349206349,-325.0,-325.0,-325.0,-325.0,-325.0,-7.5396825396825395
3.4126984126984126,-0.23809523809523808,-2.7777777777777777,8.968253968253968,2.142857142857143,-8.492063492063492,2.3015873015873014,-1.349206349206349,1.8253968253968254,3.253968253968254,6.587301587301587,1.507936507936508,4.0476190476190474,2.142857142857143,8.015873015873016,1.0317460317460316,-1.349206349206349,1.349206349206349,-325.0,-325.0,-325.0,-325.0,-325.0,-7.5396825396825395
-4.523809523809524,0.7142857142857142,-5.7936507936507935,6.428571428571428,0.3968253968253968,-7.5396825396825395,-1.6666666666666665,-0.23809523809523808,-2.7777777777777777,5.158730158730158,3.095238095238095,1.984126984126984,0.3968253968253968,-0.5555555555555556,1.507936507936508,2.7777777777777777,-1.984126984126984,1.349206349206349,-325.0,-325.0,-325.0,-325.0,-325.0,-7.5396825396825395
-4.523809523809524,0.7142857142857142,-5.7936507936507935,6.428571428571428,0.3968253968253968,-7.5396825396825395,-1.6666666666666665,-0.23809523809523808,-2.7777777777777777,5.158730158730158,3.095238095238095,1.984126984126984,0.3968253968253968,-0.5555555555555556,1.507936507936508,2.7777777777777777,-1.984126984126984,1.349206349206349,-325.0,-325.0,-325.0,-325.0,-325.0,-7.5396825396825395
1.0317460317460316,-1.8253968253968254,-2.46031746031746,5.476190476190476,5.952380952380952,-6.428571428571428,2.3015873015873014,-1.8253968253968254,2.619047619047619,0.873015873015873,7.063492063492063,3.095238095238095,2.142857142857143,-3.571428571428571,4.0476190476190474,2.46031746031746,-1.6666666666666665,1.507936507936508,-325.0,-325.0,-325.0,-325.0,-325.0,-7.5396825396825395
1.0317460317460316,-1.8253968253968254,-2.46031746031746,5.476190476190476,5.952380952380952,-6.428571428571428,2.3015873015873014,-1.8253968253968254,2.619047619047619,0.873015873015873,7.063492063492063,3.095238095238095,2.142857142857143,-3.571428571428571,4.0476190476190474,2.46031746031746,-1.6666666666666665,1.507936507936508,-325.0,-325.0,-325.0,-325.0,-325.0,-7.5396825396825395
1.0317460317460316,-1.0317460317460316,-3.888888888888889,7.857142857142857,2.3015873015873014,-6.587301587301587,-1.507936507936508,-0.3968253968253968,2.619047619047619,1.8253968253968254,2.7777777777777777,2.619047619047619,1.984126984126984,0.07936507936507936,4.523809523809524,0.7142857142857142,-2.142857142857143,1.8253968253968254,-325.0,-325.0,-325.0,-325.0,-325.0,-321.8253968253968
1.0317460317460316,-1.0317460317460316,-3.888888888888889,7.857142857142857,2.3015873015873014,-6.587301587301587,-1.507936507936508,-0.3968253968253968,2.619047619047619,1.8253968253968254,2.7777777777777777,2.619047619047619,1.984126984126984,0.07936507936507936,4.523809523809524,0.7142857142857142,-2.142857142857143,1.8253968253968254,-325.0,-325.0,-325.0,-325.0,-325.0,-321.8253968253968
-0.873015873015873,-1.8253968253968254,-6.587301587301587,7.063492063492063,-0.7142857142857142,-7.857142857142857,-2.142857142857143,-3.571428571428571,-0.23809523809523808,2.142857142857143,3.4126984126984126,-1.349206349206349,1.6666666666666665,-0.5555555555555556,3.253968253968254,2.619047619047619,-2.3015873015873014,1.1904761904761905,-325.0,-325.0,-325.0,-325.0,-325.0,-321.8253968253968
-0.873015873015873,-1.8253968253968254,-6.587301587301587,7.063492063492063,-0.7142857142857142,-7.857142857142857,-2.142857142857143,-3.571428571428571,-0.23809523809523808,2.142857142857143,3.4126984126984126,-1.349206349206349,1.6666666666666665,-0.5555555555555556,3.253968253968254,2.619047619047619,-2.3015873015873014,1.1904761904761905,-325.0,-325.0,-325.0,-325.0,-325.0,-321.8253968253968
0.5555555555555556,1.8253968253968254,-4.523809523809524,8.492063492063492,0.5555555555555556,-4.2063492063492065,0.3968253968253968,-0.7142857142857142,0.3968253968253968,4.0476190476190474,2.9365079365079363,0.23809523809523808,1.6666666666666665,0.3968253968253968,3.571428571428571,4.523809523809524,-1.984126984126984,1.507936507936508,-325.0,-325.0,-325.0,-325.0,-325.0,-321.8253968253968
0.5555555555555556,1.8253968253968254,-4.523809523809524,8.492063492063492,0.5555555555555556,-4.2063492063492065,0.3968253968253968,-0.7142857142857142,0.3968253968253968,4.0476190476190474,2.9365079365079363,0.23809523809523808,1.6666666666666665,0.3968253968253968,3.571428571428571,4.523809523809524,-1.984126984126984,1.507936507936508,-325.0,-325.0,-325.0,-325.0,-325.0,-321.8253968253968
-3.095238095238095,2.7777777777777777,-5.952380952380952,6.904761904761904,-0.873015873015873,-4.841269841269841,-1.1904761904761905,0.873015873015873,-3.4126984126984126,4.365079365079365,-0.7142857142857142,5.158730158730158,-2.46031746031746,0.5555555555555556,0.23809523809523808,2.7777777777777777,-2.46031746031746,1.1904761904761905,-325.0,-325.0,-325.0,-325.0,-325.0,-321.8253968253968
-3.095238095238095,2.7777777777777777,-5.952380952380952,6.904761904761904,-0.873015873015873,-4.841269841269841,-1.1904761904761905,0.873015873015873,-3.4126984126984126,4.365079365079365,-0.7142857142857142,5.158730158730158,-2.46031746031746,0.5555555555555556,0.23809523809523808,2.7777777777777777,-2.46031746031746,1.1904761904761905,-325.0,-325.0,-325.0,-325.0,-325.0,-321.8253968253968
-2.9365079365079363,1.6666666666666665,-4.0476190476190474,5.952380952380952,0.23809523809523808,-5.158730158730158,-1.349206349206349,2.46031746031746,-3.571428571428571,2.46031746031746,0.5555555555555556,0.7142857142857142,0.07936507936507936,-0.23809523809523808,2.619047619047619,2.9365079365079363,-3.095238095238095,1.1904761904761905,-325.0,-325.0,-325.0,-325.0,-325.0,-321.8253968253968
-2.9365079365079363,1.6666666666666665,-4.0476190476190474,5.952380952380952,0.23809523809523808,-5.158730158730158,-1.349206349206349,2.46031746031746,-3.571428571428571,2.46031746031746,0.5555555555555556,0.7142857142857142,0.07936507936507936,-0.23809523809523808,2.619047619047619,2.9365079365079363,-3.095238095238095,1.1904761904761905,-325.0,-325.0,-325.0,-325.0,-325.0,-321.8253968253968
-3.253968253968254,1.1904761904761905,-4.682539682539682,4.841269841269841,0.7142857142857142,-8.968253968253968,-0.5555555555555556,-0.23809523809523808,-4.365079365079365,3.095238095238095,0.873015873015873,1.1904761904761905,-1.1904761904761905,0.3968253968253968,1.8253968253968254,2.7777777777777777,-2.46031746031746,1.1904761904761905,-325.0,-325.0,-325.0,-325.0,-325.0,-7.5396825396825395
-3.253968253968254,1.1904761904761905,-4.682539682539682,4.841269841269841,0.7142857142857142,-8.968253968253968,-0.5555555555555556,-0.23809523809523808,-4.365079365079365,3.095238095238095,0.873015873015873,1.1904761904761905,-1.1904761904761905,0.3968253968253968,1.8253968253968254,2.7777777777777777,-2.46031746031746,1.1904761904761905,-325.0,-325.0,-325.0,-325.0,-325.0,-7.5396825396825395
-1.0317460317460316,-0.07936507936507936,-3.4126984126984126,5.634920634920634,-2.142857142857143,-4.523809523809524,-3.095238095238095,-1.0317460317460316,-5.158730158730158,5.0,0.5555555555555556,-0.7142857142857142,-0.07936507936507936,-1.8253968253968254,3.253968253968254,2.3015873015873014,-2.619047619047619,1.507936507936508,-325.0,-325.0,-325.0,-325.0,-325.0,-7.5396825396825395
-1.0317460317460316,-0.07936507936507936,-3.4126984126984126,5.634920634920634,-2.142857142857143,-4.523809523809524,-3.095238095238095,-1.0317460317460316,-5.158730158730158,5.0,0.5555555555555556,-0.7142857142857142,-0.07936507936507936,-1.8253968253968254,3.253968253968254,2.3015873015873014,-2.619047619047619,1.507936507936508,-325.0,-325.0,-325.0,-325.0,-325.0,-7.5396825396825395
-1.6666666666666665,-1.1904761904761905,-7.222222222222221,5.952380952380952,-1.1904761904761905,-3.095238095238095,-4.0476190476190474,-0.7142857142857142,-2.3015873015873014,2.46031746031746,-2.142857142857143,0.07936507936507936,-2.7777777777777777,-0.3968253968253968,1.507936507936508,1.984126984126984,-3.253968253968254,1.6666666666666665,-325.0,-325.0,-325.0,-325.0,-325.0,-7.5396825396825395
-1.6666666666666665,-1.1904761904761905,-7.222222222222221,5.952380952380952,-1.1904761904761905,-3.095238095238095,-4.0476190476190474,-0.7142857142857142,-2.3015873015873014,2.46031746031746,-2.142857142857143,0.07936507936507936,-2.7777777777777777,-0.3968253968253968,1.507936507936508,1.984126984126984,-3.253968253968254,1.6666666666666665,-325.0,-325.0,-325.0,-325.0,-325.0,-7.5396825396825395
2.46031746031746,4.523809523809524,-1.349206349206349,11.984126984126984,1.6666666666666665,-2.142857142857143,1.6666666666666665,2.9365079365079363,0.7142857142857142,5.158730158730158,3.73015873015873,5.952380952380952,3.253968253968254,2.9365079365079363,6.111111111111111,6.587301587301587,-2.9365079365079363,1.1904761904761905,-325.0,-325.0,-325.0,-325.0,-325.0,-7.5396825396825395
2.46031746031746,4.523809523809524,-1.349206349206349,11.984126984126984,1.6666666666666665,-2.142857142857143,1.6666666666666665,2.9365079365079363,0.7142857142857142,5.158730158730158,3.73015873015873,5.952380952380952,3.253968253968254,2.9365079365079363,6.111111111111111,6.587301587301587,-2.9365079365079363,1.1904761904761905,-325.0,-325.0,-325.0,-325.0,-325.0,-7.5396825396825395
-0.873015873015873,3.4126984126984126,-4.2063492063492065,9.761904761904761,0.23809523809523808,0.7142857142857142,-0.5555555555555556,4.2063492063492065,-0.873015873015873,5.317460317460317,2.142857142857143,5.7936507936507935,1.0317460317460316,4.682539682539682,5.7936507936507935,4.523809523809524,-3.4126984126984126,1.349206349206349,-325.0,-325.0,-325.0,-325.0,-325.0,-7.5396825396825395
-0.873015873015873,3.4126984126984126,-4.2063492063492065,9.761904761904761,0.23809523809523808,0.7142857142857142,-0.5555555555555556,4.2063492063492065,-0.873015873015873,5.317460317460317,2.142857142857143,5.7936507936507935,1.0317460317460316,4.682539682539682,5.7936507936507935,4.523809523809524,-3.4126984126984126,1.349206349206349,-325.0,-325.0,-325.0,-325.0,-325.0,-7.5396825396825395
-3.73015873015873,1.8253968253968254,-4.682539682539682,7.063492063492063,-0.23809523809523808,-1.349206349206349,0.23809523809523808,1.984126984126984,-1.349206349206349,3.095238095238095,-0.3968253968253968,2.3015873015873014,1.984126984126984,0.3968253968253968,1.349206349206349,1.984126984126984,-3.4126984126984126,1.0317460317460316,-325.0,-325.0,-325.0,-325.0,-325.0,-321.8253968253968
-3.73015873015873,1.8253968253968254,-4.682539682539682,7.063492063492063,-0.23809523809523808,-1.349206349206349,0.23809523809523808,1.984126984126984,-1.349206349206349,3.095238095238095,-0.3968253968253968,2.3015873015873014,1.984126984126984,0.3968253968253968,1.349206349206349,1.984126984126984,-3.4126984126984126,1.0317460317460316,-325.0,-325.0,-325.0,-325.0,-325.0,-321.8253968253968
-3.095238095238095,0.3968253968253968,-5.476190476190476,5.952380952380952,-0.7142857142857142,-2.46031746031746,-0.7142857142857142,-0.7142857142857142,-0.7142857142857142,1.0317460317460316,0.23809523809523808,0.7142857142857142,2.3015873015873014,-1.507936507936508,3.095238095238095,4.2063492063492065,-2.9365079365079363,1.0317460317460316,-325.0,-325.0,-325.0,-325.0,-325.0,-321.8253968253968
-3.095238095238095,0.3968253968253968,-5.476190476190476,5.952380952380952,-0.7142857142857142,-2.46031746031746,-0.7142857142857142,-0.7142857142857142,-0.7142857142857142,1.0317460317460316,0.23809523809523808,0.7142857142857142,2.3015873015873014,-1.507936507936508,3.095238095238095,4.2063492063492065,-2.9365079365079363,1.0317460317460316,-325.0,-325.0,-325.0,-325.0,-325.0,-321.8253968253968
-3.4126984126984126,-3.253968253968254,-4.682539682539682,3.4126984126984126,-3.095238095238095,-5.634920634920634,-4.682539682539682,-1.6666666666666665,-3.571428571428571,0.3968253968253968,1.0317460317460316,1.0317460317460316,0.873015873015873,-1.984126984126984,0.07936507936507936,-0.07936507936507936,-2.7777777777777777,1.507936507936508,-325.0,-325.0,-325.0,-325.0,-325.0,-321.8253968253968
-3.4126984126984126,-3.253968253968254,-4.682539682539682,3.4126984126984126,-3.095238095238095,-5.634920634920634,-4.682539682539682,-1.6666666666666665,-3.571428571428571,0.3968253968253968,1.0317460317460316,1.0317460317460316,0.873015873015873,-1.984126984126984,0.07936507936507936,-0.07936507936507936,-2.7777777777777777,1.507936507936508,-325.0,-325.0,-325.0,-325.0,-325.0,-321.8253968253968
-2.142857142857143,2.142857142857143,-4.0476190476190474,4.365079365079365,1.8253968253968254,-4.0476190476190474,-0.3968253968253968,0.5555555555555556,1.0317460317460316,1.1904761904761905,5.0,0.873015873015873,2.7777777777777777,0.873015873015873,4.0476190476190474,1.0317460317460316,-2.9365079365079363,1.984126984126984,-325.0,-325.0,-325.0,-325.0,-325.0,-321.8253968253968
-2.142857142857143,2.142857142857143,-4.0476190476190474,4.365079365079365,1.8253968253968254,-4.0476190476190474,-0.3968253968253968,0.5555555555555556,1.0317460317460316,1.1904761904761905,5.0,0.873015873015873,2.7777777777777777,0.873015873015873,4.0476190476190474,1.0317460317460316,-2.9365079365079363,1.984126984126984,-325.0,-325.0,-325.0,-325.0,-325.0,-321.8253968253968
-0.5555555555555556,0.7142857142857142,-1.6666666666666665,4.0476190476190474,2.7777777777777777,-1.1904761904761905,1.1904761904761905,0.873015873015873,0.07936507936507936,2.3015873015873014,4.2063492063492065,1.507936507936508,2.7777777777777777,-1.8253968253968254,4.2063492063492065,3.73015873015873,-3.253968253968254,1.1904761904761905,-325.0,-325.0,-325.0,-325.0,-325.0,-321.8253968253968
-0.5555555555555556,0.7142857142857142,-1.6666666666666665,4.0476190476190474,2.7777777777777777,-1.1904761904761905,1.1904761904761905,0.873015873015873,0.07936507936507936,2.3015873015873014,4.2063492063492065,1.507936507936508,2.7777777777777777,-1.8253968253968254,4.2063492063492065,3.73015873015873,-3.253968253968254,1.1904761904761905,-325.0,-325.0,-325.0,-325.0,-325.0,-321.8253968253968
-3.73015873015873,1.0317460317460316,-1.507936507936508,6.26984126984127,-0.23809523809523808,-5.317460317460317,-2.3015873015873014,-1.349206349206349,-1.6666666666666665,-0.23809523809523808,0.07936507936507936,2.3015873015873014,-0.23809523809523808,-0.873015873015873,3.095238095238095,1.1904761904761905,-2.7777777777777777,1.8253968253968254,-325.0,-325.0,-325.0,-325.0,-325.0,-7.5396825396825395
-3.73015873015873,1.0317460317460316,-1.507936507936508,6.26984126984127,-0.23809523809523808,-5.317460317460317,-2.3015873015873014,-1.349206349206349,-1.6666666666666665,-0.23809523809523808,0.07936507936507936,2.3015873015873014,-0.23809523809523808,-0.873015873015873,3.095238095238095,1.1904761904761905,-2.7777777777777777,1.8253968253968254,-325.0,-325.0,-325.0,-325.0,-325.0,-7.5396825396825395
2.9365079365079363,2.3015873015873014,1.349206349206349,8.65079365079365,6.111111111111111,-1.1904761904761905,0.5555555555555556,3.888888888888889,1.349206349206349,4.2063492063492065,1.8253968253968254,3.095238095238095,1.1904761904761905,5.0,3.571428571428571,1.6666666666666665,-2.46031746031746,1.349206349206349,-325.0,-325.0,-325.0,-325.0,-325.0,-7.5396825396825395
2.9365079365079363,2.3015873015873014,1.349206349206349,8.65079365079365,6.111111111111111,-1.1904761904761905,0.5555555555555556,3.888888888888889,1.349206349206349,4.2063492063492065,1.8253968253968254,3.095238095238095,1.1904761904761905,5.0,3.571428571428571,1.6666666666666665,-2.46031746031746,1.349206349206349,-325.0,-325.0,-325.0,-325.0,-325.0,-7.5396825396825395
1.349206349206349,1.507936507936508,-1.349206349206349,4.365079365079365,2.46031746031746,-1.984126984126984,-0.5555555555555556,-1.0317460317460316,1.1904761904761905,2.619047619047619,2.9365079365079363,1.6666666666666665,0.7142857142857142,-0.07936507936507936,2.9365079365079363,1.6666666666666665,-3.095238095238095,0.873015873015873,-325.0,-325.0,-325.0,-325.0,-325.0,-7.5396825396825395
1.349206349206349,1.507936507936508,-1.349206349206349,4.365079365079365,2.46031746031746,-1.984126984126984,-0.5555555555555556,-1.0317460317460316,1.1904761904761905,2.619047619047619,2.9365079365079363,1.6666666666666665,0.7142857142857142,-0.07936507936507936,2.9365079365079363,1.6666666666666665,-3.095238095238095,0.873015873015873,-325.0,-325.0,-325.0,-325.0,-325.0,-7.5396825396825395
-0.23809523809523808,-0.7142857142857142,-0.3968253968253968,3.571428571428571,3.095238095238095,-2.142857142857143,0.23809523809523808,-1.1904761904761905,1.6666666666666665,2.619047619047619,1.0317460317460316,3.4126984126984126,1.349206349206349,-2.142857142857143,4.0476190476190474,3.095238095238095,-2.7777777777777777,1.8253968253968254,-325.0,-325.0,-325.0,-325.0,-325.0,-7.5396825396825395
-0.23809523809523808,-0.7142857142857142,-0.3968253968253968,3.571428571428571,3.095238095238095,-2.142857142857143,0.23809523809523808,-1.1904761904761905,1.6666666666666665,2.619047619047619,1.0317460317460316,3.4126984126984126,1.349206349206349,-2.142857142857143,4.0476190476190474,3.095238095238095,-2.7777777777777777,1.8253968253968254,-325.0,-325.0,-325.0,-325.0,-325.0,-7.5396825396825395
-3.095238095238095,0.873015873015873,-5.0,4.2063492063492065,1.349206349206349,-1.984126984126984,-4.365079365079365,0.3968253968253968,-0.07936507936507936,3.888888888888889,1.0317460317460316,2.142857142857143,-0.7142857142857142,-0.5555555555555556,-0.23809523809523808,1.8253968253968254,-2.7777777777777777,1.1904761904761905,-325.0,-325.0,-325.0,-325.0,-325.0,-7.5396825396825395
-3.095238095238095,0.873015873015873,-5.0,4.2063492063492065,1.349206349206349,-1.984126984126984,-4.365079365079365,0.3968253968253968,-0.07936507936507936,3.888888888888889,1.0317460317460316,2.142857142857143,-0.7142857142857142,-0.5555555555555556,-0.23809523809523808,1.8253968253968254,-2.7777777777777777,1.1904761904761905,-325.0,-325.0,-325.0,-325.0,-325.0,-7.5396825396825395
-3.4126984126984126,2.9365079365079363,-1.349206349206349,4.2063492063492065,-1.8253968253968254,-0.7142857142857142,-1.6666666666666665,4.0476190476190474,-0.07936507936507936,3.4126984126984126,1.349206349206349,3.571428571428571,0.07936507936507936,1.6666666666666665,1.1904761904761905,1.507936507936508,-3.253968253968254,1.349206349206349,-325.0,-325.0,-325.0,-325.0,-325.0,-321.8253968253968
-3.4126984126984126,2.9365079365079363,-1.349206349206349,4.2063492063492065,-1.8253968253968254,-0.7142857142857142,-1.6666666666666665,4.0476190476190474,-0.07936507936507936,3.4126984126984126,1.349206349206349,3.571428571428571,0.07936507936507936,1.6666666666666665,1.1904761904761905,1.507936507936508,-3.253968253968254,1.349206349206349,-325.0,-325.0,-325.0,-325.0,-325.0,-321.8253968253968
0.23809523809523808,0.3968253968253968,-1.1904761904761905,3.571428571428571,0.873015873015873,-1.507936507936508,0.3968253968253968,-1.349206349206349,1.8253968253968254,-0.07936507936507936,2.7777777777777777,-0.873015873015873,0.23809523809523808,-0.7142857142857142,3.095238095238095,0.5555555555555556,-3.253968253968254,1.507936507936508,-325.0,-325.0,-325.0,-325.0,-325.0,-321.8253968253968
0.23809523809523808,0.3968253968253968,-1.1904761904761905,3.571428571428571,0.873015873015873,-1.507936507936508,0.3968253968253968,-1.349206349206349,1.8253968253968254,-0.07936507936507936,2.7777777777777777,-0.873015873015873,0.23809523809523808,-0.7142857142857142,3.095238095238095,0.5555555555555556,-3.253968253968254,1.507936507936508,-325.0,-325.0,-325.0,-325.0,-325.0,-321.8253968253968
-1.349206349206349,-1.0317460317460316,-1.507936507936508,4.365079365079365,2.142857142857143,-2.142857142857143,0.5555555555555556,-0.7142857142857142,0.07936507936507936,1.8253968253968254,-0.23809523809523808,-0.3968253968253968,-0.3968253968253968,-2.3015873015873014,-0.5555555555555556,1.507936507936508,-2.7777777777777777,1.984126984126984,-325.0,-325.0,-325.0,-325.0,-325.0,-321.8253968253968
-1.349206349206349,-1.0317460317460316,-1.507936507936508,4.365079365079365,2.142857142857143,-2.142857142857143,0.5555555555555556,-0.7142857142857142,0.07936507936507936,1.8253968253968254,-0.23809523809523808,-0.3968253968253968,-0.3968253968253968,-2.3015873015873014,-0.5555555555555556,1.507936507936508,-2.7777777777777777,1.984126984126984,-325.0,-325.0,-325.0,-325.0,-325.0,-321.8253968253968
-2.9365079365079363,2.619047619047619,-2.46031746031746,4.0476190476190474,1.1904761904761905,-4.0476190476190474,-1.507936507936508,1.1904761904761905,1.6666666666666665,3.571428571428571,0.3968253968253968,1.8253968253968254,-0.23809523809523808,-0.873015873015873,2.142857142857143,1.8253968253968254,-2.9365079365079363,1.1904761904761905,-325.0,-325.0,-325.0,-325.0,-325.0,-321.8253968253968
-2.9365079365079363,2.619047619047619,-2.46031746031746,4.0476190476190474,1.1904761904761905,-4.0476190476190474,-1.507936507936508,1.1904761904761905,1.6666666666666665,3.571428571428571,0.3968253968253968,1.8253968253968254,-0.23809523809523808,-0.873015873015873,2.142857142857143,1.8253968253968254,-2.9365079365079363,1.1904761904761905,-325.0,-325.0,-325.0,-325.0,-325.0,-321.8253968253968
-1.984126984126984,0.873015873015873,-4.682539682539682,3.888888888888889,0.5555555555555556,-1.349206349206349,0.5555555555555556,0.3968253968253968,-0.3968253968253968,1.8253968253968254,0.07936507936507936,1.8253968253968254,-1.8253968253968254,0.873015873015873,3.253968253968254,-0.07936507936507936,-3.095238095238095,1.1904761904761905,-325.0,-325.0,-325.0,-325.0,-325.0,-321.8253968253968
-1.984126984126984,0.873015873015873,-4.682539682539682,3.888888888888889,0.5555555555555556,-1.349206349206349,0.5555555555555556,0.3968253968253968,-0.3968253968253968,1.8253968253968254,0.07936507936507936,1.8253968253968254,-1.8253968253968254,0.873015873015873,3.253968253968254,-0.07936507936507936,-3.095238095238095,1.1904761904761905,-325.0,-325.0,-325.0,-325.0,-325.0,-321.8253968253968
-5.158730158730158,-1.1904761904761905,-4.523809523809524,1.984126984126984,-1.349206349206349,-4.365079365079365,-1.984126984126984,-0.23809523809523808,-2.142857142857143,-1.0317460317460316,-1.349206349206349,0.7142857142857142,-2.7777777777777777,-3.253968253968254,2.619047619047619,1.1904761904761905,-2.619047619047619,1.6666666666666665,-325.0,-325.0,-325.0,-325.0,-325.0,-7.5396825396825395
-5.158730158730158,-1.1904761904761905,-4.523809523809524,1.984126984126984,-1.349206349206349,-4.365079365079365,-1.984126984126984,-0.23809523809523808,-2.142857142857143,-1.0317460317460316,-1.349206349206349,0.7142857142857142,-2.7777777777777777,-3.253968253968254,2.619047619047619,1.1904761904761905,-2.619047619047619,1.6666666666666665,-325.0,-325.0,-325.0,-325.0,-325.0,-7.5396825396825395
-3.73015873015873,-0.3968253968253968,-3.571428571428571,2.46031746031746,0.7142857142857142,-0.07936507936507936,-0.7142857142857142,-0.3968253968253968,-2.7777777777777777,1.6666666666666665,-0.23809523809523808,-0.23809523809523808,-2.9365079365079363,-2.142857142857143,1.0317460317460316,-1.349206349206349,-3.4126984126984126,1.6666666666666665,-325.0,-325.0,-325.0,-325.0,-325.0,-7.5396825396825395
-3.73015873015873,-0.3968253968253968,-3.571428571428571,2.46031746031746,0.7142857142857142,-0.07936507936507936,-0.7142857142857142,-0.3968253968253968,-2.7777777777777777,1.6666666666666665,-0.23809523809523808,-0.23809523809523808,-2.9365079365079363,-2.142857142857143,1.0317460317460316,-1.349206349206349,-3.4126984126984126,1.6666666666666665,-325.0,-325.0,-325.0,-325.0,-325.0,-7.5396825396825395
-0.5555555555555556,2.619047619047619,-2.46031746031746,2.619047619047619,1.507936507936508,-0.07936507936507936,0.5555555555555556,0.5555555555555556,0.7142857142857142,2.9365079365079363,2.142857142857143,0.7142857142857142,-0.3968253968253968,-1.8253968253968254,2.3015873015873014,3.095238095238095,-3.253968253968254,1.507936507936508,-325.0,-325.0,-325.0,-325.0,-325.0,-7.5396825396825395
-0.5555555555555556,2.619047619047619,-2.46031746031746,2.619047619047619,1.507936507936508,-0.07936507936507936,0.5555555555555556,0.5555555555555556,0.7142857142857142,2.9365079365079363,2.142857142857143,0.7142857142857142,-0.3968253968253968,-1.8253968253968254,2.3015873015873014,3.095238095238095,-3.253968253968254,1.507936507936508,-325.0,-325.0,-325.0,-325.0,-325.0,-7.5396825396825395
-3.571428571428571,0.873015873015873,-4.0476190476190474,5.158730158730158,2.3015873015873014,1.1904761904761905,-0.07936507936507936,3.73015873015873,2.619047619047619,3.4126984126984126,0.23809523809523808,2.46031746031746,-1.1904761904761905,1.0317460317460316,1.1904761904761905,3.253968253968254,-3.4126984126984126,1.1904761904761905,-325.0,-325.0,-325.0,-325.0,-325.0,-7.5396825396825395
-3.571428571428571,0.873015873015873,-4.0476190476190474,5.158730158730158,2.3015873015873014,1.1904761904761905,-0.07936507936507936,3.73015873015873,2.619047619047619,3.4126984126984126,0.23809523809523808,2.46031746031746,-1.1904761904761905,1.0317460317460316,1.1904761904761905,3.253968253968254,-3.4126984126984126,1.1904761904761905,-325.0,-325.0,-325.0,-325.0,-325.0,-7.5396825396825395
-1.6666666666666665,-1.6666666666666665,0.7142857142857142,3.253968253968254,0.873015873015873,-0.7142857142857142,-0.07936507936507936,0.3968253968253968,1.0317460317460316,0.873015873015873,1.349206349206349,0.3968253968253968,1.1904761904761905,-1.349206349206349,1.349206349206349,-0.5555555555555556,-3.888888888888889,0.7142857142857142,-325.0,-325.0,-325.0,-325.0,-325.0,-7.5396825396825395
-1.6666666666666665,-1.6666666666666665,0.7142857142857142,3.253968253968254,0.873015873015873,-0.7142857142857142,-0.07936507936507936,0.3968253968253968,1.0317460317460316,0.873015873015873,1.349206349206349,0.3968253968253968,1.1904761904761905,-1.349206349206349,1.349206349206349,-0.5555555555555556,-3.888888888888889,0.7142857142857142,-325.0,-325.0,-325.0,-325.0,-325.0,-7.5396825396825395
0.07936507936507936,3.571428571428571,-0.23809523809523808,2.9365079365079363,-0.23809523809523808,-0.7142857142857142,-0.5555555555555556,2.7777777777777777,2.46031746031746,4.841269841269841,2.7777777777777777,4.682539682539682,1.1904761904761905,2.9365079365079363,1.349206349206349,4.0476190476190474,-3.253968253968254,1.1904761904761905,-325.0,-325.0,-325.0,-325.0,-325.0,-321.8253968253968
0.07936507936507936,3.571428571428571,-0.23809523809523808,2.9365079365079363,-0.23809523809523808,-0.7142857142857142,-0.5555555555555556,2.7777777777777777,2.46031746031746,4.841269841269841,2.7777777777777777,4.682539682539682,1.1904761904761905,2.9365079365079363,1.349206349206349,4.0476190476190474,-3.253968253968254,1.1904761904761905,-325.0,-325.0,-325.0,-325.0,-325.0,-321.8253968253968
-2.142857142857143,1.984126984126984,-3.571428571428571,4.682539682539682,-0.873015873015873,1.349206349206349,-1.507936507936508,2.9365079365079363,-1.8253968253968254,2.142857142857143,0.3968253968253968,2.7777777777777777,0.5555555555555556,0.873015873015873,1.349206349206349,1.1904761904761905,-3.095238095238095,1.349206349206349,-325.0,-325.0,-325.0,-325.0,-325.0,-321.8253968253968
-2.142857142857143,1.984126984126984,-3.571428571428571,4.682539682539682,-0.873015873015873,1.349206349206349,-1.507936507936508,2.9365079365079363,-1.8253968253968254,2.142857142857143,0.3968253968253968,2.7777777777777777,0.5555555555555556,0.873015873015873,1.349206349206349,1.1904761904761905,-3.095238095238095,1.349206349206349,-325.0,-325.0,-325.0,-325.0,-325.0,-321.8253968253968
0.23809523809523808,-1.0317460317460316,-0.3968253968253968,2.7777777777777777,1.984126984126984,0.5555555555555556,0.873015873015873,-0.873015873015873,0.5555555555555556,1.1904761904761905,2.9365079365079363,1.6666666666666665,3.73015873015873,-1.0317460317460316,2.7777777777777777,2.46031746031746,-2.9365079365079363,1.349206349206349,-325.0,-325.0,-325.0,-325.0,-325.0,-321.8253968253968
0.23809523809523808,-1.0317460317460316,-0.3968253968253968,2.7777777777777777,1.984126984126984,0.5555555555555556,0.873015873015873,-0.873015873015873,0.5555555555555556,1.1904761904761905,2.9365079365079363,1.6666666666666665,3.73015873015873,-1.0317460317460316,2.7777777777777777,2.46031746031746,-2.9365079365079363,1.349206349206349,-325.0,-325.0,-325.0,-325.0,-325.0,-321.8253968253968
-1.1904761904761905,-3.095238095238095,-1.984126984126984,1.984126984126984,-0.3968253968253968,-4.365079365079365,0.3968253968253968,-1.1904761904761905,1.349206349206349,-1.6666666666666665,1.0317460317460316,1.1904761904761905,0.07936507936507936,-1.8253968253968254,2.3015873015873014,-2.142857142857143,-3.253968253968254,0.873015873015873,-325.0,-325.0,-325.0,-325.0,-325.0,-321.8253968253968
-1.1904761904761905,-3.095238095238095,-1.984126984126984,1.984126984126984,-0.3968253968253968,-4.365079365079365,0.3968253968253968,-1.1904761904761905,1.349206349206349,-1.6666666666666665,1.0317460317460316,1.1904761904761905,0.07936507936507936,-1.8253968253968254,2.3015873015873014,-2.142857142857143,-3.253968253968254,0.873015873015873,-325.0,-325.0,-325.0,-325.0,-325.0,-321.8253968253968
-2.3015873015873014,-0.873015873015873,-3.253968253968254,3.571428571428571,-0.3968253968253968,-1.8253968253968254,0.7142857142857142,-0.873015873015873,1.0317460317460316,0.07936507936507936,1.507936507936508,1.507936507936508,-0.3968253968253968,0.5555555555555556,-0.23809523809523808,-1.507936507936508,-3.73015873015873,1.0317460317460316,-325.0,-325.0,-325.0,-325.0,-325.0,-321.8253968253968
-2.3015873015873014,-0.873015873015873,-3.253968253968254,3.571428571428571,-0.3968253968253968,-1.8253968253968254,0.7142857142857142,-0.873015873015873,1.0317460317460316,0.07936507936507936,1.507936507936508,1.507936507936508,-0.3968253968253968,0.5555555555555556,-0.23809523809523808,-1.507936507936508,-3.73015873015873,1.0317460317460316,-325.0,-325.0,-325.0,-325.0,-325.0,-321.8253968253968
0.3968253968253968,-1.1904761904761905,-2.9365079365079363,2.619047619047619,2.46031746031746,-0.23809523809523808,1.349206349206349,1.0317460317460316,0.23809523809523808,2.46031746031746,1.6666666666666665,2.7777777777777777,1.349206349206349,0.23809523809523808,1.984126984126984,1.6666666666666665,-4.365079365079365,1.1904761904761905,-325.0,-325.0,-325.0,-325.0,-325.0,-7.5396825396825395
0.3968253968253968,-1.1904761904761905,-2.9365079365079363,2.619047619047619,2.46031746031746,-0.23809523809523808,1.349206349206349,1.0317460317460316,0.23809523809523808,2.46031746031746,1.6666666666666665,2.7777777777777777,1.349206349206349,0.23809523809523808,1.984126984126984,1.6666666666666665,-4.365079365079365,1.1904761904761905,-325.0,-325.0,-325.0,-325.0,-325.0,-7.5396825396825395
-1.1904761904761905,-2.142857142857143,-3.73015873015873,2.142857142857143,0.3968253968253968,-0.7142857142857142,-0.5555555555555556,1.1904761904761905,0.5555555555555556,-0.3968253968253968,-0.5555555555555556,-0.3968253968253968,2.46031746031746,0.07936507936507936,0.7142857142857142,0.7142857142857142,-3.4126984126984126,1.0317460317460316,-325.0,-325.0,-325.0,-325.0,-325.0,-7.5396825396825395
-1.1904761904761905,-2.142857142857143,-3.73015873015873,2.142857142857143,0.3968253968253968,-0.7142857142857142,-0.5555555555555556,1.1904761904761905,0.5555555555555556,-0.3968253968253968,-0.5555555555555556,-0.3968253968253968,2.46031746031746,0.07936507936507936,0.7142857142857142,0.7142857142857142,-3.4126984126984126,1.0317460317460316,-325.0,-325.0,-325.0,-325.0,-325.0,-7.5396825396825395
-2.46031746031746,0.7142857142857142,-1.349206349206349,3.571428571428571,2.3015873015873014,-1.0317460317460316,-1.8253968253968254,0.07936507936507936,-0.873015873015873,-0.07936507936507936,1.0317460317460316,2.9365079365079363,-0.7142857142857142,-0.3968253968253968,2.142857142857143,1.8253968253968254,-3.888888888888889,0.873015873015873,-325.0,-325.0,-325.0,-325.0,-325.0,-7.5396825396825395
-2.46031746031746,0.7142857142857142,-1.349206349206349,3.571428571428571,2.3015873015873014,-1.0317460317460316,-1.8253968253968254,0.07936507936507936,-0.873015873015873,-0.07936507936507936,1.0317460317460316,2.9365079365079363,-0.7142857142857142,-0.3968253968253968,2.142857142857143,1.8253968253968254,-3.888888888888889,0.873015873015873,-325.0,-325.0,-325.0,-325.0,-325.0,-7.5396825396825395
-1.6666666666666665,-1.0317460317460316,-1.1904761904761905,1.349206349206349,-0.873015873015873,-4.523809523809524,-2.142857142857143,-0.7142857142857142,-3.4126984126984126,-1.8253968253968254,1.984126984126984,-1.8253968253968254,-1.1904761904761905,-0.873015873015873,1.8253968253968254,-1.984126984126984,-4.0476190476190474,0.3968253968253968,-325.0,-325.0,-325.0,-325.0,-325.0,-7.5396825396825395
-1.6666666666666665,-1.0317460317460316,-1.1904761904761905,1.349206349206349,-0.873015873015873,-4.523809523809524,-2.142857142857143,-0.7142857142857142,-3.4126984126984126,-1.8253968253968254,1.984126984126984,-1.8253968253968254,-1.1904761904761905,-0.873015873015873,1.8253968253968254,-1.984126984126984,-4.0476190476190474,0.3968253968253968,-325.0,-325.0,-325.0,-325.0,-325.0,-7.5396825396825395
-0.07936507936507936,0.23809523809523808,-0.7142857142857142,1.507936507936508,1.984126984126984,-3.253968253968254,-1.8253968253968254,-1.8253968253968254,-0.23809523809523808,-0.873015873015873,2.7777777777777777,-3.095238095238095,-0.07936507936507936,-1.507936507936508,5.476190476190476,-2.142857142857143,-3.253968253968254,0.873015873015873,-325.0,-325.0,-325.0,-325.0,-325.0,-7.5396825396825395
-0.07936507936507936,0.23809523809523808,-0.7142857142857142,1.507936507936508,1.984126984126984,-3.253968253968254,-1.8253968253968254,-1.8253968253968254,-0.23809523809523808,-0.873015873015873,2.7777777777777777,-3.095238095238095,-0.07936507936507936,-1.507936507936508,5.476190476190476,-2.142857142857143,-3.253968253968254,0.873015873015873,-325.0,-325.0,-325.0,-325.0,-325.0,-7.5396825396825395
0.873015873015873,0.3968253968253968,-1.507936507936508,3.095238095238095,3.253968253968254,1.0317460317460316,2.7777777777777777,0.5555555555555556,4.2063492063492065,2.9365079365079363,4.841269841269841,3.253968253968254,2.142857142857143,0.3968253968253968,4.0476190476190474,1.507936507936508,-3.253968253968254,0.5555555555555556,-325.0,-325.0,-325.0,-325.0,-325.0,-321.8253968253968
0.873015873015873,0.3968253968253968,-1.507936507936508,3.095238095238095,3.253968253968254,1.0317460317460316,2.7777777777777777,0.5555555555555556,4.2063492063492065,2.9365079365079363,4.841269841269841,3.253968253968254,2.142857142857143,0.3968253968253968,4.0476190476190474,1.507936507936508,-3.253968253968254,0.5555555555555556,-325.0,-325.0,-325.0,-325.0,-325.0,-321.8253968253968
-2.142857142857143,0.3968253968253968,-2.619047619047619,1.984126984126984,-0.5555555555555556,1.507936507936508,0.7142857142857142,1.984126984126984,1.984126984126984,3.095238095238095,0.23809523809523808,1.1904761904761905,1.8253968253968254,0.07936507936507936,0.7142857142857142,3.888888888888889,-3.73015873015873,0.5555555555555556,-325.0,-325.0,-325.0,-325.0,-325.0,-321.8253968253968
-2.142857142857143,0.3968253968253968,-2.619047619047619,1.984126984126984,-0.5555555555555556,1.507936507936508,0.7142857142857142,1.984126984126984,1.984126984126984,3.095238095238095,0.23809523809523808,1.1904761904761905,1.8253968253968254,0.07936507936507936,0.7142857142857142,3.888888888888889,-3.73015873015873,0.5555555555555556,-325.0,-325.0,-325.0,-325.0,-325.0,-321.8253968253968
-1.349206349206349,2.7777777777777777,-1.507936507936508,6.428571428571428,0.7142857142857142,3.73015873015873,-1.1904761904761905,3.888888888888889,1.0317460317460316,2.142857142857143,1.0317460317460316,4.841269841269841,-1.349206349206349,0.5555555555555556,0.873015873015873,2.619047619047619,-3.888888888888889,0.873015873015873,-325.0,-325.0,-325.0,-325.0,-325.0,-321.8253968253968
-1.349206349206349,2.7777777777777777,-1.507936507936508,6.428571428571428,0.7142857142857142,3.73015873015873,-1.1904761904761905,3.888888888888889,1.0317460317460316,2.142857142857143,1.0317460317460316,4.841269841269841,-1.349206349206349,0.5555555555555556,0.873015873015873,2.619047619047619,-3.888888888888889,0.873015873015873,-325.0,-325.0,-325.0,-325.0,-325.0,-321.8253968253968
-0.7142857142857142,0.3968253968253968,-2.142857142857143,3.095238095238095,0.07936507936507936,1.1904761904761905,-0.5555555555555556,3.095238095238095,1.984126984126984,3.095238095238095,0.5555555555555556,1.984126984126984,1.1904761904761905,-0.3968253968253968,1.1904761904761905,4.2063492063492065,-2.46031746031746,0.5555555555555556,-325.0,-325.0,-325.0,-325.0,-325.0,-321.8253968253968
-0.7142857142857142,0.3968253968253968,-2.142857142857143,3.095238095238095,0.07936507936507936,1.1904761904761905,-0.5555555555555556,3.095238095238095,1.984126984126984,3.095238095238095,0.5555555555555556,1.984126984126984,1.1904761904761905,-0.3968253968253968,1.1904761904761905,4.2063492063492065,-2.46031746031746,0.5555555555555556,-325.0,-325.0,-325.0,-325.0,-325.0,-321.8253968253968
-0.07936507936507936,0.23809523809523808,-1.507936507936508,2.3015873015873014,0.07936507936507936,0.873015873015873,-0.7142857142857142,4.0476190476190474,2.142857142857143,3.253968253968254,2.46031746031746,2.3015873015873014,0.3968253968253968,-0.23809523809523808,1.349206349206349,1.0317460317460316,-2.7777777777777777,0.873015873015873,-325.0,-325.0,-325.0,-325.0,-325.0,-321.8253968253968
-0.07936507936507936,0.23809523809523808,-1.507936507936508,2.3015873015873014,0.07936507936507936,0.873015873015873,-0.7142857142857142,4.0476190476190474,2.142857142857143,3.253968253968254,2.46031746031746,2.3015873015873014,0.3968253968253968,-0.23809523809523808,1.349206349206349,1.0317460317460316,-2.7777777777777777,0.873015873015873,-325.0,-325.0,-325.0,-325.0,-325.0,-321.8253968253968
-0.5555555555555556,1.0317460317460316,1.984126984126984,2.7777777777777777,-0.23809523809523808,-3.095238095238095,0.07936507936507936,0.23809523809523808,0.5555555555555556,-1.349206349206349,5.7936507936507935,1.6666666666666665,0.7142857142857142,-1.1904761904761905,2.3015873015873014,2.142857142857143,-3.4126984126984126,1.0317460317460316,-325.0,-325.0,-325.0,-325.0,-325.0,-7.5396825396825395
-0.5555555555555556,1.0317460317460316,1.984126984126984,2.7777777777777777,-0.23809523809523808,-3.095238095238095,0.07936507936507936,0.23809523809523808,0.5555555555555556,-1.349206349206349,5.7936507936507935,1.6666666666666665,0.7142857142857142,-1.1904761904761905,2.3015873015873014,2.142857142857143,-3.4126984126984126,1.0317460317460316,-325.0,-325.0,-325.0,-325.0,-325.0,-7.5396825396825395
-2.7777777777777777,0.7142857142857142,-1.0317460317460316,3.888888888888889,-1.349206349206349,0.3968253968253968,-0.7142857142857142,-0.3968253968253968,0.3968253968253968,2.46031746031746,1.8253968253968254,2.3015873015873014,0.07936507936507936,-4.2063492063492065,4.2063492063492065,-0.3968253968253968,-2.7777777777777777,1.1904761904761905,-325.0,-325.0,-325.0,-325.0,-325.0,-7.5396825396825395
-2.7777777777777777,0.7142857142857142,-1.0317460317460316,3.888888888888889,-1.349206349206349,0.3968253968253968,-0.7142857142857142,-0.3968253968253968,0.3968253968253968,2.46031746031746,1.8253968253968254,2.3015873015873014,0.07936507936507936,-4.2063492063492065,4.2063492063492065,-0.3968253968253968,-2.7777777777777777,1.1904761904761905,-325.0,-325.0,-325.0,-325.0,-325.0,-7.5396825396825395
-1.1904761904761905,2.619047619047619,-1.8253968253968254,2.9365079365079363,2.3015873015873014,1.984126984126984,-0.7142857142857142,3.4126984126984126,2.3015873015873014,3.095238095238095,1.984126984126984,3.73015873015873,-0.3968253968253968,2.142857142857143,3.4126984126984126,1.984126984126984,-2.7777777777777777,1.0317460317460316,-325.0,-325.0,-325.0,-325.0,-325.0,-7.5396825396825395
-1.1904761904761905,2.619047619047619,-1.8253968253968254,2.9365079365079363,2.3015873015873014,1.984126984126984,-0.7142857142857142,3.4126984126984126,2.3015873015873014,3.095238095238095,1.984126984126984,3.73015873015873,-0.3968253968253968,2.142857142857143,3.4126984126984126,1.984126984126984,-2.7777777777777777,1.0317460317460316,-325.0,-325.0,-325.0,-325.0,-325.0,-7.5396825396825395
-1.349206349206349,-1.0317460317460316,-1.0317460317460316,2.46031746031746,2.142857142857143,0.07936507936507936,0.873015873015873,-0.23809523809523808,0.23809523809523808,0.23809523809523808,0.23809523809523808,0.3968253968253968,-1.8253968253968254,-1.984126984126984,-1.1904761904761905,0.873015873015873,-2.46031746031746,0.873015873015873,-325.0,-325.0,-325.0,-325.0,-325.0,-7.5396825396825395
-1.349206349206349,-1.0317460317460316,-1.0317460317460316,2.46031746031746,2.142857142857143,0.07936507936507936,0.873015873015873,-0.23809523809523808,0.23809523809523808,0.23809523809523808,0.23809523809523808,0.3968253968253968,-1.8253968253968254,-1.984126984126984,-1.1904761904761905,0.873015873015873,-2.46031746031746,0.873015873015873,-325.0,-325.0,-325.0,-325.0,-325.0,-7.5396825396825395
-1.984126984126984,-1.0317460317460316,-0.23809523809523808,-0.07936507936507936,0.07936507936507936,-1.1904761904761905,0.23809523809523808,-0.07936507936507936,0.23809523809523808,-1.1904761904761905,0.7142857142857142,2.619047619047619,-1.507936507936508,-2.46031746031746,-1.6666666666666665,-0.3968253968253968,-2.619047619047619,1.507936507936508,-325.0,-325.0,-325.0,-325.0,-325.0,-7.5396825396825395
-1.984126984126984,-1.0317460317460316,-0.23809523809523808,-0.07936507936507936,0.07936507936507936,-1.1904761904761905,0.23809523809523808,-0.07936507936507936,0.23809523809523808,-1.1904761904761905,0.7142857142857142,2.619047619047619,-1.507936507936508,-2.46031746031746,-1.6666666666666665,-0.3968253968253968,-2.619047619047619,1.507936507936508,-325.0,-325.0,-325.0,-325.0,-325.0,-7.5396825396825395
0.5555555555555556,1.1904761904761905,-1.507936507936508,4.682539682539682,-1.1904761904761905,2.46031746031746,1.1904761904761905,3.571428571428571,3.73015873015873,2.9365079365079363,2.142857142857143,3.095238095238095,1.0317460317460316,3.095238095238095,3.4126984126984126,2.7777777777777777,-3.4126984126984126,1.1904761904761905,-325.0,-325.0,-325.0,-325.0,-325.0,-321.8253968253968
0.5555555555555556,1.1904761904761905,-1.507936507936508,4.682539682539682,-1.1904761904761905,2.46031746031746,1.1904761904761905,3.571428571428571,3.73015873015873,2.9365079365079363,2.142857142857143,3.095238095238095,1.0317460317460316,3.095238095238095,3.4126984126984126,2.7777777777777777,-3.4126984126984126,1.1904761904761905,-325.0,-325.0,-325.0,-325.0,-325.0,-321.8253968253968
0.5555555555555556,-0.3968253968253968,0.5555555555555556,4.365079365079365,1.507936507936508,1.6666666666666665,3.253968253968254,4.2063492063492065,3.571428571428571,1.507936507936508,1.6666666666666665,2.9365079365079363,2.142857142857143,1.507936507936508,3.888888888888889,2.3015873015873014,-2.9365079365079363,0.873015873015873,-325.0,-325.0,-325.0,-325.0,-325.0,-321.8253968253968
0.5555555555555556,-0.3968253968253968,0.5555555555555556,4.365079365079365,1.507936507936508,1.6666666666666665,3.253968253968254,4.2063492063492065,3.571428571428571,1.507936507936508,1.6666666666666665,2.9365079365079363,2.142857142857143,1.507936507936508,3.888888888888889,2.3015873015873014,-2.9365079365079363,0.873015873015873,-325.0,-325.0,-325.0,-325.0,-325.0,-321.8253968253968
0.5555555555555556,-0.7142857142857142,0.23809523809523808,1.1904761904761905,0.07936507936507936,0.3968253968253968,2.46031746031746,0.7142857142857142,1.349206349206349,2.7777777777777777,2.142857142857143,3.095238095238095,2.142857142857143,0.3968253968253968,1.507936507936508,1.984126984126984,-3.095238095238095,1.1904761904761905,-325.0,-325.0,-325.0,-325.0,-325.0,-321.8253968253968
0.5555555555555556,-0.7142857142857142,0.23809523809523808,1.1904761904761905,0.07936507936507936,0.3968253968253968,2.46031746031746,0.7142857142857142,1.349206349206349,2.7777777777777777,2.142857142857143,3.095238095238095,2.142857142857143,0.3968253968253968,1.507936507936508,1.984126984126984,-3.095238095238095,1.1904761904761905,-325.0,-325.0,-325.0,-325.0,-325.0,-321.8253968253968
0.873015873015873,0.07936507936507936,2.3015873015873014,0.7142857142857142,3.571428571428571,0.23809523809523808,6.111111111111111,-0.873015873015873,2.46031746031746,4.2063492063492065,1.984126984126984,1.349206349206349,3.253968253968254,1.507936507936508,5.0,2.142857142857143,-2.9365079365079363,0.873015873015873,-325.0,-325.0,-325.0,-325.0,-325.0,-321.8253968253968
0.873015873015873,0.07936507936507936,2.3015873015873014,0.7142857142857142,3.571428571428571,0.23809523809523808,6.111111111111111,-0.873015873015873,2.46031746031746,4.2063492063492065,1.984126984126984,1.349206349206349,3.253968253968254,1.507936507936508,5.0,2.142857142857143,-2.9365079365079363,0.873015873015873,-325.0,-325.0,-325.0,-325.0,-325.0,-321.8253968253968
-0.5555555555555556,1.349206349206349,-0.23809523809523808,1.0317460317460316,-0.3968253968253968,1.1904761904761905,0.23809523809523808,-0.23809523809523808,0.23809523809523808,1.8253968253968254,-0.7142857142857142,1.6666666666666665,1.507936507936508,-1.1904761904761905,2.619047619047619,0.07936507936507936,-2.9365079365079363,1.1904761904761905,-325.0,-325.0,-325.0,-325.0,-325.0,-321.8253968253968
-0.5555555555555556,1.349206349206349,-0.23809523809523808,1.0317460317460316,-0.3968253968253968,1.1904761904761905,0.23809523809523808,-0.23809523809523808,0.23809523809523808,1.8253968253968254,-0.7142857142857142,1.6666666666666665,1.507936507936508,-1.1904761904761905,2.619047619047619,0.07936507936507936,-2.9365079365079363,1.1904761904761905,-325.0,-325.0,-325.0,-325.0,-325.0,-321.8253968253968
0.7142857142857142,0.873015873015873,-0.5555555555555556,2.46031746031746,0.7142857142857142,3.571428571428571,-2.619047619047619,4.0476190476190474,1.507936507936508,4.682539682539682,0.07936507936507936,3.4126984126984126,-0.3968253968253968,0.07936507936507936,3.571428571428571,0.7142857142857142,-2.7777777777777777,0.873015873015873,-325.0,-325.0,-325.0,-325.0,-325.0,-7.5396825396825395
0.7142857142857142,0.873015873015873,-0.5555555555555556,2.46031746031746,0.7142857142857142,3.571428571428571,-2.619047619047619,4.0476190476190474,1.507936507936508,4.682539682539682,0.07936507936507936,3.4126984126984126,-0.3968253968253968,0.07936507936507936,3.571428571428571,0.7142857142857142,-2.7777777777777777,0.873015873015873,-325.0,-325.0,-325.0,-325.0,-325.0,-7.5396825396825395
-0.5555555555555556,-0.23809523809523808,-0.23809523809523808,1.8253968253968254,0.23809523809523808,-1.1904761904761905,-0.5555555555555556,0.5555555555555556,3.4126984126984126,1.1904761904761905,1.984126984126984,2.46031746031746,-2.142857142857143,-2.9365079365079363,1.507936507936508,0.23809523809523808,-2.3015873015873014,0.873015873015873,-325.0,-325.0,-325.0,-325.0,-325.0,-7.5396825396825395
-0.5555555555555556,-0.23809523809523808,-0.23809523809523808,1.8253968253968254,0.23809523809523808,-1.1904761904761905,-0.5555555555555556,0.5555555555555556,3.4126984126984126,1.1904761904761905,1.984126984126984,2.46031746031746,-2.142857142857143,-2.9365079365079363,1.507936507936508,0.23809523809523808,-2.3015873015873014,0.873015873015873,-325.0,-325.0,-325.0,-325.0,-325.0,-7.5396825396825395
-2.46031746031746,-0.7142857142857142,0.23809523809523808,-0.07936507936507936,1.507936507936508,-1.6666666666666665,0.5555555555555556,-0.07936507936507936,0.873015873015873,-1.507936507936508,1.984126984126984,0.873015873015873,-0.7142857142857142,-2.7777777777777777,3.253968253968254,-1.984126984126984,-2.7777777777777777,0.873015873015873,-325.0,-325.0,-325.0,-325.0,-325.0,-7.5396825396825395
-2.46031746031746,-0.7142857142857142,0.23809523809523808,-0.07936507936507936,1.507936507936508,-1.6666666666666665,0.5555555555555556,-0.07936507936507936,0.873015873015873,-1.507936507936508,1.984126984126984,0.873015873015873,-0.7142857142857142,-2.7777777777777777,3.253968253968254,-1.984126984126984,-2.7777777777777777,0.873015873015873,-325.0,-325.0,-325.0,-325.0,-325.0,-7.5396825396825395
-4.0476190476190474,-0.23809523809523808,-3.73015873015873,-0.23809523809523808,-1.507936507936508,0.07936507936507936,-5.0,0.7142857142857142,-1.984126984126984,-1.0317460317460316,-2.9365079365079363,-0.3968253968253968,-1.6666666666666665,-3.73015873015873,-0.5555555555555556,-2.142857142857143,-2.9365079365079363,0.873015873015873,-325.0,-325.0,-325.0,-325.0,-325.0,-7.5396825396825395
-4.0476190476190474,-0.23809523809523808,-3.73015873015873,-0.23809523809523808,-1.507936507936508,0.07936507936507936,-5.0,0.7142857142857142,-1.984126984126984,-1.0317460317460316,-2.9365079365079363,-0.3968253968253968,-1.6666666666666665,-3.73015873015873,-0.5555555555555556,-2.142857142857143,-2.9365079365079363,0.873015873015873,-325.0,-325.0,-325.0,-325.0,-325.0,-7.5396825396825395
-0.3968253968253968,-0.3968253968253968,0.23809523809523808,1.349206349206349,2.142857142857143,-2.142857142857143,2.7777777777777777,-0.3968253968253968,0.7142857142857142,0.5555555555555556,0.7142857142857142,0.3968253968253968,1.349206349206349,-2.3015873015873014,1.984126984126984,-1.507936507936508,-2.46031746031746,1.6666666666666665,-325.0,-325.0,-325.0,-325.0,-325.0,-7.5396825396825395
-0.3968253968253968,-0.3968253968253968,0.23809523809523808,1.349206349206349,2.142857142857143,-2.142857142857143,2.7777777777777777,-0.3968253968253968,0.7142857142857142,0.5555555555555556,0.7142857142857142,0.3968253968253968,1.349206349206349,-2.3015873015873014,1.984126984126984,-1.507936507936508,-2.46031746031746,1.6666666666666665,-325.0,-325.0,-325.0,-325.0,-325.0,-7.5396825396825395
-2.7777777777777777,-3.253968253968254,-3.73015873015873,3.4126984126984126,-1.0317460317460316,-1.8253968253968254,-1.1904761904761905,-2.3015873015873014,1.0317460317460316,-3.888888888888889,-0.23809523809523808,-0.07936507936507936,-0.23809523809523808,-1.984126984126984,1.349206349206349,-2.9365079365079363,-2.7777777777777777,1.6666666666666665,-325.0,-325.0,-325.0,-325.0,-325.0,-321.8253968253968
-2.7777777777777777,-3.253968253968254,-3.73015873015873,3.4126984126984126,-1.0317460317460316,-1.8253968253968254,-1.1904761904761905,-2.3015873015873014,1.0317460317460316,-3.888888888888889,-0.23809523809523808,-0.07936507936507936,-0.23809523809523808,-1.984126984126984,1.349206349206349,-2.9365079365079363,-2.7777777777777777,1.6666666666666665,-325.0,-325.0,-325.0,-325.0,-325.0,-321.8253968253968
-3.095238095238095,-1.1904761904761905,-2.9365079365079363,3.095238095238095,0.07936507936507936,-0.07936507936507936,-0.873015873015873,0.3968253968253968,-1.8253968253968254,-1.1904761904761905,0.873015873015873,0.23809523809523808,-0.7142857142857142,-2.142857142857143,1.6666666666666665,-0.3968253968253968,-2.7777777777777777,1.1904761904761905,-325.0,-325.0,-325.0,-325.0,-325.0,-321.8253968253968
-3.095238095238095,-1.1904761904761905,-2.9365079365079363,3.095238095238095,0.07936507936507936,-0.07936507936507936,-0.873015873015873,0.3968253968253968,-1.8253968253968254,-1.1904761904761905,0.873015873015873,0.23809523809523808,-0.7142857142857142,-2.142857142857143,1.6666666666666665,-0.3968253968253968,-2.7777777777777777,1.1904761904761905,-325.0,-325.0,-325.0,-325.0,-325.0,-321.8253968253968
-2.3015873015873014,1.8253968253968254,-0.23809523809523808,5.0,1.0317460317460316,0.5555555555555556,-1.1904761904761905,-0.07936507936507936,-0.873015873015873,1.984126984126984,-0.07936507936507936,2.142857142857143,0.07936507936507936,0.7142857142857142,3.571428571428571,2.7777777777777777,-2.9365079365079363,1.507936507936508,-325.0,-325.0,-325.0,-325.0,-325.0,-321.8253968253968
-2.3015873015873014,1.8253968253968254,-0.23809523809523808,5.0,1.0317460317460316,0.5555555555555556,-1.1904761904761905,-0.07936507936507936,-0.873015873015873,1.984126984126984,-0.07936507936507936,2.142857142857143,0.07936507936507936,0.7142857142857142,3.571428571428571,2.7777777777777777,-2.9365079365079363,1.507936507936508,-325.0,-325.0,-325.0,-325.0,-325.0,-321.8253968253968
-3.571428571428571,1.6666666666666665,-2.3015873015873014,4.523809523809524,-0.07936507936507936,4.365079365079365,0.07936507936507936,2.142857142857143,2.142857142857143,3.73015873015873,0.07936507936507936,2.3015873015873014,-1.984126984126984,3.095238095238095,1.6666666666666665,2.7777777777777777,-3.253968253968254,1.1904761904761905,-325.0,-325.0,-325.0,-325.0,-325.0,-321.8253968253968
-3.571428571428571,1.6666666666666665,-2.3015873015873014,4.523809523809524,-0.07936507936507936,4.365079365079365,0.07936507936507936,2.142857142857143,2.142857142857143,3.73015873015873,0.07936507936507936,2.3015873015873014,-1.984126984126984,3.095238095238095,1.6666666666666665,2.7777777777777777,-3.253968253968254,1.1904761904761905,-325.0,-325.0,-325.0,-325.0,-325.0,-321.8253968253968
-1.8253968253968254,2.46031746031746,-2.9365079365079363,4.2063492063492065,-1.507936507936508,4.0476190476190474,-1.507936507936508,5.317460317460317,0.07936507936507936,4.2063492063492065,1.507936507936508,7.3809523809523805,-0.3968253968253968,3.095238095238095,-0.5555555555555556,4.0476190476190474,-3.73015873015873,1.0317460317460316,-325.0,-325.0,-325.0,-325.0,-325.0,-321.8253968253968
-1.8253968253968254,2.46031746031746,-2.9365079365079363,4.2063492063492065,-1.507936507936508,4.0476190476190474,-1.507936507936508,5.317460317460317,0.07936507936507936,4.2063492063492065,1.507936507936508,7.3809523809523805,-0.3968253968253968,3.095238095238095,-0.5555555555555556,4.0476190476190474,-3.73015873015873,1.0317460317460316,-325.0,-325.0,-325.0,-325.0,-325.0,-321.8253968253968
-3.73015873015873,0.3968253968253968,-1.984126984126984,1.1904761904761905,0.873015873015873,2.46031746031746,1.1904761904761905,1.984126984126984,1.349206349206349,2.9365079365079363,0.873015873015873,3.4126984126984126,-1.984126984126984,3.253968253968254,1.507936507936508,2.3015873015873014,-3.4126984126984126,0.873015873015873,-325.0,-325.0,-325.0,-325.0,-325.0,-7.5396825396825395
-3.73015873015873,0.3968253968253968,-1.984126984126984,1.1904761904761905,0.873015873015873,2.46031746031746,1.1904761904761905,1.984126984126984,1.349206349206349,2.9365079365079363,0.873015873015873,3.4126984126984126,-1.984126984126984,3.253968253968254,1.507936507936508,2.3015873015873014,-3.4126984126984126,0.873015873015873,-325.0,-325.0,-325.0,-325.0,-325.0,-7.5396825396825395
-1.984126984126984,-1.1904761904761905,-1.349206349206349,1.8253968253968254,0.7142857142857142,0.873015873015873,-0.5555555555555556,1.507936507936508,0.7142857142857142,0.07936507936507936,1.984126984126984,0.873015873015873,2.3015873015873014,-2.46031746031746,3.571428571428571,0.07936507936507936,-3.73015873015873,0.873015873015873,-325.0,-325.0,-325.0,-325.0,-325.0,-7.5396825396825395
-1.984126984126984,-1.1904761904761905,-1.349206349206349,1.8253968253968254,0.7142857142857142,0.873015873015873,-0.5555555555555556,1.507936507936508,0.7142857142857142,0.07936507936507936,1.984126984126984,0.873015873015873,2.3015873015873014,-2.46031746031746,3.571428571428571,0.07936507936507936,-3.73015873015873,0.873015873015873,-325.0,-325.0,-325.0,-325.0,-325.0,-7.5396825396825395
0.7142857142857142,-0.7142857142857142,-0.07936507936507936,2.3015873015873014,1.507936507936508,0.07936507936507936,2.142857142857143,0.5555555555555556,3.888888888888889,0.3968253968253968,3.4126984126984126,3.571428571428571,2.3015873015873014,-1.0317460317460316,3.095238095238095,0.873015873015873,-3.095238095238095,0.7142857142857142,-325.0,-325.0,-325.0,-325.0,-325.0,-7.5396825396825395
0.7142857142857142,-0.7142857142857142,-0.07936507936507936,2.3015873015873014,1.507936507936508,0.07936507936507936,2.142857142857143,0.5555555555555556,3.888888888888889,0.3968253968253968,3.4126984126984126,3.571428571428571,2.3015873015873014,-1.0317460317460316,3.095238095238095,0.873015873015873,-3.095238095238095,0.7142857142857142,-325.0,-325.0,-325.0,-325.0,-325.0,-7.5396825396825395
-2.9365079365079363,-0.5555555555555556,-1.8253968253968254,-1.8253968253968254,1.0317460317460316,1.0317460317460316,-0.7142857142857142,-0.23809523809523808,1.984126984126984,0.3968253968253968,-0.873015873015873,-1.507936507936508,0.07936507936507936,-2.619047619047619,-0.5555555555555556,-2.142857142857143,-3.253968253968254,0.7142857142857142,-325.0,-325.0,-325.0,-325.0,-325.0,-7.5396825396825395
-2.9365079365079363,-0.5555555555555556,-1.8253968253968254,-1.8253968253968254,1.0317460317460316,1.0317460317460316,-0.7142857142857142,-0.23809523809523808,1.984126984126984,0.3968253968253968,-0.873015873015873,-1.507936507936508,0.07936507936507936,-2.619047619047619,-0.5555555555555556,-2.142857142857143,-3.253968253968254,0.7142857142857142,-325.0,-325.0,-325.0,-325.0,-325.0,-7.5396825396825395
-3.095238095238095,0.873015873015873,1.1904761904761905,1.0317460317460316,0.23809523809523808,-0.3968253968253968,0.873015873015873,-0.873015873015873,0.23809523809523808,1.1904761904761905,1.984126984126984,1.0317460317460316,1.0317460317460316,-1.984126984126984,0.3968253968253968,2.9365079365079363,-3.253968253968254,0.3968253968253968,-325.0,-325.0,-325.0,-325.0,-325.0,-7.5396825396825395
-3.095238095238095,0.873015873015873,1.1904761904761905,1.0317460317460316,0.23809523809523808,-0.3968253968253968,0.873015873015873,-0.873015873015873,0.23809523809523808,1.1904761904761905,1.984126984126984,1.0317460317460316,1.0317460317460316,-1.984126984126984,0.3968253968253968,2.9365079365079363,-3.253968253968254,0.3968253968253968,-325.0,-325.0,-325.0,-325.0,-325.0,-7.5396825396825395
-2.619047619047619,-2.46031746031746,1.0317460317460316,0.5555555555555556,2.9365079365079363,-1.6666666666666665,1.8253968253968254,-3.095238095238095,0.3968253968253968,0.7142857142857142,0.23809523809523808,-1.6666666666666665,0.07936507936507936,-4.841269841269841,3.253968253968254,-0.23809523809523808,-3.4126984126984126,0.5555555555555556,-325.0,-325.0,-325.0,-325.0,-325.0,-321.8253968253968
-2.619047619047619,-2.46031746031746,1.0317460317460316,0.5555555555555556,2.9365079365079363,-1.6666666666666665,1.8253968253968254,-3.095238095238095,0.3968253968253968,0.7142857142857142,0.23809523809523808,-1.6666666666666665,0.07936507936507936,-4.841269841269841,3.253968253968254,-0.23809523809523808,-3.4126984126984126,0.5555555555555556,-325.0,-325.0,-325.0,-325.0,-325.0,-321.8253968253968
-4.0476190476190474,2.142857142857143,-1.984126984126984,3.571428571428571,-2.9365079365079363,3.571428571428571,-2.46031746031746,3.253968253968254,1.8253968253968254,1.8253968253968254,-2.142857142857143,1.507936507936508,-2.7777777777777777,1.507936507936508,0.23809523809523808,0.5555555555555556,-3.095238095238095,0.3968253968253968,-325.0,-325.0,-325.0,-325.0,-325.0,-321.8253968253968
-4.0476190476190474,2.142857142857143,-1.984126984126984,3.571428571428571,-2.9365079365079363,3.571428571428571,-2.46031746031746,3.253968253968254,1.8253968253968254,1.8253968253968254,-2.142857142857143,1.507936507936508,-2.7777777777777777,1.507936507936508,0.23809523809523808,0.5555555555555556,-3.095238095238095,0.3968253968253968,-325.0,-325.0,-325.0,-325.0,-325.0,-321.8253968253968
-2.9365079365079363,-2.9365079365079363,-2.9365079365079363,-0.873015873015873,-1.507936507936508,1.8253968253968254,-1.507936507936508,-1.1904761904761905,-0.23809523809523808,-0.873015873015873,-0.7142857142857142,0.07936507936507936,-2.3015873015873014,-1.8253968253968254,-1.1904761904761905,-3.571428571428571,-3.4126984126984126,0.873015873015873,-325.0,-325.0,-325.0,-325.0,-325.0,-321.8253968253968
-2.9365079365079363,-2.9365079365079363,-2.9365079365079363,-0.873015873015873,-1.507936507936508,1.8253968253968254,-1.507936507936508,-1.1904761904761905,-0.23809523809523808,-0.873015873015873,-0.7142857142857142,0.07936507936507936,-2.3015873015873014,-1.8253968253968254,-1.1904761904761905,-3.571428571428571,-3.4126984126984126,0.873015873015873,-325.0,-325.0,-325.0,-325.0,-325.0,-321.8253968253968
-2.7777777777777777,-0.07936507936507936,-2.619047619047619,1.8253968253968254,1.6666666666666665,1.1904761904761905,-1.984126984126984,0.07936507936507936,-1.1904761904761905,0.07936507936507936,-0.7142857142857142,1.349206349206349,-0.873015873015873,-0.873015873015873,0.07936507936507936,0.3968253968253968,-3.253968253968254,0.3968253968253968,-325.0,-325.0,-325.0,-325.0,-325.0,-321.8253968253968
-2.7777777777777777,-0.07936507936507936,-2.619047619047619,1.8253968253968254,1.6666666666666665,1.1904761904761905,-1.984126984126984,0.07936507936507936,-1.1904761904761905,0.07936507936507936,-0.7142857142857142,1.349206349206349,-0.873015873015873,-0.873015873015873,0.07936507936507936,0.3968253968253968,-3.253968253968254,0.3968253968253968,-325.0,-325.0,-325.0,-325.0,-325.0,-321.8253968253968
-1.1904761904761905,-0.3968253968253968,-3.095238095238095,1.8253968253968254,0.23809523809523808,-1.8253968253968254,-2.619047619047619,-0.3968253968253968,0.23809523809523808,0.5555555555555556,-0.5555555555555556,1.349206349206349,-0.7142857142857142,-1.984126984126984,0.23809523809523808,-0.873015873015873,-3.253968253968254,0.5555555555555556,-325.0,-325.0,-325.0,-325.0,-325.0,-321.8253968253968
-1.1904761904761905,-0.3968253968253968,-3.095238095238095,1.8253968253968254,0.23809523809523808,-1.8253968253968254,-2.619047619047619,-0.3968253968253968,0.23809523809523808,0.5555555555555556,-0.5555555555555556,1.349206349206349,-0.7142857142857142,-1.984126984126984,0.23809523809523808,-0.873015873015873,-3.253968253968254,0.5555555555555556,-325.0,-325.0,-325.0,-325.0,-325.0,-321.8253968253968
-2.619047619047619,-1.349206349206349,-0.23809523809523808,1.8253968253968254,0.873015873015873,2.3015873015873014,0.07936507936507936,1.507936507936508,-0.873015873015873,-1.8253968253968254,0.873015873015873,-0.07936507936507936,-1.507936507936508,0.23809523809523808,1.1904761904761905,0.873015873015873,-3.095238095238095,0.7142857142857142,-325.0,-325.0,-325.0,-325.0,-325.0,-7.5396825396825395
-2.619047619047619,-1.349206349206349,-0.23809523809523808,1.8253968253968254,0.873015873015873,2.3015873015873014,0.07936507936507936,1.507936507936508,-0.873015873015873,-1.8253968253968254,0.873015873015873,-0.07936507936507936,-1.507936507936508,0.23809523809523808,1.1904761904761905,0.873015873015873,-3.095238095238095,0.7142857142857142,-325.0,-325.0,-325.0,-325.0,-325.0,-7.5396825396825395
-0.873015873015873,4.682539682539682,-2.46031746031746,4.0476190476190474,-0.07936507936507936,4.682539682539682,1.0317460317460316,3.253968253968254,-1.507936507936508,2.7777777777777777,-1.984126984126984,4.841269841269841,-2.7777777777777777,3.73015873015873,2.9365079365079363,5.476190476190476,-2.9365079365079363,0.5555555555555556,-325.0,-325.0,-325.0,-325.0,-325.0,-7.5396825396825395
-0.873015873015873,4.682539682539682,-2.46031746031746,4.0476190476190474,-0.07936507936507936,4.682539682539682,1.0317460317460316,3.253968253968254,-1.507936507936508,2.7777777777777777,-1.984126984126984,4.841269841269841,-2.7777777777777777,3.73015873015873,2.9365079365079363,5.476190476190476,-2.9365079365079363,0.5555555555555556,-325.0,-325.0,-325.0,-325.0,-325.0,-7.5396825396825395
-1.8253968253968254,3.571428571428571,-1.507936507936508,4.682539682539682,0.23809523809523808,4.0476190476190474,2.9365079365079363,1.349206349206349,0.23809523809523808,2.142857142857143,1.8253968253968254,5.7936507936507935,0.5555555555555556,1.507936507936508,2.3015873015873014,2.7777777777777777,-3.253968253968254,0.7142857142857142,-325.0,-325.0,-325.0,-325.0,-325.0,-7.5396825396825395
-1.8253968253968254,3.571428571428571,-1.507936507936508,4.682539682539682,0.23809523809523808,4.0476190476190474,2.9365079365079363,1.349206349206349,0.23809523809523808,2.142857142857143,1.8253968253968254,5.7936507936507935,0.5555555555555556,1.507936507936508,2.3015873015873014,2.7777777777777777,-3.253968253968254,0.7142857142857142,-325.0,-325.0,-325.0,-325.0,-325.0,-7.5396825396825395
-3.4126984126984126,4.2063492063492065,-2.7777777777777777,5.0,-1.349206349206349,2.3015873015873014,-1.6666666666666665,0.7142857142857142,-1.8253968253968254,1.984126984126984,1.6666666666666665,4.682539682539682,-2.3015873015873014,2.7777777777777777,-2.9365079365079363,3.888888888888889,-2.9365079365079363,1.1904761904761905,-325.0,-325.0,-325.0,-325.0,-325.0,-7.5396825396825395
-3.4126984126984126,4.2063492063492065,-2.7777777777777777,5.0,-1.349206349206349,2.3015873015873014,-1.6666666666666665,0.7142857142857142,-1.8253968253968254,1.984126984126984,1.6666666666666665,4.682539682539682,-2.3015873015873014,2.7777777777777777,-2.9365079365079363,3.888888888888889,-2.9365079365079363,1.1904761904761905,-325.0,-325.0,-325.0,-325.0,-325.0,-7.5396825396825395
-1.984126984126984,1.0317460317460316,0.23809523809523808,2.9365079365079363,-0.07936507936507936,-2.142857142857143,2.619047619047619,-0.7142857142857142,1.349206349206349,-2.142857142857143,0.5555555555555556,0.5555555555555556,0.23809523809523808,-1.349206349206349,-1.1904761904761905,-0.3968253968253968,-3.4126984126984126,1.0317460317460316,-325.0,-325.0,-325.0,-325.0,-325.0,-7.5396825396825395
-1.984126984126984,1.0317460317460316,0.23809523809523808,2.9365079365079363,-0.07936507936507936,-2.142857142857143,2.619047619047619,-0.7142857142857142,1.349206349206349,-2.142857142857143,0.5555555555555556,0.5555555555555556,0.23809523809523808,-1.349206349206349,-1.1904761904761905,-0.3968253968253968,-3.4126984126984126,1.0317460317460316,-325.0,-325.0,-325.0,-325.0,-325.0,-7.5396825396825395
-0.3968253968253968,-1.6666666666666665,1.6666666666666665,-0.5555555555555556,3.095238095238095,0.07936507936507936,1.0317460317460316,-0.7142857142857142,1.1904761904761905,-1.6666666666666665,1.507936507936508,-1.8253968253968254,0.5555555555555556,-2.3015873015873014,2.619047619047619,-0.3968253968253968,-3.4126984126984126,0.5555555555555556,-325.0,-325.0,-325.0,-325.0,-325.0,-321.8253968253968
-0.3968253968253968,-1.6666666666666665,1.6666666666666665,-0.5555555555555556,3.095238095238095,0.07936507936507936,1.0317460317460316,-0.7142857142857142,1.1904761904761905,-1.6666666666666665,1.507936507936508,-1.8253968253968254,0.5555555555555556,-2.3015873015873014,2.619047619047619,-0.3968253968253968,-3.4126984126984126,0.5555555555555556,-325.0,-325.0,-325.0,-325.0,-325.0,-321.8253968253968
1.349206349206349,-3.095238095238095,0.873015873015873,-0.3968253968253968,2.142857142857143,-1.984126984126984,1.0317460317460316,0.7142857142857142,3.095238095238095,-1.0317460317460316,1.8253968253968254,1.349206349206349,-0.23809523809523808,-0.7142857142857142,2.46031746031746,-1.984126984126984,-4.523809523809524,0.873015873015873,-325.0,-325.0,-325.0,-325.0,-325.0,-321.8253968253968
1.349206349206349,-3.095238095238095,0.873015873015873,-0.3968253968253968,2.142857142857143,-1.984126984126984,1.0317460317460316,0.7142857142857142,3.095238095238095,-1.0317460317460316,1.8253968253968254,1.349206349206349,-0.23809523809523808,-0.7142857142857142,2.46031746031746,-1.984126984126984,-4.523809523809524,0.873015873015873,-325.0,-325.0,-325.0,-325.0,-325.0,-321.8253968253968
0.07936507936507936,-2.46031746031746,-0.5555555555555556,2.619047619047619,0.873015873015873,2.3015873015873014,-2.9365079365079363,0.23809523809523808,0.873015873015873,-0.5555555555555556,1.349206349206349,2.619047619047619,-0.07936507936507936,-1.6666666666666665,2.3015873015873014,-0.873015873015873,-3.888888888888889,0.3968253968253968,-325.0,-325.0,-325.0,-325.0,-325.0,-321.8253968253968
0.07936507936507936,-2.46031746031746,-0.5555555555555556,2.619047619047619,0.873015873015873,2.3015873015873014,-2.9365079365079363,0.23809523809523808,0.873015873015873,-0.5555555555555556,1.349206349206349,2.619047619047619,-0.07936507936507936,-1.6666666666666665,2.3015873015873014,-0.873015873015873,-3.888888888888889,0.3968253968253968,-325.0,-325.0,-325.0,-325.0,-325.0,-321.8253968253968
-1.1904761904761905,-2.142857142857143,-2.3015873015873014,2.7777777777777777,1.8253968253968254,-0.23809523809523808,-0.3968253968253968,0.07936507936507936,0.873015873015873,1.507936507936508,0.3968253968253968,-1.0317460317460316,-0.5555555555555556,-0.23809523809523808,0.23809523809523808,-1.507936507936508,-4.523809523809524,1.0317460317460316,-325.0,-325.0,-325.0,-325.0,-325.0,-321.8253968253968
-1.1904761904761905,-2.142857142857143,-2.3015873015873014,2.7777777777777777,1.8253968253968254,-0.23809523809523808,-0.3968253968253968,0.07936507936507936,0.873015873015873,1.507936507936508,0.3968253968253968,-1.0317460317460316,-0.5555555555555556,-0.23809523809523808,0.23809523809523808,-1.507936507936508,-4.523809523809524,1.0317460317460316,-325.0,-325.0,-325.0,-325.0,-325.0,-321.8253968253968
-0.3968253968253968,2.46031746031746,-2.142857142857143,5.7936507936507935,1.349206349206349,4.523809523809524,-0.5555555555555556,3.253968253968254,0.7142857142857142,4.0476190476190474,0.873015873015873,3.571428571428571,1.6666666666666665,0.23809523809523808,1.1904761904761905,3.571428571428571,-4.2063492063492065,0.7142857142857142,-325.0,-325.0,-325.0,-325.0,-325.0,-321.8253968253968
-0.3968253968253968,2.46031746031746,-2.142857142857143,5.7936507936507935,1.349206349206349,4.523809523809524,-0.5555555555555556,3.253968253968254,0.7142857142857142,4.0476190476190474,0.873015873015873,3.571428571428571,1.6666666666666665,0.23809523809523808,1.1904761904761905,3.571428571428571,-4.2063492063492065,0.7142857142857142,-325.0,-325.0,-325.0,-325.0,-325.0,-321.8253968253968
0.07936507936507936,2.7777777777777777,0.07936507936507936,5.0,0.3968253968253968,3.253968253968254,-2.619047619047619,1.1904761904761905,-0.07936507936507936,3.095238095238095,0.873015873015873,3.73015873015873,-0.3968253968253968,1.6666666666666665,1.6666666666666665,1.8253968253968254,-4.841269841269841,0.873015873015873,-325.0,-325.0,-325.0,-325.0,-325.0,-7.5396825396825395
0.07936507936507936,2.7777777777777777,0.07936507936507936,5.0,0.3968253968253968,3.253968253968254,-2.619047619047619,1.1904761904761905,-0.07936507936507936,3.095238095238095,0.873015873015873,3.73015873015873,-0.3968253968253968,1.6666666666666665,1.6666666666666665,1.8253968253968254,-4.841269841269841,0.873015873015873,-325.0,-325.0,-325.0,-325.0,-325.0,-7.5396825396825395
-0.873015873015873,1.1904761904761905,-2.9365079365079363,2.46031746031746,0.07936507936507936,2.142857142857143,0.07936507936507936,3.4126984126984126,-1.1904761904761905,2.46031746031746,-1.0317460317460316,1.0317460317460316,-1.8253968253968254,0.5555555555555556,0.5555555555555556,0.5555555555555556,-4.682539682539682,0.5555555555555556,-325.0,-325.0,-325.0,-325.0,-325.0,-7.5396825396825395
-0.873015873015873,1.1904761904761905,-2.9365079365079363,2.46031746031746,0.07936507936507936,2.142857142857143,0.07936507936507936,3.4126984126984126,-1.1904761904761905,2.46031746031746,-1.0317460317460316,1.0317460317460316,-1.8253968253968254,0.5555555555555556,0.5555555555555556,0.5555555555555556,-4.682539682539682,0.5555555555555556,-325.0,-325.0,-325.0,-325.0,-325.0,-7.5396825396825395
-1.0317460317460316,-0.23809523809523808,-1.0317460317460316,1.1904761904761905,-1.984126984126984,1.1904761904761905,-2.619047619047619,1.984126984126984,-1.1904761904761905,0.07936507936507936,1.349206349206349,-0.07936507936507936,0.7142857142857142,-3.888888888888889,0.07936507936507936,-1.0317460317460316,-4.523809523809524,0.07936507936507936,-325.0,-325.0,-325.0,-325.0,-325.0,-7.5396825396825395
-1.0317460317460316,-0.23809523809523808,-1.0317460317460316,1.1904761904761905,-1.984126984126984,1.1904761904761905,-2.619047619047619,1.984126984126984,-1.1904761904761905,0.07936507936507936,1.349206349206349,-0.07936507936507936,0.7142857142857142,-3.888888888888889,0.07936507936507936,-1.0317460317460316,-4.523809523809524,0.07936507936507936,-325.0,-325.0,-325.0,-325.0,-325.0,-7.5396825396825395
1.507936507936508,1.349206349206349,-0.23809523809523808,1.1904761904761905,0.3968253968253968,-1.0317460317460316,-1.507936507936508,-1.0317460317460316,1.507936507936508,-0.7142857142857142,0.07936507936507936,-1.1904761904761905,-0.07936507936507936,-3.095238095238095,3.095238095238095,-0.3968253968253968,-4.682539682539682,0.7142857142857142,-325.0,-325.0,-325.0,-325.0,-325.0,-7.5396825396825395
1.507936507936508,1.349206349206349,-0.23809523809523808,1.1904761904761905,0.3968253968253968,-1.0317460317460316,-1.507936507936508,-1.0317460317460316,1.507936507936508,-0.7142857142857142,0.07936507936507936,-1.1904761904761905,-0.07936507936507936,-3.095238095238095,3.095238095238095,-0.3968253968253968,-4.682539682539682,0.7142857142857142,-325.0,-325.0,-325.0,-325.0,-325.0,-7.5396825396825395
-0.873015873015873,2.9365079365079363,0.873015873015873,2.619047619047619,1.507936507936508,2.3015873015873014,-0.873015873015873,3.4126984126984126,1.349206349206349,2.3015873015873014,2.142857142857143,4.0476190476190474,0.7142857142857142,-1.0317460317460316,1.507936507936508,4.0476190476190474,-4.0476190476190474,1.0317460317460316,-325.0,-325.0,-325.0,-325.0,-325.0,-7.5396825396825395
-0.873015873015873,2.9365079365079363,0.873015873015873,2.619047619047619,1.507936507936508,2.3015873015873014,-0.873015873015873,3.4126984126984126,1.349206349206349,2.3015873015873014,2.142857142857143,4.0476190476190474,0.7142857142857142,-1.0317460317460316,1.507936507936508,4.0476190476190474,-4.0476190476190474,1.0317460317460316,-325.0,-325.0,-325.0,-325.0,-325.0,-7.5396825396825395
1.984126984126984,1.8253968253968254,2.3015873015873014,1.349206349206349,1.0317460317460316,0.3968253968253968,-0.3968253968253968,2.3015873015873014,1.1904761904761905,0.07936507936507936,0.7142857142857142,4.365079365079365,0.873015873015873,1.8253968253968254,0.07936507936507936,1.984126984126984,-4.0476190476190474,0.3968253968253968,-325.0,-325.0,-325.0,-325.0,-325.0,-321.8253968253968
1.984126984126984,1.8253968253968254,2.3015873015873014,1.349206349206349,1.0317460317460316,0.3968253968253968,-0.3968253968253968,2.3015873015873014,1.1904761904761905,0.07936507936507936,0.7142857142857142,4.365079365079365,0.873015873015873,1.8253968253968254,0.07936507936507936,1.984126984126984,-4.0476190476190474,0.3968253968253968,-325.0,-325.0,-325.0,-325.0,-325.0,-321.8253968253968
0.23809523809523808,-2.9365079365079363,-0.3968253968253968,-1.1904761904761905,0.7142857142857142,-1.349206349206349,-1.507936507936508,1.1904761904761905,2.46031746031746,-2.46031746031746,0.23809523809523808,1.0317460317460316,1.349206349206349,-2.46031746031746,0.23809523809523808,-1.0317460317460316,-3.73015873015873,0.3968253968253968,-325.0,-325.0,-325.0,-325.0,-325.0,-321.8253968253968
0.23809523809523808,-2.9365079365079363,-0.3968253968253968,-1.1904761904761905,0.7142857142857142,-1.349206349206349,-1.507936507936508,1.1904761904761905,2.46031746031746,-2.46031746031746,0.23809523809523808,1.0317460317460316,1.349206349206349,-2.46031746031746,0.23809523809523808,-1.0317460317460316,-3.73015873015873,0.3968253968253968,-325.0,-325.0,-325.0,-325.0,-325.0,-321.8253968253968
-4.0476190476190474,-2.46031746031746,-2.46031746031746,0.7142857142857142,-1.507936507936508,1.507936507936508,-0.7142857142857142,0.3968253968253968,-0.873015873015873,-0.07936507936507936,-1.349206349206349,-0.7142857142857142,-2.619047619047619,-3.095238095238095,-0.3968253968253968,-1.1904761904761905,-3.888888888888889,0.7142857142857142,-325.0,-325.0,-325.0,-325.0,-325.0,-321.8253968253968
-4.0476190476190474,-2.46031746031746,-2.46031746031746,0.7142857142857142,-1.507936507936508,1.507936507936508,-0.7142857142857142,0.3968253968253968,-0.873015873015873,-0.07936507936507936,-1.349206349206349,-0.7142857142857142,-2.619047619047619,-3.095238095238095,-0.3968253968253968,-1.1904761904761905,-3.888888888888889,0.7142857142857142,-325.0,-325.0,-325.0,-325.0,-325.0,-321.8253968253968
-1.8253968253968254,2.46031746031746,-0.5555555555555556,4.841269841269841,-1.984126984126984,4.365079365079365,0.5555555555555556,3.571428571428571,-1.349206349206349,0.07936507936507936,-1.507936507936508,3.73015873015873,0.873015873015873,0.5555555555555556,1.349206349206349,-0.23809523809523808,-4.523809523809524,0.5555555555555556,-325.0,-325.0,-325.0,-325.0,-325.0,-321.8253968253968
-1.8253968253968254,2.46031746031746,-0.5555555555555556,4.841269841269841,-1.984126984126984,4.365079365079365,0.5555555555555556,3.571428571428571,-1.349206349206349,0.07936507936507936,-1.507936507936508,3.73015873015873,0.873015873015873,0.5555555555555556,1.349206349206349,-0.23809523809523808,-4.523809523809524,0.5555555555555556,-325.0,-325.0,-325.0,-325.0,-325.0,-321.8253968253968
3.4126984126984126,1.507936507936508,2.46031746031746,4.2063492063492065,3.571428571428571,1.507936507936508,3.73015873015873,1.984126984126984,1.349206349206349,3.253968253968254,5.0,1.1904761904761905,2.619047619047619,-0.873015873015873,3.73015873015873,1.0317460317460316,-3.253968253968254,0.5555555555555556,-325.0,-325.0,-325.0,-325.0,-325.0,-321.8253968253968
3.4126984126984126,1.507936507936508,2.46031746031746,4.2063492063492065,3.571428571428571,1.507936507936508,3.73015873015873,1.984126984126984,1.349206349206349,3.253968253968254,5.0,1.1904761904761905,2.619047619047619,-0.873015873015873,3.73015873015873,1.0317460317460316,-3.253968253968254,0.5555555555555556,-325.0,-325.0,-325.0,-325.0,-325.0,-321.8253968253968
-1.984126984126984,0.873015873015873,-1.349206349206349,2.142857142857143,2.3015873015873014,1.349206349206349,2.142857142857143,-0.23809523809523808,2.7777777777777777,0.3968253968253968,0.07936507936507936,2.46031746031746,0.5555555555555556,1.0317460317460316,2.46031746031746,3.253968253968254,-3.253968253968254,0.5555555555555556,-325.0,-325.0,-325.0,-325.0,-325.0,-7.5396825396825395
-1.984126984126984,0.873015873015873,-1.349206349206349,2.142857142857143,2.3015873015873014,1.349206349206349,2.142857142857143,-0.23809523809523808,2.7777777777777777,0.3968253968253968,0.07936507936507936,2.46031746031746,0.5555555555555556,1.0317460317460316,2.46031746031746,3.253968253968254,-3.253968253968254,0.5555555555555556,-325.0,-325.0,-325.0,-325.0,-325.0,-7.5396825396825395
-1.349206349206349,-0.07936507936507936,2.3015873015873014,2.619047619047619,4.523809523809524,0.23809523809523808,4.365079365079365,-0.7142857142857142,2.7777777777777777,1.6666666666666665,2.619047619047619,1.8253968253968254,1.6666666666666665,0.7142857142857142,4.2063492063492065,0.07936507936507936,-3.095238095238095,-0.23809523809523808,-325.0,-325.0,-325.0,-325.0,-325.0,-7.5396825396825395
-1.349206349206349,-0.07936507936507936,2.3015873015873014,2.619047619047619,4.523809523809524,0.23809523809523808,4.365079365079365,-0.7142857142857142,2.7777777777777777,1.6666666666666665,2.619047619047619,1.8253968253968254,1.6666666666666665,0.7142857142857142,4.2063492063492065,0.07936507936507936,-3.095238095238095,-0.23809523809523808,-325.0,-325.0,-325.0,-325.0,-325.0,-7.5396825396825395
-0.07936507936507936,-0.23809523809523808,-0.5555555555555556,-0.23809523809523808,0.3968253968253968,-1.6666666666666665,-0.07936507936507936,-0.873015873015873,1.0317460317460316,0.3968253968253968,2.46031746031746,1.1904761904761905,-1.8253968253968254,-2.142857142857143,1.507936507936508,0.3968253968253968,-3.095238095238095,0.873015873015873,-325.0,-325.0,-325.0,-325.0,-325.0,-7.5396825396825395
-0.07936507936507936,-0.23809523809523808,-0.5555555555555556,-0.23809523809523808,0.3968253968253968,-1.6666666666666665,-0.07936507936507936,-0.873015873015873,1.0317460317460316,0.3968253968253968,2.46031746031746,1.1904761904761905,-1.8253968253968254,-2.142857142857143,1.507936507936508,0.3968253968253968,-3.095238095238095,0.873015873015873,-325.0,-325.0,-325.0,-325.0,-325.0,-7.5396825396825395
-1.1904761904761905,0.07936507936507936,-0.5555555555555556,1.507936507936508,-0.873015873015873,-1.507936507936508,1.1904761904761905,0.873015873015873,0.873015873015873,0.5555555555555556,0.3968253968253968,-1.8253968253968254,0.07936507936507936,-3.095238095238095,1.6666666666666665,0.5555555555555556,-3.253968253968254,0.5555555555555556,-325.0,-325.0,-325.0,-325.0,-325.0,-7.5396825396825395
-1.1904761904761905,0.07936507936507936,-0.5555555555555556,1.507936507936508,-0.873015873015873,-1.507936507936508,1.1904761904761905,0.873015873015873,0.873015873015873,0.5555555555555556,0.3968253968253968,-1.8253968253968254,0.07936507936507936,-3.095238095238095,1.6666666666666665,0.5555555555555556,-3.253968253968254,0.5555555555555556,-325.0,-325.0,-325.0,-325.0,-325.0,-7.5396825396825395
1.507936507936508,1.8253968253968254,0.3968253968253968,1.984126984126984,0.23809523809523808,-1.0317460317460316,-0.3968253968253968,0.23809523809523808,1.8253968253968254,0.07936507936507936,0.7142857142857142,2.142857142857143,1.507936507936508,1.1904761904761905,3.571428571428571,-0.5555555555555556,-2.619047619047619,1.0317460317460316,-325.0,-325.0,-325.0,-325.0,-325.0,-7.5396825396825395
1.507936507936508,1.8253968253968254,0.3968253968253968,1.984126984126984,0.23809523809523808,-1.0317460317460316,-0.3968253968253968,0.23809523809523808,1.8253968253968254,0.07936507936507936,0.7142857142857142,2.142857142857143,1.507936507936508,1.1904761904761905,3.571428571428571,-0.5555555555555556,-2.619047619047619,1.0317460317460316,-325.0,-325.0,-325.0,-325.0,-325.0,-7.5396825396825395
-1.1904761904761905,1.8253968253968254,1.1904761904761905,1.984126984126984,1.1904761904761905,-0.23809523809523808,0.23809523809523808,-0.23809523809523808,-1.349206349206349,1.349206349206349,2.9365079365079363,3.73015873015873,1.0317460317460316,0.23809523809523808,1.1904761904761905,-0.7142857142857142,-3.571428571428571,0.3968253968253968,-325.0,-325.0,-325.0,-325.0,-325.0,-321.8253968253968
-1.1904761904761905,1.8253968253968254,1.1904761904761905,1.984126984126984,1.1904761904761905,-0.23809523809523808,0.23809523809523808,-0.23809523809523808,-1.349206349206349,1.349206349206349,2.9365079365079363,3.73015873015873,1.0317460317460316,0.23809523809523808,1.1904761904761905,-0.7142857142857142,-3.571428571428571,0.3968253968253968,-325.0,-325.0,-325.0,-325.0,-325.0,-321.8253968253968
-1.1904761904761905,1.1904761904761905,-2.3015873015873014,1.507936507936508,-0.5555555555555556,2.619047619047619,-3.095238095238095,-1.0317460317460316,-1.6666666666666665,1.6666666666666665,-0.7142857142857142,4.0476190476190474,0.3968253968253968,0.7142857142857142,-0.873015873015873,-0.5555555555555556,-2.7777777777777777,0.7142857142857142,-325.0,-325.0,-325.0,-325.0,-325.0,-321.8253968253968
-1.1904761904761905,1.1904761904761905,-2.3015873015873014,1.507936507936508,-0.5555555555555556,2.619047619047619,-3.095238095238095,-1.0317460317460316,-1.6666666666666665,1.6666666666666665,-0.7142857142857142,4.0476190476190474,0.3968253968253968,0.7142857142857142,-0.873015873015873,-0.5555555555555556,-2.7777777777777777,0.7142857142857142,-325.0,-325.0,-325.0,-325.0,-325.0,-321.8253968253968
-2.619047619047619,-1.8253968253968254,-3.73015873015873,0.873015873015873,0.873015873015873,-0.07936507936507936,-3.253968253968254,0.873015873015873,-1.8253968253968254,1.1904761904761905,3.095238095238095,-1.349206349206349,-1.984126984126984,-2.619047619047619,1.6666666666666665,-2.142857142857143,-2.9365079365079363,0.5555555555555556,-325.0,-325.0,-325.0,-325.0,-325.0,-321.8253968253968
-2.619047619047619,-1.8253968253968254,-3.73015873015873,0.873015873015873,0.873015873015873,-0.07936507936507936,-3.253968253968254,0.873015873015873,-1.8253968253968254,1.1904761904761905,3.095238095238095,-1.349206349206349,-1.984126984126984,-2.619047619047619,1.6666666666666665,-2.142857142857143,-2.9365079365079363,0.5555555555555556,-325.0,-325.0,-325.0,-325.0,-325.0,-321.8253968253968
-6.428571428571428,2.142857142857143,-3.73015873015873,2.9365079365079363,-1.1904761904761905,2.9365079365079363,-3.571428571428571,3.253968253968254,-2.619047619047619,0.7142857142857142,0.23809523809523808,1.984126984126984,-4.0476190476190474,1.0317460317460316,-2.619047619047619,2.7777777777777777,-3.253968253968254,1.0317460317460316,-325.0,-325.0,-325.0,-325.0,-325.0,-321.8253968253968
-6.428571428571428,2.142857142857143,-3.73015873015873,2.9365079365079363,-1.1904761904761905,2.9365079365079363,-3.571428571428571,3.253968253968254,-2.619047619047619,0.7142857142857142,0.23809523809523808,1.984126984126984,-4.0476190476190474,1.0317460317460316,-2.619047619047619,2.7777777777777777,-3.253968253968254,1.0317460317460316,-325.0,-325.0,-325.0,-325.0,-325.0,-321.8253968253968
-2.7777777777777777,1.0317460317460316,-3.571428571428571,1.984126984126984,0.3968253968253968,3.73015873015873,2.3015873015873014,0.3968253968253968,0.23809523809523808,-0.3968253968253968,2.9365079365079363,3.888888888888889,-0.5555555555555556,1.507936507936508,-0.07936507936507936,-0.873015873015873,-4.0476190476190474,1.1904761904761905,-325.0,-325.0,-325.0,-325.0,-325.0,-321.8253968253968
-2.7777777777777777,1.0317460317460316,-3.571428571428571,1.984126984126984,0.3968253968253968,3.73015873015873,2.3015873015873014,0.3968253968253968,0.23809523809523808,-0.3968253968253968,2.9365079365079363,3.888888888888889,-0.5555555555555556,1.507936507936508,-0.07936507936507936,-0.873015873015873,-4.0476190476190474,1.1904761904761905,-325.0,-325.0,-325.0,-325.0,-325.0,-321.8253968253968
0.3968253968253968,-2.7777777777777777,-1.984126984126984,-1.0317460317460316,-0.23809523809523808,1.6666666666666665,0.5555555555555556,-0.7142857142857142,0.23809523809523808,-1.984126984126984,1.507936507936508,2.3015873015873014,-1.349206349206349,-0.873015873015873,1.0317460317460316,-1.507936507936508,-3.73015873015873,1.0317460317460316,-325.0,-325.0,-325.0,-325.0,-325.0,-7.5396825396825395
0.3968253968253968,-2.7777777777777777,-1.984126984126984,-1.0317460317460316,-0.23809523809523808,1.6666666666666665,0.5555555555555556,-0.7142857142857142,0.23809523809523808,-1.984126984126984,1.507936507936508,2.3015873015873014,-1.349206349206349,-0.873015873015873,1.0317460317460316,-1.507936507936508,-3.73015873015873,1.0317460317460316,-325.0,-325.0,-325.0,-325.0,-325.0,-7.5396825396825395
-0.07936507936507936,1.349206349206349,1.6666666666666665,2.3015873015873014,5.952380952380952,4.365079365079365,0.5555555555555556,2.46031746031746,0.7142857142857142,4.682539682539682,1.8253968253968254,4.0476190476190474,3.4126984126984126,1.1904761904761905,4.682539682539682,2.9365079365079363,-2.619047619047619,0.873015873015873,-325.0,-325.0,-325.0,-325.0,-325.0,-7.5396825396825395
-0.07936507936507936,1.349206349206349,1.6666666666666665,2.3015873015873014,5.952380952380952,4.365079365079365,0.5555555555555556,2.46031746031746,0.7142857142857142,4.682539682539682,1.8253968253968254,4.0476190476190474,3.4126984126984126,1.1904761904761905,4.682539682539682,2.9365079365079363,-2.619047619047619,0.873015873015873,-325.0,-325.0,-325.0,-325.0,-325.0,-7.5396825396825395
0.3968253968253968,3.253968253968254,0.873015873015873,1.8253968253968254,2.3015873015873014,2.619047619047619,-0.07936507936507936,2.46031746031746,0.07936507936507936,2.3015873015873014,0.5555555555555556,2.7777777777777777,2.619047619047619,0.3968253968253968,3.4126984126984126,0.873015873015873,-3.095238095238095,0.5555555555555556,-325.0,-325.0,-325.0,-325.0,-325.0,-7.5396825396825395
0.3968253968253968,3.253968253968254,0.873015873015873,1.8253968253968254,2.3015873015873014,2.619047619047619,-0.07936507936507936,2.46031746031746,0.07936507936507936,2.3015873015873014,0.5555555555555556,2.7777777777777777,2.619047619047619,0.3968253968253968,3.4126984126984126,0.873015873015873,-3.095238095238095,0.5555555555555556,-325.0,-325.0,-325.0,-325.0,-325.0,-7.5396825396825395
0.873015873015873,-0.23809523809523808,0.23809523809523808,1.984126984126984,1.6666666666666665,2.7777777777777777,4.365079365079365,0.3968253968253968,1.507936507936508,1.1904761904761905,1.349206349206349,0.3968253968253968,0.873015873015873,-1.349206349206349,1.8253968253968254,-0.23809523809523808,-3.73015873015873,0.5555555555555556,-325.0,-325.0,-325.0,-325.0,-325.0,-7.5396825396825395
0.873015873015873,-0.23809523809523808,0.23809523809523808,1.984126984126984,1.6666666666666665,2.7777777777777777,4.365079365079365,0.3968253968253968,1.507936507936508,1.1904761904761905,1.349206349206349,0.3968253968253968,0.873015873015873,-1.349206349206349,1.8253968253968254,-0.23809523809523808,-3.73015873015873,0.5555555555555556,-325.0,-325.0,-325.0,-325.0,-325.0,-7.5396825396825395
-0.23809523809523808,-1.6666666666666665,-0.5555555555555556,2.3015873015873014,1.507936507936508,2.3015873015873014,-1.507936507936508,-0.5555555555555556,0.5555555555555556,1.349206349206349,1.1904761904761905,-0.07936507936507936,0.873015873015873,-0.23809523809523808,-0.07936507936507936,0.07936507936507936,-4.2063492063492065,0.873015873015873,-325.0,-325.0,-325.0,-325.0,-325.0,-7.5396825396825395
-0.23809523809523808,-1.6666666666666665,-0.5555555555555556,2.3015873015873014,1.507936507936508,2.3015873015873014,-1.507936507936508,-0.5555555555555556,0.5555555555555556,1.349206349206349,1.1904761904761905,-0.07936507936507936,0.873015873015873,-0.23809523809523808,-0.07936507936507936,0.07936507936507936,-4.2063492063492065,0.873015873015873,-325.0,-325.0,-325.0,-325.0,-325.0,-7.5396825396825395
0.873015873015873,2.142857142857143,-0.23809523809523808,0.7142857142857142,-0.07936507936507936,-0.7142857142857142,0.07936507936507936,-0.3968253968253968,1.984126984126984,0.07936507936507936,0.3968253968253968,1.0317460317460316,-1.1904761904761905,-2.3015873015873014,0.873015873015873,-0.873015873015873,-3.73015873015873,1.0317460317460316,-325.0,-325.0,-325.0,-325.0,-325.0,-321.8253968253968
0.873015873015873,2.142857142857143,-0.23809523809523808,0.7142857142857142,-0.07936507936507936,-0.7142857142857142,0.07936507936507936,-0.3968253968253968,1.984126984126984,0.07936507936507936,0.3968253968253968,1.0317460317460316,-1.1904761904761905,-2.3015873015873014,0.873015873015873,-0.873015873015873,-3.73015873015873,1.0317460317460316,-325.0,-325.0,-325.0,-325.0,-325.0,-321.8253968253968
-1.984126984126984,-1.1904761904761905,-1.0317460317460316,-0.5555555555555556,-1.984126984126984,-2.7777777777777777,-3.253968253968254,-1.8253968253968254,-0.5555555555555556,-1.984126984126984,-1.8253968253968254,-1.349206349206349,-3.095238095238095,-3.253968253968254,0.7142857142857142,0.5555555555555556,-3.73015873015873,0.873015873015873,-325.0,-325.0,-325.0,-325.0,-325.0,-321.8253968253968
-1.984126984126984,-1.1904761904761905,-1.0317460317460316,-0.5555555555555556,-1.984126984126984,-2.7777777777777777,-3.253968253968254,-1.8253968253968254,-0.5555555555555556,-1.984126984126984,-1.8253968253968254,-1.349206349206349,-3.095238095238095,-3.253968253968254,0.7142857142857142,0.5555555555555556,-3.73015873015873,0.873015873015873,-325.0,-325.0,-325.0,-325.0,-325.0,-321.8253968253968
-0.07936507936507936,1.1904761904761905,-0.7142857142857142,0.23809523809523808,-1.6666666666666665,1.8253968253968254,-0.07936507936507936,-0.3968253968253968,0.5555555555555556,-1.1904761904761905,2.619047619047619,1.8253968253968254,0.3968253968253968,-1.507936507936508,1.1904761904761905,1.349206349206349,-3.888888888888889,0.7142857142857142,-325.0,-325.0,-325.0,-325.0,-325.0,-321.8253968253968
-0.07936507936507936,1.1904761904761905,-0.7142857142857142,0.23809523809523808,-1.6666666666666665,1.8253968253968254,-0.07936507936507936,-0.3968253968253968,0.5555555555555556,-1.1904761904761905,2.619047619047619,1.8253968253968254,0.3968253968253968,-1.507936507936508,1.1904761904761905,1.349206349206349,-3.888888888888889,0.7142857142857142,-325.0,-325.0,-325.0,-325.0,-325.0,-321.8253968253968
-1.8253968253968254,0.873015873015873,-1.0317460317460316,2.7777777777777777,-0.5555555555555556,2.142857142857143,-0.07936507936507936,-0.873015873015873,4.2063492063492065,2.142857142857143,3.095238095238095,1.507936507936508,1.349206349206349,1.1904761904761905,2.7777777777777777,2.3015873015873014,-3.888888888888889,0.7142857142857142,-325.0,-325.0,-325.0,-325.0,-325.0,-321.8253968253968
-1.8253968253968254,0.873015873015873,-1.0317460317460316,2.7777777777777777,-0.5555555555555556,2.142857142857143,-0.07936507936507936,-0.873015873015873,4.2063492063492065,2.142857142857143,3.095238095238095,1.507936507936508,1.349206349206349,1.1904761904761905,2.7777777777777777,2.3015873015873014,-3.888888888888889,0.7142857142857142,-325.0,-325.0,-325.0,-325.0,-325.0,-321.8253968253968
0.5555555555555556,-0.3968253968253968,1.349206349206349,1.507936507936508,1.6666666666666665,1.349206349206349,2.3015873015873014,0.07936507936507936,4.841269841269841,-2.619047619047619,3.253968253968254,0.23809523809523808,0.7142857142857142,-3.095238095238095,3.4126984126984126,0.07936507936507936,-3.095238095238095,1.0317460317460316,-325.0,-325.0,-325.0,-325.0,-325.0,-321.8253968253968
0.5555555555555556,-0.3968253968253968,1.349206349206349,1.507936507936508,1.6666666666666665,1.349206349206349,2.3015873015873014,0.07936507936507936,4.841269841269841,-2.619047619047619,3.253968253968254,0.23809523809523808,0.7142857142857142,-3.095238095238095,3.4126984126984126,0.07936507936507936,-3.095238095238095,1.0317460317460316,-325.0,-325.0,-325.0,-325.0,-325.0,-321.8253968253968
-0.5555555555555556,-0.23809523809523808,-1.0317460317460316,0.5555555555555556,-0.3968253968253968,-1.8253968253968254,-0.23809523809523808,-3.73015873015873,0.5555555555555556,-1.349206349206349,0.3968253968253968,-2.46031746031746,0.7142857142857142,-2.9365079365079363,0.7142857142857142,-1.1904761904761905,-3.571428571428571,1.1904761904761905,-325.0,-325.0,-325.0,-325.0,-325.0,-7.5396825396825395
-0.5555555555555556,-0.23809523809523808,-1.0317460317460316,0.5555555555555556,-0.3968253968253968,-1.8253968253968254,-0.23809523809523808,-3.73015873015873,0.5555555555555556,-1.349206349206349,0.3968253968253968,-2.46031746031746,0.7142857142857142,-2.9365079365079363,0.7142857142857142,-1.1904761904761905,-3.571428571428571,1.1904761904761905,-325.0,-325.0,-325.0,-325.0,-325.0,-7.5396825396825395
-2.46031746031746,2.46031746031746,-1.984126984126984,2.46031746031746,-3.571428571428571,3.095238095238095,0.7142857142857142,-0.873015873015873,1.984126984126984,1.507936507936508,2.9365079365079363,5.158730158730158,-1.349206349206349,0.07936507936507936,-1.8253968253968254,2.46031746031746,-3.4126984126984126,0.873015873015873,-325.0,-325.0,-325.0,-325.0,-325.0,-7.5396825396825395
-2.46031746031746,2.46031746031746,-1.984126984126984,2.46031746031746,-3.571428571428571,3.095238095238095,0.7142857142857142,-0.873015873015873,1.984126984126984,1.507936507936508,2.9365079365079363,5.158730158730158,-1.349206349206349,0.07936507936507936,-1.8253968253968254,2.46031746031746,-3.4126984126984126,0.873015873015873,-325.0,-325.0,-325.0,-325.0,-325.0,-7.5396825396825395
-0.07936507936507936,-1.507936507936508,-1.507936507936508,0.7142857142857142,1.6666666666666665,-1.1904761904761905,-3.253968253968254,-2.619047619047619,1.8253968253968254,-2.7777777777777777,1.6666666666666665,-0.3968253968253968,0.07936507936507936,-4.2063492063492065,-0.3968253968253968,-2.142857142857143,-3.888888888888889,0.873015873015873,-325.0,-325.0,-325.0,-325.0,-325.0,-7.5396825396825395
-0.07936507936507936,-1.507936507936508,-1.507936507936508,0.7142857142857142,1.6666666666666665,-1.1904761904761905,-3.253968253968254,-2.619047619047619,1.8253968253968254,-2.7777777777777777,1.6666666666666665,-0.3968253968253968,0.07936507936507936,-4.2063492063492065,-0.3968253968253968,-2.142857142857143,-3.888888888888889,0.873015873015873,-325.0,-325.0,-325.0,-325.0,-325.0,-7.5396825396825395
-0.23809523809523808,-0.3968253968253968,-1.507936507936508,1.6666666666666665,2.619047619047619,1.0317460317460316,-0.3968253968253968,1.349206349206349,1.6666666666666665,0.07936507936507936,0.07936507936507936,2.7777777777777777,1.0317460317460316,-0.23809523809523808,2.9365079365079363,0.5555555555555556,-3.73015873015873,0.873015873015873,-325.0,-325.0,-325.0,-325.0,-325.0,-7.5396825396825395
-0.23809523809523808,-0.3968253968253968,-1.507936507936508,1.6666666666666665,2.619047619047619,1.0317460317460316,-0.3968253968253968,1.349206349206349,1.6666666666666665,0.07936507936507936,0.07936507936507936,2.7777777777777777,1.0317460317460316,-0.23809523809523808,2.9365079365079363,0.5555555555555556,-3.73015873015873,0.873015873015873,-325.0,-325.0,-325.0,-325.0,-325.0,-7.5396825396825395
0.5555555555555556,-1.349206349206349,0.23809523809523808,0.07936507936507936,1.8253968253968254,0.873015873015873,-1.1904761904761905,-1.349206349206349,2.9365079365079363,1.349206349206349,0.23809523809523808,-0.3968253968253968,1.8253968253968254,-1.8253968253968254,0.5555555555555556,-2.3015873015873014,-3.571428571428571,1.8253968253968254,-325.0,-325.0,-325.0,-325.0,-325.0,-7.5396825396825395
0.5555555555555556,-1.349206349206349,0.23809523809523808,0.07936507936507936,1.8253968253968254,0.873015873015873,-1.1904761904761905,-1.349206349206349,2.9365079365079363,1.349206349206349,0.23809523809523808,-0.3968253968253968,1.8253968253968254,-1.8253968253968254,0.5555555555555556,-2.3015873015873014,-3.571428571428571,1.8253968253968254,-325.0,-325.0,-325.0,-325.0,-325.0,-7.5396825396825395
-0.3968253968253968,-0.5555555555555556,-2.3015873015873014,0.7142857142857142,-0.873015873015873,0.5555555555555556,1.6666666666666665,1.8253968253968254,1.984126984126984,0.3968253968253968,-1.0317460317460316,0.23809523809523808,1.984126984126984,0.23809523809523808,1.0317460317460316,-1.507936507936508,-4.365079365079365,0.873015873015873,-325.0,-325.0,-325.0,-325.0,-325.0,-321.8253968253968
-0.3968253968253968,-0.5555555555555556,-2.3015873015873014,0.7142857142857142,-0.873015873015873,0.5555555555555556,1.6666666666666665,1.8253968253968254,1.984126984126984,0.3968253968253968,-1.0317460317460316,0.23809523809523808,1.984126984126984,0.23809523809523808,1.0317460317460316,-1.507936507936508,-4.365079365079365,0.873015873015873,-325.0,-325.0,-325.0,-325.0,-325.0,-321.8253968253968
1.0317460317460316,0.07936507936507936,2.46031746031746,1.349206349206349,4.2063492063492065,0.23809523809523808,0.7142857142857142,-0.873015873015873,0.873015873015873,-0.5555555555555556,0.873015873015873,0.873015873015873,-0.3968253968253968,-3.253968253968254,3.888888888888889,1.0317460317460316,-3.571428571428571,1.1904761904761905,-325.0,-325.0,-325.0,-325.0,-325.0,-321.8253968253968
1.0317460317460316,0.07936507936507936,2.46031746031746,1.349206349206349,4.2063492063492065,0.23809523809523808,0.7142857142857142,-0.873015873015873,0.873015873015873,-0.5555555555555556,0.873015873015873,0.873015873015873,-0.3968253968253968,-3.253968253968254,3.888888888888889,1.0317460317460316,-3.571428571428571,1.1904761904761905,-325.0,-325.0,-325.0,-325.0,-325.0,-321.8253968253968
0.07936507936507936,1.1904761904761905,-0.07936507936507936,3.73015873015873,1.349206349206349,0.23809523809523808,0.873015873015873,3.253968253968254,2.46031746031746,1.1904761904761905,1.1904761904761905,1.349206349206349,-1.1904761904761905,0.5555555555555556,0.23809523809523808,-0.07936507936507936,-4.2063492063492065,1.349206349206349,-325.0,-325.0,-325.0,-325.0,-325.0,-321.8253968253968
0.07936507936507936,1.1904761904761905,-0.07936507936507936,3.73015873015873,1.349206349206349,0.23809523809523808,0.873015873015873,3.253968253968254,2.46031746031746,1.1904761904761905,1.1904761904761905,1.349206349206349,-1.1904761904761905,0.5555555555555556,0.23809523809523808,-0.07936507936507936,-4.2063492063492065,1.349206349206349,-325.0,-325.0,-325.0,-325.0,-325.0,-321.8253968253968
0.23809523809523808,0.23809523809523808,2.142857142857143,1.349206349206349,-0.07936507936507936,0.3968253968253968,1.0317460317460316,0.23809523809523808,3.4126984126984126,0.5555555555555556,1.8253968253968254,1.507936507936508,0.5555555555555556,0.23809523809523808,0.5555555555555556,-1.1904761904761905,-3.095238095238095,1.349206349206349,-325.0,-325.0,-325.0,-325.0,-325.0,-321.8253968253968
0.23809523809523808,0.23809523809523808,2.142857142857143,1.349206349206349,-0.07936507936507936,0.3968253968253968,1.0317460317460316,0.23809523809523808,3.4126984126984126,0.5555555555555556,1.8253968253968254,1.507936507936508,0.5555555555555556,0.23809523809523808,0.5555555555555556,-1.1904761904761905,-3.095238095238095,1.349206349206349,-325.0,-325.0,-325.0,-325.0,-325.0,-321.8253968253968
-0.3968253968253968,-1.1904761904761905,-0.5555555555555556,0.7142857142857142,-0.07936507936507936,-2.619047619047619,0.3968253968253968,0.5555555555555556,-1.349206349206349,-2.142857142857143,-0.5555555555555556,-0.23809523809523808,-1.8253968253968254,-2.7777777777777777,0.873015873015873,-3.73015873015873,-3.253968253968254,1.507936507936508,-325.0,-325.0,-325.0,-325.0,-325.0,-321.8253968253968
-0.3968253968253968,-1.1904761904761905,-0.5555555555555556,0.7142857142857142,-0.07936507936507936,-2.619047619047619,0.3968253968253968,0.5555555555555556,-1.349206349206349,-2.142857142857143,-0.5555555555555556,-0.23809523809523808,-1.8253968253968254,-2.7777777777777777,0.873015873015873,-3.73015873015873,-3.253968253968254,1.507936507936508,-325.0,-325.0,-325.0,-325.0,-325.0,-321.8253968253968
-0.873015873015873,1.8253968253968254,-1.507936507936508,1.349206349206349,-2.619047619047619,2.142857142857143,-0.07936507936507936,-0.07936507936507936,-0.5555555555555556,1.349206349206349,-3.253968253968254,1.1904761904761905,-0.7142857142857142,0.3968253968253968,-0.23809523809523808,0.5555555555555556,-3.095238095238095,1.1904761904761905,-325.0,-325.0,-325.0,-325.0,-325.0,-7.5396825396825395
-0.873015873015873,1.8253968253968254,-1.507936507936508,1.349206349206349,-2.619047619047619,2.142857142857143,-0.07936507936507936,-0.07936507936507936,-0.5555555555555556,1.349206349206349,-3.253968253968254,1.1904761904761905,-0.7142857142857142,0.3968253968253968,-0.23809523809523808,0.5555555555555556,-3.095238095238095,1.1904761904761905,-325.0,-325.0,-325.0,-325.0,-325.0,-7.5396825396825395
