Fp1[1],Fp2[2],F3[3],F4[4],C3[5],C4[6],P3[7],P4[8],O1[9],O2[10],F7[11],F8[12],T3[13],T4[14],T5[15],T6[16],Fz[17],Pz[18],Cz[19],Pg1[20],Pg2[21],EOGR[22],EOOGL[23],EMG[24]
3.888888888888889,-253.88888888888889,4.365079365079365,-245.0,-4.523809523809524,-236.74603174603175,113.25396825396825,-260.07936507936506,59.12698412698413,-325.0,53.41269841269841,-325.0,84.52380952380952,-325.0,-181.03174603174602,-325.0,188.17460317460316,-325.0,-325.0,-325.0,-178.33333333333331,-157.69841269841268,-118.8095238095238,-166.26984126984127
3.888888888888889,-253.88888888888889,4.365079365079365,-245.0,-4.523809523809524,-236.74603174603175,113.25396825396825,-260.07936507936506,59.12698412698413,-325.0,53.41269841269841,-325.0,84.52380952380952,-325.0,-181.03174603174602,-325.0,188.17460317460316,-325.0,-325.0,-325.0,-178.33333333333331,-157.69841269841268,-118.8095238095238,-166.26984126984127
-170.3968253968254,-147.69841269841268,-155.95238095238093,-325.0,-179.76190476190476,-325.0,-136.58730158730157,-325.0,-125.79365079365078,-325.0,-138.8095238095238,-226.9047619047619,-128.17460317460316,-325.0,-325.0,-325.0,-9.444444444444445,-325.0,-325.0,-325.0,25.0,159.6031746031746,124.52380952380952,-166.26984126984127
-170.3968253968254,-147.69841269841268,-155.95238095238093,-325.0,-179.76190476190476,-325.0,-136.58730158730157,-325.0,-125.79365079365078,-325.0,-138.8095238095238,-226.9047619047619,-128.17460317460316,-325.0,-325.0,-325.0,-9.444444444444445,-325.0,-325.0,-325.0,25.0,159.6031746031746,124.52380952380952,-166.26984126984127
-83.73015873015872,-188.015873015873,-94.04761904761904,-325.0,-117.6984126984127,-325.0,-77.85714285714285,-325.0,-81.19047619047619,-325.0,-75.79365079365078,-245.15873015873015,-65.95238095238095,-325.0,-221.66666666666666,-325.0,47.06349206349206,-325.0,-325.0,-325.0,-208.8095238095238,-145.95238095238093,-116.74603174603173,-166.26984126984127
-83.73015873015872,-188.015873015873,-94.04761904761904,-325.0,-117.6984126984127,-325.0,-77.85714285714285,-325.0,-81.19047619047619,-325.0,-75.79365079365078,-245.15873015873015,-65.95238095238095,-325.0,-221.66666666666666,-325.0,47.06349206349206,-325.0,-325.0,-325.0,-208.8095238095238,-145.95238095238093,-116.74603174603173,-166.26984126984127
-163.4126984126984,-125.15873015873015,-146.42857142857142,-325.0,-171.66666666666666,-325.0,-128.4920634920635,-325.0,-123.88888888888889,-325.0,-131.5079365079365,-192.46031746031744,-121.34920634920634,-325.0,-325.0,-325.0,-11.19047619047619,-325.0,-325.0,-325.0,40.079365079365076,158.8095238095238,123.09523809523809,-166.26984126984127
-163.4126984126984,-125.15873015873015,-146.42857142857142,-325.0,-171.66666666666666,-325.0,-128.4920634920635,-325.0,-123.88888888888889,-325.0,-131.5079365079365,-192.46031746031744,-121.34920634920634,-325.0,-325.0,-325.0,-11.19047619047619,-325.0,-325.0,-325.0,40.079365079365076,158.8095238095238,123.09523809523809,-166.26984126984127
54.841269841269835,-182.77777777777777,68.17460317460318,-325.0,27.38095238095238,-325.0,96.58730158730158,-325.0,68.65079365079364,-325.0,67.22222222222221,-250.55555555555554,97.85714285714285,-325.0,-164.04761904761904,-325.0,186.11111111111111,-325.0,-325.0,-325.0,-132.3015873015873,-158.015873015873,-120.55555555555554,-166.26984126984127
54.841269841269835,-182.77777777777777,68.17460317460318,-325.0,27.38095238095238,-325.0,96.58730158730158,-325.0,68.65079365079364,-325.0,67.22222222222221,-250.55555555555554,97.85714285714285,-325.0,-164.04761904761904,-325.0,186.11111111111111,-325.0,-325.0,-325.0,-132.3015873015873,-158.015873015873,-120.55555555555554,-166.26984126984127
-157.2222222222222,-112.14285714285714,-136.74603174603175,-325.0,-163.09523809523807,-325.0,-120.23809523809523,-325.0,-119.44444444444444,-325.0,-125.31746031746032,-176.42857142857142,-114.52380952380952,-325.0,-320.55555555555554,-325.0,-9.761904761904761,-325.0,-325.0,-325.0,54.68253968253968,157.85714285714286,121.82539682539682,-321.8253968253968
-157.2222222222222,-112.14285714285714,-136.74603174603175,-325.0,-163.09523809523807,-325.0,-120.23809523809523,-325.0,-119.44444444444444,-325.0,-125.31746031746032,-176.42857142857142,-114.52380952380952,-325.0,-320.55555555555554,-325.0,-9.761904761904761,-325.0,-325.0,-325.0,54.68253968253968,157.85714285714286,121.82539682539682,-321.8253968253968
65.0,-45.0,78.80952380952381,-325.0,38.01587301587301,-325.0,105.47619047619047,-325.0,77.22222222222221,-325.0,75.79365079365078,-227.69841269841268,105.0,-325.0,-154.84126984126982,-325.0,188.65079365079364,-325.0,-325.0,-325.0,-115.63492063492063,-158.17460317460316,-121.19047619047619,-321.8253968253968
65.0,-45.0,78.80952380952381,-325.0,38.01587301587301,-325.0,105.47619047619047,-325.0,77.22222222222221,-325.0,75.79365079365078,-227.69841269841268,105.0,-325.0,-154.84126984126982,-325.0,188.65079365079364,-325.0,-325.0,-325.0,-115.63492063492063,-158.17460317460316,-121.19047619047619,-321.8253968253968
-149.28571428571428,-104.68253968253968,-126.58730158730158,-325.0,-154.2063492063492,-325.0,-110.23809523809523,-325.0,-112.46031746031746,-325.0,-117.85714285714285,-161.19047619047618,-107.06349206349206,-325.0,-310.07936507936506,-325.0,-6.111111111111111,-325.0,-325.0,-325.0,68.17460317460318,156.9047619047619,121.5079365079365,-321.8253968253968
-149.28571428571428,-104.68253968253968,-126.58730158730158,-325.0,-154.2063492063492,-325.0,-110.23809523809523,-325.0,-112.46031746031746,-325.0,-117.85714285714285,-161.19047619047618,-107.06349206349206,-325.0,-310.07936507936506,-325.0,-6.111111111111111,-325.0,-325.0,-325.0,68.17460317460318,156.9047619047619,121.5079365079365,-321.8253968253968
74.68253968253968,27.698412698412696,89.44444444444444,-325.0,48.33333333333333,-325.0,114.68253968253967,-325.0,84.68253968253968,-325.0,84.68253968253968,-199.9206349206349,112.93650793650794,-325.0,-146.74603174603175,-325.0,192.77777777777777,-325.0,-325.0,-325.0,-102.93650793650794,-155.79365079365078,-121.34920634920634,-321.8253968253968
74.68253968253968,27.698412698412696,89.44444444444444,-325.0,48.33333333333333,-325.0,114.68253968253967,-325.0,84.68253968253968,-325.0,84.68253968253968,-199.9206349206349,112.93650793650794,-325.0,-146.74603174603175,-325.0,192.77777777777777,-325.0,-325.0,-325.0,-102.93650793650794,-155.79365079365078,-121.34920634920634,-321.8253968253968
-142.14285714285714,-99.28571428571428,-116.9047619047619,-315.3174603174603,-145.47619047619048,-325.0,-101.66666666666666,-325.0,-105.95238095238095,-325.0,-111.34920634920634,-153.57142857142856,-100.55555555555554,-325.0,-294.8412698412698,-325.0,-2.7777777777777777,-325.0,-325.0,-325.0,75.79365079365078,157.38095238095238,120.71428571428571,-321.8253968253968
-142.14285714285714,-99.28571428571428,-116.9047619047619,-315.3174603174603,-145.47619047619048,-325.0,-101.66666666666666,-325.0,-105.95238095238095,-325.0,-111.34920634920634,-153.57142857142856,-100.55555555555554,-325.0,-294.8412698412698,-325.0,-2.7777777777777777,-325.0,-325.0,-325.0,75.79365079365078,157.38095238095238,120.71428571428571,-321.8253968253968
83.73015873015872,69.92063492063491,99.76190476190476,-321.19047619047615,58.01587301587301,-325.0,123.25396825396825,-325.0,91.66666666666666,-325.0,92.14285714285714,-124.36507936507935,119.92063492063491,-325.0,-138.96825396825395,-325.0,197.2222222222222,-325.0,-325.0,-325.0,-93.25396825396825,-155.47619047619048,-120.07936507936508,-166.26984126984127
83.73015873015872,69.92063492063491,99.76190476190476,-321.19047619047615,58.01587301587301,-325.0,123.25396825396825,-325.0,91.66666666666666,-325.0,92.14285714285714,-124.36507936507935,119.92063492063491,-325.0,-138.96825396825395,-325.0,197.2222222222222,-325.0,-325.0,-325.0,-93.25396825396825,-155.47619047619048,-120.07936507936508,-166.26984126984127
91.98412698412697,81.03174603174602,108.80952380952381,-264.36507936507934,66.42857142857143,-325.0,130.87301587301587,-325.0,98.80952380952381,-323.25396825396825,99.6031746031746,-104.68253968253968,125.79365079365078,-325.0,-132.3015873015873,-325.0,202.3015873015873,-325.0,-325.0,-325.0,-91.34920634920634,-152.77777777777777,-118.01587301587301,-166.26984126984127
91.98412698412697,81.03174603174602,108.80952380952381,-264.36507936507934,66.42857142857143,-325.0,130.87301587301587,-325.0,98.80952380952381,-323.25396825396825,99.6031746031746,-104.68253968253968,125.79365079365078,-325.0,-132.3015873015873,-325.0,202.3015873015873,-325.0,-325.0,-325.0,-91.34920634920634,-152.77777777777777,-118.01587301587301,-166.26984126984127
27.38095238095238,-46.58730158730158,62.93650793650793,-325.0,20.71428571428571,-325.0,96.9047619047619,-325.0,73.88888888888889,-317.53968253968253,56.42857142857142,-160.55555555555554,99.76190476190476,-325.0,-195.0,-324.68253968253964,161.984126984127,-325.0,-325.0,-325.0,-18.015873015873016,-31.507936507936506,-20.07936507936508,-166.26984126984127
27.38095238095238,-46.58730158730158,62.93650793650793,-325.0,20.71428571428571,-325.0,96.9047619047619,-325.0,73.88888888888889,-317.53968253968253,56.42857142857142,-160.55555555555554,99.76190476190476,-325.0,-195.0,-324.68253968253964,161.984126984127,-325.0,-325.0,-325.0,-18.015873015873016,-31.507936507936506,-20.07936507936508,-166.26984126984127
30.71428571428571,166.42857142857142,70.87301587301587,-237.2222222222222,28.809523809523807,-325.0,93.57142857142857,-325.0,59.76190476190476,-310.7142857142857,59.6031746031746,69.44444444444444,80.71428571428571,-325.0,-191.8253968253968,-318.8095238095238,167.85714285714286,-325.0,-325.0,-325.0,95.15873015873015,-5.0,-3.253968253968254,-166.26984126984127
30.71428571428571,166.42857142857142,70.87301587301587,-237.2222222222222,28.809523809523807,-325.0,93.57142857142857,-325.0,59.76190476190476,-310.7142857142857,59.6031746031746,69.44444444444444,80.71428571428571,-325.0,-191.8253968253968,-318.8095238095238,167.85714285714286,-325.0,-325.0,-325.0,95.15873015873015,-5.0,-3.253968253968254,-166.26984126984127
-123.57142857142857,-52.93650793650794,-90.71428571428571,-215.95238095238093,-123.4126984126984,-325.0,-77.06349206349206,-325.0,-88.17460317460316,-304.2063492063492,-93.73015873015872,-100.71428571428571,-83.88888888888889,-325.0,-252.93650793650792,-312.6190476190476,8.492063492063492,-325.0,-325.0,-325.0,91.03174603174602,152.77777777777777,117.53968253968253,-166.26984126984127
-123.57142857142857,-52.93650793650794,-90.71428571428571,-215.95238095238093,-123.4126984126984,-325.0,-77.06349206349206,-325.0,-88.17460317460316,-304.2063492063492,-93.73015873015872,-100.71428571428571,-83.88888888888889,-325.0,-252.93650793650792,-312.6190476190476,8.492063492063492,-325.0,-325.0,-325.0,91.03174603174602,152.77777777777777,117.53968253968253,-166.26984126984127
29.6031746031746,76.9047619047619,23.57142857142857,-38.49206349206349,-8.174603174603174,-325.0,18.96825396825397,-325.0,2.7777777777777777,-300.23809523809524,16.428571428571427,83.57142857142857,8.174603174603174,-325.0,-119.28571428571428,-308.3333333333333,102.46031746031746,-325.0,-325.0,-325.0,-160.55555555555554,-107.85714285714285,-90.39682539682539,-321.8253968253968
29.6031746031746,76.9047619047619,23.57142857142857,-38.49206349206349,-8.174603174603174,-325.0,18.96825396825397,-325.0,2.7777777777777777,-300.23809523809524,16.428571428571427,83.57142857142857,8.174603174603174,-325.0,-119.28571428571428,-308.3333333333333,102.46031746031746,-325.0,-325.0,-325.0,-160.55555555555554,-107.85714285714285,-90.39682539682539,-321.8253968253968
-117.85714285714285,-39.6031746031746,-83.25396825396825,-203.25396825396825,-116.58730158730158,-325.0,-69.44444444444444,-325.0,-82.77777777777777,-293.88888888888886,-88.17460317460316,-72.61904761904762,-78.33333333333333,-266.4285714285714,-239.44444444444443,-302.1428571428571,11.507936507936508,-325.0,-325.0,-325.0,95.0,152.3015873015873,116.74603174603173,-321.8253968253968
-117.85714285714285,-39.6031746031746,-83.25396825396825,-203.25396825396825,-116.58730158730158,-325.0,-69.44444444444444,-325.0,-82.77777777777777,-293.88888888888886,-88.17460317460316,-72.61904761904762,-78.33333333333333,-266.4285714285714,-239.44444444444443,-302.1428571428571,11.507936507936508,-325.0,-325.0,-325.0,95.0,152.3015873015873,116.74603174603173,-321.8253968253968
45.0,102.30158730158729,41.19047619047619,16.746031746031743,8.968253968253968,-325.0,36.904761904761905,-325.0,20.07936507936508,-290.39682539682536,33.41269841269841,130.87301587301587,21.984126984126984,-235.63492063492063,-109.6031746031746,-298.3333333333333,115.31746031746032,-325.0,-325.0,-325.0,-157.85714285714286,-101.98412698412697,-88.01587301587301,-321.8253968253968
45.0,102.30158730158729,41.19047619047619,16.746031746031743,8.968253968253968,-325.0,36.904761904761905,-325.0,20.07936507936508,-290.39682539682536,33.41269841269841,130.87301587301587,21.984126984126984,-235.63492063492063,-109.6031746031746,-298.3333333333333,115.31746031746032,-325.0,-325.0,-325.0,-157.85714285714286,-101.98412698412697,-88.01587301587301,-321.8253968253968
-26.746031746031743,124.68253968253967,-8.015873015873016,-18.174603174603174,-42.77777777777778,-325.0,-8.174603174603174,-325.0,-29.126984126984127,-286.58730158730157,-19.126984126984127,105.63492063492063,-30.238095238095237,-175.15873015873015,-163.09523809523807,-294.68253968253964,73.57142857142857,-325.0,-325.0,-325.0,21.349206349206348,45.15873015873016,28.333333333333332,-321.8253968253968
-26.746031746031743,124.68253968253967,-8.015873015873016,-18.174603174603174,-42.77777777777778,-325.0,-8.174603174603174,-325.0,-29.126984126984127,-286.58730158730157,-19.126984126984127,105.63492063492063,-30.238095238095237,-175.15873015873015,-163.09523809523807,-294.68253968253964,73.57142857142857,-325.0,-325.0,-325.0,21.349206349206348,45.15873015873016,28.333333333333332,-321.8253968253968
114.36507936507935,186.11111111111111,138.65079365079364,-108.17460317460316,95.95238095238095,-325.0,156.26984126984127,-325.0,123.88888888888889,-279.1269841269841,125.79365079365078,203.25396825396825,147.53968253968253,-224.84126984126982,-112.77777777777777,-287.22222222222223,225.63492063492063,-325.0,-325.0,-325.0,-88.4920634920635,-150.07936507936506,-117.6984126984127,-321.8253968253968
114.36507936507935,186.11111111111111,138.65079365079364,-108.17460317460316,95.95238095238095,-325.0,156.26984126984127,-325.0,123.88888888888889,-279.1269841269841,125.79365079365078,203.25396825396825,147.53968253968253,-224.84126984126982,-112.77777777777777,-287.22222222222223,225.63492063492063,-325.0,-325.0,-325.0,-88.4920634920635,-150.07936507936506,-117.6984126984127,-321.8253968253968
-109.28571428571428,-21.03174603174603,-72.61904761904762,-189.9206349206349,-108.33333333333333,-325.0,-58.8095238095238,-325.0,-75.0,-274.36507936507934,-81.82539682539682,-28.333333333333332,-70.07936507936508,-188.33333333333331,-213.88888888888889,-282.46031746031747,13.571428571428571,-325.0,-325.0,-325.0,99.92063492063491,150.7142857142857,115.47619047619047,-166.26984126984127
-109.28571428571428,-21.03174603174603,-72.61904761904762,-189.9206349206349,-108.33333333333333,-325.0,-58.8095238095238,-325.0,-75.0,-274.36507936507934,-81.82539682539682,-28.333333333333332,-70.07936507936508,-188.33333333333331,-213.88888888888889,-282.46031746031747,13.571428571428571,-325.0,-325.0,-325.0,99.92063492063491,150.7142857142857,115.47619047619047,-166.26984126984127
117.22222222222221,199.60317460317458,141.984126984127,-89.12698412698413,99.76190476190476,-325.0,159.6031746031746,-325.0,126.74603174603173,-269.76190476190476,129.28571428571428,223.25396825396825,151.03174603174602,-175.63492063492063,-110.23809523809523,-277.85714285714283,227.06349206349205,-325.0,-325.0,-325.0,-90.71428571428571,-147.85714285714286,-116.26984126984127,-166.26984126984127
117.22222222222221,199.60317460317458,141.984126984127,-89.12698412698413,99.76190476190476,-325.0,159.6031746031746,-325.0,126.74603174603173,-269.76190476190476,129.28571428571428,223.25396825396825,151.03174603174602,-175.63492063492063,-110.23809523809523,-277.85714285714283,227.06349206349205,-325.0,-325.0,-325.0,-90.71428571428571,-147.85714285714286,-116.26984126984127,-166.26984126984127
-105.31746031746032,-14.047619047619047,-68.65079365079364,-186.26984126984127,-105.47619047619047,-325.0,-54.841269841269835,-325.0,-72.3015873015873,-265.3174603174603,-79.76190476190476,-14.84126984126984,-66.9047619047619,-168.65079365079364,-201.66666666666666,-273.25396825396825,13.888888888888888,-325.0,-325.0,-325.0,102.46031746031746,150.3968253968254,114.2063492063492,-166.26984126984127
-105.31746031746032,-14.047619047619047,-68.65079365079364,-186.26984126984127,-105.47619047619047,-325.0,-54.841269841269835,-325.0,-72.3015873015873,-265.3174603174603,-79.76190476190476,-14.84126984126984,-66.9047619047619,-168.65079365079364,-201.66666666666666,-273.25396825396825,13.888888888888888,-325.0,-325.0,-325.0,102.46031746031746,150.3968253968254,114.2063492063492,-166.26984126984127
118.8095238095238,210.07936507936506,143.88888888888889,-54.841269841269835,103.09523809523809,-325.0,161.34920634920633,-325.0,129.76190476190476,-260.7142857142857,132.3015873015873,237.85714285714283,153.25396825396825,-132.61904761904762,-108.17460317460316,-268.4920634920635,227.85714285714283,-325.0,-325.0,-325.0,-92.14285714285714,-146.11111111111111,-115.31746031746032,-166.26984126984127
118.8095238095238,210.07936507936506,143.88888888888889,-54.841269841269835,103.09523809523809,-325.0,161.34920634920633,-325.0,129.76190476190476,-260.7142857142857,132.3015873015873,237.85714285714283,153.25396825396825,-132.61904761904762,-108.17460317460316,-268.4920634920635,227.85714285714283,-325.0,-325.0,-325.0,-92.14285714285714,-146.11111111111111,-115.31746031746032,-166.26984126984127
-101.66666666666666,-8.492063492063492,-65.79365079365078,-180.55555555555554,-102.93650793650794,-324.04761904761904,-52.14285714285714,-325.0,-69.92063492063491,-256.26984126984127,-77.6984126984127,-3.571428571428571,-64.36507936507937,-157.69841269841268,-189.44444444444443,-264.36507936507934,12.619047619047619,-325.0,-325.0,-325.0,105.47619047619047,146.58730158730157,112.46031746031746,-166.26984126984127
-101.66666666666666,-8.492063492063492,-65.79365079365078,-180.55555555555554,-102.93650793650794,-324.04761904761904,-52.14285714285714,-325.0,-69.92063492063491,-256.26984126984127,-77.6984126984127,-3.571428571428571,-64.36507936507937,-157.69841269841268,-189.44444444444443,-264.36507936507934,12.619047619047619,-325.0,-325.0,-325.0,105.47619047619047,146.58730158730157,112.46031746031746,-166.26984126984127
94.68253968253968,192.46031746031744,96.9047619047619,159.44444444444443,61.03174603174603,-320.87301587301585,93.4126984126984,-325.0,73.73015873015872,-253.09523809523807,84.04761904761904,245.0,71.66666666666666,60.55555555555555,-86.1111111111111,-261.1904761904762,159.6031746031746,-325.0,-325.0,-325.0,-151.34920634920633,-83.4126984126984,-72.46031746031746,-321.8253968253968
94.68253968253968,192.46031746031744,96.9047619047619,159.44444444444443,61.03174603174603,-320.87301587301585,93.4126984126984,-325.0,73.73015873015872,-253.09523809523807,84.04761904761904,245.0,71.66666666666666,60.55555555555555,-86.1111111111111,-261.1904761904762,159.6031746031746,-325.0,-325.0,-325.0,-151.34920634920633,-83.4126984126984,-72.46031746031746,-321.8253968253968
-98.80952380952381,-3.888888888888889,-63.57142857142857,-141.984126984127,-100.71428571428571,-314.04761904761904,-50.39682539682539,-325.0,-67.6984126984127,-247.53968253968253,-76.74603174603175,5.0,-63.25396825396825,-150.7142857142857,-177.38095238095238,-255.63492063492063,11.031746031746032,-320.39682539682536,-325.0,-325.0,107.85714285714285,146.26984126984127,111.34920634920634,-321.8253968253968
-98.80952380952381,-3.888888888888889,-63.57142857142857,-141.984126984127,-100.71428571428571,-314.04761904761904,-50.39682539682539,-325.0,-67.6984126984127,-247.53968253968253,-76.74603174603175,5.0,-63.25396825396825,-150.7142857142857,-177.38095238095238,-255.63492063492063,11.031746031746032,-320.39682539682536,-325.0,-325.0,107.85714285714285,146.26984126984127,111.34920634920634,-321.8253968253968
103.25396825396825,211.19047619047618,105.0,197.69841269841268,69.28571428571428,-310.39682539682536,102.61904761904762,-325.0,83.09523809523809,-244.68253968253967,93.25396825396825,268.015873015873,80.23809523809523,97.06349206349206,-84.68253968253968,-252.46031746031744,166.74603174603175,-316.58730158730157,-323.25396825396825,-325.0,-149.28571428571428,-77.6984126984127,-68.4920634920635,-321.8253968253968
103.25396825396825,211.19047619047618,105.0,197.69841269841268,69.28571428571428,-310.39682539682536,102.61904761904762,-325.0,83.09523809523809,-244.68253968253967,93.25396825396825,268.015873015873,80.23809523809523,97.06349206349206,-84.68253968253968,-252.46031746031744,166.74603174603175,-316.58730158730157,-323.25396825396825,-325.0,-149.28571428571428,-77.6984126984127,-68.4920634920635,-321.8253968253968
-95.63492063492063,-3.571428571428571,-61.666666666666664,-89.92063492063491,-99.12698412698413,-300.55555555555554,-48.80952380952381,-324.36507936507934,-66.26984126984127,-239.28571428571428,-75.79365079365078,15.793650793650793,-61.19047619047619,-112.77777777777777,-165.0,-247.2222222222222,9.126984126984127,-310.07936507936506,-316.4285714285714,-325.0,109.6031746031746,143.4126984126984,111.34920634920634,-321.8253968253968
-95.63492063492063,-3.571428571428571,-61.666666666666664,-89.92063492063491,-99.12698412698413,-300.55555555555554,-48.80952380952381,-324.36507936507934,-66.26984126984127,-239.28571428571428,-75.79365079365078,15.793650793650793,-61.19047619047619,-112.77777777777777,-165.0,-247.2222222222222,9.126984126984127,-310.07936507936506,-316.4285714285714,-325.0,109.6031746031746,143.4126984126984,111.34920634920634,-321.8253968253968
119.12698412698413,227.2222222222222,142.3015873015873,179.9206349206349,104.2063492063492,-295.1587301587301,158.4920634920635,-319.6031746031746,129.9206349206349,-235.0,133.88888888888889,264.2063492063492,153.25396825396825,-55.317460317460316,-106.42857142857142,-242.93650793650792,221.98412698412696,-305.1587301587301,-311.19047619047615,-324.5238095238095,-95.0,-140.7142857142857,-112.6190476190476,-321.8253968253968
119.12698412698413,227.2222222222222,142.3015873015873,179.9206349206349,104.2063492063492,-295.1587301587301,158.4920634920635,-319.6031746031746,129.9206349206349,-235.0,133.88888888888889,264.2063492063492,153.25396825396825,-55.317460317460316,-106.42857142857142,-242.93650793650792,221.98412698412696,-305.1587301587301,-311.19047619047615,-324.5238095238095,-95.0,-140.7142857142857,-112.6190476190476,-321.8253968253968
-92.30158730158729,-5.476190476190476,-59.6031746031746,-58.49206349206349,-97.06349206349206,-225.63492063492063,-47.22222222222222,-314.36507936507934,-64.68253968253968,-231.19047619047618,-74.52380952380952,26.746031746031743,-59.6031746031746,-155.15873015873015,-154.04761904761904,-238.96825396825395,7.5396825396825395,-300.39682539682536,-305.95238095238096,-320.39682539682536,112.30158730158729,142.77777777777777,109.12698412698413,-166.26984126984127
-92.30158730158729,-5.476190476190476,-59.6031746031746,-58.49206349206349,-97.06349206349206,-225.63492063492063,-47.22222222222222,-314.36507936507934,-64.68253968253968,-231.19047619047618,-74.52380952380952,26.746031746031743,-59.6031746031746,-155.15873015873015,-154.04761904761904,-238.96825396825395,7.5396825396825395,-300.39682539682536,-305.95238095238096,-320.39682539682536,112.30158730158729,142.77777777777777,109.12698412698413,-166.26984126984127
117.53968253968253,223.4126984126984,141.03174603174602,213.88888888888889,104.04761904761904,-196.9047619047619,156.9047619047619,-309.4444444444444,129.9206349206349,-227.2222222222222,132.93650793650792,271.031746031746,151.66666666666666,-53.73015873015873,-107.06349206349206,-235.0,218.96825396825395,-295.4761904761905,-300.87301587301585,-314.8412698412698,-95.47619047619047,-139.6031746031746,-111.66666666666666,-166.26984126984127
117.53968253968253,223.4126984126984,141.03174603174602,213.88888888888889,104.04761904761904,-196.9047619047619,156.9047619047619,-309.4444444444444,129.9206349206349,-227.2222222222222,132.93650793650792,271.031746031746,151.66666666666666,-53.73015873015873,-107.06349206349206,-235.0,218.96825396825395,-295.4761904761905,-300.87301587301585,-314.8412698412698,-95.47619047619047,-139.6031746031746,-111.66666666666666,-166.26984126984127
-88.4920634920635,-8.65079365079365,-57.53968253968254,-33.73015873015873,-94.52380952380952,-186.58730158730157,-45.317460317460316,-304.5238095238095,-62.460317460317455,-223.4126984126984,-73.09523809523809,37.698412698412696,-57.857142857142854,-160.23809523809524,-142.77777777777777,-231.34920634920633,5.7936507936507935,-290.87301587301585,-295.95238095238096,-309.76190476190476,113.25396825396825,139.6031746031746,108.01587301587301,-166.26984126984127
-88.4920634920635,-8.65079365079365,-57.53968253968254,-33.73015873015873,-94.52380952380952,-186.58730158730157,-45.317460317460316,-304.5238095238095,-62.460317460317455,-223.4126984126984,-73.09523809523809,37.698412698412696,-57.857142857142854,-160.23809523809524,-142.77777777777777,-231.34920634920633,5.7936507936507935,-290.87301587301585,-295.95238095238096,-309.76190476190476,113.25396825396825,139.6031746031746,108.01587301587301,-166.26984126984127
116.9047619047619,219.12698412698413,138.4920634920635,240.87301587301587,102.30158730158729,-126.74603174603173,154.52380952380952,-299.76190476190476,128.015873015873,-219.44444444444443,131.5079365079365,265.0,149.44444444444443,-18.174603174603174,-109.28571428571428,-227.2222222222222,214.68253968253967,-286.1111111111111,-291.031746031746,-304.5238095238095,-95.95238095238095,-138.015873015873,-109.12698412698413,-166.26984126984127
116.9047619047619,219.12698412698413,138.4920634920635,240.87301587301587,102.30158730158729,-126.74603174603173,154.52380952380952,-299.76190476190476,128.015873015873,-219.44444444444443,131.5079365079365,265.0,149.44444444444443,-18.174603174603174,-109.28571428571428,-227.2222222222222,214.68253968253967,-286.1111111111111,-291.031746031746,-304.5238095238095,-95.95238095238095,-138.015873015873,-109.12698412698413,-166.26984126984127
-84.68253968253968,-11.031746031746032,-55.15873015873016,-5.952380952380952,-91.5079365079365,-169.60317460317458,-43.25396825396825,-294.8412698412698,-59.76190476190476,-215.63492063492063,-71.5079365079365,27.698412698412696,-55.79365079365079,-150.3968253968254,-131.5079365079365,-223.57142857142856,4.365079365079365,-281.66666666666663,-286.26984126984127,-299.6031746031746,113.88888888888889,138.015873015873,106.58730158730158,-166.26984126984127
-84.68253968253968,-11.031746031746032,-55.15873015873016,-5.952380952380952,-91.5079365079365,-169.60317460317458,-43.25396825396825,-294.8412698412698,-59.76190476190476,-215.63492063492063,-71.5079365079365,27.698412698412696,-55.79365079365079,-150.3968253968254,-131.5079365079365,-223.57142857142856,4.365079365079365,-281.66666666666663,-286.26984126984127,-299.6031746031746,113.88888888888889,138.015873015873,106.58730158730158,-166.26984126984127
115.79365079365078,212.93650793650792,136.42857142857142,245.79365079365078,101.34920634920634,-78.96825396825396,151.66666666666666,-290.23809523809524,126.9047619047619,-212.14285714285714,130.23809523809524,257.38095238095235,147.38095238095238,58.650793650793645,-110.55555555555554,-219.9206349206349,210.87301587301587,-277.06349206349205,-281.5079365079365,-294.5238095238095,-96.1111111111111,-136.11111111111111,-107.85714285714285,-321.8253968253968
115.79365079365078,212.93650793650792,136.42857142857142,245.79365079365078,101.34920634920634,-78.96825396825396,151.66666666666666,-290.23809523809524,126.9047619047619,-212.14285714285714,130.23809523809524,257.38095238095235,147.38095238095238,58.650793650793645,-110.55555555555554,-219.9206349206349,210.87301587301587,-277.06349206349205,-281.5079365079365,-294.5238095238095,-96.1111111111111,-136.11111111111111,-107.85714285714285,-321.8253968253968
102.46031746031746,182.77777777777777,142.77777777777777,172.46031746031744,105.79365079365078,-208.65079365079364,173.09523809523807,-288.6507936507936,141.19047619047618,-210.87301587301587,139.9206349206349,189.9206349206349,187.85714285714283,-58.17460317460317,-128.8095238095238,-218.4920634920635,234.52380952380952,-275.4761904761905,-280.07936507936506,-292.9365079365079,-47.53968253968254,-213.09523809523807,-162.61904761904762,-321.8253968253968
102.46031746031746,182.77777777777777,142.77777777777777,172.46031746031744,105.79365079365078,-208.65079365079364,173.09523809523807,-288.6507936507936,141.19047619047618,-210.87301587301587,139.9206349206349,189.9206349206349,187.85714285714283,-58.17460317460317,-128.8095238095238,-218.4920634920635,234.52380952380952,-275.4761904761905,-280.07936507936506,-292.9365079365079,-47.53968253968254,-213.09523809523807,-162.61904761904762,-321.8253968253968
113.4126984126984,208.65079365079364,133.88888888888889,246.1111111111111,99.6031746031746,-36.269841269841265,148.8095238095238,-281.031746031746,124.84126984126983,-205.15873015873015,128.33333333333331,249.12698412698413,145.0,136.42857142857142,-112.77777777777777,-212.61904761904762,206.26984126984127,-268.3333333333333,-272.46031746031747,-284.8412698412698,-95.79365079365078,-133.73015873015873,-105.79365079365078,-321.8253968253968
113.4126984126984,208.65079365079364,133.88888888888889,246.1111111111111,99.6031746031746,-36.269841269841265,148.8095238095238,-281.031746031746,124.84126984126983,-205.15873015873015,128.33333333333331,249.12698412698413,145.0,136.42857142857142,-112.77777777777777,-212.61904761904762,206.26984126984127,-268.3333333333333,-272.46031746031747,-284.8412698412698,-95.79365079365078,-133.73015873015873,-105.79365079365078,-321.8253968253968
25.317460317460316,121.19047619047619,55.63492063492063,94.2063492063492,19.92063492063492,-102.30158730158729,74.36507936507937,-277.53968253968253,50.39682539682539,-202.3015873015873,44.68253968253968,121.66666666666666,66.26984126984127,51.82539682539682,-119.92063492063491,-209.76190476190476,127.06349206349206,-264.8412698412698,-268.6507936507936,-281.031746031746,42.61904761904761,2.9365079365079363,0.7142857142857142,-321.8253968253968
25.317460317460316,121.19047619047619,55.63492063492063,94.2063492063492,19.92063492063492,-102.30158730158729,74.36507936507937,-277.53968253968253,50.39682539682539,-202.3015873015873,44.68253968253968,121.66666666666666,66.26984126984127,51.82539682539682,-119.92063492063491,-209.76190476190476,127.06349206349206,-264.8412698412698,-268.6507936507936,-281.031746031746,42.61904761904761,2.9365079365079363,0.7142857142857142,-321.8253968253968
111.34920634920634,200.23809523809524,131.34920634920636,242.6190476190476,98.49206349206348,21.984126984126984,146.11111111111111,-272.1428571428571,122.93650793650794,-198.015873015873,126.58730158730158,240.55555555555554,142.77777777777777,175.63492063492063,-114.2063492063492,-205.63492063492063,202.61904761904762,-259.9206349206349,-263.57142857142856,-275.6349206349206,-95.47619047619047,-131.03174603174602,-103.4126984126984,-321.8253968253968
111.34920634920634,200.23809523809524,131.34920634920636,242.6190476190476,98.49206349206348,21.984126984126984,146.11111111111111,-272.1428571428571,122.93650793650794,-198.015873015873,126.58730158730158,240.55555555555554,142.77777777777777,175.63492063492063,-114.2063492063492,-205.63492063492063,202.61904761904762,-259.9206349206349,-263.57142857142856,-275.6349206349206,-95.47619047619047,-131.03174603174602,-103.4126984126984,-321.8253968253968
-69.28571428571428,-13.571428571428571,-44.2063492063492,13.253968253968253,-79.44444444444444,-130.55555555555554,-33.41269841269841,-267.6984126984127,-49.44444444444444,-194.84126984126982,-62.77777777777777,30.238095238095237,-45.79365079365079,-35.0,-100.23809523809523,-202.3015873015873,5.0,-255.63492063492063,-259.1269841269841,-270.7142857142857,111.82539682539682,130.55555555555554,101.66666666666666,-166.26984126984127
-69.28571428571428,-13.571428571428571,-44.2063492063492,13.253968253968253,-79.44444444444444,-130.55555555555554,-33.41269841269841,-267.6984126984127,-49.44444444444444,-194.84126984126982,-62.77777777777777,30.238095238095237,-45.79365079365079,-35.0,-100.23809523809523,-202.3015873015873,5.0,-255.63492063492063,-259.1269841269841,-270.7142857142857,111.82539682539682,130.55555555555554,101.66666666666666,-166.26984126984127
108.65079365079364,192.77777777777777,128.33333333333331,238.17460317460316,96.74603174603175,184.68253968253967,142.61904761904762,-263.4126984126984,120.39682539682539,-191.5079365079365,123.88888888888889,231.19047619047618,139.76190476190476,205.3174603174603,-115.47619047619047,-198.8095238095238,197.69841269841268,-251.8253968253968,-254.84126984126982,-266.26984126984127,-95.63492063492063,-128.015873015873,-102.30158730158729,-166.26984126984127
108.65079365079364,192.77777777777777,128.33333333333331,238.17460317460316,96.74603174603175,184.68253968253967,142.61904761904762,-263.4126984126984,120.39682539682539,-191.5079365079365,123.88888888888889,231.19047619047618,139.76190476190476,205.3174603174603,-115.47619047619047,-198.8095238095238,197.69841269841268,-251.8253968253968,-254.84126984126982,-266.26984126984127,-95.63492063492063,-128.015873015873,-102.30158730158729,-166.26984126984127
-63.73015873015873,-13.095238095238095,-40.079365079365076,20.07936507936508,-74.36507936507937,-11.349206349206348,-29.126984126984127,-259.1269841269841,-44.84126984126984,-188.4920634920635,-58.650793650793645,31.666666666666664,-41.34920634920635,-14.84126984126984,-90.71428571428571,-195.47619047619045,5.7936507936507935,-247.53968253968253,-250.55555555555554,-261.984126984127,109.92063492063491,127.06349206349206,99.76190476190476,-166.26984126984127
-63.73015873015873,-13.095238095238095,-40.079365079365076,20.07936507936508,-74.36507936507937,-11.349206349206348,-29.126984126984127,-259.1269841269841,-44.84126984126984,-188.4920634920635,-58.650793650793645,31.666666666666664,-41.34920634920635,-14.84126984126984,-90.71428571428571,-195.47619047619045,5.7936507936507935,-247.53968253968253,-250.55555555555554,-261.984126984127,109.92063492063491,127.06349206349206,99.76190476190476,-166.26984126984127
106.1111111111111,185.15873015873015,124.2063492063492,234.68253968253967,93.57142857142857,260.7142857142857,138.015873015873,-255.15873015873015,117.06349206349206,-185.15873015873015,121.03174603174602,223.25396825396825,135.95238095238093,228.8095238095238,-117.06349206349206,-192.3015873015873,191.66666666666666,-243.88888888888889,-246.42857142857142,-257.53968253968253,-94.04761904761904,-126.26984126984127,-100.55555555555554,-166.26984126984127
106.1111111111111,185.15873015873015,124.2063492063492,234.68253968253967,93.57142857142857,260.7142857142857,138.015873015873,-255.15873015873015,117.06349206349206,-185.15873015873015,121.03174603174602,223.25396825396825,135.95238095238093,228.8095238095238,-117.06349206349206,-192.3015873015873,191.66666666666666,-243.88888888888889,-246.42857142857142,-257.53968253968253,-94.04761904761904,-126.26984126984127,-100.55555555555554,-166.26984126984127
67.06349206349206,118.8095238095238,101.82539682539682,144.36507936507937,71.03174603174602,277.85714285714283,127.22222222222221,-253.7301587301587,99.92063492063491,-183.88888888888889,102.46031746031746,121.5079365079365,146.9047619047619,158.65079365079364,-128.65079365079364,-191.03174603174602,182.46031746031744,-242.6190476190476,-244.84126984126982,-256.1111111111111,-47.698412698412696,-213.7301587301587,-165.79365079365078,-166.26984126984127
67.06349206349206,118.8095238095238,101.82539682539682,144.36507936507937,71.03174603174602,277.85714285714283,127.22222222222221,-253.7301587301587,99.92063492063491,-183.88888888888889,102.46031746031746,121.5079365079365,146.9047619047619,158.65079365079364,-128.65079365079364,-191.03174603174602,182.46031746031744,-242.6190476190476,-244.84126984126982,-256.1111111111111,-47.698412698412696,-213.7301587301587,-165.79365079365078,-166.26984126984127
102.77777777777777,177.2222222222222,121.34920634920634,232.77777777777777,91.98412698412697,290.7142857142857,134.52380952380952,-246.9047619047619,114.84126984126983,-137.06349206349205,118.17460317460316,214.2063492063492,133.25396825396825,245.15873015873015,-118.01587301587301,-185.95238095238093,187.38095238095238,-235.95238095238093,-238.49206349206347,-248.96825396825395,-93.09523809523809,-123.73015873015872,-98.80952380952381,-321.8253968253968
102.77777777777777,177.2222222222222,121.34920634920634,232.77777777777777,91.98412698412697,290.7142857142857,134.52380952380952,-246.9047619047619,114.84126984126983,-137.06349206349205,118.17460317460316,214.2063492063492,133.25396825396825,245.15873015873015,-118.01587301587301,-185.95238095238093,187.38095238095238,-235.95238095238093,-238.49206349206347,-248.96825396825395,-93.09523809523809,-123.73015873015872,-98.80952380952381,-321.8253968253968
19.126984126984127,76.9047619047619,43.73015873015873,80.55555555555556,14.365079365079364,200.07936507936506,60.71428571428571,-243.57142857142856,41.666666666666664,-134.36507936507937,35.63492063492063,78.33333333333333,56.58730158730158,111.82539682539682,-105.0,-183.4126984126984,104.84126984126983,-232.77777777777777,-235.3174603174603,-245.63492063492063,23.88888888888889,3.571428571428571,1.8253968253968254,-321.8253968253968
19.126984126984127,76.9047619047619,43.73015873015873,80.55555555555556,14.365079365079364,200.07936507936506,60.71428571428571,-243.57142857142856,41.666666666666664,-134.36507936507937,35.63492063492063,78.33333333333333,56.58730158730158,111.82539682539682,-105.0,-183.4126984126984,104.84126984126983,-232.77777777777777,-235.3174603174603,-245.63492063492063,23.88888888888889,3.571428571428571,1.8253968253968254,-321.8253968253968
98.80952380952381,168.4920634920635,117.38095238095238,232.3015873015873,88.96825396825396,268.968253968254,130.3968253968254,-239.12698412698413,111.34920634920634,-35.476190476190474,114.84126984126983,206.58730158730157,129.44444444444443,246.74603174603172,-119.28571428571428,-179.9206349206349,182.14285714285714,-228.33333333333331,-230.55555555555554,-240.55555555555554,-90.87301587301587,-121.66666666666666,-97.06349206349206,-321.8253968253968
98.80952380952381,168.4920634920635,117.38095238095238,232.3015873015873,88.96825396825396,268.968253968254,130.3968253968254,-239.12698412698413,111.34920634920634,-35.476190476190474,114.84126984126983,206.58730158730157,129.44444444444443,246.74603174603172,-119.28571428571428,-179.9206349206349,182.14285714285714,-228.33333333333331,-230.55555555555554,-240.55555555555554,-90.87301587301587,-121.66666666666666,-97.06349206349206,-321.8253968253968
17.38095238095238,68.65079365079364,40.87301587301587,79.76190476190476,12.936507936507935,156.42857142857142,57.698412698412696,-235.95238095238093,39.76190476190476,-29.285714285714285,33.41269841269841,70.07936507936508,54.2063492063492,115.0,-101.66666666666666,-177.38095238095238,100.23809523809523,-225.47619047619045,-227.38095238095238,-237.2222222222222,19.444444444444443,3.888888888888889,1.349206349206349,-321.8253968253968
17.38095238095238,68.65079365079364,40.87301587301587,79.76190476190476,12.936507936507935,156.42857142857142,57.698412698412696,-235.95238095238093,39.76190476190476,-29.285714285714285,33.41269841269841,70.07936507936508,54.2063492063492,115.0,-101.66666666666666,-177.38095238095238,100.23809523809523,-225.47619047619045,-227.38095238095238,-237.2222222222222,19.444444444444443,3.888888888888889,1.349206349206349,-321.8253968253968
94.2063492063492,159.76190476190476,112.6190476190476,232.46031746031744,85.15873015873015,231.19047619047618,125.79365079365078,-231.5079365079365,106.9047619047619,19.92063492063492,111.19047619047619,200.23809523809524,124.84126984126983,248.96825396825395,-120.23809523809523,-174.04761904761904,176.42857142857142,-221.03174603174602,-222.93650793650792,-232.77777777777777,-88.33333333333333,-119.12698412698413,-94.84126984126983,-321.8253968253968
94.2063492063492,159.76190476190476,112.6190476190476,232.46031746031744,85.15873015873015,231.19047619047618,125.79365079365078,-231.5079365079365,106.9047619047619,19.92063492063492,111.19047619047619,200.23809523809524,124.84126984126983,248.96825396825395,-120.23809523809523,-174.04761904761904,176.42857142857142,-221.03174603174602,-222.93650793650792,-232.77777777777777,-88.33333333333333,-119.12698412698413,-94.84126984126983,-321.8253968253968
15.95238095238095,61.03174603174603,38.49206349206349,79.76190476190476,11.031746031746032,103.57142857142857,54.52380952380952,-228.33333333333331,37.38095238095238,32.460317460317455,31.98412698412698,61.507936507936506,51.82539682539682,118.33333333333333,-98.49206349206348,-171.5079365079365,95.79365079365078,-218.17460317460316,-219.9206349206349,-229.44444444444443,17.063492063492063,3.571428571428571,1.6666666666666665,-166.26984126984127
15.95238095238095,61.03174603174603,38.49206349206349,79.76190476190476,11.031746031746032,103.57142857142857,54.52380952380952,-228.33333333333331,37.38095238095238,32.460317460317455,31.98412698412698,61.507936507936506,51.82539682539682,118.33333333333333,-98.49206349206348,-171.5079365079365,95.79365079365078,-218.17460317460316,-219.9206349206349,-229.44444444444443,17.063492063492063,3.571428571428571,1.6666666666666665,-166.26984126984127
90.39682539682539,148.65079365079364,108.01587301587301,231.34920634920633,82.14285714285714,186.58730158730157,120.71428571428571,-224.04761904761904,102.77777777777777,34.682539682539684,107.38095238095238,193.88888888888889,120.39682539682539,248.49206349206347,-121.34920634920634,-168.33333333333331,171.03174603174602,-214.2063492063492,-215.63492063492063,-225.15873015873015,-84.68253968253968,-116.26984126984127,-93.09523809523809,-166.26984126984127
90.39682539682539,148.65079365079364,108.01587301587301,231.34920634920633,82.14285714285714,186.58730158730157,120.71428571428571,-224.04761904761904,102.77777777777777,34.682539682539684,107.38095238095238,193.88888888888889,120.39682539682539,248.49206349206347,-121.34920634920634,-168.33333333333331,171.03174603174602,-214.2063492063492,-215.63492063492063,-225.15873015873015,-84.68253968253968,-116.26984126984127,-93.09523809523809,-166.26984126984127
14.682539682539682,54.36507936507936,36.269841269841265,78.4920634920635,10.238095238095237,47.38095238095238,51.507936507936506,-221.03174603174602,34.84126984126984,50.238095238095234,30.07936507936508,53.888888888888886,49.92063492063492,119.12698412698413,-95.47619047619047,-165.95238095238093,91.98412698412697,-211.03174603174602,-212.77777777777777,-221.8253968253968,13.253968253968253,4.365079365079365,1.8253968253968254,-166.26984126984127
14.682539682539682,54.36507936507936,36.269841269841265,78.4920634920635,10.238095238095237,47.38095238095238,51.507936507936506,-221.03174603174602,34.84126984126984,50.238095238095234,30.07936507936508,53.888888888888886,49.92063492063492,119.12698412698413,-95.47619047619047,-165.95238095238093,91.98412698412697,-211.03174603174602,-212.77777777777777,-221.8253968253968,13.253968253968253,4.365079365079365,1.8253968253968254,-166.26984126984127
11.349206349206348,49.6031746031746,32.3015873015873,78.4920634920635,6.904761904761904,9.285714285714285,46.74603174603175,-217.69841269841268,30.71428571428571,74.68253968253968,26.587301587301585,48.17460317460317,45.79365079365079,119.28571428571428,-94.36507936507935,-163.25396825396825,86.58730158730158,-192.61904761904762,-209.12698412698413,-218.17460317460316,15.634920634920634,4.2063492063492065,1.1904761904761905,-166.26984126984127
11.349206349206348,49.6031746031746,32.3015873015873,78.4920634920635,6.904761904761904,9.285714285714285,46.74603174603175,-217.69841269841268,30.71428571428571,74.68253968253968,26.587301587301585,48.17460317460317,45.79365079365079,119.28571428571428,-94.36507936507935,-163.25396825396825,86.58730158730158,-192.61904761904762,-209.12698412698413,-218.17460317460316,15.634920634920634,4.2063492063492065,1.1904761904761905,-166.26984126984127
12.619047619047619,49.12698412698413,33.41269841269841,77.53968253968253,8.333333333333332,-4.523809523809524,48.01587301587301,-214.2063492063492,32.460317460317455,77.38095238095238,28.333333333333332,46.904761904761905,47.38095238095238,119.76190476190476,-92.77777777777777,-160.3968253968254,87.06349206349206,-190.55555555555554,-205.63492063492063,-214.68253968253967,11.984126984126984,4.2063492063492065,1.1904761904761905,-166.26984126984127
12.619047619047619,49.12698412698413,33.41269841269841,77.53968253968253,8.333333333333332,-4.523809523809524,48.01587301587301,-214.2063492063492,32.460317460317455,77.38095238095238,28.333333333333332,46.904761904761905,47.38095238095238,119.76190476190476,-92.77777777777777,-160.3968253968254,87.06349206349206,-190.55555555555554,-205.63492063492063,-214.68253968253967,11.984126984126984,4.2063492063492065,1.1904761904761905,-166.26984126984127
79.28571428571428,131.03174603174602,97.85714285714285,231.19047619047618,73.25396825396825,139.6031746031746,109.44444444444444,-210.07936507936506,93.4126984126984,68.80952380952381,97.53968253968253,172.14285714285714,109.76190476190476,248.49206349206347,-123.4126984126984,-157.38095238095238,157.85714285714286,-26.26984126984127,-198.33333333333331,-210.3968253968254,-75.47619047619047,-110.23809523809523,-88.4920634920635,-321.8253968253968
79.28571428571428,131.03174603174602,97.85714285714285,231.19047619047618,73.25396825396825,139.6031746031746,109.44444444444444,-210.07936507936506,93.4126984126984,68.80952380952381,97.53968253968253,172.14285714285714,109.76190476190476,248.49206349206347,-123.4126984126984,-157.38095238095238,157.85714285714286,-26.26984126984127,-198.33333333333331,-210.3968253968254,-75.47619047619047,-110.23809523809523,-88.4920634920635,-321.8253968253968
-22.936507936507937,11.825396825396824,-6.26984126984127,68.33333333333333,-34.52380952380952,-86.1111111111111,3.253968253968254,-206.58730158730157,-12.46031746031746,79.76190476190476,-24.365079365079364,51.03174603174603,-5.634920634920634,77.06349206349206,-38.01587301587301,-154.52380952380952,23.57142857142857,-195.15873015873015,-198.17460317460316,-206.74603174603175,96.26984126984127,106.74603174603175,85.0,-321.8253968253968
-22.936507936507937,11.825396825396824,-6.26984126984127,68.33333333333333,-34.52380952380952,-86.1111111111111,3.253968253968254,-206.58730158730157,-12.46031746031746,79.76190476190476,-24.365079365079364,51.03174603174603,-5.634920634920634,77.06349206349206,-38.01587301587301,-154.52380952380952,23.57142857142857,-195.15873015873015,-198.17460317460316,-206.74603174603175,96.26984126984127,106.74603174603175,85.0,-321.8253968253968
72.93650793650794,123.09523809523809,91.98412698412697,231.03174603174602,68.17460317460318,158.4920634920635,103.88888888888889,-203.4126984126984,87.85714285714285,98.33333333333333,92.30158730158729,158.17460317460316,104.04761904761904,246.9047619047619,-124.2063492063492,-152.14285714285714,151.19047619047618,70.55555555555556,-80.71428571428571,-203.57142857142856,-70.71428571428571,-106.1111111111111,-84.84126984126983,-321.8253968253968
72.93650793650794,123.09523809523809,91.98412698412697,231.03174603174602,68.17460317460318,158.4920634920635,103.88888888888889,-203.4126984126984,87.85714285714285,98.33333333333333,92.30158730158729,158.17460317460316,104.04761904761904,246.9047619047619,-124.2063492063492,-152.14285714285714,151.19047619047618,70.55555555555556,-80.71428571428571,-203.57142857142856,-70.71428571428571,-106.1111111111111,-84.84126984126983,-321.8253968253968
-17.38095238095238,16.587301587301585,-0.873015873015873,71.66666666666666,-28.96825396825397,-60.55555555555555,8.174603174603174,-200.07936507936506,-7.063492063492063,242.6190476190476,-18.65079365079365,54.36507936507936,0.3968253968253968,82.77777777777777,-32.460317460317455,-149.44444444444443,27.38095238095238,-187.53968253968253,-188.65079365079364,-200.07936507936506,93.73015873015872,103.4126984126984,82.77777777777777,-321.8253968253968
-17.38095238095238,16.587301587301585,-0.873015873015873,71.66666666666666,-28.96825396825397,-60.55555555555555,8.174603174603174,-200.07936507936506,-7.063492063492063,242.6190476190476,-18.65079365079365,54.36507936507936,0.3968253968253968,82.77777777777777,-32.460317460317455,-149.44444444444443,27.38095238095238,-187.53968253968253,-188.65079365079364,-200.07936507936506,93.73015873015872,103.4126984126984,82.77777777777777,-321.8253968253968
65.95238095238095,115.63492063492063,85.47619047619047,230.2380952380952,62.61904761904761,177.69841269841268,96.9047619047619,-196.74603174603175,81.66666666666666,156.26984126984127,86.1111111111111,143.4126984126984,97.53968253968253,245.63492063492063,-125.15873015873015,-147.2222222222222,143.57142857142856,118.8095238095238,22.46031746031746,-196.74603174603175,-65.63492063492063,-103.09523809523809,-83.25396825396825,-321.8253968253968
65.95238095238095,115.63492063492063,85.47619047619047,230.2380952380952,62.61904761904761,177.69841269841268,96.9047619047619,-196.74603174603175,81.66666666666666,156.26984126984127,86.1111111111111,143.4126984126984,97.53968253968253,245.63492063492063,-125.15873015873015,-147.2222222222222,143.57142857142856,118.8095238095238,22.46031746031746,-196.74603174603175,-65.63492063492063,-103.09523809523809,-83.25396825396825,-321.8253968253968
-12.3015873015873,21.349206349206348,3.571428571428571,74.2063492063492,-23.253968253968253,-33.73015873015873,12.777777777777777,-193.57142857142856,-2.46031746031746,262.1428571428571,-13.73015873015873,57.698412698412696,5.952380952380952,87.38095238095238,-27.698412698412696,-144.68253968253967,31.19047619047619,-181.66666666666666,-179.12698412698413,-193.25396825396825,90.23809523809523,99.44444444444444,79.12698412698413,-166.26984126984127
-12.3015873015873,21.349206349206348,3.571428571428571,74.2063492063492,-23.253968253968253,-33.73015873015873,12.777777777777777,-193.57142857142856,-2.46031746031746,262.1428571428571,-13.73015873015873,57.698412698412696,5.952380952380952,87.38095238095238,-27.698412698412696,-144.68253968253967,31.19047619047619,-181.66666666666666,-179.12698412698413,-193.25396825396825,90.23809523809523,99.44444444444444,79.12698412698413,-166.26984126984127
58.650793650793645,109.92063492063491,78.80952380952381,228.33333333333331,56.74603174603174,199.9206349206349,89.6031746031746,-190.7142857142857,75.0,192.14285714285714,79.76190476190476,128.96825396825395,90.71428571428571,243.88888888888889,-125.79365079365078,-142.3015873015873,135.95238095238093,179.76190476190476,97.6984126984127,-190.07936507936506,-60.079365079365076,-100.07936507936508,-81.34920634920634,-166.26984126984127
58.650793650793645,109.92063492063491,78.80952380952381,228.33333333333331,56.74603174603174,199.9206349206349,89.6031746031746,-190.7142857142857,75.0,192.14285714285714,79.76190476190476,128.96825396825395,90.71428571428571,243.88888888888889,-125.79365079365078,-142.3015873015873,135.95238095238093,179.76190476190476,97.6984126984127,-190.07936507936506,-60.079365079365076,-100.07936507936508,-81.34920634920634,-166.26984126984127
-7.3809523809523805,26.11111111111111,8.174603174603174,76.26984126984127,-18.333333333333332,-7.857142857142857,17.38095238095238,-187.53968253968253,2.7777777777777777,277.38095238095235,-8.65079365079365,60.873015873015866,11.349206349206348,91.5079365079365,-23.253968253968253,-139.9206349206349,34.84126984126984,-165.79365079365078,-171.5079365079365,-186.9047619047619,87.06349206349206,96.26984126984127,76.9047619047619,-166.26984126984127
-7.3809523809523805,26.11111111111111,8.174603174603174,76.26984126984127,-18.333333333333332,-7.857142857142857,17.38095238095238,-187.53968253968253,2.7777777777777777,277.38095238095235,-8.65079365079365,60.873015873015866,11.349206349206348,91.5079365079365,-23.253968253968253,-139.9206349206349,34.84126984126984,-165.79365079365078,-171.5079365079365,-186.9047619047619,87.06349206349206,96.26984126984127,76.9047619047619,-166.26984126984127
50.39682539682539,103.09523809523809,71.82539682539682,226.1111111111111,50.238095238095234,205.79365079365078,81.98412698412697,-184.68253968253967,68.01587301587301,218.17460317460316,72.93650793650794,115.63492063492063,83.57142857142857,242.77777777777777,-125.95238095238095,-137.53968253968253,128.17460317460316,221.8253968253968,136.11111111111111,-183.7301587301587,-54.36507936507936,-95.95238095238095,-78.01587301587301,-166.26984126984127
50.39682539682539,103.09523809523809,71.82539682539682,226.1111111111111,50.238095238095234,205.79365079365078,81.98412698412697,-184.68253968253967,68.01587301587301,218.17460317460316,72.93650793650794,115.63492063492063,83.57142857142857,242.77777777777777,-125.95238095238095,-137.53968253968253,128.17460317460316,221.8253968253968,136.11111111111111,-183.7301587301587,-54.36507936507936,-95.95238095238095,-78.01587301587301,-166.26984126984127
3.095238095238095,27.063492063492063,21.19047619047619,62.460317460317455,-0.23809523809523808,29.920634920634917,31.98412698412698,-182.3015873015873,19.76190476190476,325.0,17.38095238095238,15.634920634920634,35.317460317460316,107.6984126984127,-81.34920634920634,-135.47619047619048,66.9047619047619,47.06349206349206,-24.206349206349206,-181.34920634920633,3.888888888888889,6.26984126984127,3.095238095238095,-166.26984126984127
3.095238095238095,27.063492063492063,21.19047619047619,62.460317460317455,-0.23809523809523808,29.920634920634917,31.98412698412698,-182.3015873015873,19.76190476190476,325.0,17.38095238095238,15.634920634920634,35.317460317460316,107.6984126984127,-81.34920634920634,-135.47619047619048,66.9047619047619,47.06349206349206,-24.206349206349206,-181.34920634920633,3.888888888888889,6.26984126984127,3.095238095238095,-166.26984126984127
1.6666666666666665,35.476190476190474,16.746031746031743,81.19047619047619,-9.126984126984127,28.809523809523807,25.634920634920633,-178.65079365079364,11.19047619047619,296.90476190476187,0.3968253968253968,67.6984126984127,20.71428571428571,98.33333333333333,-15.0,-132.77777777777777,42.3015873015873,81.98412698412697,-88.80952380952381,-177.69841269841268,82.3015873015873,89.76190476190476,71.66666666666666,-321.8253968253968
1.6666666666666665,35.476190476190474,16.746031746031743,81.19047619047619,-9.126984126984127,28.809523809523807,25.634920634920633,-178.65079365079364,11.19047619047619,296.90476190476187,0.3968253968253968,67.6984126984127,20.71428571428571,98.33333333333333,-15.0,-132.77777777777777,42.3015873015873,81.98412698412697,-88.80952380952381,-177.69841269841268,82.3015873015873,89.76190476190476,71.66666666666666,-321.8253968253968
44.2063492063492,99.6031746031746,57.22222222222222,158.4920634920635,39.12698412698413,150.3968253968254,73.57142857142857,-174.2063492063492,65.79365079365078,256.90476190476187,54.2063492063492,108.33333333333333,48.650793650793645,186.9047619047619,-108.17460317460316,-129.76190476190476,105.0,155.0,15.0,-173.57142857142856,-33.57142857142857,126.26984126984127,93.88888888888889,-321.8253968253968
44.2063492063492,99.6031746031746,57.22222222222222,158.4920634920635,39.12698412698413,150.3968253968254,73.57142857142857,-174.2063492063492,65.79365079365078,256.90476190476187,54.2063492063492,108.33333333333333,48.650793650793645,186.9047619047619,-108.17460317460316,-129.76190476190476,105.0,155.0,15.0,-173.57142857142856,-33.57142857142857,126.26984126984127,93.88888888888889,-321.8253968253968
-2.142857142857143,29.76190476190476,20.71428571428571,144.36507936507937,-6.111111111111111,105.31746031746032,23.57142857142857,-171.19047619047618,4.0476190476190474,307.69841269841265,9.761904761904761,54.2063492063492,46.42857142857142,152.61904761904762,-29.76190476190476,-127.22222222222221,52.61904761904761,302.46031746031747,281.3492063492063,-170.07936507936506,68.01587301587301,-128.65079365079364,-97.38095238095238,-321.8253968253968
-2.142857142857143,29.76190476190476,20.71428571428571,144.36507936507937,-6.111111111111111,105.31746031746032,23.57142857142857,-171.19047619047618,4.0476190476190474,307.69841269841265,9.761904761904761,54.2063492063492,46.42857142857142,152.61904761904762,-29.76190476190476,-127.22222222222221,52.61904761904761,302.46031746031747,281.3492063492063,-170.07936507936506,68.01587301587301,-128.65079365079364,-97.38095238095238,-321.8253968253968
6.587301587301587,30.71428571428571,16.587301587301585,-12.619047619047619,-0.07936507936507936,-21.666666666666664,33.25396825396825,-169.44444444444443,28.174603174603174,325.0,9.444444444444445,18.80952380952381,11.666666666666666,43.73015873015873,-61.03174603174603,-125.63492063492063,52.460317460317455,121.03174603174602,46.269841269841265,-167.85714285714286,7.222222222222221,220.2380952380952,169.76190476190476,-321.8253968253968
6.587301587301587,30.71428571428571,16.587301587301585,-12.619047619047619,-0.07936507936507936,-21.666666666666664,33.25396825396825,-169.44444444444443,28.174603174603174,325.0,9.444444444444445,18.80952380952381,11.666666666666666,43.73015873015873,-61.03174603174603,-125.63492063492063,52.460317460317455,121.03174603174602,46.269841269841265,-167.85714285714286,7.222222222222221,220.2380952380952,169.76190476190476,-321.8253968253968
-0.5555555555555556,31.19047619047619,21.507936507936506,145.0,-4.841269841269841,115.95238095238095,24.047619047619047,-165.79365079365078,4.682539682539682,313.73015873015873,10.555555555555555,55.476190476190474,46.74603174603175,155.79365079365078,-23.41269841269841,-123.09523809523809,51.82539682539682,311.8253968253968,317.53968253968253,-164.68253968253967,67.53968253968253,-130.55555555555554,-99.28571428571428,-321.8253968253968
-0.5555555555555556,31.19047619047619,21.507936507936506,145.0,-4.841269841269841,115.95238095238095,24.047619047619047,-165.79365079365078,4.682539682539682,313.73015873015873,10.555555555555555,55.476190476190474,46.74603174603175,155.79365079365078,-23.41269841269841,-123.09523809523809,51.82539682539682,311.8253968253968,317.53968253968253,-164.68253968253967,67.53968253968253,-130.55555555555554,-99.28571428571428,-321.8253968253968
38.17460317460317,105.0,55.95238095238095,250.87301587301585,31.825396825396822,225.63492063492063,65.15873015873015,-164.36507936507937,49.6031746031746,270.39682539682536,45.95238095238095,143.09523809523807,59.76190476190476,241.5079365079365,-61.03174603174603,-95.0,92.14285714285714,325.0,275.6349206349206,-162.61904761904762,37.38095238095238,-7.222222222222221,-4.2063492063492065,-166.26984126984127
38.17460317460317,105.0,55.95238095238095,250.87301587301585,31.825396825396822,225.63492063492063,65.15873015873015,-164.36507936507937,49.6031746031746,270.39682539682536,45.95238095238095,143.09523809523807,59.76190476190476,241.5079365079365,-61.03174603174603,-95.0,92.14285714285714,325.0,275.6349206349206,-162.61904761904762,37.38095238095238,-7.222222222222221,-4.2063492063492065,-166.26984126984127
1.8253968253968254,33.57142857142857,23.41269841269841,145.79365079365078,-2.3015873015873014,129.28571428571428,25.158730158730158,-160.3968253968254,5.7936507936507935,308.968253968254,12.3015873015873,57.698412698412696,48.01587301587301,157.85714285714286,-17.063492063492063,-101.98412698412697,51.98412698412698,325.0,325.0,-158.96825396825395,65.63492063492063,-132.77777777777777,-100.87301587301587,-166.26984126984127
1.8253968253968254,33.57142857142857,23.41269841269841,145.79365079365078,-2.3015873015873014,129.28571428571428,25.158730158730158,-160.3968253968254,5.7936507936507935,308.968253968254,12.3015873015873,57.698412698412696,48.01587301587301,157.85714285714286,-17.063492063492063,-101.98412698412697,51.98412698412698,325.0,325.0,-158.96825396825395,65.63492063492063,-132.77777777777777,-100.87301587301587,-166.26984126984127
29.920634920634917,85.63492063492063,43.25396825396825,149.9206349206349,28.015873015873016,152.3015873015873,59.285714285714285,-158.015873015873,53.25396825396825,269.1269841269841,41.98412698412698,79.44444444444444,37.38095238095238,177.69841269841268,-117.22222222222221,-8.015873015873016,89.92063492063491,278.4920634920635,239.9206349206349,-156.42857142857142,-28.65079365079365,133.73015873015873,101.66666666666666,-166.26984126984127
29.920634920634917,85.63492063492063,43.25396825396825,149.9206349206349,28.015873015873016,152.3015873015873,59.285714285714285,-158.015873015873,53.25396825396825,269.1269841269841,41.98412698412698,79.44444444444444,37.38095238095238,177.69841269841268,-117.22222222222221,-8.015873015873016,89.92063492063491,278.4920634920635,239.9206349206349,-156.42857142857142,-28.65079365079365,133.73015873015873,101.66666666666666,-166.26984126984127
4.2063492063492065,35.79365079365079,25.158730158730158,147.06349206349205,-0.07936507936507936,140.23809523809524,26.587301587301585,-155.47619047619048,7.5396825396825395,296.90476190476187,13.73015873015873,60.238095238095234,48.80952380952381,158.8095238095238,-10.238095238095237,-34.84126984126984,52.3015873015873,325.0,325.0,-153.57142857142856,63.095238095238095,-135.63492063492063,-103.25396825396825,-166.26984126984127
4.2063492063492065,35.79365079365079,25.158730158730158,147.06349206349205,-0.07936507936507936,140.23809523809524,26.587301587301585,-155.47619047619048,7.5396825396825395,296.90476190476187,13.73015873015873,60.238095238095234,48.80952380952381,158.8095238095238,-10.238095238095237,-34.84126984126984,52.3015873015873,325.0,325.0,-153.57142857142856,63.095238095238095,-135.63492063492063,-103.25396825396825,-166.26984126984127
7.3809523809523805,27.539682539682538,18.015873015873016,-29.920634920634917,4.2063492063492065,-20.238095238095237,35.63492063492063,-153.25396825396825,31.825396825396822,325.0,14.047619047619047,5.317460317460317,18.96825396825397,25.634920634920633,-70.55555555555556,-126.26984126984127,53.25396825396825,271.984126984127,291.19047619047615,-151.8253968253968,-9.761904761904761,214.52380952380952,167.2222222222222,-166.26984126984127
7.3809523809523805,27.539682539682538,18.015873015873016,-29.920634920634917,4.2063492063492065,-20.238095238095237,35.63492063492063,-153.25396825396825,31.825396825396822,325.0,14.047619047619047,5.317460317460317,18.96825396825397,25.634920634920633,-70.55555555555556,-126.26984126984127,53.25396825396825,271.984126984127,291.19047619047615,-151.8253968253968,-9.761904761904761,214.52380952380952,167.2222222222222,-166.26984126984127
7.063492063492063,38.33333333333333,27.063492063492063,148.33333333333331,2.7777777777777777,151.19047619047618,27.857142857142854,-150.3968253968254,8.809523809523808,283.73015873015873,15.793650793650793,63.25396825396825,50.079365079365076,159.9206349206349,-3.4126984126984126,43.095238095238095,52.93650793650794,325.0,325.0,-148.4920634920635,59.92063492063492,-136.42857142857142,-104.52380952380952,-321.8253968253968
7.063492063492063,38.33333333333333,27.063492063492063,148.33333333333331,2.7777777777777777,151.19047619047618,27.857142857142854,-150.3968253968254,8.809523809523808,283.73015873015873,15.793650793650793,63.25396825396825,50.079365079365076,159.9206349206349,-3.4126984126984126,43.095238095238095,52.93650793650794,325.0,325.0,-148.4920634920635,59.92063492063492,-136.42857142857142,-104.52380952380952,-321.8253968253968
19.6031746031746,72.46031746031746,33.095238095238095,145.15873015873015,19.6031746031746,153.09523809523807,49.12698412698413,-148.015873015873,44.36507936507936,226.1111111111111,33.095238095238095,61.34920634920635,28.96825396825397,172.61904761904762,-124.52380952380952,89.44444444444444,78.01587301587301,314.5238095238095,301.5079365079365,-146.26984126984127,-26.11111111111111,137.38095238095238,103.88888888888889,-321.8253968253968
19.6031746031746,72.46031746031746,33.095238095238095,145.15873015873015,19.6031746031746,153.09523809523807,49.12698412698413,-148.015873015873,44.36507936507936,226.1111111111111,33.095238095238095,61.34920634920635,28.96825396825397,172.61904761904762,-124.52380952380952,89.44444444444444,78.01587301587301,314.5238095238095,301.5079365079365,-146.26984126984127,-26.11111111111111,137.38095238095238,103.88888888888889,-321.8253968253968
39.12698412698413,105.63492063492063,56.11111111111111,260.87301587301585,34.52380952380952,258.3333333333333,64.52380952380952,-146.26984126984127,49.76190476190476,176.74603174603175,46.74603174603175,136.26984126984127,60.079365079365076,254.84126984126982,-53.888888888888886,159.12698412698413,88.80952380952381,325.0,301.5079365079365,-144.36507936507937,35.476190476190474,-8.492063492063492,-5.317460317460317,-321.8253968253968
39.12698412698413,105.63492063492063,56.11111111111111,260.87301587301585,34.52380952380952,258.3333333333333,64.52380952380952,-146.26984126984127,49.76190476190476,176.74603174603175,46.74603174603175,136.26984126984127,60.079365079365076,254.84126984126982,-53.888888888888886,159.12698412698413,88.80952380952381,325.0,301.5079365079365,-144.36507936507937,35.476190476190474,-8.492063492063492,-5.317460317460317,-321.8253968253968
34.52380952380952,100.07936507936508,51.507936507936506,251.5079365079365,30.396825396825395,258.3333333333333,59.6031746031746,-143.88888888888889,45.15873015873016,160.7142857142857,41.98412698412698,129.76190476190476,55.317460317460316,254.84126984126982,-55.15873015873016,164.84126984126982,83.4126984126984,325.0,306.90476190476187,-141.8253968253968,39.76190476190476,-4.841269841269841,-2.46031746031746,-321.8253968253968
34.52380952380952,100.07936507936508,51.507936507936506,251.5079365079365,30.396825396825395,258.3333333333333,59.6031746031746,-143.88888888888889,45.15873015873016,160.7142857142857,41.98412698412698,129.76190476190476,55.317460317460316,254.84126984126982,-55.15873015873016,164.84126984126982,83.4126984126984,325.0,306.90476190476187,-141.8253968253968,39.76190476190476,-4.841269841269841,-2.46031746031746,-321.8253968253968
38.01587301587301,104.04761904761904,55.15873015873016,253.25396825396825,34.047619047619044,263.73015873015873,63.41269841269841,-141.66666666666666,48.80952380952381,151.984126984127,45.63492063492063,132.77777777777777,58.96825396825397,257.38095238095235,-52.77777777777777,273.57142857142856,86.74603174603175,325.0,306.90476190476187,-139.6031746031746,34.84126984126984,-7.3809523809523805,-4.841269841269841,-321.8253968253968
38.01587301587301,104.04761904761904,55.15873015873016,253.25396825396825,34.047619047619044,263.73015873015873,63.41269841269841,-141.66666666666666,48.80952380952381,151.984126984127,45.63492063492063,132.77777777777777,58.96825396825397,257.38095238095235,-52.77777777777777,273.57142857142856,86.74603174603175,325.0,306.90476190476187,-139.6031746031746,34.84126984126984,-7.3809523809523805,-4.841269841269841,-321.8253968253968
33.57142857142857,98.49206349206348,50.238095238095234,243.09523809523807,29.6031746031746,263.73015873015873,58.49206349206349,-139.44444444444443,44.047619047619044,133.25396825396825,40.87301587301587,126.9047619047619,53.73015873015873,257.38095238095235,-54.047619047619044,273.57142857142856,81.19047619047619,325.0,311.5079365079365,-137.22222222222223,38.80952380952381,-4.0476190476190474,-2.619047619047619,-166.26984126984127
33.57142857142857,98.49206349206348,50.238095238095234,243.09523809523807,29.6031746031746,263.73015873015873,58.49206349206349,-139.44444444444443,44.047619047619044,133.25396825396825,40.87301587301587,126.9047619047619,53.73015873015873,257.38095238095235,-54.047619047619044,273.57142857142856,81.19047619047619,325.0,311.5079365079365,-137.22222222222223,38.80952380952381,-4.0476190476190474,-2.619047619047619,-166.26984126984127
15.317460317460316,44.52380952380952,32.460317460317455,151.19047619047618,9.603174603174603,175.47619047619045,31.825396825396822,-136.11111111111111,13.571428571428571,230.55555555555554,21.349206349206348,70.87301587301587,53.095238095238095,160.23809523809524,17.857142857142858,325.0,54.2063492063492,325.0,325.0,-134.36507936507937,47.38095238095238,-141.66666666666666,-108.65079365079364,-166.26984126984127
15.317460317460316,44.52380952380952,32.460317460317455,151.19047619047618,9.603174603174603,175.47619047619045,31.825396825396822,-136.11111111111111,13.571428571428571,230.55555555555554,21.349206349206348,70.87301587301587,53.095238095238095,160.23809523809524,17.857142857142858,325.0,54.2063492063492,325.0,325.0,-134.36507936507937,47.38095238095238,-141.66666666666666,-108.65079365079364,-166.26984126984127
32.93650793650794,96.74603174603175,49.285714285714285,234.52380952380952,28.96825396825397,269.6031746031746,56.74603174603174,-134.68253968253967,42.93650793650794,104.04761904761904,40.079365079365076,123.4126984126984,52.460317460317455,259.9206349206349,-53.095238095238095,325.0,79.12698412698413,325.0,315.7936507936508,-132.77777777777777,38.01587301587301,-3.73015873015873,-2.142857142857143,-166.26984126984127
32.93650793650794,96.74603174603175,49.285714285714285,234.52380952380952,28.96825396825397,269.6031746031746,56.74603174603174,-134.68253968253967,42.93650793650794,104.04761904761904,40.079365079365076,123.4126984126984,52.460317460317455,259.9206349206349,-53.095238095238095,325.0,79.12698412698413,325.0,315.7936507936508,-132.77777777777777,38.01587301587301,-3.73015873015873,-2.142857142857143,-166.26984126984127
18.333333333333332,46.904761904761905,34.52380952380952,152.61904761904762,12.3015873015873,183.88888888888889,33.888888888888886,-132.14285714285714,15.317460317460316,206.26984126984127,23.253968253968253,73.88888888888889,54.52380952380952,160.23809523809524,24.365079365079364,325.0,55.15873015873016,325.0,325.0,-129.76190476190476,42.77777777777778,-144.04761904761904,-110.55555555555554,-166.26984126984127
18.333333333333332,46.904761904761905,34.52380952380952,152.61904761904762,12.3015873015873,183.88888888888889,33.888888888888886,-132.14285714285714,15.317460317460316,206.26984126984127,23.253968253968253,73.88888888888889,54.52380952380952,160.23809523809524,24.365079365079364,325.0,55.15873015873016,325.0,325.0,-129.76190476190476,42.77777777777778,-144.04761904761904,-110.55555555555554,-166.26984126984127
31.666666666666664,94.84126984126983,47.38095238095238,225.95238095238093,28.015873015873016,274.8412698412698,55.15873015873016,-130.3968253968254,41.34920634920635,78.80952380952381,38.65079365079365,120.39682539682539,50.87301587301587,261.8253968253968,-52.14285714285714,325.0,76.58730158730158,325.0,319.1269841269841,-128.17460317460316,37.06349206349206,-4.365079365079365,-2.46031746031746,-166.26984126984127
31.666666666666664,94.84126984126983,47.38095238095238,225.95238095238093,28.015873015873016,274.8412698412698,55.15873015873016,-130.3968253968254,41.34920634920635,78.80952380952381,38.65079365079365,120.39682539682539,50.87301587301587,261.8253968253968,-52.14285714285714,325.0,76.58730158730158,325.0,319.1269841269841,-128.17460317460316,37.06349206349206,-4.365079365079365,-2.46031746031746,-166.26984126984127
21.03174603174603,49.6031746031746,36.74603174603175,154.04761904761904,14.365079365079364,191.5079365079365,35.317460317460316,-127.6984126984127,17.22222222222222,182.61904761904762,25.317460317460316,76.9047619047619,55.79365079365079,160.7142857142857,30.396825396825395,325.0,55.63492063492063,325.0,325.0,-125.47619047619047,38.49206349206349,-146.11111111111111,-111.66666666666666,-321.8253968253968
21.03174603174603,49.6031746031746,36.74603174603175,154.04761904761904,14.365079365079364,191.5079365079365,35.317460317460316,-127.6984126984127,17.22222222222222,182.61904761904762,25.317460317460316,76.9047619047619,55.79365079365079,160.7142857142857,30.396825396825395,325.0,55.63492063492063,325.0,325.0,-125.47619047619047,38.49206349206349,-146.11111111111111,-111.66666666666666,-321.8253968253968
73.4126984126984,121.34920634920634,89.76190476190476,208.4920634920635,63.41269841269841,234.2063492063492,93.73015873015872,-127.22222222222221,70.71428571428571,157.2222222222222,69.76190476190476,171.03174603174602,111.34920634920634,203.57142857142856,80.87301587301587,325.0,99.44444444444444,325.0,325.0,-124.84126984126983,68.65079365079364,-100.39682539682539,-71.19047619047619,-321.8253968253968
73.4126984126984,121.34920634920634,89.76190476190476,208.4920634920635,63.41269841269841,234.2063492063492,93.73015873015872,-127.22222222222221,70.71428571428571,157.2222222222222,69.76190476190476,171.03174603174602,111.34920634920634,203.57142857142856,80.87301587301587,325.0,99.44444444444444,325.0,325.0,-124.84126984126983,68.65079365079364,-100.39682539682539,-71.19047619047619,-321.8253968253968
24.523809523809522,52.61904761904761,38.96825396825397,155.79365079365078,17.38095238095238,198.65079365079364,37.857142857142854,-100.87301587301587,19.285714285714285,163.09523809523807,27.38095238095238,80.39682539682539,57.22222222222222,160.7142857142857,35.15873015873016,325.0,57.06349206349206,325.0,325.0,-121.19047619047619,33.41269841269841,-148.015873015873,-113.25396825396825,-321.8253968253968
24.523809523809522,52.61904761904761,38.96825396825397,155.79365079365078,17.38095238095238,198.65079365079364,37.857142857142854,-100.87301587301587,19.285714285714285,163.09523809523807,27.38095238095238,80.39682539682539,57.22222222222222,160.7142857142857,35.15873015873016,325.0,57.06349206349206,325.0,325.0,-121.19047619047619,33.41269841269841,-148.015873015873,-113.25396825396825,-321.8253968253968
-12.936507936507935,31.349206349206348,2.142857142857143,75.31746031746032,-7.857142857142857,153.4126984126984,15.95238095238095,-21.19047619047619,13.888888888888888,26.746031746031743,4.0476190476190474,14.84126984126984,1.984126984126984,158.4920634920635,-141.19047619047618,321.984126984127,42.77777777777778,325.0,325.0,-119.44444444444444,-14.047619047619047,149.12698412698413,113.57142857142857,-321.8253968253968
-12.936507936507935,31.349206349206348,2.142857142857143,75.31746031746032,-7.857142857142857,153.4126984126984,15.95238095238095,-21.19047619047619,13.888888888888888,26.746031746031743,4.0476190476190474,14.84126984126984,1.984126984126984,158.4920634920635,-141.19047619047618,321.984126984127,42.77777777777778,325.0,325.0,-119.44444444444444,-14.047619047619047,149.12698412698413,113.57142857142857,-321.8253968253968
27.38095238095238,54.68253968253968,40.87301587301587,156.58730158730157,19.76190476190476,205.0,39.76190476190476,228.015873015873,21.03174603174603,158.8095238095238,29.285714285714285,82.93650793650794,58.49206349206349,160.23809523809524,40.238095238095234,325.0,57.698412698412696,325.0,325.0,-117.22222222222221,28.96825396825397,-148.65079365079364,-113.88888888888889,-321.8253968253968
27.38095238095238,54.68253968253968,40.87301587301587,156.58730158730157,19.76190476190476,205.0,39.76190476190476,228.015873015873,21.03174603174603,158.8095238095238,29.285714285714285,82.93650793650794,58.49206349206349,160.23809523809524,40.238095238095234,325.0,57.698412698412696,325.0,325.0,-117.22222222222221,28.96825396825397,-148.65079365079364,-113.88888888888889,-321.8253968253968
-19.92063492063492,23.57142857142857,-4.523809523809524,64.04761904761905,-13.095238095238095,152.61904761904762,9.444444444444445,325.0,8.174603174603174,23.095238095238095,-1.507936507936508,7.5396825396825395,-3.253968253968254,145.63492063492063,-142.93650793650792,325.0,35.63492063492063,325.0,325.0,-43.73015873015873,-10.555555555555555,150.55555555555554,114.68253968253967,-166.26984126984127
-19.92063492063492,23.57142857142857,-4.523809523809524,64.04761904761905,-13.095238095238095,152.61904761904762,9.444444444444445,325.0,8.174603174603174,23.095238095238095,-1.507936507936508,7.5396825396825395,-3.253968253968254,145.63492063492063,-142.93650793650792,325.0,35.63492063492063,325.0,325.0,-43.73015873015873,-10.555555555555555,150.55555555555554,114.68253968253967,-166.26984126984127
30.555555555555554,57.38095238095238,43.41269841269841,157.69841269841268,22.142857142857142,210.3968253968254,41.34920634920635,325.0,23.730158730158728,167.69841269841268,31.507936507936506,85.95238095238095,59.76190476190476,159.28571428571428,46.42857142857142,325.0,58.8095238095238,325.0,325.0,-113.25396825396825,23.41269841269841,-150.3968253968254,-115.63492063492063,-166.26984126984127
30.555555555555554,57.38095238095238,43.41269841269841,157.69841269841268,22.142857142857142,210.3968253968254,41.34920634920635,325.0,23.730158730158728,167.69841269841268,31.507936507936506,85.95238095238095,59.76190476190476,159.28571428571428,46.42857142857142,325.0,58.8095238095238,325.0,325.0,-113.25396825396825,23.41269841269841,-150.3968253968254,-115.63492063492063,-166.26984126984127
-27.698412698412696,14.523809523809524,-11.349206349206348,53.095238095238095,-19.6031746031746,151.984126984127,1.984126984126984,325.0,0.873015873015873,30.555555555555554,-8.174603174603174,-0.23809523809523808,-9.285714285714285,131.984126984127,-144.84126984126982,325.0,28.174603174603174,325.0,325.0,104.2063492063492,-7.222222222222221,151.8253968253968,116.1111111111111,-166.26984126984127
-27.698412698412696,14.523809523809524,-11.349206349206348,53.095238095238095,-19.6031746031746,151.984126984127,1.984126984126984,325.0,0.873015873015873,30.555555555555554,-8.174603174603174,-0.23809523809523808,-9.285714285714285,131.984126984127,-144.84126984126982,325.0,28.174603174603174,325.0,325.0,104.2063492063492,-7.222222222222221,151.8253968253968,116.1111111111111,-166.26984126984127
33.888888888888886,59.44444444444444,45.476190476190474,159.44444444444443,24.84126984126984,215.95238095238093,43.57142857142857,325.0,25.79365079365079,183.57142857142856,33.57142857142857,88.96825396825396,61.03174603174603,159.12698412698413,49.285714285714285,325.0,60.238095238095234,325.0,325.0,-108.01587301587301,18.333333333333332,-152.61904761904762,-115.63492063492063,-166.26984126984127
33.888888888888886,59.44444444444444,45.476190476190474,159.44444444444443,24.84126984126984,215.95238095238093,43.57142857142857,325.0,25.79365079365079,183.57142857142856,33.57142857142857,88.96825396825396,61.03174603174603,159.12698412698413,49.285714285714285,325.0,60.238095238095234,325.0,325.0,-108.01587301587301,18.333333333333332,-152.61904761904762,-115.63492063492063,-166.26984126984127
-34.84126984126984,7.3809523809523805,-18.015873015873016,41.507936507936506,-25.634920634920633,150.3968253968254,-5.0,325.0,-5.476190476190476,40.87301587301587,-14.047619047619047,-7.698412698412698,-14.523809523809524,118.96825396825396,-147.69841269841268,325.0,20.873015873015873,325.0,324.36507936507934,233.57142857142856,-4.365079365079365,153.57142857142856,116.9047619047619,-166.26984126984127
-34.84126984126984,7.3809523809523805,-18.015873015873016,41.507936507936506,-25.634920634920633,150.3968253968254,-5.0,325.0,-5.476190476190476,40.87301587301587,-14.047619047619047,-7.698412698412698,-14.523809523809524,118.96825396825396,-147.69841269841268,325.0,20.873015873015873,325.0,324.36507936507934,233.57142857142856,-4.365079365079365,153.57142857142856,116.9047619047619,-166.26984126984127
-48.33333333333333,23.57142857142857,-33.73015873015873,152.61904761904762,-43.73015873015873,325.0,-26.428571428571427,325.0,-28.174603174603174,-20.238095238095237,-32.14285714285714,22.936507936507937,-51.03174603174603,263.73015873015873,-185.3174603174603,325.0,6.111111111111111,325.0,323.73015873015873,202.93650793650792,35.95238095238095,115.0,83.57142857142857,-321.8253968253968
-48.33333333333333,23.57142857142857,-33.73015873015873,152.61904761904762,-43.73015873015873,325.0,-26.428571428571427,325.0,-28.174603174603174,-20.238095238095237,-32.14285714285714,22.936507936507937,-51.03174603174603,263.73015873015873,-185.3174603174603,325.0,6.111111111111111,325.0,323.73015873015873,202.93650793650792,35.95238095238095,115.0,83.57142857142857,-321.8253968253968
-41.98412698412698,-1.1904761904761905,-25.0,31.03174603174603,-32.460317460317455,148.8095238095238,-12.3015873015873,325.0,-12.936507936507935,50.87301587301587,-21.03174603174603,-14.523809523809524,-20.555555555555554,106.42857142857142,-148.96825396825395,325.0,13.73015873015873,325.0,323.57142857142856,315.3174603174603,-1.349206349206349,154.04761904761904,118.33333333333333,-321.8253968253968
-41.98412698412698,-1.1904761904761905,-25.0,31.03174603174603,-32.460317460317455,148.8095238095238,-12.3015873015873,325.0,-12.936507936507935,50.87301587301587,-21.03174603174603,-14.523809523809524,-20.555555555555554,106.42857142857142,-148.96825396825395,325.0,13.73015873015873,325.0,323.57142857142856,315.3174603174603,-1.349206349206349,154.04761904761904,118.33333333333333,-321.8253968253968
24.047619047619047,83.09523809523809,38.49206349206349,171.03174603174602,22.142857142857142,295.1587301587301,45.0,325.0,32.61904761904762,135.63492063492063,30.555555555555554,97.38095238095238,42.460317460317455,229.60317460317458,-49.76190476190476,325.0,62.93650793650793,325.0,323.57142857142856,188.4920634920635,27.857142857142854,-5.7936507936507935,-3.571428571428571,-321.8253968253968
24.047619047619047,83.09523809523809,38.49206349206349,171.03174603174602,22.142857142857142,295.1587301587301,45.0,325.0,32.61904761904762,135.63492063492063,30.555555555555554,97.38095238095238,42.460317460317455,229.60317460317458,-49.76190476190476,325.0,62.93650793650793,325.0,323.57142857142856,188.4920634920635,27.857142857142854,-5.7936507936507935,-3.571428571428571,-321.8253968253968
-27.857142857142854,-21.825396825396822,-16.26984126984127,21.666666666666664,-26.26984126984127,73.4126984126984,-12.3015873015873,325.0,-17.38095238095238,129.76190476190476,-15.634920634920634,-16.746031746031743,-1.507936507936508,30.87301587301587,-43.888888888888886,325.0,9.761904761904761,325.0,325.0,325.0,-22.142857142857142,6.428571428571428,3.73015873015873,-321.8253968253968
-27.857142857142854,-21.825396825396822,-16.26984126984127,21.666666666666664,-26.26984126984127,73.4126984126984,-12.3015873015873,325.0,-17.38095238095238,129.76190476190476,-15.634920634920634,-16.746031746031743,-1.507936507936508,30.87301587301587,-43.888888888888886,325.0,9.761904761904761,325.0,325.0,325.0,-22.142857142857142,6.428571428571428,3.73015873015873,-321.8253968253968
32.460317460317455,63.888888888888886,50.71428571428571,61.03174603174603,38.01587301587301,113.88888888888889,63.41269841269841,325.0,53.095238095238095,193.4126984126984,47.53968253968254,62.61904761904761,80.87301587301587,85.63492063492063,-20.238095238095237,325.0,76.26984126984127,325.0,325.0,266.74603174603175,-20.71428571428571,21.984126984126984,21.666666666666664,-321.8253968253968
32.460317460317455,63.888888888888886,50.71428571428571,61.03174603174603,38.01587301587301,113.88888888888889,63.41269841269841,325.0,53.095238095238095,193.4126984126984,47.53968253968254,62.61904761904761,80.87301587301587,85.63492063492063,-20.238095238095237,325.0,76.26984126984127,325.0,325.0,266.74603174603175,-20.71428571428571,21.984126984126984,21.666666666666664,-321.8253968253968
-44.047619047619044,-11.825396825396824,-37.698412698412696,116.74603174603173,-49.92063492063492,252.93650793650792,-40.87301587301587,325.0,-46.58730158730158,97.53968253968253,-41.34920634920635,11.349206349206348,-49.44444444444444,153.73015873015873,-72.14285714285714,325.0,-15.317460317460316,325.0,298.17460317460313,325.0,26.9047619047619,-19.285714285714285,-18.65079365079365,-166.26984126984127
-44.047619047619044,-11.825396825396824,-37.698412698412696,116.74603174603173,-49.92063492063492,252.93650793650792,-40.87301587301587,325.0,-46.58730158730158,97.53968253968253,-41.34920634920635,11.349206349206348,-49.44444444444444,153.73015873015873,-72.14285714285714,325.0,-15.317460317460316,325.0,298.17460317460313,325.0,26.9047619047619,-19.285714285714285,-18.65079365079365,-166.26984126984127
31.03174603174603,62.77777777777777,48.96825396825397,57.06349206349206,36.904761904761905,112.14285714285714,61.82539682539682,325.0,51.666666666666664,208.015873015873,46.74603174603175,59.6031746031746,81.03174603174602,82.93650793650794,-22.142857142857142,325.0,75.31746031746032,325.0,325.0,314.36507936507934,-24.523809523809522,17.539682539682538,18.80952380952381,-166.26984126984127
31.03174603174603,62.77777777777777,48.96825396825397,57.06349206349206,36.904761904761905,112.14285714285714,61.82539682539682,325.0,51.666666666666664,208.015873015873,46.74603174603175,59.6031746031746,81.03174603174602,82.93650793650794,-22.142857142857142,325.0,75.31746031746032,325.0,325.0,314.36507936507934,-24.523809523809522,17.539682539682538,18.80952380952381,-166.26984126984127
-45.0,-14.365079365079364,-39.76190476190476,113.73015873015872,-51.82539682539682,253.57142857142856,-43.57142857142857,325.0,-49.285714285714285,106.9047619047619,-44.2063492063492,11.507936507936508,-53.095238095238095,145.63492063492063,-66.58730158730158,325.0,-19.444444444444443,325.0,281.3492063492063,325.0,28.174603174603174,-14.365079365079364,-16.428571428571427,-166.26984126984127
-45.0,-14.365079365079364,-39.76190476190476,113.73015873015872,-51.82539682539682,253.57142857142856,-43.57142857142857,325.0,-49.285714285714285,106.9047619047619,-44.2063492063492,11.507936507936508,-53.095238095238095,145.63492063492063,-66.58730158730158,325.0,-19.444444444444443,325.0,281.3492063492063,325.0,28.174603174603174,-14.365079365079364,-16.428571428571427,-166.26984126984127
28.809523809523807,61.19047619047619,47.22222222222222,53.57142857142857,35.317460317460316,108.80952380952381,59.92063492063492,325.0,50.079365079365076,207.38095238095238,45.476190476190474,56.269841269841265,80.71428571428571,79.92063492063491,-24.206349206349206,325.0,73.57142857142857,325.0,325.0,325.0,-28.174603174603174,14.365079365079364,15.158730158730158,-166.26984126984127
28.809523809523807,61.19047619047619,47.22222222222222,53.57142857142857,35.317460317460316,108.80952380952381,59.92063492063492,325.0,50.079365079365076,207.38095238095238,45.476190476190474,56.269841269841265,80.71428571428571,79.92063492063491,-24.206349206349206,325.0,73.57142857142857,325.0,325.0,325.0,-28.174603174603174,14.365079365079364,15.158730158730158,-166.26984126984127
-31.507936507936506,-25.476190476190474,-22.46031746031746,25.0,-31.507936507936506,67.53968253968253,-20.07936507936508,325.0,-23.57142857142857,127.38095238095238,-22.142857142857142,-11.666666666666666,-8.333333333333332,24.523809523809522,-41.19047619047619,325.0,0.3968253968253968,325.0,325.0,325.0,-27.063492063492063,5.317460317460317,3.095238095238095,-166.26984126984127
-31.507936507936506,-25.476190476190474,-22.46031746031746,25.0,-31.507936507936506,67.53968253968253,-20.07936507936508,325.0,-23.57142857142857,127.38095238095238,-22.142857142857142,-11.666666666666666,-8.333333333333332,24.523809523809522,-41.19047619047619,325.0,0.3968253968253968,325.0,325.0,325.0,-27.063492063492063,5.317460317460317,3.095238095238095,-166.26984126984127
26.746031746031743,59.76190476190476,45.15873015873016,50.079365079365076,34.36507936507936,106.26984126984127,57.857142857142854,325.0,48.96825396825397,204.2063492063492,44.2063492063492,53.25396825396825,80.07936507936508,77.53968253968253,-28.015873015873016,325.0,71.5079365079365,325.0,325.0,325.0,-31.825396825396822,9.285714285714285,11.507936507936508,-321.8253968253968
26.746031746031743,59.76190476190476,45.15873015873016,50.079365079365076,34.36507936507936,106.26984126984127,57.857142857142854,325.0,48.96825396825397,204.2063492063492,44.2063492063492,53.25396825396825,80.07936507936508,77.53968253968253,-28.015873015873016,325.0,71.5079365079365,325.0,325.0,325.0,-31.825396825396822,9.285714285714285,11.507936507936508,-321.8253968253968
-92.30158730158729,-27.063492063492063,-79.44444444444444,73.57142857142857,-86.9047619047619,325.0,-76.26984126984127,325.0,-75.79365079365078,70.71428571428571,-79.6031746031746,-19.285714285714285,-100.39682539682539,154.84126984126982,-166.26984126984127,325.0,-49.92063492063492,325.0,168.65079365079364,325.0,73.88888888888889,144.68253968253967,107.53968253968253,-321.8253968253968
-92.30158730158729,-27.063492063492063,-79.44444444444444,73.57142857142857,-86.9047619047619,325.0,-76.26984126984127,325.0,-75.79365079365078,70.71428571428571,-79.6031746031746,-19.285714285714285,-100.39682539682539,154.84126984126982,-166.26984126984127,325.0,-49.92063492063492,325.0,168.65079365079364,325.0,73.88888888888889,144.68253968253967,107.53968253968253,-321.8253968253968
-81.82539682539682,-37.53968253968254,-63.25396825396825,-10.238095238095237,-68.65079365079364,134.84126984126982,-54.36507936507936,325.0,-52.61904761904761,74.36507936507937,-58.650793650793645,-44.68253968253968,-54.047619047619044,45.95238095238095,-148.4920634920635,325.0,-29.6031746031746,325.0,246.74603174603172,325.0,17.539682539682538,153.73015873015873,118.49206349206348,-321.8253968253968
-81.82539682539682,-37.53968253968254,-63.25396825396825,-10.238095238095237,-68.65079365079364,134.84126984126982,-54.36507936507936,325.0,-52.61904761904761,74.36507936507937,-58.650793650793645,-44.68253968253968,-54.047619047619044,45.95238095238095,-148.4920634920635,325.0,-29.6031746031746,325.0,246.74603174603172,325.0,17.539682539682538,153.73015873015873,118.49206349206348,-321.8253968253968
-43.095238095238095,-17.539682539682538,-42.460317460317455,108.80952380952381,-53.57142857142857,259.1269841269841,-48.17460317460317,325.0,-52.3015873015873,117.6984126984127,-48.80952380952381,16.904761904761905,-61.98412698412698,125.79365079365078,-53.888888888888886,325.0,-28.174603174603174,325.0,233.09523809523807,325.0,27.857142857142854,-2.142857142857143,-6.904761904761904,-321.8253968253968
-43.095238095238095,-17.539682539682538,-42.460317460317455,108.80952380952381,-53.57142857142857,259.1269841269841,-48.17460317460317,325.0,-52.3015873015873,117.6984126984127,-48.80952380952381,16.904761904761905,-61.98412698412698,125.79365079365078,-53.888888888888886,325.0,-28.174603174603174,325.0,233.09523809523807,325.0,27.857142857142854,-2.142857142857143,-6.904761904761904,-321.8253968253968
124.68253968253967,166.42857142857142,137.69841269841268,181.66666666666666,119.12698412698413,264.5238095238095,146.42857142857142,325.0,125.31746031746032,325.0,126.26984126984127,166.9047619047619,169.28571428571428,211.98412698412696,62.77777777777777,325.0,151.8253968253968,325.0,268.17460317460313,325.0,-39.92063492063492,-156.74603174603175,-115.63492063492063,-321.8253968253968
124.68253968253967,166.42857142857142,137.69841269841268,181.66666666666666,119.12698412698413,264.5238095238095,146.42857142857142,325.0,125.31746031746032,325.0,126.26984126984127,166.9047619047619,169.28571428571428,211.98412698412696,62.77777777777777,325.0,151.8253968253968,325.0,268.17460317460313,325.0,-39.92063492063492,-156.74603174603175,-115.63492063492063,-321.8253968253968
-41.507936507936506,-17.539682539682538,-41.666666666666664,106.9047619047619,-52.3015873015873,253.25396825396825,-48.17460317460317,325.0,-51.03174603174603,118.49206349206348,-48.33333333333333,18.015873015873016,-63.095238095238095,120.07936507936508,-48.49206349206349,325.0,-29.920634920634917,300.07936507936506,220.87301587301587,325.0,26.587301587301585,1.349206349206349,-3.095238095238095,-166.26984126984127
-41.507936507936506,-17.539682539682538,-41.666666666666664,106.9047619047619,-52.3015873015873,253.25396825396825,-48.17460317460317,325.0,-51.03174603174603,118.49206349206348,-48.33333333333333,18.015873015873016,-63.095238095238095,120.07936507936508,-48.49206349206349,325.0,-29.920634920634917,300.07936507936506,220.87301587301587,325.0,26.587301587301585,1.349206349206349,-3.095238095238095,-166.26984126984127
21.666666666666664,55.0,40.714285714285715,38.33333333333333,30.555555555555554,100.55555555555554,52.3015873015873,325.0,43.25396825396825,198.8095238095238,39.92063492063492,42.77777777777778,76.58730158730158,69.44444444444444,-37.22222222222222,325.0,65.79365079365078,312.9365079365079,285.6349206349206,325.0,-40.39682539682539,-4.523809523809524,1.507936507936508,-166.26984126984127
21.666666666666664,55.0,40.714285714285715,38.33333333333333,30.555555555555554,100.55555555555554,52.3015873015873,325.0,43.25396825396825,198.8095238095238,39.92063492063492,42.77777777777778,76.58730158730158,69.44444444444444,-37.22222222222222,325.0,65.79365079365078,312.9365079365079,285.6349206349206,325.0,-40.39682539682539,-4.523809523809524,1.507936507936508,-166.26984126984127
-39.92063492063492,-17.063492063492063,-41.03174603174603,106.42857142857142,-51.34920634920635,247.06349206349205,-47.38095238095238,325.0,-50.71428571428571,122.77777777777777,-48.33333333333333,20.396825396825395,-64.52380952380952,115.63492063492063,-43.25396825396825,325.0,-30.87301587301587,288.8095238095238,204.36507936507937,325.0,25.0,5.952380952380952,0.07936507936507936,-166.26984126984127
-39.92063492063492,-17.063492063492063,-41.03174603174603,106.42857142857142,-51.34920634920635,247.06349206349205,-47.38095238095238,325.0,-50.71428571428571,122.77777777777777,-48.33333333333333,20.396825396825395,-64.52380952380952,115.63492063492063,-43.25396825396825,325.0,-30.87301587301587,288.8095238095238,204.36507936507937,325.0,25.0,5.952380952380952,0.07936507936507936,-166.26984126984127
-29.76190476190476,-23.88888888888889,-24.365079365079364,32.77777777777778,-32.61904761904762,71.5079365079365,-24.523809523809522,325.0,-27.22222222222222,110.23809523809523,-26.587301587301585,-3.4126984126984126,-16.746031746031743,24.365079365079364,-35.79365079365079,325.0,-9.603174603174603,325.0,325.0,325.0,-33.095238095238095,1.0317460317460316,0.5555555555555556,-166.26984126984127
-29.76190476190476,-23.88888888888889,-24.365079365079364,32.77777777777778,-32.61904761904762,71.5079365079365,-24.523809523809522,325.0,-27.22222222222222,110.23809523809523,-26.587301587301585,-3.4126984126984126,-16.746031746031743,24.365079365079364,-35.79365079365079,325.0,-9.603174603174603,325.0,325.0,325.0,-33.095238095238095,1.0317460317460316,0.5555555555555556,-166.26984126984127
-36.74603174603175,-15.158730158730158,-38.96825396825397,105.63492063492063,-48.96825396825397,240.87301587301587,-45.317460317460316,325.0,-48.01587301587301,123.57142857142857,-46.58730158730158,22.619047619047617,-64.36507936507937,112.46031746031746,-38.17460317460317,325.0,-30.555555555555554,275.7936507936508,192.61904761904762,325.0,23.253968253968253,10.079365079365079,3.095238095238095,-166.26984126984127
-36.74603174603175,-15.158730158730158,-38.96825396825397,105.63492063492063,-48.96825396825397,240.87301587301587,-45.317460317460316,325.0,-48.01587301587301,123.57142857142857,-46.58730158730158,22.619047619047617,-64.36507936507937,112.46031746031746,-38.17460317460317,325.0,-30.555555555555554,275.7936507936508,192.61904761904762,325.0,23.253968253968253,10.079365079365079,3.095238095238095,-166.26984126984127
129.12698412698413,166.74603174603175,141.5079365079365,158.65079365079364,125.95238095238095,255.95238095238093,151.03174603174602,325.0,131.19047619047618,325.0,133.4126984126984,149.76190476190476,176.26984126984127,202.3015873015873,44.84126984126984,325.0,158.65079365079364,240.87301587301587,191.5079365079365,325.0,-63.73015873015873,-169.44444444444443,-123.88888888888889,-321.8253968253968
129.12698412698413,166.74603174603175,141.5079365079365,158.65079365079364,125.95238095238095,255.95238095238093,151.03174603174602,325.0,131.19047619047618,325.0,133.4126984126984,149.76190476190476,176.26984126984127,202.3015873015873,44.84126984126984,325.0,158.65079365079364,240.87301587301587,191.5079365079365,325.0,-63.73015873015873,-169.44444444444443,-123.88888888888889,-321.8253968253968
87.06349206349206,98.01587301587301,85.31746031746032,166.74603174603175,71.5079365079365,238.96825396825395,84.2063492063492,325.0,70.39682539682539,232.46031746031744,75.15873015873015,118.33333333333333,88.80952380952381,168.8095238095238,54.841269841269835,325.0,90.87301587301587,282.9365079365079,258.17460317460313,325.0,-57.857142857142854,-154.04761904761904,-117.38095238095238,-321.8253968253968
87.06349206349206,98.01587301587301,85.31746031746032,166.74603174603175,71.5079365079365,238.96825396825395,84.2063492063492,325.0,70.39682539682539,232.46031746031744,75.15873015873015,118.33333333333333,88.80952380952381,168.8095238095238,54.841269841269835,325.0,90.87301587301587,282.9365079365079,258.17460317460313,325.0,-57.857142857142854,-154.04761904761904,-117.38095238095238,-321.8253968253968
-108.49206349206348,-65.79365079365078,-91.34920634920634,-35.79365079365079,-96.42857142857142,80.39682539682539,-86.1111111111111,325.0,-83.73015873015872,93.09523809523809,-89.12698412698413,-61.19047619047619,-85.15873015873015,-4.0476190476190474,-125.63492063492063,325.0,-66.9047619047619,240.3968253968254,150.7142857142857,325.0,41.666666666666664,155.3174603174603,119.28571428571428,-321.8253968253968
-108.49206349206348,-65.79365079365078,-91.34920634920634,-35.79365079365079,-96.42857142857142,80.39682539682539,-86.1111111111111,325.0,-83.73015873015872,93.09523809523809,-89.12698412698413,-61.19047619047619,-85.15873015873015,-4.0476190476190474,-125.63492063492063,325.0,-66.9047619047619,240.3968253968254,150.7142857142857,325.0,41.666666666666664,155.3174603174603,119.28571428571428,-321.8253968253968
90.55555555555556,100.07936507936508,88.4920634920635,159.28571428571428,75.31746031746032,236.42857142857142,88.01587301587301,325.0,75.0,229.60317460317458,79.92063492063491,113.25396825396825,92.46031746031746,166.74603174603175,49.285714285714285,325.0,95.47619047619047,258.6507936507936,233.4126984126984,325.0,-68.01587301587301,-155.15873015873015,-118.96825396825396,-321.8253968253968
90.55555555555556,100.07936507936508,88.4920634920635,159.28571428571428,75.31746031746032,236.42857142857142,88.01587301587301,325.0,75.0,229.60317460317458,79.92063492063491,113.25396825396825,92.46031746031746,166.74603174603175,49.285714285714285,325.0,95.47619047619047,258.6507936507936,233.4126984126984,325.0,-68.01587301587301,-155.15873015873015,-118.96825396825396,-321.8253968253968
-112.46031746031746,-70.23809523809524,-94.84126984126983,-38.01587301587301,-100.23809523809523,70.39682539682539,-90.39682539682539,325.0,-88.17460317460316,98.65079365079364,-93.73015873015872,-62.3015873015873,-89.6031746031746,-10.238095238095237,-120.87301587301586,325.0,-72.3015873015873,217.38095238095238,124.36507936507935,325.0,46.269841269841265,155.15873015873015,119.44444444444444,-321.8253968253968
-112.46031746031746,-70.23809523809524,-94.84126984126983,-38.01587301587301,-100.23809523809523,70.39682539682539,-90.39682539682539,325.0,-88.17460317460316,98.65079365079364,-93.73015873015872,-62.3015873015873,-89.6031746031746,-10.238095238095237,-120.87301587301586,325.0,-72.3015873015873,217.38095238095238,124.36507936507935,325.0,46.269841269841265,155.15873015873015,119.44444444444444,-321.8253968253968
93.57142857142857,102.93650793650794,91.19047619047619,156.9047619047619,79.12698412698413,236.1111111111111,91.34920634920634,325.0,78.17460317460316,226.26984126984127,83.4126984126984,111.82539682539682,95.47619047619047,166.74603174603175,46.42857142857142,325.0,98.65079365079364,245.79365079365078,218.33333333333331,325.0,-74.52380952380952,-155.0,-119.28571428571428,-166.26984126984127
93.57142857142857,102.93650793650794,91.19047619047619,156.9047619047619,79.12698412698413,236.1111111111111,91.34920634920634,325.0,78.17460317460316,226.26984126984127,83.4126984126984,111.82539682539682,95.47619047619047,166.74603174603175,46.42857142857142,325.0,98.65079365079364,245.79365079365078,218.33333333333331,325.0,-74.52380952380952,-155.0,-119.28571428571428,-166.26984126984127
1.6666666666666665,44.36507936507936,12.142857142857142,75.79365079365078,2.142857142857143,217.53968253968253,15.95238095238095,325.0,8.333333333333332,229.44444444444443,7.698412698412698,42.61904761904761,17.539682539682538,119.28571428571428,-39.76190476190476,325.0,29.285714285714285,150.3968253968254,32.93650793650794,325.0,10.555555555555555,-0.3968253968253968,0.07936507936507936,-166.26984126984127
1.6666666666666665,44.36507936507936,12.142857142857142,75.79365079365078,2.142857142857143,217.53968253968253,15.95238095238095,325.0,8.333333333333332,229.44444444444443,7.698412698412698,42.61904761904761,17.539682539682538,119.28571428571428,-39.76190476190476,325.0,29.285714285714285,150.3968253968254,32.93650793650794,325.0,10.555555555555555,-0.3968253968253968,0.07936507936507936,-166.26984126984127
0.7142857142857142,42.61904761904761,11.19047619047619,71.34920634920634,1.6666666666666665,214.04761904761904,15.317460317460316,325.0,8.174603174603174,229.44444444444443,7.5396825396825395,38.17460317460317,17.063492063492063,115.79365079365078,-42.93650793650794,325.0,29.285714285714285,143.73015873015873,21.666666666666664,325.0,7.5396825396825395,-1.507936507936508,-1.349206349206349,-166.26984126984127
0.7142857142857142,42.61904761904761,11.19047619047619,71.34920634920634,1.6666666666666665,214.04761904761904,15.317460317460316,325.0,8.174603174603174,229.44444444444443,7.5396825396825395,38.17460317460317,17.063492063492063,115.79365079365078,-42.93650793650794,325.0,29.285714285714285,143.73015873015873,21.666666666666664,325.0,7.5396825396825395,-1.507936507936508,-1.349206349206349,-166.26984126984127
-119.28571428571428,-77.06349206349206,-102.14285714285714,-40.714285714285715,-107.53968253968253,51.82539682539682,-99.12698412698413,325.0,-96.74603174603175,109.28571428571428,-102.46031746031746,-63.095238095238095,-98.01587301587301,-21.19047619047619,-110.87301587301587,325.0,-83.09523809523809,180.55555555555554,72.46031746031746,325.0,57.22222222222222,154.04761904761904,118.65079365079364,-166.26984126984127
-119.28571428571428,-77.06349206349206,-102.14285714285714,-40.714285714285715,-107.53968253968253,51.82539682539682,-99.12698412698413,325.0,-96.74603174603175,109.28571428571428,-102.46031746031746,-63.095238095238095,-98.01587301587301,-21.19047619047619,-110.87301587301587,325.0,-83.09523809523809,180.55555555555554,72.46031746031746,325.0,57.22222222222222,154.04761904761904,118.65079365079364,-166.26984126984127
71.5079365079365,58.96825396825397,54.2063492063492,188.4920634920635,43.57142857142857,240.3968253968254,45.317460317460316,325.0,38.33333333333333,111.19047619047619,43.888888888888886,108.17460317460316,26.26984126984127,156.9047619047619,65.31746031746032,325.0,50.238095238095234,325.0,325.0,325.0,-77.6984126984127,-119.92063492063491,-98.17460317460316,-166.26984126984127
71.5079365079365,58.96825396825397,54.2063492063492,188.4920634920635,43.57142857142857,240.3968253968254,45.317460317460316,325.0,38.33333333333333,111.19047619047619,43.888888888888886,108.17460317460316,26.26984126984127,156.9047619047619,65.31746031746032,325.0,50.238095238095234,325.0,325.0,325.0,-77.6984126984127,-119.92063492063491,-98.17460317460316,-166.26984126984127
-121.34920634920634,-79.76190476190476,-105.15873015873015,-41.03174603174603,-110.55555555555554,43.095238095238095,-102.77777777777777,325.0,-100.55555555555554,113.73015873015872,-105.63492063492063,-62.93650793650793,-101.66666666666666,-26.11111111111111,-105.63492063492063,325.0,-87.85714285714285,165.95238095238093,54.2063492063492,325.0,62.3015873015873,152.77777777777777,118.17460317460316,-321.8253968253968
-121.34920634920634,-79.76190476190476,-105.15873015873015,-41.03174603174603,-110.55555555555554,43.095238095238095,-102.77777777777777,325.0,-100.55555555555554,113.73015873015872,-105.63492063492063,-62.93650793650793,-101.66666666666666,-26.11111111111111,-105.63492063492063,325.0,-87.85714285714285,165.95238095238093,54.2063492063492,325.0,62.3015873015873,152.77777777777777,118.17460317460316,-321.8253968253968
78.33333333333333,66.74603174603175,60.39682539682539,190.87301587301587,50.71428571428571,245.0,52.77777777777777,325.0,45.95238095238095,103.4126984126984,50.87301587301587,112.6190476190476,33.095238095238095,162.61904761904762,63.57142857142857,325.0,57.06349206349206,325.0,325.0,325.0,-84.68253968253968,-116.1111111111111,-93.73015873015872,-321.8253968253968
78.33333333333333,66.74603174603175,60.39682539682539,190.87301587301587,50.71428571428571,245.0,52.77777777777777,325.0,45.95238095238095,103.4126984126984,50.87301587301587,112.6190476190476,33.095238095238095,162.61904761904762,63.57142857142857,325.0,57.06349206349206,325.0,325.0,325.0,-84.68253968253968,-116.1111111111111,-93.73015873015872,-321.8253968253968
-119.92063492063491,-85.63492063492063,-93.88888888888889,-97.06349206349206,-98.65079365079364,-76.74603174603175,-87.22222222222221,325.0,-86.1111111111111,87.6984126984127,-90.71428571428571,-89.12698412698413,-60.079365079365076,-90.55555555555556,-117.38095238095238,325.0,-72.14285714285714,241.34920634920633,184.04761904761904,325.0,24.523809523809522,111.82539682539682,92.77777777777777,-321.8253968253968
-119.92063492063491,-85.63492063492063,-93.88888888888889,-97.06349206349206,-98.65079365079364,-76.74603174603175,-87.22222222222221,325.0,-86.1111111111111,87.6984126984127,-90.71428571428571,-89.12698412698413,-60.079365079365076,-90.55555555555556,-117.38095238095238,325.0,-72.14285714285714,241.34920634920633,184.04761904761904,325.0,24.523809523809522,111.82539682539682,92.77777777777777,-321.8253968253968
-119.92063492063491,-85.63492063492063,-93.88888888888889,-97.06349206349206,-98.65079365079364,-76.74603174603175,-87.22222222222221,325.0,-86.1111111111111,87.6984126984127,-90.71428571428571,-89.12698412698413,-60.079365079365076,-90.55555555555556,-117.38095238095238,325.0,-72.14285714285714,241.34920634920633,184.04761904761904,325.0,24.523809523809522,111.82539682539682,92.77777777777777,-321.8253968253968
-119.92063492063491,-85.63492063492063,-93.88888888888889,-97.06349206349206,-98.65079365079364,-76.74603174603175,-87.22222222222221,325.0,-86.1111111111111,87.6984126984127,-90.71428571428571,-89.12698412698413,-60.079365079365076,-90.55555555555556,-117.38095238095238,325.0,-72.14285714285714,241.34920634920633,184.04761904761904,325.0,24.523809523809522,111.82539682539682,92.77777777777777,-321.8253968253968
-124.68253968253967,-83.73015873015872,-109.12698412698413,-40.238095238095234,-114.68253968253967,28.015873015873016,-108.17460317460316,325.0,-105.79365079365078,125.0,-111.5079365079365,-60.079365079365076,-107.06349206349206,-33.73015873015873,-94.2063492063492,325.0,-95.63492063492063,149.12698412698413,19.444444444444443,325.0,70.71428571428571,149.6031746031746,116.42857142857142,-321.8253968253968
-124.68253968253967,-83.73015873015872,-109.12698412698413,-40.238095238095234,-114.68253968253967,28.015873015873016,-108.17460317460316,325.0,-105.79365079365078,125.0,-111.5079365079365,-60.079365079365076,-107.06349206349206,-33.73015873015873,-94.2063492063492,325.0,-95.63492063492063,149.12698412698413,19.444444444444443,325.0,70.71428571428571,149.6031746031746,116.42857142857142,-321.8253968253968
88.4920634920635,77.85714285714285,70.55555555555556,193.09523809523807,61.666666666666664,250.55555555555554,64.36507936507937,325.0,58.17460317460317,90.39682539682539,62.14285714285714,118.96825396825396,43.73015873015873,170.55555555555554,57.06349206349206,325.0,68.96825396825396,325.0,325.0,325.0,-95.47619047619047,-105.63492063492063,-86.26984126984127,-166.26984126984127
88.4920634920635,77.85714285714285,70.55555555555556,193.09523809523807,61.666666666666664,250.55555555555554,64.36507936507937,325.0,58.17460317460317,90.39682539682539,62.14285714285714,118.96825396825396,43.73015873015873,170.55555555555554,57.06349206349206,325.0,68.96825396825396,325.0,325.0,325.0,-95.47619047619047,-105.63492063492063,-86.26984126984127,-166.26984126984127
-125.63492063492063,-85.15873015873015,-110.55555555555554,-38.65079365079365,-116.26984126984127,20.555555555555554,-110.07936507936508,325.0,-108.01587301587301,130.07936507936506,-113.57142857142857,-57.698412698412696,-109.28571428571428,-36.74603174603175,-88.65079365079364,325.0,-98.80952380952381,141.984126984127,3.4126984126984126,325.0,74.36507936507937,148.4920634920635,115.31746031746032,-166.26984126984127
-125.63492063492063,-85.15873015873015,-110.55555555555554,-38.65079365079365,-116.26984126984127,20.555555555555554,-110.07936507936508,325.0,-108.01587301587301,130.07936507936506,-113.57142857142857,-57.698412698412696,-109.28571428571428,-36.74603174603175,-88.65079365079364,325.0,-98.80952380952381,141.984126984127,3.4126984126984126,325.0,74.36507936507937,148.4920634920635,115.31746031746032,-166.26984126984127
92.77777777777777,81.98412698412697,74.52380952380952,193.09523809523807,66.11111111111111,250.55555555555554,68.80952380952381,325.0,62.77777777777777,81.34920634920634,66.58730158730158,121.5079365079365,48.01587301587301,173.73015873015873,53.25396825396825,325.0,73.57142857142857,325.0,320.23809523809524,325.0,-100.55555555555554,-102.30158730158729,-81.82539682539682,-166.26984126984127
92.77777777777777,81.98412698412697,74.52380952380952,193.09523809523807,66.11111111111111,250.55555555555554,68.80952380952381,325.0,62.77777777777777,81.34920634920634,66.58730158730158,121.5079365079365,48.01587301587301,173.73015873015873,53.25396825396825,325.0,73.57142857142857,325.0,320.23809523809524,325.0,-100.55555555555554,-102.30158730158729,-81.82539682539682,-166.26984126984127
-128.8095238095238,-93.09523809523809,-103.25396825396825,-90.23809523809523,-109.28571428571428,-77.6984126984127,-99.44444444444444,325.0,-99.28571428571428,102.30158730158729,-102.46031746031746,-87.38095238095238,-72.14285714285714,-92.46031746031746,-102.46031746031746,325.0,-86.42857142857143,211.03174603174602,138.17460317460316,325.0,47.53968253968254,95.63492063492063,79.44444444444444,-166.26984126984127
-128.8095238095238,-93.09523809523809,-103.25396825396825,-90.23809523809523,-109.28571428571428,-77.6984126984127,-99.44444444444444,325.0,-99.28571428571428,102.30158730158729,-102.46031746031746,-87.38095238095238,-72.14285714285714,-92.46031746031746,-102.46031746031746,325.0,-86.42857142857143,211.03174603174602,138.17460317460316,325.0,47.53968253968254,95.63492063492063,79.44444444444444,-166.26984126984127
96.9047619047619,87.53968253968253,78.4920634920635,192.3015873015873,70.87301587301587,252.93650793650792,74.2063492063492,325.0,68.4920634920635,74.2063492063492,71.5079365079365,122.93650793650794,52.61904761904761,177.2222222222222,48.17460317460317,325.0,78.65079365079364,325.0,308.968253968254,325.0,-106.1111111111111,-96.58730158730158,-78.33333333333333,-166.26984126984127
96.9047619047619,87.53968253968253,78.4920634920635,192.3015873015873,70.87301587301587,252.93650793650792,74.2063492063492,325.0,68.4920634920635,74.2063492063492,71.5079365079365,122.93650793650794,52.61904761904761,177.2222222222222,48.17460317460317,325.0,78.65079365079364,325.0,308.968253968254,325.0,-106.1111111111111,-96.58730158730158,-78.33333333333333,-166.26984126984127
-130.87301587301587,-93.88888888888889,-105.15873015873015,-86.9047619047619,-111.34920634920634,-77.6984126984127,-102.14285714285714,325.0,-102.14285714285714,109.12698412698413,-105.31746031746032,-86.26984126984127,-74.84126984126983,-92.61904761904762,-95.79365079365078,325.0,-90.39682539682539,198.33333333333331,121.03174603174602,325.0,54.36507936507936,90.07936507936508,74.84126984126983,-321.8253968253968
-130.87301587301587,-93.88888888888889,-105.15873015873015,-86.9047619047619,-111.34920634920634,-77.6984126984127,-102.14285714285714,325.0,-102.14285714285714,109.12698412698413,-105.31746031746032,-86.26984126984127,-74.84126984126983,-92.61904761904762,-95.79365079365078,325.0,-90.39682539682539,198.33333333333331,121.03174603174602,325.0,54.36507936507936,90.07936507936508,74.84126984126983,-321.8253968253968
95.63492063492063,98.65079365079364,93.73015873015872,125.95238095238095,87.06349206349206,207.85714285714283,96.58730158730158,325.0,88.01587301587301,195.95238095238093,94.36507936507935,88.33333333333333,103.57142857142857,147.53968253968253,12.3015873015873,325.0,109.6031746031746,225.47619047619045,158.65079365079364,325.0,-112.77777777777777,-146.11111111111111,-113.4126984126984,-321.8253968253968
95.63492063492063,98.65079365079364,93.73015873015872,125.95238095238095,87.06349206349206,207.85714285714283,96.58730158730158,325.0,88.01587301587301,195.95238095238093,94.36507936507935,88.33333333333333,103.57142857142857,147.53968253968253,12.3015873015873,325.0,109.6031746031746,225.47619047619045,158.65079365079364,325.0,-112.77777777777777,-146.11111111111111,-113.4126984126984,-321.8253968253968
91.19047619047619,107.22222222222221,106.1111111111111,61.34920634920635,99.92063492063491,163.57142857142856,115.63492063492063,325.0,103.73015873015872,325.0,113.57142857142857,53.41269841269841,151.03174603174602,116.26984126984127,-17.22222222222222,325.0,137.06349206349205,126.1111111111111,24.047619047619047,325.0,-115.95238095238095,-200.87301587301587,-152.77777777777777,-321.8253968253968
91.19047619047619,107.22222222222221,106.1111111111111,61.34920634920635,99.92063492063491,163.57142857142856,115.63492063492063,325.0,103.73015873015872,325.0,113.57142857142857,53.41269841269841,151.03174603174602,116.26984126984127,-17.22222222222222,325.0,137.06349206349205,126.1111111111111,24.047619047619047,325.0,-115.95238095238095,-200.87301587301587,-152.77777777777777,-321.8253968253968
92.77777777777777,95.63492063492063,91.66666666666666,120.71428571428571,85.47619047619047,201.98412698412696,95.15873015873015,325.0,86.9047619047619,191.5079365079365,93.25396825396825,84.04761904761904,102.14285714285714,143.73015873015873,6.746031746031746,325.0,108.80952380952381,215.95238095238093,153.09523809523807,325.0,-115.79365079365078,-144.52380952380952,-112.77777777777777,-321.8253968253968
92.77777777777777,95.63492063492063,91.66666666666666,120.71428571428571,85.47619047619047,201.98412698412696,95.15873015873015,325.0,86.9047619047619,191.5079365079365,93.25396825396825,84.04761904761904,102.14285714285714,143.73015873015873,6.746031746031746,325.0,108.80952380952381,215.95238095238093,153.09523809523807,325.0,-115.79365079365078,-144.52380952380952,-112.77777777777777,-321.8253968253968
-122.77777777777777,-85.63492063492063,-111.03174603174602,-27.539682539682538,-117.6984126984127,0.7142857142857142,-112.6190476190476,325.0,-111.82539682539682,147.2222222222222,-117.53968253968253,-44.84126984126984,-112.46031746031746,-42.14285714285714,-61.19047619047619,325.0,-106.74603174603175,69.92063492063491,-59.44444444444444,325.0,85.47619047619047,141.984126984127,111.34920634920634,-321.8253968253968
-122.77777777777777,-85.63492063492063,-111.03174603174602,-27.539682539682538,-117.6984126984127,0.7142857142857142,-112.6190476190476,325.0,-111.82539682539682,147.2222222222222,-117.53968253968253,-44.84126984126984,-112.46031746031746,-42.14285714285714,-61.19047619047619,325.0,-106.74603174603175,69.92063492063491,-59.44444444444444,325.0,85.47619047619047,141.984126984127,111.34920634920634,-321.8253968253968
105.79365079365078,96.74603174603175,87.38095238095238,185.3174603174603,81.34920634920634,254.04761904761904,85.47619047619047,325.0,80.87301587301587,48.33333333333333,82.77777777777777,123.4126984126984,63.57142857142857,182.61904761904762,27.539682539682538,325.0,90.23809523809523,325.0,265.6349206349206,325.0,-118.17460317460316,-81.66666666666666,-66.58730158730158,-166.26984126984127
105.79365079365078,96.74603174603175,87.38095238095238,185.3174603174603,81.34920634920634,254.04761904761904,85.47619047619047,325.0,80.87301587301587,48.33333333333333,82.77777777777777,123.4126984126984,63.57142857142857,182.61904761904762,27.539682539682538,325.0,90.23809523809523,325.0,265.6349206349206,325.0,-118.17460317460316,-81.66666666666666,-66.58730158730158,-166.26984126984127
-0.3968253968253968,13.412698412698411,-10.714285714285714,105.95238095238095,-16.746031746031743,162.46031746031744,-14.047619047619047,325.0,-14.682539682539682,111.19047619047619,-18.96825396825397,60.71428571428571,-38.65079365079365,95.31746031746032,-4.523809523809524,325.0,-11.984126984126984,141.19047619047618,23.88888888888889,325.0,-9.285714285714285,63.888888888888886,45.317460317460316,-166.26984126984127
-0.3968253968253968,13.412698412698411,-10.714285714285714,105.95238095238095,-16.746031746031743,162.46031746031744,-14.047619047619047,325.0,-14.682539682539682,111.19047619047619,-18.96825396825397,60.71428571428571,-38.65079365079365,95.31746031746032,-4.523809523809524,325.0,-11.984126984126984,141.19047619047618,23.88888888888889,325.0,-9.285714285714285,63.888888888888886,45.317460317460316,-166.26984126984127
88.17460317460316,90.39682539682539,87.22222222222221,109.92063492063491,81.66666666666666,192.77777777777777,90.55555555555556,325.0,82.93650793650794,182.14285714285714,89.92063492063491,75.95238095238095,98.01587301587301,136.42857142857142,-5.158730158730158,325.0,105.47619047619047,186.74603174603175,161.8253968253968,325.0,-120.39682539682539,-141.19047619047618,-110.71428571428571,-166.26984126984127
88.17460317460316,90.39682539682539,87.22222222222221,109.92063492063491,81.66666666666666,192.77777777777777,90.55555555555556,325.0,82.93650793650794,182.14285714285714,89.92063492063491,75.95238095238095,98.01587301587301,136.42857142857142,-5.158730158730158,325.0,105.47619047619047,186.74603174603175,161.8253968253968,325.0,-120.39682539682539,-141.19047619047618,-110.71428571428571,-166.26984126984127
68.96825396825396,81.98412698412697,84.84126984126983,38.49206349206349,78.96825396825396,133.25396825396825,92.30158730158729,325.0,81.82539682539682,325.0,94.2063492063492,29.285714285714285,129.6031746031746,90.23809523809523,-29.285714285714285,325.0,116.9047619047619,48.49206349206349,68.33333333333333,325.0,-118.8095238095238,-206.26984126984127,-158.4920634920635,-166.26984126984127
68.96825396825396,81.98412698412697,84.84126984126983,38.49206349206349,78.96825396825396,133.25396825396825,92.30158730158729,325.0,81.82539682539682,325.0,94.2063492063492,29.285714285714285,129.6031746031746,90.23809523809523,-29.285714285714285,325.0,116.9047619047619,48.49206349206349,68.33333333333333,325.0,-118.8095238095238,-206.26984126984127,-158.4920634920635,-166.26984126984127
85.31746031746032,87.85714285714285,83.88888888888889,103.88888888888889,79.44444444444444,188.17460317460316,88.17460317460316,325.0,81.19047619047619,178.17460317460316,87.53968253968253,71.03174603174602,95.63492063492063,131.66666666666666,-11.19047619047619,325.0,102.93650793650794,172.14285714285714,165.47619047619045,325.0,-122.14285714285714,-139.44444444444443,-109.6031746031746,-166.26984126984127
85.31746031746032,87.85714285714285,83.88888888888889,103.88888888888889,79.44444444444444,188.17460317460316,88.17460317460316,325.0,81.19047619047619,178.17460317460316,87.53968253968253,71.03174603174602,95.63492063492063,131.66666666666666,-11.19047619047619,325.0,102.93650793650794,172.14285714285714,165.47619047619045,325.0,-122.14285714285714,-139.44444444444443,-109.6031746031746,-166.26984126984127
