Fp1[1],Fp2[2],F3[3],F4[4],C3[5],C4[6],P3[7],P4[8],O1[9],O2[10],F7[11],F8[12],T3[13],T4[14],T5[15],T6[16],Fz[17],Pz[18],Cz[19],Pg1[20],Pg2[21],EOGR[22],EOOGL[23],EMG[24]
33.888888888888886,-117.22222222222221,219.44444444444443,-325.0,34.2063492063492,-325.0,203.7301587301587,-325.0,27.22222222222222,-325.0,21.507936507936506,-266.90476190476187,208.4920634920635,-325.0,-164.52380952380952,-325.0,2.619047619047619,-325.0,-325.0,-325.0,-89.6031746031746,-161.8253968253968,-127.06349206349206,-166.26984126984127
33.888888888888886,-117.22222222222221,219.44444444444443,-325.0,34.2063492063492,-325.0,203.7301587301587,-325.0,27.22222222222222,-325.0,21.507936507936506,-266.90476190476187,208.4920634920635,-325.0,-164.52380952380952,-325.0,2.619047619047619,-325.0,-325.0,-325.0,-89.6031746031746,-161.8253968253968,-127.06349206349206,-166.26984126984127
-77.06349206349206,-81.66666666666666,100.71428571428571,-289.76190476190476,-72.3015873015873,-325.0,73.4126984126984,-325.0,-77.53968253968253,-325.0,-82.14285714285714,-96.26984126984127,72.46031746031746,-325.0,-304.5238095238095,-325.0,-96.42857142857142,-325.0,-325.0,-325.0,-3.73015873015873,167.38095238095238,132.61904761904762,-166.26984126984127
-77.06349206349206,-81.66666666666666,100.71428571428571,-289.76190476190476,-72.3015873015873,-325.0,73.4126984126984,-325.0,-77.53968253968253,-325.0,-82.14285714285714,-96.26984126984127,72.46031746031746,-325.0,-304.5238095238095,-325.0,-96.42857142857142,-325.0,-325.0,-325.0,-3.73015873015873,167.38095238095238,132.61904761904762,-166.26984126984127
42.61904761904761,-29.444444444444443,221.19047619047618,-325.0,43.095238095238095,-325.0,207.53968253968253,-325.0,39.44444444444444,-325.0,30.555555555555554,-102.46031746031746,210.7142857142857,-325.0,-146.42857142857142,-325.0,15.634920634920634,-325.0,-325.0,-325.0,-70.55555555555556,-165.0,-130.23809523809524,-166.26984126984127
42.61904761904761,-29.444444444444443,221.19047619047618,-325.0,43.095238095238095,-325.0,207.53968253968253,-325.0,39.44444444444444,-325.0,30.555555555555554,-102.46031746031746,210.7142857142857,-325.0,-146.42857142857142,-325.0,15.634920634920634,-325.0,-325.0,-325.0,-70.55555555555556,-165.0,-130.23809523809524,-166.26984126984127
-78.80952380952381,-75.79365079365078,92.93650793650794,-238.17460317460316,-72.77777777777777,-325.0,68.01587301587301,-325.0,-78.17460317460316,-325.0,-82.61904761904762,-89.44444444444444,67.85714285714285,-325.0,-303.73015873015873,-325.0,-101.66666666666666,-325.0,-325.0,-325.0,4.682539682539682,168.96825396825395,134.68253968253967,-166.26984126984127
-78.80952380952381,-75.79365079365078,92.93650793650794,-238.17460317460316,-72.77777777777777,-325.0,68.01587301587301,-325.0,-78.17460317460316,-325.0,-82.61904761904762,-89.44444444444444,67.85714285714285,-325.0,-303.73015873015873,-325.0,-101.66666666666666,-325.0,-325.0,-325.0,4.682539682539682,168.96825396825395,134.68253968253967,-166.26984126984127
51.19047619047619,20.238095238095237,223.57142857142856,-286.4285714285714,50.55555555555555,-325.0,210.87301587301587,-325.0,47.698412698412696,-325.0,38.49206349206349,-7.063492063492063,212.61904761904762,-325.0,-129.28571428571428,-325.0,25.634920634920633,-325.0,-325.0,-325.0,-59.6031746031746,-167.69841269841268,-132.77777777777777,-166.26984126984127
51.19047619047619,20.238095238095237,223.57142857142856,-286.4285714285714,50.55555555555555,-325.0,210.87301587301587,-325.0,47.698412698412696,-325.0,38.49206349206349,-7.063492063492063,212.61904761904762,-325.0,-129.28571428571428,-325.0,25.634920634920633,-325.0,-325.0,-325.0,-59.6031746031746,-167.69841269841268,-132.77777777777777,-166.26984126984127
-81.66666666666666,-77.22222222222221,86.26984126984127,-210.87301587301587,-72.93650793650794,-325.0,64.36507936507937,-325.0,-76.58730158730158,-325.0,-82.3015873015873,-90.23809523809523,64.2063492063492,-325.0,-302.9365079365079,-325.0,-102.61904761904762,-325.0,-325.0,-325.0,12.777777777777777,171.34920634920633,135.3174603174603,-321.8253968253968
-81.66666666666666,-77.22222222222221,86.26984126984127,-210.87301587301587,-72.93650793650794,-325.0,64.36507936507937,-325.0,-76.58730158730158,-325.0,-82.3015873015873,-90.23809523809523,64.2063492063492,-325.0,-302.9365079365079,-325.0,-102.61904761904762,-325.0,-325.0,-325.0,12.777777777777777,171.34920634920633,135.3174603174603,-321.8253968253968
-40.39682539682539,8.65079365079365,126.74603174603173,-175.15873015873015,-39.44444444444444,-325.0,105.79365079365078,-325.0,-49.12698412698413,-325.0,-46.904761904761905,0.3968253968253968,116.9047619047619,-325.0,-196.26984126984127,-325.0,-61.34920634920635,-325.0,-325.0,-325.0,-66.11111111111111,-184.52380952380952,-155.0,-321.8253968253968
-40.39682539682539,8.65079365079365,126.74603174603173,-175.15873015873015,-39.44444444444444,-325.0,105.79365079365078,-325.0,-49.12698412698413,-325.0,-46.904761904761905,0.3968253968253968,116.9047619047619,-325.0,-196.26984126984127,-325.0,-61.34920634920635,-325.0,-325.0,-325.0,-66.11111111111111,-184.52380952380952,-155.0,-321.8253968253968
-85.79365079365078,-80.87301587301587,78.96825396825396,-198.17460317460316,-74.2063492063492,-325.0,60.39682539682539,-325.0,-75.31746031746032,-325.0,-82.46031746031746,-93.73015873015872,60.079365079365076,-288.015873015873,-302.1428571428571,-325.0,-103.4126984126984,-325.0,-325.0,-325.0,19.6031746031746,172.14285714285714,137.53968253968253,-321.8253968253968
-85.79365079365078,-80.87301587301587,78.96825396825396,-198.17460317460316,-74.2063492063492,-325.0,60.39682539682539,-325.0,-75.31746031746032,-325.0,-82.46031746031746,-93.73015873015872,60.079365079365076,-288.015873015873,-302.1428571428571,-325.0,-103.4126984126984,-325.0,-325.0,-325.0,19.6031746031746,172.14285714285714,137.53968253968253,-321.8253968253968
-34.84126984126984,24.523809523809522,119.92063492063491,-111.98412698412697,-38.33333333333333,-325.0,98.96825396825396,-325.0,-51.03174603174603,-325.0,-53.41269841269841,35.15873015873016,107.38095238095238,-325.0,-173.73015873015873,-325.0,-61.98412698412698,-325.0,-325.0,-325.0,-64.84126984126983,-178.33333333333331,-148.65079365079364,-321.8253968253968
-34.84126984126984,24.523809523809522,119.92063492063491,-111.98412698412697,-38.33333333333333,-325.0,98.96825396825396,-325.0,-51.03174603174603,-325.0,-53.41269841269841,35.15873015873016,107.38095238095238,-325.0,-173.73015873015873,-325.0,-61.98412698412698,-325.0,-325.0,-325.0,-64.84126984126983,-178.33333333333331,-148.65079365079364,-321.8253968253968
-89.92063492063491,-80.87301587301587,72.93650793650794,-195.47619047619045,-76.74603174603175,-325.0,55.0,-325.0,-75.47619047619047,-325.0,-82.46031746031746,-72.93650793650794,55.0,-225.47619047619045,-300.55555555555554,-325.0,-105.47619047619047,-325.0,-325.0,-325.0,28.49206349206349,173.88888888888889,138.33333333333331,-321.8253968253968
-89.92063492063491,-80.87301587301587,72.93650793650794,-195.47619047619045,-76.74603174603175,-325.0,55.0,-325.0,-75.47619047619047,-325.0,-82.46031746031746,-72.93650793650794,55.0,-225.47619047619045,-300.55555555555554,-325.0,-105.47619047619047,-325.0,-325.0,-325.0,28.49206349206349,173.88888888888889,138.33333333333331,-321.8253968253968
79.76190476190476,111.82539682539682,221.34920634920633,-185.47619047619045,74.84126984126983,-325.0,210.55555555555554,-325.0,71.82539682539682,-325.0,62.93650793650793,135.3174603174603,213.7301587301587,-297.22222222222223,-90.55555555555556,-325.0,53.57142857142857,-325.0,-325.0,-325.0,-53.888888888888886,-171.5079365079365,-138.8095238095238,-166.26984126984127
79.76190476190476,111.82539682539682,221.34920634920633,-185.47619047619045,74.84126984126983,-325.0,210.55555555555554,-325.0,71.82539682539682,-325.0,62.93650793650793,135.3174603174603,213.7301587301587,-297.22222222222223,-90.55555555555556,-325.0,53.57142857142857,-325.0,-325.0,-325.0,-53.888888888888886,-171.5079365079365,-138.8095238095238,-166.26984126984127
-92.46031746031746,-74.04761904761904,66.11111111111111,-194.68253968253967,-77.6984126984127,-325.0,50.238095238095234,-325.0,-76.42857142857143,-325.0,-86.58730158730158,-68.80952380952381,49.44444444444444,-178.33333333333331,-296.1111111111111,-325.0,-106.26984126984127,-325.0,-325.0,-325.0,36.58730158730159,174.04761904761904,138.8095238095238,-166.26984126984127
-92.46031746031746,-74.04761904761904,66.11111111111111,-194.68253968253967,-77.6984126984127,-325.0,50.238095238095234,-325.0,-76.42857142857143,-325.0,-86.58730158730158,-68.80952380952381,49.44444444444444,-178.33333333333331,-296.1111111111111,-325.0,-106.26984126984127,-325.0,-325.0,-325.0,36.58730158730159,174.04761904761904,138.8095238095238,-166.26984126984127
89.28571428571428,129.12698412698413,223.4126984126984,-139.9206349206349,83.25396825396825,-325.0,209.76190476190476,-325.0,79.12698412698413,-325.0,71.5079365079365,159.12698412698413,211.66666666666666,-264.8412698412698,-81.5079365079365,-325.0,62.460317460317455,-325.0,-325.0,-325.0,-57.857142857142854,-171.5079365079365,-138.4920634920635,-166.26984126984127
89.28571428571428,129.12698412698413,223.4126984126984,-139.9206349206349,83.25396825396825,-325.0,209.76190476190476,-325.0,79.12698412698413,-325.0,71.5079365079365,159.12698412698413,211.66666666666666,-264.8412698412698,-81.5079365079365,-325.0,62.460317460317455,-325.0,-325.0,-325.0,-57.857142857142854,-171.5079365079365,-138.4920634920635,-166.26984126984127
-94.84126984126983,-70.39682539682539,60.079365079365076,-193.4126984126984,-79.28571428571428,-325.0,44.84126984126984,-325.0,-77.85714285714285,-325.0,-88.33333333333333,-60.079365079365076,42.61904761904761,-143.4126984126984,-282.9365079365079,-325.0,-107.06349206349206,-325.0,-325.0,-325.0,45.15873015873016,174.2063492063492,139.12698412698413,-166.26984126984127
-94.84126984126983,-70.39682539682539,60.079365079365076,-193.4126984126984,-79.28571428571428,-325.0,44.84126984126984,-325.0,-77.85714285714285,-325.0,-88.33333333333333,-60.079365079365076,42.61904761904761,-143.4126984126984,-282.9365079365079,-325.0,-107.06349206349206,-325.0,-325.0,-325.0,45.15873015873016,174.2063492063492,139.12698412698413,-166.26984126984127
99.28571428571428,143.88888888888889,226.58730158730157,-14.206349206349206,92.46031746031746,-325.0,210.87301587301587,-325.0,87.6984126984127,-325.0,81.66666666666666,181.19047619047618,211.66666666666666,-235.95238095238093,-76.9047619047619,-325.0,72.3015873015873,-325.0,-325.0,-325.0,-62.460317460317455,-170.7142857142857,-138.015873015873,-166.26984126984127
99.28571428571428,143.88888888888889,226.58730158730157,-14.206349206349206,92.46031746031746,-325.0,210.87301587301587,-325.0,87.6984126984127,-325.0,81.66666666666666,181.19047619047618,211.66666666666666,-235.95238095238093,-76.9047619047619,-325.0,72.3015873015873,-325.0,-325.0,-325.0,-62.460317460317455,-170.7142857142857,-138.015873015873,-166.26984126984127
-97.38095238095238,-71.03174603174602,54.52380952380952,-188.4920634920635,-80.71428571428571,-325.0,39.6031746031746,-325.0,-79.44444444444444,-325.0,-90.87301587301587,-51.34920634920635,35.476190476190474,-124.36507936507935,-269.1269841269841,-325.0,-108.01587301587301,-325.0,-325.0,-325.0,54.52380952380952,172.77777777777777,138.4920634920635,-321.8253968253968
-97.38095238095238,-71.03174603174602,54.52380952380952,-188.4920634920635,-80.71428571428571,-325.0,39.6031746031746,-325.0,-79.44444444444444,-325.0,-90.87301587301587,-51.34920634920635,35.476190476190474,-124.36507936507935,-269.1269841269841,-325.0,-108.01587301587301,-325.0,-325.0,-325.0,54.52380952380952,172.77777777777777,138.4920634920635,-321.8253968253968
110.39682539682539,153.25396825396825,230.2380952380952,92.30158730158729,101.34920634920634,-325.0,213.25396825396825,-325.0,95.95238095238095,-325.0,90.39682539682539,200.3968253968254,212.3015873015873,-212.46031746031744,-72.93650793650794,-325.0,81.82539682539682,-325.0,-325.0,-325.0,-68.65079365079364,-169.44444444444443,-138.17460317460316,-321.8253968253968
110.39682539682539,153.25396825396825,230.2380952380952,92.30158730158729,101.34920634920634,-325.0,213.25396825396825,-325.0,95.95238095238095,-325.0,90.39682539682539,200.3968253968254,212.3015873015873,-212.46031746031744,-72.93650793650794,-325.0,81.82539682539682,-325.0,-325.0,-325.0,-68.65079365079364,-169.44444444444443,-138.17460317460316,-321.8253968253968
-98.96825396825396,-74.2063492063492,49.76190476190476,-140.23809523809524,-81.82539682539682,-320.07936507936506,35.317460317460316,-325.0,-80.39682539682539,-323.88888888888886,-92.14285714285714,-43.25396825396825,29.126984126984127,-115.63492063492063,-254.84126984126982,-325.0,-107.6984126984127,-325.0,-325.0,-325.0,61.34920634920635,170.55555555555554,135.79365079365078,-321.8253968253968
-98.96825396825396,-74.2063492063492,49.76190476190476,-140.23809523809524,-81.82539682539682,-320.07936507936506,35.317460317460316,-325.0,-80.39682539682539,-323.88888888888886,-92.14285714285714,-43.25396825396825,29.126984126984127,-115.63492063492063,-254.84126984126982,-325.0,-107.6984126984127,-325.0,-325.0,-325.0,61.34920634920635,170.55555555555554,135.79365079365078,-321.8253968253968
45.0,119.76190476190476,147.06349206349205,176.11111111111111,14.365079365079364,-325.0,109.92063492063491,-325.0,-12.777777777777777,-320.23809523809524,2.9365079365079363,194.52380952380952,104.52380952380952,-60.71428571428571,-80.07936507936508,-325.0,-18.015873015873016,-325.0,-325.0,-325.0,-103.25396825396825,-127.06349206349206,-111.82539682539682,-321.8253968253968
45.0,119.76190476190476,147.06349206349205,176.11111111111111,14.365079365079364,-325.0,109.92063492063491,-325.0,-12.777777777777777,-320.23809523809524,2.9365079365079363,194.52380952380952,104.52380952380952,-60.71428571428571,-80.07936507936508,-325.0,-18.015873015873016,-325.0,-325.0,-325.0,-103.25396825396825,-127.06349206349206,-111.82539682539682,-321.8253968253968
-100.07936507936508,-77.6984126984127,44.84126984126984,-108.17460317460316,-83.09523809523809,-242.93650793650792,31.03174603174603,-325.0,-81.66666666666666,-313.4126984126984,-93.57142857142857,-36.269841269841265,23.41269841269841,-111.19047619047619,-240.07936507936506,-325.0,-107.6984126984127,-325.0,-325.0,-325.0,71.34920634920634,169.12698412698413,135.79365079365078,-321.8253968253968
-100.07936507936508,-77.6984126984127,44.84126984126984,-108.17460317460316,-83.09523809523809,-242.93650793650792,31.03174603174603,-325.0,-81.66666666666666,-313.4126984126984,-93.57142857142857,-36.269841269841265,23.41269841269841,-111.19047619047619,-240.07936507936506,-325.0,-107.6984126984127,-325.0,-325.0,-325.0,71.34920634920634,169.12698412698413,135.79365079365078,-321.8253968253968
127.6984126984127,161.34920634920633,244.2063492063492,191.5079365079365,119.44444444444444,-269.9206349206349,223.57142857142856,-325.0,113.57142857142857,-308.015873015873,109.44444444444444,224.2063492063492,219.12698412698413,-161.5079365079365,-69.44444444444444,-325.0,101.34920634920634,-325.0,-325.0,-325.0,-78.65079365079364,-165.95238095238093,-136.26984126984127,-166.26984126984127
127.6984126984127,161.34920634920633,244.2063492063492,191.5079365079365,119.44444444444444,-269.9206349206349,223.57142857142856,-325.0,113.57142857142857,-308.015873015873,109.44444444444444,224.2063492063492,219.12698412698413,-161.5079365079365,-69.44444444444444,-325.0,101.34920634920634,-325.0,-325.0,-325.0,-78.65079365079364,-165.95238095238093,-136.26984126984127,-166.26984126984127
-100.07936507936508,-79.76190476190476,41.34920634920635,-81.34920634920634,-83.4126984126984,-199.28571428571428,27.539682539682538,-325.0,-82.3015873015873,-302.6190476190476,-94.2063492063492,-31.666666666666664,18.80952380952381,-109.76190476190476,-224.52380952380952,-325.0,-106.58730158730158,-325.0,-325.0,-325.0,81.03174603174602,166.9047619047619,134.2063492063492,-166.26984126984127
-100.07936507936508,-79.76190476190476,41.34920634920635,-81.34920634920634,-83.4126984126984,-199.28571428571428,27.539682539682538,-325.0,-82.3015873015873,-302.6190476190476,-94.2063492063492,-31.666666666666664,18.80952380952381,-109.76190476190476,-224.52380952380952,-325.0,-106.58730158730158,-325.0,-325.0,-325.0,81.03174603174602,166.9047619047619,134.2063492063492,-166.26984126984127
44.2063492063492,104.36507936507935,187.85714285714283,63.25396825396825,60.873015873015866,-187.85714285714283,174.84126984126982,-325.0,59.6031746031746,-298.4920634920635,51.666666666666664,131.34920634920636,162.3015873015873,-47.22222222222222,-147.38095238095238,-325.0,50.39682539682539,-325.0,-325.0,-325.0,60.079365079365076,-5.634920634920634,-4.523809523809524,-166.26984126984127
44.2063492063492,104.36507936507935,187.85714285714283,63.25396825396825,60.873015873015866,-187.85714285714283,174.84126984126982,-325.0,59.6031746031746,-298.4920634920635,51.666666666666664,131.34920634920636,162.3015873015873,-47.22222222222222,-147.38095238095238,-325.0,50.39682539682539,-325.0,-325.0,-325.0,60.079365079365076,-5.634920634920634,-4.523809523809524,-166.26984126984127
-99.28571428571428,-80.23809523809523,37.857142857142854,-61.03174603174603,-83.25396825396825,-172.46031746031744,24.68253968253968,-325.0,-81.82539682539682,-292.46031746031747,-94.36507936507935,-29.444444444444443,14.206349206349206,-109.92063492063491,-208.96825396825395,-325.0,-105.79365079365078,-325.0,-325.0,-325.0,91.03174603174602,163.57142857142856,132.3015873015873,-166.26984126984127
-99.28571428571428,-80.23809523809523,37.857142857142854,-61.03174603174603,-83.25396825396825,-172.46031746031744,24.68253968253968,-325.0,-81.82539682539682,-292.46031746031747,-94.36507936507935,-29.444444444444443,14.206349206349206,-109.92063492063491,-208.96825396825395,-325.0,-105.79365079365078,-325.0,-325.0,-325.0,91.03174603174602,163.57142857142856,132.3015873015873,-166.26984126984127
98.65079365079364,162.93650793650792,193.4126984126984,305.0,73.09523809523809,-57.22222222222222,155.79365079365078,-325.0,45.79365079365079,-288.968253968254,61.98412698412698,268.3333333333333,139.28571428571428,77.38095238095238,-53.73015873015873,-325.0,44.68253968253968,-325.0,-325.0,-325.0,-123.09523809523809,-95.63492063492063,-86.9047619047619,-166.26984126984127
98.65079365079364,162.93650793650792,193.4126984126984,305.0,73.09523809523809,-57.22222222222222,155.79365079365078,-325.0,45.79365079365079,-288.968253968254,61.98412698412698,268.3333333333333,139.28571428571428,77.38095238095238,-53.73015873015873,-325.0,44.68253968253968,-325.0,-325.0,-325.0,-123.09523809523809,-95.63492063492063,-86.9047619047619,-166.26984126984127
-97.85714285714285,-78.33333333333333,34.84126984126984,-45.0,-82.77777777777777,-162.3015873015873,21.825396825396822,-324.68253968253964,-80.71428571428571,-282.77777777777777,-94.68253968253968,-26.587301587301585,10.873015873015872,-73.57142857142857,-192.77777777777777,-321.5079365079365,-104.84126984126983,-323.4126984126984,-320.87301587301585,-325.0,101.82539682539682,161.03174603174602,130.3968253968254,-321.8253968253968
-97.85714285714285,-78.33333333333333,34.84126984126984,-45.0,-82.77777777777777,-162.3015873015873,21.825396825396822,-324.68253968253964,-80.71428571428571,-282.77777777777777,-94.68253968253968,-26.587301587301585,10.873015873015872,-73.57142857142857,-192.77777777777777,-321.5079365079365,-104.84126984126983,-323.4126984126984,-320.87301587301585,-325.0,101.82539682539682,161.03174603174602,130.3968253968254,-321.8253968253968
135.95238095238093,141.984126984127,252.3015873015873,238.49206349206347,134.84126984126982,-127.38095238095238,244.04761904761904,-320.55555555555554,133.0952380952381,-277.85714285714283,126.9047619047619,211.98412698412696,236.42857142857142,110.07936507936508,-75.15873015873015,-316.1111111111111,123.57142857142857,-318.17460317460313,-315.3174603174603,-325.0,-90.39682539682539,-157.69841269841268,-131.03174603174602,-321.8253968253968
135.95238095238093,141.984126984127,252.3015873015873,238.49206349206347,134.84126984126982,-127.38095238095238,244.04761904761904,-320.55555555555554,133.0952380952381,-277.85714285714283,126.9047619047619,211.98412698412696,236.42857142857142,110.07936507936508,-75.15873015873015,-316.1111111111111,123.57142857142857,-318.17460317460313,-315.3174603174603,-325.0,-90.39682539682539,-157.69841269841268,-131.03174603174602,-321.8253968253968
-112.93650793650794,-141.8253968253968,16.11111111111111,-7.857142857142857,-96.9047619047619,-325.0,11.349206349206348,-316.90476190476187,-78.17460317460316,-274.5238095238095,-108.01587301587301,-64.36507936507937,18.333333333333332,-198.4920634920635,-191.66666666666666,-312.46031746031747,-120.39682539682539,-314.68253968253964,-311.5079365079365,-325.0,56.11111111111111,82.46031746031746,71.34920634920634,-321.8253968253968
-112.93650793650794,-141.8253968253968,16.11111111111111,-7.857142857142857,-96.9047619047619,-325.0,11.349206349206348,-316.90476190476187,-78.17460317460316,-274.5238095238095,-108.01587301587301,-64.36507936507937,18.333333333333332,-198.4920634920635,-191.66666666666666,-312.46031746031747,-120.39682539682539,-314.68253968253964,-311.5079365079365,-325.0,56.11111111111111,82.46031746031746,71.34920634920634,-321.8253968253968
14.682539682539682,-21.03174603174603,148.4920634920635,66.74603174603175,35.63492063492063,-283.0952380952381,155.15873015873015,-312.9365079365079,55.79365079365079,-270.87301587301585,28.65079365079365,29.6031746031746,162.14285714285714,-19.76190476190476,-148.17460317460316,-308.3333333333333,25.634920634920633,-310.7142857142857,-307.53968253968253,-325.0,1.1904761904761905,-75.79365079365078,-57.698412698412696,-321.8253968253968
14.682539682539682,-21.03174603174603,148.4920634920635,66.74603174603175,35.63492063492063,-283.0952380952381,155.15873015873015,-312.9365079365079,55.79365079365079,-270.87301587301585,28.65079365079365,29.6031746031746,162.14285714285714,-19.76190476190476,-148.17460317460316,-308.3333333333333,25.634920634920633,-310.7142857142857,-307.53968253968253,-325.0,1.1904761904761905,-75.79365079365078,-57.698412698412696,-321.8253968253968
-89.92063492063491,-69.92063492063491,32.61904761904762,-22.142857142857142,-79.12698412698413,-162.61904761904762,21.19047619047619,-305.3174603174603,-75.63492063492063,-264.04761904761904,-91.66666666666666,-18.65079365079365,7.222222222222221,-29.76190476190476,-156.9047619047619,-301.031746031746,-99.44444444444444,-303.25396825396825,-299.9206349206349,-325.0,116.74603174603173,152.61904761904762,123.88888888888889,-321.8253968253968
-89.92063492063491,-69.92063492063491,32.61904761904762,-22.142857142857142,-79.12698412698413,-162.61904761904762,21.19047619047619,-305.3174603174603,-75.63492063492063,-264.04761904761904,-91.66666666666666,-18.65079365079365,7.222222222222221,-29.76190476190476,-156.9047619047619,-301.031746031746,-99.44444444444444,-303.25396825396825,-299.9206349206349,-325.0,116.74603174603173,152.61904761904762,123.88888888888889,-321.8253968253968
130.07936507936506,136.26984126984127,242.46031746031744,227.38095238095238,132.46031746031744,-39.285714285714285,237.2222222222222,-300.7142857142857,132.77777777777777,-259.6031746031746,127.53968253968253,190.55555555555554,230.3968253968254,192.46031746031744,-87.38095238095238,-296.1111111111111,125.0,-298.3333333333333,-295.1587301587301,-322.9365079365079,-92.30158730158729,-150.23809523809524,-124.04761904761904,-166.26984126984127
130.07936507936506,136.26984126984127,242.46031746031744,227.38095238095238,132.46031746031744,-39.285714285714285,237.2222222222222,-300.7142857142857,132.77777777777777,-259.6031746031746,127.53968253968253,190.55555555555554,230.3968253968254,192.46031746031744,-87.38095238095238,-296.1111111111111,125.0,-298.3333333333333,-295.1587301587301,-322.9365079365079,-92.30158730158729,-150.23809523809524,-124.04761904761904,-166.26984126984127
-81.5079365079365,-63.095238095238095,35.79365079365079,-14.047619047619047,-72.46031746031746,-160.3968253968254,24.365079365079364,-295.7936507936508,-68.33333333333333,-255.0,-86.26984126984127,-12.936507936507935,10.079365079365079,-16.26984126984127,-138.96825396825395,-291.19047619047615,-93.4126984126984,-293.73015873015873,-290.23809523809524,-317.53968253968253,119.28571428571428,147.69841269841268,121.03174603174602,-166.26984126984127
-81.5079365079365,-63.095238095238095,35.79365079365079,-14.047619047619047,-72.46031746031746,-160.3968253968254,24.365079365079364,-295.7936507936508,-68.33333333333333,-255.0,-86.26984126984127,-12.936507936507935,10.079365079365079,-16.26984126984127,-138.96825396825395,-291.19047619047615,-93.4126984126984,-293.73015873015873,-290.23809523809524,-317.53968253968253,119.28571428571428,147.69841269841268,121.03174603174602,-166.26984126984127
125.31746031746032,126.26984126984127,235.3174603174603,221.34920634920633,130.07936507936506,-39.285714285714285,231.34920634920633,-291.031746031746,130.55555555555554,-250.87301587301585,125.15873015873015,176.42857142857142,224.52380952380952,221.34920634920633,-95.63492063492063,-286.58730158730157,123.73015873015872,-288.8095238095238,-285.4761904761905,-312.1428571428571,-95.15873015873015,-145.47619047619048,-120.23809523809523,-166.26984126984127
125.31746031746032,126.26984126984127,235.3174603174603,221.34920634920633,130.07936507936506,-39.285714285714285,231.34920634920633,-291.031746031746,130.55555555555554,-250.87301587301585,125.15873015873015,176.42857142857142,224.52380952380952,221.34920634920633,-95.63492063492063,-286.58730158730157,123.73015873015872,-288.8095238095238,-285.4761904761905,-312.1428571428571,-95.15873015873015,-145.47619047619048,-120.23809523809523,-166.26984126984127
-71.82539682539682,-55.317460317460316,39.285714285714285,-7.5396825396825395,-65.47619047619047,-181.19047619047618,28.333333333333332,-286.4285714285714,-61.19047619047619,-246.42857142857142,-79.76190476190476,-8.492063492063492,14.206349206349206,-5.952380952380952,-121.98412698412697,-281.66666666666663,-86.26984126984127,-284.36507936507934,-280.87301587301585,-306.74603174603175,121.98412698412697,142.3015873015873,116.74603174603173,-166.26984126984127
-71.82539682539682,-55.317460317460316,39.285714285714285,-7.5396825396825395,-65.47619047619047,-181.19047619047618,28.333333333333332,-286.4285714285714,-61.19047619047619,-246.42857142857142,-79.76190476190476,-8.492063492063492,14.206349206349206,-5.952380952380952,-121.98412698412697,-281.66666666666663,-86.26984126984127,-284.36507936507934,-280.87301587301585,-306.74603174603175,121.98412698412697,142.3015873015873,116.74603174603173,-166.26984126984127
120.55555555555554,118.65079365079364,228.33333333333331,217.85714285714283,126.42857142857142,-24.206349206349206,225.79365079365078,-281.8253968253968,127.6984126984127,-232.77777777777777,121.82539682539682,163.4126984126984,218.4920634920635,242.3015873015873,-103.88888888888889,-277.06349206349205,121.03174603174602,-279.76190476190476,-276.1111111111111,-301.5079365079365,-94.52380952380952,-140.07936507936506,-117.06349206349206,-166.26984126984127
120.55555555555554,118.65079365079364,228.33333333333331,217.85714285714283,126.42857142857142,-24.206349206349206,225.79365079365078,-281.8253968253968,127.6984126984127,-232.77777777777777,121.82539682539682,163.4126984126984,218.4920634920635,242.3015873015873,-103.88888888888889,-277.06349206349205,121.03174603174602,-279.76190476190476,-276.1111111111111,-301.5079365079365,-94.52380952380952,-140.07936507936506,-117.06349206349206,-166.26984126984127
32.14285714285714,8.968253968253968,145.15873015873015,12.777777777777777,45.0,-127.38095238095238,147.2222222222222,-278.17460317460313,53.41269841269841,-229.12698412698413,35.95238095238095,21.349206349206348,135.95238095238093,144.52380952380952,-114.36507936507935,-273.4126984126984,36.74603174603175,-276.26984126984127,-272.46031746031747,-297.38095238095235,30.238095238095237,3.888888888888889,1.8253968253968254,-321.8253968253968
32.14285714285714,8.968253968253968,145.15873015873015,12.777777777777777,45.0,-127.38095238095238,147.2222222222222,-278.17460317460313,53.41269841269841,-229.12698412698413,35.95238095238095,21.349206349206348,135.95238095238093,144.52380952380952,-114.36507936507935,-273.4126984126984,36.74603174603175,-276.26984126984127,-272.46031746031747,-297.38095238095235,30.238095238095237,3.888888888888889,1.8253968253968254,-321.8253968253968
114.68253968253967,110.39682539682539,220.7142857142857,214.84126984126982,122.46031746031746,16.587301587301585,219.28571428571428,-273.0952380952381,124.68253968253967,-128.8095238095238,118.33333333333333,150.3968253968254,211.8253968253968,257.6984126984127,-111.66666666666666,-268.17460317460313,117.38095238095238,-270.7142857142857,-267.06349206349205,-291.66666666666663,-92.77777777777777,-134.68253968253967,-113.25396825396825,-321.8253968253968
114.68253968253967,110.39682539682539,220.7142857142857,214.84126984126982,122.46031746031746,16.587301587301585,219.28571428571428,-273.0952380952381,124.68253968253967,-128.8095238095238,118.33333333333333,150.3968253968254,211.8253968253968,257.6984126984127,-111.66666666666666,-268.17460317460313,117.38095238095238,-270.7142857142857,-267.06349206349205,-291.66666666666663,-92.77777777777777,-134.68253968253967,-113.25396825396825,-321.8253968253968
-80.23809523809523,-51.19047619047619,30.07936507936508,94.36507936507935,-71.66666666666666,-300.7142857142857,20.238095238095237,-269.6031746031746,-63.25396825396825,-136.42857142857142,-85.79365079365078,25.952380952380953,24.523809523809522,-41.34920634920635,-83.73015873015872,-264.8412698412698,-94.52380952380952,-267.53968253968253,-263.88888888888886,-287.85714285714283,136.42857142857142,12.777777777777777,17.539682539682538,-321.8253968253968
-80.23809523809523,-51.19047619047619,30.07936507936508,94.36507936507935,-71.66666666666666,-300.7142857142857,20.238095238095237,-269.6031746031746,-63.25396825396825,-136.42857142857142,-85.79365079365078,25.952380952380953,24.523809523809522,-41.34920634920635,-83.73015873015872,-264.8412698412698,-94.52380952380952,-267.53968253968253,-263.88888888888886,-287.85714285714283,136.42857142857142,12.777777777777777,17.539682539682538,-321.8253968253968
107.53968253968253,100.23809523809523,212.3015873015873,212.61904761904762,117.38095238095238,92.30158730158729,211.98412698412696,-264.36507936507934,120.39682539682539,-81.34920634920634,113.4126984126984,136.42857142857142,204.36507936507937,261.5079365079365,-118.33333333333333,-259.2857142857143,113.57142857142857,-262.3015873015873,-258.17460317460313,-281.8253968253968,-89.12698412698413,-128.96825396825395,-107.53968253968253,-321.8253968253968
107.53968253968253,100.23809523809523,212.3015873015873,212.61904761904762,117.38095238095238,92.30158730158729,211.98412698412696,-264.36507936507934,120.39682539682539,-81.34920634920634,113.4126984126984,136.42857142857142,204.36507936507937,261.5079365079365,-118.33333333333333,-259.2857142857143,113.57142857142857,-262.3015873015873,-258.17460317460313,-281.8253968253968,-89.12698412698413,-128.96825396825395,-107.53968253968253,-321.8253968253968
28.49206349206349,-10.079365079365079,134.2063492063492,-2.142857142857143,40.87301587301587,-54.52380952380952,136.9047619047619,-260.7142857142857,50.55555555555555,-70.23809523809524,32.61904761904762,-6.746031746031746,127.53968253968253,124.2063492063492,-108.33333333333333,-255.79365079365078,32.61904761904762,-258.6507936507936,-254.84126984126982,-278.015873015873,19.444444444444443,4.0476190476190474,2.3015873015873014,-321.8253968253968
28.49206349206349,-10.079365079365079,134.2063492063492,-2.142857142857143,40.87301587301587,-54.52380952380952,136.9047619047619,-260.7142857142857,50.55555555555555,-70.23809523809524,32.61904761904762,-6.746031746031746,127.53968253968253,124.2063492063492,-108.33333333333333,-255.79365079365078,32.61904761904762,-258.6507936507936,-254.84126984126982,-278.015873015873,19.444444444444443,4.0476190476190474,2.3015873015873014,-321.8253968253968
99.92063492063491,89.76190476190476,202.46031746031744,211.98412698412696,111.03174603174602,167.06349206349205,202.61904761904762,-256.1111111111111,114.2063492063492,-53.25396825396825,108.01587301587301,122.30158730158729,195.47619047619045,254.2063492063492,-124.36507936507935,-250.87301587301585,108.65079365079364,-253.88888888888889,-246.1111111111111,-272.46031746031747,-84.2063492063492,-122.46031746031746,-102.77777777777777,-166.26984126984127
99.92063492063491,89.76190476190476,202.46031746031744,211.98412698412696,111.03174603174602,167.06349206349205,202.61904761904762,-256.1111111111111,114.2063492063492,-53.25396825396825,108.01587301587301,122.30158730158729,195.47619047619045,254.2063492063492,-124.36507936507935,-250.87301587301585,108.65079365079364,-253.88888888888889,-246.1111111111111,-272.46031746031747,-84.2063492063492,-122.46031746031746,-102.77777777777777,-166.26984126984127
-27.063492063492063,-25.0,68.01587301587301,5.0,-24.68253968253968,-88.4920634920635,59.44444444444444,-251.66666666666666,-20.238095238095237,-126.58730158730158,-39.6031746031746,5.158730158730158,45.476190476190474,22.619047619047617,-65.0,-246.74603174603172,-44.36507936507936,-249.76190476190476,-244.84126984126982,-267.6984126984127,111.19047619047619,117.06349206349206,97.38095238095238,-166.26984126984127
-27.063492063492063,-25.0,68.01587301587301,5.0,-24.68253968253968,-88.4920634920635,59.44444444444444,-251.66666666666666,-20.238095238095237,-126.58730158730158,-39.6031746031746,5.158730158730158,45.476190476190474,22.619047619047617,-65.0,-246.74603174603172,-44.36507936507936,-249.76190476190476,-244.84126984126982,-267.6984126984127,111.19047619047619,117.06349206349206,97.38095238095238,-166.26984126984127
91.5079365079365,78.4920634920635,192.3015873015873,213.57142857142856,103.88888888888889,200.07936507936506,193.88888888888889,-247.85714285714283,108.33333333333333,-21.984126984126984,101.5079365079365,106.26984126984127,186.74603174603175,246.9047619047619,-129.28571428571428,-242.6190476190476,102.14285714285714,-245.95238095238093,-146.74603174603175,-263.25396825396825,-77.53968253968253,-115.63492063492063,-96.9047619047619,-166.26984126984127
91.5079365079365,78.4920634920635,192.3015873015873,213.57142857142856,103.88888888888889,200.07936507936506,193.88888888888889,-247.85714285714283,108.33333333333333,-21.984126984126984,101.5079365079365,106.26984126984127,186.74603174603175,246.9047619047619,-129.28571428571428,-242.6190476190476,102.14285714285714,-245.95238095238093,-146.74603174603175,-263.25396825396825,-77.53968253968253,-115.63492063492063,-96.9047619047619,-166.26984126984127
45.79365079365079,-11.984126984126984,155.47619047619048,102.14285714285714,65.95238095238095,92.30158730158729,163.88888888888889,-246.42857142857142,78.65079365079364,191.34920634920633,65.95238095238095,-4.2063492063492065,180.23809523809524,168.8095238095238,-126.74603174603173,-241.19047619047618,67.38095238095238,-244.52380952380952,-62.14285714285714,-261.66666666666663,-34.84126984126984,-237.38095238095238,-193.09523809523807,-166.26984126984127
45.79365079365079,-11.984126984126984,155.47619047619048,102.14285714285714,65.95238095238095,92.30158730158729,163.88888888888889,-246.42857142857142,78.65079365079364,191.34920634920633,65.95238095238095,-4.2063492063492065,180.23809523809524,168.8095238095238,-126.74603174603173,-241.19047619047618,67.38095238095238,-244.52380952380952,-62.14285714285714,-261.66666666666663,-34.84126984126984,-237.38095238095238,-193.09523809523807,-166.26984126984127
80.55555555555556,66.11111111111111,181.984126984127,216.42857142857142,96.1111111111111,212.3015873015873,183.09523809523807,-239.9206349206349,101.19047619047619,1.0317460317460316,94.2063492063492,87.22222222222221,176.42857142857142,241.19047619047618,-132.77777777777777,-234.84126984126982,95.47619047619047,-237.85714285714283,-66.26984126984127,-254.52380952380952,-68.96825396825396,-107.53968253968253,-90.87301587301587,-166.26984126984127
80.55555555555556,66.11111111111111,181.984126984127,216.42857142857142,96.1111111111111,212.3015873015873,183.09523809523807,-239.9206349206349,101.19047619047619,1.0317460317460316,94.2063492063492,87.22222222222221,176.42857142857142,241.19047619047618,-132.77777777777777,-234.84126984126982,95.47619047619047,-237.85714285714283,-66.26984126984127,-254.52380952380952,-68.96825396825396,-107.53968253968253,-90.87301587301587,-166.26984126984127
22.46031746031746,-33.25396825396825,116.9047619047619,-11.031746031746032,33.095238095238095,22.142857142857142,118.96825396825396,-236.74603174603175,43.57142857142857,24.047619047619047,26.746031746031743,-42.3015873015873,113.73015873015872,88.17460317460316,-100.71428571428571,-231.5079365079365,25.952380952380953,-234.68253968253967,-78.96825396825396,-251.03174603174602,9.761904761904761,4.841269841269841,1.984126984126984,-321.8253968253968
22.46031746031746,-33.25396825396825,116.9047619047619,-11.031746031746032,33.095238095238095,22.142857142857142,118.96825396825396,-236.74603174603175,43.57142857142857,24.047619047619047,26.746031746031743,-42.3015873015873,113.73015873015872,88.17460317460316,-100.71428571428571,-231.5079365079365,25.952380952380953,-234.68253968253967,-78.96825396825396,-251.03174603174602,9.761904761904761,4.841269841269841,1.984126984126984,-321.8253968253968
17.539682539682538,-38.49206349206349,109.76190476190476,-8.492063492063492,27.38095238095238,24.365079365079364,110.71428571428571,-232.77777777777777,36.269841269841265,37.698412698412696,21.19047619047619,-47.698412698412696,106.1111111111111,85.31746031746032,-98.49206349206348,-227.69841269841268,19.92063492063492,-230.87301587301587,-36.904761904761905,-246.58730158730157,13.888888888888888,6.428571428571428,2.7777777777777777,-321.8253968253968
17.539682539682538,-38.49206349206349,109.76190476190476,-8.492063492063492,27.38095238095238,24.365079365079364,110.71428571428571,-232.77777777777777,36.269841269841265,37.698412698412696,21.19047619047619,-47.698412698412696,106.1111111111111,85.31746031746032,-98.49206349206348,-227.69841269841268,19.92063492063492,-230.87301587301587,-36.904761904761905,-246.58730158730157,13.888888888888888,6.428571428571428,2.7777777777777777,-321.8253968253968
21.03174603174603,-36.42857142857142,111.5079365079365,-7.222222222222221,30.71428571428571,24.047619047619047,113.25396825396825,-229.12698412698413,40.55555555555555,100.87301587301587,24.84126984126984,-46.42857142857142,109.28571428571428,79.44444444444444,-97.85714285714285,-224.04761904761904,23.730158730158728,-227.2222222222222,-34.84126984126984,-242.46031746031744,7.3809523809523805,4.682539682539682,1.984126984126984,-321.8253968253968
21.03174603174603,-36.42857142857142,111.5079365079365,-7.222222222222221,30.71428571428571,24.047619047619047,113.25396825396825,-229.12698412698413,40.55555555555555,100.87301587301587,24.84126984126984,-46.42857142857142,109.28571428571428,79.44444444444444,-97.85714285714285,-224.04761904761904,23.730158730158728,-227.2222222222222,-34.84126984126984,-242.46031746031744,7.3809523809523805,4.682539682539682,1.984126984126984,-321.8253968253968
16.904761904761905,-43.41269841269841,105.47619047619047,-10.873015873015872,25.952380952380953,30.07936507936508,106.26984126984127,-225.47619047619045,35.0,115.31746031746032,19.92063492063492,-51.98412698412698,102.30158730158729,77.53968253968253,-94.52380952380952,-220.3968253968254,19.126984126984127,-219.28571428571428,-1.1904761904761905,-238.49206349206347,10.873015873015872,6.26984126984127,3.253968253968254,-321.8253968253968
16.904761904761905,-43.41269841269841,105.47619047619047,-10.873015873015872,25.952380952380953,30.07936507936508,106.26984126984127,-225.47619047619045,35.0,115.31746031746032,19.92063492063492,-51.98412698412698,102.30158730158729,77.53968253968253,-94.52380952380952,-220.3968253968254,19.126984126984127,-219.28571428571428,-1.1904761904761905,-238.49206349206347,10.873015873015872,6.26984126984127,3.253968253968254,-321.8253968253968
17.063492063492063,5.476190476190476,98.17460317460316,22.777777777777775,19.126984126984127,9.126984126984127,96.1111111111111,-221.03174603174602,26.9047619047619,191.03174603174602,6.904761904761904,22.142857142857142,87.06349206349206,46.11111111111111,-30.555555555555554,-215.79365079365078,1.6666666666666665,-219.12698412698413,-155.79365079365078,-233.4126984126984,85.63492063492063,90.87301587301587,77.06349206349206,-321.8253968253968
17.063492063492063,5.476190476190476,98.17460317460316,22.777777777777775,19.126984126984127,9.126984126984127,96.1111111111111,-221.03174603174602,26.9047619047619,191.03174603174602,6.904761904761904,22.142857142857142,87.06349206349206,46.11111111111111,-30.555555555555554,-215.79365079365078,1.6666666666666665,-219.12698412698413,-155.79365079365078,-233.4126984126984,85.63492063492063,90.87301587301587,77.06349206349206,-321.8253968253968
49.285714285714285,37.53968253968254,146.26984126984127,220.7142857142857,66.26984126984127,226.26984126984127,145.95238095238093,-217.69841269841268,71.82539682539682,134.84126984126982,67.06349206349206,45.476190476190474,141.5079365079365,233.88888888888889,-134.2063492063492,-212.46031746031744,72.3015873015873,54.68253968253968,78.17460317460316,-229.76190476190476,-38.01587301587301,-87.85714285714285,-75.47619047619047,-166.26984126984127
49.285714285714285,37.53968253968254,146.26984126984127,220.7142857142857,66.26984126984127,226.26984126984127,145.95238095238093,-217.69841269841268,71.82539682539682,134.84126984126982,67.06349206349206,45.476190476190474,141.5079365079365,233.88888888888889,-134.2063492063492,-212.46031746031744,72.3015873015873,54.68253968253968,78.17460317460316,-229.76190476190476,-38.01587301587301,-87.85714285714285,-75.47619047619047,-166.26984126984127
25.0,6.587301587301587,103.4126984126984,26.587301587301585,28.174603174603174,31.19047619047619,103.25396825396825,-214.04761904761904,37.22222222222222,242.6190476190476,16.11111111111111,21.19047619047619,96.42857142857142,51.98412698412698,-26.746031746031743,-208.96825396825395,10.555555555555555,-204.36507936507937,-53.095238095238095,-225.47619047619045,75.95238095238095,83.4126984126984,71.66666666666666,-166.26984126984127
25.0,6.587301587301587,103.4126984126984,26.587301587301585,28.174603174603174,31.19047619047619,103.25396825396825,-214.04761904761904,37.22222222222222,242.6190476190476,16.11111111111111,21.19047619047619,96.42857142857142,51.98412698412698,-26.746031746031743,-208.96825396825395,10.555555555555555,-204.36507936507937,-53.095238095238095,-225.47619047619045,75.95238095238095,83.4126984126984,71.66666666666666,-166.26984126984127
72.93650793650794,101.03174603174602,167.38095238095238,325.0,90.87301587301587,325.0,173.4126984126984,-212.14285714285714,102.14285714285714,53.41269841269841,91.5079365079365,116.26984126984127,141.03174603174602,325.0,-171.8253968253968,-206.74603174603175,103.4126984126984,208.8095238095238,-138.96825396825395,-223.4126984126984,-52.93650793650794,60.873015873015866,42.3015873015873,-166.26984126984127
72.93650793650794,101.03174603174602,167.38095238095238,325.0,90.87301587301587,325.0,173.4126984126984,-212.14285714285714,102.14285714285714,53.41269841269841,91.5079365079365,116.26984126984127,141.03174603174602,325.0,-171.8253968253968,-206.74603174603175,103.4126984126984,208.8095238095238,-138.96825396825395,-223.4126984126984,-52.93650793650794,60.873015873015866,42.3015873015873,-166.26984126984127
32.14285714285714,9.444444444444445,108.01587301587301,28.809523809523807,35.95238095238095,47.22222222222222,109.28571428571428,-207.06349206349205,45.95238095238095,257.06349206349205,25.0,22.3015873015873,104.52380952380952,56.42857142857142,-24.523809523809522,-201.98412698412696,18.80952380952381,-194.2063492063492,165.15873015873015,-218.015873015873,66.11111111111111,76.74603174603175,65.79365079365078,-166.26984126984127
32.14285714285714,9.444444444444445,108.01587301587301,28.809523809523807,35.95238095238095,47.22222222222222,109.28571428571428,-207.06349206349205,45.95238095238095,257.06349206349205,25.0,22.3015873015873,104.52380952380952,56.42857142857142,-24.523809523809522,-201.98412698412696,18.80952380952381,-194.2063492063492,165.15873015873015,-218.015873015873,66.11111111111111,76.74603174603175,65.79365079365078,-166.26984126984127
56.904761904761905,86.74603174603175,149.6031746031746,322.77777777777777,75.0,325.0,154.68253968253967,-205.0,86.1111111111111,118.65079365079364,75.63492063492063,99.28571428571428,122.46031746031746,325.0,-178.17460317460316,-199.9206349206349,88.65079365079364,255.0,-68.65079365079364,-215.63492063492063,-37.06349206349206,71.34920634920634,50.71428571428571,-166.26984126984127
56.904761904761905,86.74603174603175,149.6031746031746,322.77777777777777,75.0,325.0,154.68253968253967,-205.0,86.1111111111111,118.65079365079364,75.63492063492063,99.28571428571428,122.46031746031746,325.0,-178.17460317460316,-199.9206349206349,88.65079365079364,255.0,-68.65079365079364,-215.63492063492063,-37.06349206349206,71.34920634920634,50.71428571428571,-166.26984126984127
55.79365079365079,84.52380952380952,133.57142857142856,202.46031746031744,59.92063492063492,183.09523809523807,129.6031746031746,-201.19047619047618,61.03174603174603,215.15873015873015,47.53968253968254,136.58730158730157,141.984126984127,157.2222222222222,49.6031746031746,-195.95238095238093,38.80952380952381,5.476190476190476,173.57142857142856,-211.34920634920633,118.33333333333333,-93.09523809523809,-65.15873015873015,-321.8253968253968
55.79365079365079,84.52380952380952,133.57142857142856,202.46031746031744,59.92063492063492,183.09523809523807,129.6031746031746,-201.19047619047618,61.03174603174603,215.15873015873015,47.53968253968254,136.58730158730157,141.984126984127,157.2222222222222,49.6031746031746,-195.95238095238093,38.80952380952381,5.476190476190476,173.57142857142856,-211.34920634920633,118.33333333333333,-93.09523809523809,-65.15873015873015,-321.8253968253968
24.206349206349206,9.920634920634921,104.52380952380952,154.36507936507937,31.03174603174603,165.63492063492063,97.85714285714285,-198.8095238095238,30.71428571428571,266.74603174603175,25.158730158730158,39.44444444444444,114.52380952380952,147.85714285714286,-7.063492063492063,-193.4126984126984,19.6031746031746,129.44444444444443,249.28571428571428,-208.65079365079364,64.84126984126983,-151.66666666666666,-118.17460317460316,-321.8253968253968
24.206349206349206,9.920634920634921,104.52380952380952,154.36507936507937,31.03174603174603,165.63492063492063,97.85714285714285,-198.8095238095238,30.71428571428571,266.74603174603175,25.158730158730158,39.44444444444444,114.52380952380952,147.85714285714286,-7.063492063492063,-193.4126984126984,19.6031746031746,129.44444444444443,249.28571428571428,-208.65079365079364,64.84126984126983,-151.66666666666666,-118.17460317460316,-321.8253968253968
-7.222222222222221,-64.52380952380952,75.47619047619047,106.26984126984127,2.3015873015873014,148.33333333333331,66.11111111111111,-196.42857142857142,0.3968253968253968,318.3333333333333,2.7777777777777777,-57.698412698412696,87.06349206349206,138.65079365079364,-63.73015873015873,-190.87301587301587,0.5555555555555556,253.4126984126984,325.0,-205.79365079365078,11.507936507936508,-210.07936507936506,-171.03174603174602,-321.8253968253968
-7.222222222222221,-64.52380952380952,75.47619047619047,106.26984126984127,2.3015873015873014,148.33333333333331,66.11111111111111,-196.42857142857142,0.3968253968253968,318.3333333333333,2.7777777777777777,-57.698412698412696,87.06349206349206,138.65079365079364,-63.73015873015873,-190.87301587301587,0.5555555555555556,253.4126984126984,325.0,-205.79365079365078,11.507936507936508,-210.07936507936506,-171.03174603174602,-321.8253968253968
8.809523809523808,5.0,93.57142857142857,211.5079365079365,21.666666666666664,242.14285714285714,87.85714285714285,-191.34920634920633,23.88888888888889,216.74603174603175,22.46031746031746,15.95238095238095,82.3015873015873,231.66666666666666,-117.53968253968253,-185.95238095238093,29.76190476190476,296.58730158730157,138.015873015873,-200.07936507936506,-0.07936507936507936,-56.74603174603174,-50.87301587301587,-321.8253968253968
8.809523809523808,5.0,93.57142857142857,211.5079365079365,21.666666666666664,242.14285714285714,87.85714285714285,-191.34920634920633,23.88888888888889,216.74603174603175,22.46031746031746,15.95238095238095,82.3015873015873,231.66666666666666,-117.53968253968253,-185.95238095238093,29.76190476190476,296.58730158730157,138.015873015873,-200.07936507936506,-0.07936507936507936,-56.74603174603174,-50.87301587301587,-321.8253968253968
-7.698412698412698,-53.57142857142857,71.03174603174602,135.0,-0.7142857142857142,159.28571428571428,57.857142857142854,-190.3968253968254,-6.26984126984127,307.22222222222223,-0.7142857142857142,-40.714285714285715,78.65079365079364,138.4920634920635,-45.79365079365079,-185.0,-1.1904761904761905,268.3333333333333,325.0,-198.96825396825395,10.238095238095237,-202.61904761904762,-166.26984126984127,-321.8253968253968
-7.698412698412698,-53.57142857142857,71.03174603174602,135.0,-0.7142857142857142,159.28571428571428,57.857142857142854,-190.3968253968254,-6.26984126984127,307.22222222222223,-0.7142857142857142,-40.714285714285715,78.65079365079364,138.4920634920635,-45.79365079365079,-185.0,-1.1904761904761905,268.3333333333333,325.0,-198.96825396825395,10.238095238095237,-202.61904761904762,-166.26984126984127,-321.8253968253968
-8.968253968253968,-53.73015873015873,67.06349206349206,142.3015873015873,-3.4126984126984126,163.09523809523807,53.41269841269841,-187.53968253968253,-8.968253968253968,301.5079365079365,-3.571428571428571,-37.857142857142854,73.25396825396825,137.69841269841268,-38.17460317460317,-168.8095238095238,-4.841269841269841,279.9206349206349,325.0,-195.63492063492063,11.349206349206348,-199.9206349206349,-164.2063492063492,-166.26984126984127
-8.968253968253968,-53.73015873015873,67.06349206349206,142.3015873015873,-3.4126984126984126,163.09523809523807,53.41269841269841,-187.53968253968253,-8.968253968253968,301.5079365079365,-3.571428571428571,-37.857142857142854,73.25396825396825,137.69841269841268,-38.17460317460317,-168.8095238095238,-4.841269841269841,279.9206349206349,325.0,-195.63492063492063,11.349206349206348,-199.9206349206349,-164.2063492063492,-166.26984126984127
49.76190476190476,8.174603174603174,116.9047619047619,22.142857142857142,54.841269841269835,94.84126984126983,122.46031746031746,-181.984126984127,67.85714285714285,272.9365079365079,47.857142857142854,17.38095238095238,127.06349206349206,70.23809523809524,-28.49206349206349,-175.0,42.77777777777778,276.4285714285714,262.77777777777777,-189.9206349206349,25.952380952380953,43.095238095238095,38.96825396825397,-166.26984126984127
49.76190476190476,8.174603174603174,116.9047619047619,22.142857142857142,54.841269841269835,94.84126984126983,122.46031746031746,-181.984126984127,67.85714285714285,272.9365079365079,47.857142857142854,17.38095238095238,127.06349206349206,70.23809523809524,-28.49206349206349,-175.0,42.77777777777778,276.4285714285714,262.77777777777777,-189.9206349206349,25.952380952380953,43.095238095238095,38.96825396825397,-166.26984126984127
-1.984126984126984,-75.79365079365078,64.84126984126983,2.7777777777777777,2.46031746031746,56.42857142857142,62.14285714285714,-179.9206349206349,10.873015873015872,291.031746031746,0.07936507936507936,-72.93650793650794,68.17460317460318,36.11111111111111,-71.19047619047619,-94.04761904761904,-1.8253968253968254,270.55555555555554,325.0,-187.69841269841268,-4.523809523809524,7.698412698412698,5.0,-166.26984126984127
-1.984126984126984,-75.79365079365078,64.84126984126983,2.7777777777777777,2.46031746031746,56.42857142857142,62.14285714285714,-179.9206349206349,10.873015873015872,291.031746031746,0.07936507936507936,-72.93650793650794,68.17460317460318,36.11111111111111,-71.19047619047619,-94.04761904761904,-1.8253968253968254,270.55555555555554,325.0,-187.69841269841268,-4.523809523809524,7.698412698412698,5.0,-166.26984126984127
103.73015873015872,125.0,168.96825396825395,205.15873015873015,107.06349206349206,268.8095238095238,172.46031746031744,-176.9047619047619,111.19047619047619,213.88888888888889,97.38095238095238,160.55555555555554,186.74603174603175,215.79365079365078,71.66666666666666,-139.6031746031746,87.6984126984127,325.0,207.2222222222222,-184.2063492063492,58.17460317460317,-130.07936507936506,-96.58730158730158,-166.26984126984127
103.73015873015872,125.0,168.96825396825395,205.15873015873015,107.06349206349206,268.8095238095238,172.46031746031744,-176.9047619047619,111.19047619047619,213.88888888888889,97.38095238095238,160.55555555555554,186.74603174603175,215.79365079365078,71.66666666666666,-139.6031746031746,87.6984126984127,325.0,207.2222222222222,-184.2063492063492,58.17460317460317,-130.07936507936506,-96.58730158730158,-166.26984126984127
-16.428571428571427,-17.063492063492063,56.58730158730158,199.9206349206349,-7.222222222222221,256.90476190476187,48.96825396825397,-173.4126984126984,-6.428571428571428,179.44444444444443,-8.174603174603174,5.952380952380952,40.238095238095234,231.34920634920633,-101.03174603174602,21.825396825396822,-3.73015873015873,325.0,172.14285714285714,-180.7142857142857,23.41269841269841,-31.507936507936506,-29.126984126984127,-166.26984126984127
-16.428571428571427,-17.063492063492063,56.58730158730158,199.9206349206349,-7.222222222222221,256.90476190476187,48.96825396825397,-173.4126984126984,-6.428571428571428,179.44444444444443,-8.174603174603174,5.952380952380952,40.238095238095234,231.34920634920633,-101.03174603174602,21.825396825396822,-3.73015873015873,325.0,172.14285714285714,-180.7142857142857,23.41269841269841,-31.507936507936506,-29.126984126984127,-166.26984126984127
50.079365079365076,9.285714285714285,115.31746031746032,21.666666666666664,56.904761904761905,106.74603174603175,121.82539682539682,-170.3968253968254,71.66666666666666,263.88888888888886,52.93650793650794,15.95238095238095,132.3015873015873,72.77777777777777,-35.0,-142.46031746031744,49.92063492063492,311.66666666666663,270.7142857142857,-177.38095238095238,7.3809523809523805,27.063492063492063,25.79365079365079,-321.8253968253968
50.079365079365076,9.285714285714285,115.31746031746032,21.666666666666664,56.904761904761905,106.74603174603175,121.82539682539682,-170.3968253968254,71.66666666666666,263.88888888888886,52.93650793650794,15.95238095238095,132.3015873015873,72.77777777777777,-35.0,-142.46031746031744,49.92063492063492,311.66666666666663,270.7142857142857,-177.38095238095238,7.3809523809523805,27.063492063492063,25.79365079365079,-321.8253968253968
-20.873015873015873,-19.6031746031746,48.01587301587301,197.2222222222222,-13.412698412698411,264.68253968253964,39.44444444444444,-144.2063492063492,-13.888888888888888,152.93650793650792,-15.158730158730158,7.857142857142857,29.285714285714285,232.6190476190476,-94.84126984126983,58.96825396825397,-11.825396825396824,325.0,181.34920634920633,-174.52380952380952,28.809523809523807,-21.825396825396822,-23.41269841269841,-321.8253968253968
-20.873015873015873,-19.6031746031746,48.01587301587301,197.2222222222222,-13.412698412698411,264.68253968253964,39.44444444444444,-144.2063492063492,-13.888888888888888,152.93650793650792,-15.158730158730158,7.857142857142857,29.285714285714285,232.6190476190476,-94.84126984126983,58.96825396825397,-11.825396825396824,325.0,181.34920634920633,-174.52380952380952,28.809523809523807,-21.825396825396822,-23.41269841269841,-321.8253968253968
123.88888888888889,144.36507936507937,185.95238095238093,198.8095238095238,127.22222222222221,292.46031746031747,190.55555555555554,-166.26984126984127,131.984126984127,209.28571428571428,119.28571428571428,166.74603174603175,206.58730158730157,232.46031746031744,70.87301587301587,-80.87301587301587,112.30158730158729,325.0,225.0,-172.14285714285714,26.746031746031743,-147.06349206349205,-110.39682539682539,-321.8253968253968
123.88888888888889,144.36507936507937,185.95238095238093,198.8095238095238,127.22222222222221,292.46031746031747,190.55555555555554,-166.26984126984127,131.984126984127,209.28571428571428,119.28571428571428,166.74603174603175,206.58730158730157,232.46031746031744,70.87301587301587,-80.87301587301587,112.30158730158729,325.0,225.0,-172.14285714285714,26.746031746031743,-147.06349206349205,-110.39682539682539,-321.8253968253968
-24.365079365079364,-20.873015873015873,39.44444444444444,195.0,-19.285714285714285,273.25396825396825,30.396825396825395,-38.33333333333333,-19.92063492063492,129.6031746031746,-21.825396825396822,11.825396825396824,18.96825396825397,226.1111111111111,-87.85714285714285,128.65079365079364,-19.76190476190476,325.0,190.07936507936506,-168.65079365079364,32.61904761904762,-13.73015873015873,-16.746031746031743,-321.8253968253968
-24.365079365079364,-20.873015873015873,39.44444444444444,195.0,-19.285714285714285,273.25396825396825,30.396825396825395,-38.33333333333333,-19.92063492063492,129.6031746031746,-21.825396825396822,11.825396825396824,18.96825396825397,226.1111111111111,-87.85714285714285,128.65079365079364,-19.76190476190476,325.0,190.07936507936506,-168.65079365079364,32.61904761904762,-13.73015873015873,-16.746031746031743,-321.8253968253968
2.3015873015873014,-31.825396825396822,50.238095238095234,217.38095238095238,-6.746031746031746,221.5079365079365,33.888888888888886,-107.22222222222221,-16.11111111111111,171.03174603174602,-11.19047619047619,22.3015873015873,41.98412698412698,145.3174603174603,18.333333333333332,286.90476190476187,-20.07936507936508,325.0,325.0,-168.015873015873,2.7777777777777777,-170.7142857142857,-140.3968253968254,-321.8253968253968
2.3015873015873014,-31.825396825396822,50.238095238095234,217.38095238095238,-6.746031746031746,221.5079365079365,33.888888888888886,-107.22222222222221,-16.11111111111111,171.03174603174602,-11.19047619047619,22.3015873015873,41.98412698412698,145.3174603174603,18.333333333333332,286.90476190476187,-20.07936507936508,325.0,325.0,-168.015873015873,2.7777777777777777,-170.7142857142857,-140.3968253968254,-321.8253968253968
-25.158730158730158,-19.92063492063492,33.25396825396825,192.61904761904762,-22.619047619047617,282.46031746031747,24.047619047619047,107.6984126984127,-24.68253968253968,101.66666666666666,-26.11111111111111,16.428571428571427,10.714285714285714,215.95238095238093,-80.55555555555556,177.85714285714286,-25.476190476190474,325.0,196.58730158730157,-162.93650793650792,35.15873015873016,-4.841269841269841,-9.285714285714285,-166.26984126984127
-25.158730158730158,-19.92063492063492,33.25396825396825,192.61904761904762,-22.619047619047617,282.46031746031747,24.047619047619047,107.6984126984127,-24.68253968253968,101.66666666666666,-26.11111111111111,16.428571428571427,10.714285714285714,215.95238095238093,-80.55555555555556,177.85714285714286,-25.476190476190474,325.0,196.58730158730157,-162.93650793650792,35.15873015873016,-4.841269841269841,-9.285714285714285,-166.26984126984127
42.460317460317455,11.031746031746032,105.63492063492063,20.238095238095237,51.19047619047619,118.17460317460316,111.98412698412697,-131.5079365079365,66.58730158730158,181.34920634920633,50.39682539682539,10.396825396825395,131.03174603174602,73.25396825396825,-48.650793650793645,64.84126984126983,51.34920634920635,325.0,281.66666666666663,-159.9206349206349,-15.634920634920634,2.3015873015873014,5.317460317460317,-166.26984126984127
42.460317460317455,11.031746031746032,105.63492063492063,20.238095238095237,51.19047619047619,118.17460317460316,111.98412698412697,-131.5079365079365,66.58730158730158,181.34920634920633,50.39682539682539,10.396825396825395,131.03174603174602,73.25396825396825,-48.650793650793645,64.84126984126983,51.34920634920635,325.0,281.66666666666663,-159.9206349206349,-15.634920634920634,2.3015873015873014,5.317460317460317,-166.26984126984127
-74.04761904761904,-32.3015873015873,-0.23809523809523808,131.8253968253968,-56.11111111111111,325.0,-3.73015873015873,325.0,-49.44444444444444,45.476190476190474,-57.53968253968254,-15.317460317460316,-34.047619047619044,249.60317460317458,-181.5079365079365,80.23809523809523,-47.53968253968254,325.0,81.03174603174602,-158.33333333333331,87.06349206349206,162.61904761904762,123.73015873015872,-166.26984126984127
-74.04761904761904,-32.3015873015873,-0.23809523809523808,131.8253968253968,-56.11111111111111,325.0,-3.73015873015873,325.0,-49.44444444444444,45.476190476190474,-57.53968253968254,-15.317460317460316,-34.047619047619044,249.60317460317458,-181.5079365079365,80.23809523809523,-47.53968253968254,325.0,81.03174603174602,-158.33333333333331,87.06349206349206,162.61904761904762,123.73015873015872,-166.26984126984127
39.92063492063492,11.19047619047619,101.98412698412697,18.80952380952381,49.285714285714285,120.71428571428571,108.01587301587301,-57.698412698412696,63.888888888888886,140.87301587301587,48.96825396825397,7.698412698412698,128.4920634920635,73.09523809523809,-54.841269841269835,238.49206349206347,50.39682539682539,316.74603174603175,277.06349206349205,-154.52380952380952,-21.666666666666664,-7.063492063492063,-1.349206349206349,-166.26984126984127
39.92063492063492,11.19047619047619,101.98412698412697,18.80952380952381,49.285714285714285,120.71428571428571,108.01587301587301,-57.698412698412696,63.888888888888886,140.87301587301587,48.96825396825397,7.698412698412698,128.4920634920635,73.09523809523809,-54.841269841269835,238.49206349206347,50.39682539682539,316.74603174603175,277.06349206349205,-154.52380952380952,-21.666666666666664,-7.063492063492063,-1.349206349206349,-166.26984126984127
-20.873015873015873,-11.666666666666666,26.746031746031743,185.79365079365078,-23.253968253968253,300.7142857142857,16.904761904761905,262.6190476190476,-26.11111111111111,33.57142857142857,-29.285714285714285,28.49206349206349,-0.5555555555555556,199.60317460317458,-63.57142857142857,224.84126984126982,-32.14285714285714,313.4126984126984,198.17460317460316,-152.14285714285714,33.57142857142857,12.777777777777777,4.682539682539682,-166.26984126984127
-20.873015873015873,-11.666666666666666,26.746031746031743,185.79365079365078,-23.253968253968253,300.7142857142857,16.904761904761905,262.6190476190476,-26.11111111111111,33.57142857142857,-29.285714285714285,28.49206349206349,-0.5555555555555556,199.60317460317458,-63.57142857142857,224.84126984126982,-32.14285714285714,313.4126984126984,198.17460317460316,-152.14285714285714,33.57142857142857,12.777777777777777,4.682539682539682,-166.26984126984127
37.06349206349206,10.555555555555555,98.33333333333333,17.22222222222222,47.06349206349206,122.77777777777777,103.88888888888889,125.95238095238095,60.71428571428571,118.01587301587301,47.06349206349206,4.0476190476190474,125.47619047619047,72.93650793650794,-60.71428571428571,320.39682539682536,49.285714285714285,298.015873015873,264.04761904761904,-149.44444444444443,-26.11111111111111,-15.793650793650793,-7.5396825396825395,-321.8253968253968
37.06349206349206,10.555555555555555,98.33333333333333,17.22222222222222,47.06349206349206,122.77777777777777,103.88888888888889,125.95238095238095,60.71428571428571,118.01587301587301,47.06349206349206,4.0476190476190474,125.47619047619047,72.93650793650794,-60.71428571428571,320.39682539682536,49.285714285714285,298.015873015873,264.04761904761904,-149.44444444444443,-26.11111111111111,-15.793650793650793,-7.5396825396825395,-321.8253968253968
-16.26984126984127,-5.7936507936507935,26.746031746031743,183.4126984126984,-19.92063492063492,303.57142857142856,16.904761904761905,295.4761904761905,-23.253968253968253,3.253968253968254,-27.22222222222222,35.317460317460316,-3.253968253968254,193.25396825396825,-54.047619047619044,236.26984126984127,-32.3015873015873,289.76190476190476,183.7301587301587,-147.06349206349205,30.238095238095237,20.555555555555554,11.507936507936508,-321.8253968253968
-16.26984126984127,-5.7936507936507935,26.746031746031743,183.4126984126984,-19.92063492063492,303.57142857142856,16.904761904761905,295.4761904761905,-23.253968253968253,3.253968253968254,-27.22222222222222,35.317460317460316,-3.253968253968254,193.25396825396825,-54.047619047619044,236.26984126984127,-32.3015873015873,289.76190476190476,183.7301587301587,-147.06349206349205,30.238095238095237,20.555555555555554,11.507936507936508,-321.8253968253968
58.8095238095238,36.11111111111111,77.85714285714285,268.3333333333333,35.476190476190474,290.55555555555554,62.460317460317455,265.95238095238096,22.619047619047617,25.476190476190474,23.88888888888889,93.09523809523809,51.98412698412698,190.87301587301587,48.01587301587301,325.0,6.111111111111111,325.0,325.0,-146.42857142857142,-45.0,-138.015873015873,-114.36507936507935,-321.8253968253968
58.8095238095238,36.11111111111111,77.85714285714285,268.3333333333333,35.476190476190474,290.55555555555554,62.460317460317455,265.95238095238096,22.619047619047617,25.476190476190474,23.88888888888889,93.09523809523809,51.98412698412698,190.87301587301587,48.01587301587301,325.0,6.111111111111111,325.0,325.0,-146.42857142857142,-45.0,-138.015873015873,-114.36507936507935,-321.8253968253968
-97.85714285714285,-53.25396825396825,-34.52380952380952,86.42857142857143,-83.4126984126984,288.6507936507936,-39.285714285714285,325.0,-76.9047619047619,-42.460317460317455,-86.9047619047619,-22.46031746031746,-68.96825396825396,169.44444444444443,-141.34920634920636,167.69841269841268,-80.71428571428571,218.96825396825395,24.365079365079364,-142.77777777777777,112.6190476190476,185.63492063492063,142.77777777777777,-321.8253968253968
-97.85714285714285,-53.25396825396825,-34.52380952380952,86.42857142857143,-83.4126984126984,288.6507936507936,-39.285714285714285,325.0,-76.9047619047619,-42.460317460317455,-86.9047619047619,-22.46031746031746,-68.96825396825396,169.44444444444443,-141.34920634920636,167.69841269841268,-80.71428571428571,218.96825396825395,24.365079365079364,-142.77777777777777,112.6190476190476,185.63492063492063,142.77777777777777,-321.8253968253968
29.285714285714285,6.746031746031746,88.96825396825396,18.174603174603174,40.39682539682539,122.6190476190476,93.4126984126984,238.015873015873,51.82539682539682,91.34920634920634,41.34920634920635,-4.523809523809524,117.06349206349206,68.4920634920635,-69.12698412698413,325.0,44.68253968253968,224.52380952380952,242.3015873015873,-139.44444444444443,-29.6031746031746,-31.666666666666664,-21.825396825396822,-321.8253968253968
29.285714285714285,6.746031746031746,88.96825396825396,18.174603174603174,40.39682539682539,122.6190476190476,93.4126984126984,238.015873015873,51.82539682539682,91.34920634920634,41.34920634920635,-4.523809523809524,117.06349206349206,68.4920634920635,-69.12698412698413,325.0,44.68253968253968,224.52380952380952,242.3015873015873,-139.44444444444443,-29.6031746031746,-31.666666666666664,-21.825396825396822,-321.8253968253968
-8.333333333333332,5.476190476190476,29.126984126984127,177.85714285714286,-13.571428571428571,288.17460317460313,20.873015873015873,325.0,-15.317460317460316,-35.63492063492063,-20.873015873015873,50.079365079365076,-2.7777777777777777,178.015873015873,-36.42857142857142,255.3174603174603,-28.015873015873016,254.36507936507934,167.53968253968253,-137.38095238095238,22.936507936507937,36.42857142857142,24.047619047619047,-166.26984126984127
-8.333333333333332,5.476190476190476,29.126984126984127,177.85714285714286,-13.571428571428571,288.17460317460313,20.873015873015873,325.0,-15.317460317460316,-35.63492063492063,-20.873015873015873,50.079365079365076,-2.7777777777777777,178.015873015873,-36.42857142857142,255.3174603174603,-28.015873015873016,254.36507936507934,167.53968253968253,-137.38095238095238,22.936507936507937,36.42857142857142,24.047619047619047,-166.26984126984127
-7.698412698412698,-31.825396825396822,31.03174603174603,103.09523809523809,-11.19047619047619,131.5079365079365,25.79365079365079,265.7936507936508,-8.015873015873016,-36.74603174603175,-15.158730158730158,2.46031746031746,28.96825396825397,58.01587301587301,-47.22222222222222,325.0,-23.88888888888889,257.38095238095235,323.4126984126984,-135.63492063492063,-28.015873015873016,-0.873015873015873,-1.984126984126984,-166.26984126984127
-7.698412698412698,-31.825396825396822,31.03174603174603,103.09523809523809,-11.19047619047619,131.5079365079365,25.79365079365079,265.7936507936508,-8.015873015873016,-36.74603174603175,-15.158730158730158,2.46031746031746,28.96825396825397,58.01587301587301,-47.22222222222222,325.0,-23.88888888888889,257.38095238095235,323.4126984126984,-135.63492063492063,-28.015873015873016,-0.873015873015873,-1.984126984126984,-166.26984126984127
-3.73015873015873,11.507936507936508,31.349206349206348,175.0,-9.444444444444445,279.76190476190476,23.730158730158728,325.0,-10.873015873015872,-29.76190476190476,-17.38095238095238,57.857142857142854,-0.7142857142857142,172.3015873015873,-30.238095238095237,265.1587301587301,-24.047619047619047,237.38095238095238,147.69841269841268,-132.77777777777777,18.174603174603174,44.84126984126984,30.07936507936508,-166.26984126984127
-3.73015873015873,11.507936507936508,31.349206349206348,175.0,-9.444444444444445,279.76190476190476,23.730158730158728,325.0,-10.873015873015872,-29.76190476190476,-17.38095238095238,57.857142857142854,-0.7142857142857142,172.3015873015873,-30.238095238095237,265.1587301587301,-24.047619047619047,237.38095238095238,147.69841269841268,-132.77777777777777,18.174603174603174,44.84126984126984,30.07936507936508,-166.26984126984127
146.11111111111111,125.95238095238095,202.61904761904762,99.12698412698413,153.57142857142856,279.44444444444446,208.17460317460316,325.0,159.28571428571428,248.015873015873,157.06349206349205,85.0,235.0,213.25396825396825,-7.222222222222221,325.0,165.0,141.984126984127,141.5079365079365,-130.55555555555554,-85.79365079365078,-203.25396825396825,-156.9047619047619,-166.26984126984127
146.11111111111111,125.95238095238095,202.61904761904762,99.12698412698413,153.57142857142856,279.44444444444446,208.17460317460316,325.0,159.28571428571428,248.015873015873,157.06349206349205,85.0,235.0,213.25396825396825,-7.222222222222221,325.0,165.0,141.984126984127,141.5079365079365,-130.55555555555554,-85.79365079365078,-203.25396825396825,-156.9047619047619,-166.26984126984127
128.015873015873,109.76190476190476,163.25396825396825,189.76190476190476,120.23809523809523,302.1428571428571,161.8253968253968,325.0,119.92063492063491,96.42857142857142,117.6984126984127,112.30158730158729,164.84126984126982,220.3968253968254,20.238095238095237,325.0,114.36507936507935,233.4126984126984,203.09523809523807,-129.44444444444443,-92.14285714285714,-151.984126984127,-120.39682539682539,-166.26984126984127
128.015873015873,109.76190476190476,163.25396825396825,189.76190476190476,120.23809523809523,302.1428571428571,161.8253968253968,325.0,119.92063492063491,96.42857142857142,117.6984126984127,112.30158730158729,164.84126984126982,220.3968253968254,20.238095238095237,325.0,114.36507936507935,233.4126984126984,203.09523809523807,-129.44444444444443,-92.14285714285714,-151.984126984127,-120.39682539682539,-166.26984126984127
11.984126984126984,-5.158730158730158,70.71428571428571,23.57142857142857,25.158730158730158,112.93650793650794,72.46031746031746,312.77777777777777,33.888888888888886,118.33333333333333,27.857142857142854,-11.031746031746032,99.6031746031746,55.79365079365079,-73.25396825396825,325.0,33.095238095238095,122.93650793650794,235.95238095238093,-125.79365079365078,-24.047619047619047,-55.476190476190474,-40.55555555555555,-321.8253968253968
11.984126984126984,-5.158730158730158,70.71428571428571,23.57142857142857,25.158730158730158,112.93650793650794,72.46031746031746,312.77777777777777,33.888888888888886,118.33333333333333,27.857142857142854,-11.031746031746032,99.6031746031746,55.79365079365079,-73.25396825396825,325.0,33.095238095238095,122.93650793650794,235.95238095238093,-125.79365079365078,-24.047619047619047,-55.476190476190474,-40.55555555555555,-321.8253968253968
2.619047619047619,-8.809523809523808,39.285714285714285,118.33333333333333,0.07936507936507936,144.04761904761904,35.476190476190474,312.77777777777777,3.73015873015873,-50.87301587301587,-3.571428571428571,25.79365079365079,37.22222222222222,74.2063492063492,-44.52380952380952,325.0,-9.920634920634921,235.79365079365078,280.23809523809524,-124.84126984126983,-30.87301587301587,2.46031746031746,1.349206349206349,-321.8253968253968
2.619047619047619,-8.809523809523808,39.285714285714285,118.33333333333333,0.07936507936507936,144.04761904761904,35.476190476190474,312.77777777777777,3.73015873015873,-50.87301587301587,-3.571428571428571,25.79365079365079,37.22222222222222,74.2063492063492,-44.52380952380952,325.0,-9.920634920634921,235.79365079365078,280.23809523809524,-124.84126984126983,-30.87301587301587,2.46031746031746,1.349206349206349,-321.8253968253968
4.0476190476190474,-8.492063492063492,62.77777777777777,26.26984126984127,18.015873015873016,109.6031746031746,63.57142857142857,325.0,25.952380952380953,143.57142857142856,21.507936507936506,-11.349206349206348,91.66666666666666,51.34920634920635,-71.19047619047619,325.0,26.746031746031743,70.87301587301587,225.95238095238093,-121.5079365079365,-20.396825396825395,-65.79365079365078,-48.49206349206349,-321.8253968253968
4.0476190476190474,-8.492063492063492,62.77777777777777,26.26984126984127,18.015873015873016,109.6031746031746,63.57142857142857,325.0,25.952380952380953,143.57142857142856,21.507936507936506,-11.349206349206348,91.66666666666666,51.34920634920635,-71.19047619047619,325.0,26.746031746031743,70.87301587301587,225.95238095238093,-121.5079365079365,-20.396825396825395,-65.79365079365078,-48.49206349206349,-321.8253968253968
4.682539682539682,-1.0317460317460316,40.55555555555555,122.93650793650794,2.619047619047619,149.28571428571428,36.74603174603175,325.0,5.634920634920634,-47.53968253968254,-1.1904761904761905,34.047619047619044,38.49206349206349,79.76190476190476,-43.73015873015873,325.0,-7.222222222222221,205.15873015873015,252.14285714285714,-120.39682539682539,-28.333333333333332,0.7142857142857142,0.5555555555555556,-321.8253968253968
4.682539682539682,-1.0317460317460316,40.55555555555555,122.93650793650794,2.619047619047619,149.28571428571428,36.74603174603175,325.0,5.634920634920634,-47.53968253968254,-1.1904761904761905,34.047619047619044,38.49206349206349,79.76190476190476,-43.73015873015873,325.0,-7.222222222222221,205.15873015873015,252.14285714285714,-120.39682539682539,-28.333333333333332,0.7142857142857142,0.5555555555555556,-321.8253968253968
-3.73015873015873,-10.873015873015872,54.2063492063492,28.65079365079365,10.238095238095237,107.06349206349206,53.57142857142857,325.0,17.063492063492063,149.9206349206349,14.047619047619047,-10.079365079365079,82.77777777777777,47.22222222222222,-67.38095238095238,325.0,20.07936507936508,45.15873015873016,211.19047619047618,-117.53968253968253,-15.95238095238095,-72.61904761904762,-54.841269841269835,-321.8253968253968
-3.73015873015873,-10.873015873015872,54.2063492063492,28.65079365079365,10.238095238095237,107.06349206349206,53.57142857142857,325.0,17.063492063492063,149.9206349206349,14.047619047619047,-10.079365079365079,82.77777777777777,47.22222222222222,-67.38095238095238,325.0,20.07936507936508,45.15873015873016,211.19047619047618,-117.53968253968253,-15.95238095238095,-72.61904761904762,-54.841269841269835,-321.8253968253968
17.38095238095238,39.44444444444444,42.14285714285714,154.2063492063492,8.333333333333332,238.015873015873,38.17460317460317,325.0,9.285714285714285,24.365079365079364,0.07936507936507936,83.73015873015872,12.777777777777777,153.57142857142856,-24.047619047619047,301.5079365079365,-6.428571428571428,168.96825396825395,79.6031746031746,-116.1111111111111,-3.095238095238095,74.84126984126983,55.15873015873016,-166.26984126984127
17.38095238095238,39.44444444444444,42.14285714285714,154.2063492063492,8.333333333333332,238.015873015873,38.17460317460317,325.0,9.285714285714285,24.365079365079364,0.07936507936507936,83.73015873015872,12.777777777777777,153.57142857142856,-24.047619047619047,301.5079365079365,-6.428571428571428,168.96825396825395,79.6031746031746,-116.1111111111111,-3.095238095238095,74.84126984126983,55.15873015873016,-166.26984126984127
-11.349206349206348,-12.619047619047619,45.0,31.19047619047619,2.46031746031746,105.47619047619047,43.57142857142857,325.0,7.3809523809523805,154.04761904761904,6.111111111111111,-7.5396825396825395,73.25396825396825,44.68253968253968,-61.98412698412698,325.0,11.984126984126984,40.714285714285715,194.2063492063492,-113.4126984126984,-10.555555555555555,-81.03174603174602,-61.82539682539682,-166.26984126984127
-11.349206349206348,-12.619047619047619,45.0,31.19047619047619,2.46031746031746,105.47619047619047,43.57142857142857,325.0,7.3809523809523805,154.04761904761904,6.111111111111111,-7.5396825396825395,73.25396825396825,44.68253968253968,-61.98412698412698,325.0,11.984126984126984,40.714285714285715,194.2063492063492,-113.4126984126984,-10.555555555555555,-81.03174603174602,-61.82539682539682,-166.26984126984127
23.095238095238095,45.63492063492063,45.476190476190474,144.52380952380952,13.412698412698411,231.19047619047618,42.77777777777778,325.0,15.0,34.682539682539684,4.841269841269841,85.47619047619047,17.22222222222222,152.46031746031744,-27.38095238095238,299.76190476190476,-1.6666666666666665,158.17460317460316,60.238095238095234,-97.06349206349206,-8.968253968253968,82.77777777777777,62.61904761904761,-166.26984126984127
23.095238095238095,45.63492063492063,45.476190476190474,144.52380952380952,13.412698412698411,231.19047619047618,42.77777777777778,325.0,15.0,34.682539682539684,4.841269841269841,85.47619047619047,17.22222222222222,152.46031746031744,-27.38095238095238,299.76190476190476,-1.6666666666666665,158.17460317460316,60.238095238095234,-97.06349206349206,-8.968253968253968,82.77777777777777,62.61904761904761,-166.26984126984127
7.063492063492063,19.126984126984127,40.714285714285715,134.84126984126982,5.476190476190476,169.44444444444443,37.06349206349206,325.0,6.904761904761904,-33.888888888888886,1.1904761904761905,59.12698412698413,38.17460317460317,98.65079365079364,-32.93650793650794,325.0,-4.365079365079365,216.9047619047619,162.77777777777777,-95.0,-15.317460317460316,-7.3809523809523805,-4.841269841269841,-166.26984126984127
7.063492063492063,19.126984126984127,40.714285714285715,134.84126984126982,5.476190476190476,169.44444444444443,37.06349206349206,325.0,6.904761904761904,-33.888888888888886,1.1904761904761905,59.12698412698413,38.17460317460317,98.65079365079364,-32.93650793650794,325.0,-4.365079365079365,216.9047619047619,162.77777777777777,-95.0,-15.317460317460316,-7.3809523809523805,-4.841269841269841,-166.26984126984127
-75.15873015873015,-24.365079365079364,-51.19047619047619,41.666666666666664,-79.12698412698413,126.1111111111111,-53.095238095238095,325.0,-76.1111111111111,160.87301587301587,-93.25396825396825,30.238095238095237,-81.34920634920634,58.49206349206349,-41.34920634920635,275.7936507936508,-103.09523809523809,-17.698412698412696,-32.61904761904762,81.34920634920634,102.30158730158729,228.8095238095238,177.85714285714286,-166.26984126984127
-75.15873015873015,-24.365079365079364,-51.19047619047619,41.666666666666664,-79.12698412698413,126.1111111111111,-53.095238095238095,325.0,-76.1111111111111,160.87301587301587,-93.25396825396825,30.238095238095237,-81.34920634920634,58.49206349206349,-41.34920634920635,275.7936507936508,-103.09523809523809,-17.698412698412696,-32.61904761904762,81.34920634920634,102.30158730158729,228.8095238095238,177.85714285714286,-166.26984126984127
-94.84126984126983,-47.698412698412696,-58.33333333333333,42.93650793650794,-90.23809523809523,77.22222222222221,-62.14285714285714,325.0,-88.17460317460316,86.58730158730158,-99.76190476190476,10.714285714285714,-63.888888888888886,13.095238095238095,-42.61904761904761,300.39682539682536,-107.85714285714285,53.41269841269841,55.63492063492063,4.2063492063492065,105.0,130.3968253968254,103.57142857142857,-321.8253968253968
-94.84126984126983,-47.698412698412696,-58.33333333333333,42.93650793650794,-90.23809523809523,77.22222222222221,-62.14285714285714,325.0,-88.17460317460316,86.58730158730158,-99.76190476190476,10.714285714285714,-63.888888888888886,13.095238095238095,-42.61904761904761,300.39682539682536,-107.85714285714285,53.41269841269841,55.63492063492063,4.2063492063492065,105.0,130.3968253968254,103.57142857142857,-321.8253968253968
32.77777777777778,54.2063492063492,52.93650793650794,119.76190476190476,23.88888888888889,221.03174603174602,52.77777777777777,325.0,27.539682539682538,56.269841269841265,15.476190476190474,81.66666666666666,26.587301587301585,150.7142857142857,-35.317460317460316,299.4444444444444,8.809523809523808,149.76190476190476,19.285714285714285,156.9047619047619,-23.41269841269841,98.01587301587301,73.73015873015872,-321.8253968253968
32.77777777777778,54.2063492063492,52.93650793650794,119.76190476190476,23.88888888888889,221.03174603174602,52.77777777777777,325.0,27.539682539682538,56.269841269841265,15.476190476190474,81.66666666666666,26.587301587301585,150.7142857142857,-35.317460317460316,299.4444444444444,8.809523809523808,149.76190476190476,19.285714285714285,156.9047619047619,-23.41269841269841,98.01587301587301,73.73015873015872,-321.8253968253968
-26.746031746031743,-10.555555555555555,23.730158730158728,41.19047619047619,-15.0,102.93650793650794,19.285714285714285,325.0,-14.682539682539682,175.3174603174603,-13.253968253968253,1.507936507936508,49.12698412698413,43.57142857142857,-44.52380952380952,325.0,-10.555555555555555,56.11111111111111,132.3015873015873,-26.428571428571427,6.587301587301587,-101.98412698412697,-79.12698412698413,-321.8253968253968
-26.746031746031743,-10.555555555555555,23.730158730158728,41.19047619047619,-15.0,102.93650793650794,19.285714285714285,325.0,-14.682539682539682,175.3174603174603,-13.253968253968253,1.507936507936508,49.12698412698413,43.57142857142857,-44.52380952380952,325.0,-10.555555555555555,56.11111111111111,132.3015873015873,-26.428571428571427,6.587301587301587,-101.98412698412697,-79.12698412698413,-321.8253968253968
-52.14285714285714,-7.857142857142857,-31.825396825396822,24.84126984126984,-56.904761904761905,109.76190476190476,-31.349206349206348,325.0,-52.3015873015873,197.38095238095238,-71.34920634920634,36.42857142857142,-59.12698412698413,58.96825396825397,-27.063492063492063,267.06349206349205,-82.93650793650794,-36.58730158730159,-44.68253968253968,325.0,75.47619047619047,234.2063492063492,181.5079365079365,-321.8253968253968
-52.14285714285714,-7.857142857142857,-31.825396825396822,24.84126984126984,-56.904761904761905,109.76190476190476,-31.349206349206348,325.0,-52.3015873015873,197.38095238095238,-71.34920634920634,36.42857142857142,-59.12698412698413,58.96825396825397,-27.063492063492063,267.06349206349205,-82.93650793650794,-36.58730158730159,-44.68253968253968,325.0,75.47619047619047,234.2063492063492,181.5079365079365,-321.8253968253968
-28.49206349206349,-7.5396825396825395,19.76190476190476,45.0,-17.539682539682538,102.14285714285714,14.523809523809524,325.0,-18.80952380952381,185.15873015873015,-16.746031746031743,4.841269841269841,44.2063492063492,44.52380952380952,-38.01587301587301,325.0,-15.0,65.95238095238095,120.55555555555554,110.39682539682539,12.777777777777777,-109.44444444444444,-83.4126984126984,-321.8253968253968
-28.49206349206349,-7.5396825396825395,19.76190476190476,45.0,-17.539682539682538,102.14285714285714,14.523809523809524,325.0,-18.80952380952381,185.15873015873015,-16.746031746031743,4.841269841269841,44.2063492063492,44.52380952380952,-38.01587301587301,325.0,-15.0,65.95238095238095,120.55555555555554,110.39682539682539,12.777777777777777,-109.44444444444444,-83.4126984126984,-321.8253968253968
36.58730158730159,55.79365079365079,58.33333333333333,89.92063492063491,30.71428571428571,210.87301587301587,60.238095238095234,325.0,37.06349206349206,71.82539682539682,23.88888888888889,68.80952380952381,34.682539682539684,146.11111111111111,-45.15873015873016,295.4761904761905,20.396825396825395,140.55555555555554,-7.5396825396825395,302.1428571428571,-36.58730158730159,109.44444444444444,85.0,-166.26984126984127
36.58730158730159,55.79365079365079,58.33333333333333,89.92063492063491,30.71428571428571,210.87301587301587,60.238095238095234,325.0,37.06349206349206,71.82539682539682,23.88888888888889,68.80952380952381,34.682539682539684,146.11111111111111,-45.15873015873016,295.4761904761905,20.396825396825395,140.55555555555554,-7.5396825396825395,302.1428571428571,-36.58730158730159,109.44444444444444,85.0,-166.26984126984127
-28.333333333333332,-5.158730158730158,16.904761904761905,49.12698412698413,-19.285714285714285,101.82539682539682,11.031746031746032,325.0,-22.142857142857142,193.09523809523807,-19.126984126984127,7.698412698412698,40.238095238095234,45.317460317460316,-31.349206349206348,325.0,-18.65079365079365,75.15873015873015,116.42857142857142,215.95238095238093,19.285714285714285,-115.15873015873015,-88.65079365079364,-166.26984126984127
-28.333333333333332,-5.158730158730158,16.904761904761905,49.12698412698413,-19.285714285714285,101.82539682539682,11.031746031746032,325.0,-22.142857142857142,193.09523809523807,-19.126984126984127,7.698412698412698,40.238095238095234,45.317460317460316,-31.349206349206348,325.0,-18.65079365079365,75.15873015873015,116.42857142857142,215.95238095238093,19.285714285714285,-115.15873015873015,-88.65079365079364,-166.26984126984127
8.968253968253968,41.98412698412698,41.98412698412698,117.22222222222221,10.873015873015872,188.33333333333331,40.39682539682539,325.0,12.46031746031746,-4.0476190476190474,7.222222222222221,61.666666666666664,39.92063492063492,119.44444444444444,-38.96825396825397,325.0,5.0,245.63492063492063,28.174603174603174,215.95238095238093,-4.841269841269841,-4.2063492063492065,-2.619047619047619,-166.26984126984127
8.968253968253968,41.98412698412698,41.98412698412698,117.22222222222221,10.873015873015872,188.33333333333331,40.39682539682539,325.0,12.46031746031746,-4.0476190476190474,7.222222222222221,61.666666666666664,39.92063492063492,119.44444444444444,-38.96825396825397,325.0,5.0,245.63492063492063,28.174603174603174,215.95238095238093,-4.841269841269841,-4.2063492063492065,-2.619047619047619,-166.26984126984127
-26.26984126984127,-1.349206349206349,16.11111111111111,54.68253968253968,-18.333333333333332,102.93650793650794,9.761904761904761,325.0,-22.777777777777775,203.57142857142856,-19.126984126984127,11.984126984126984,38.17460317460317,47.22222222222222,-23.57142857142857,325.0,-20.238095238095237,89.92063492063491,129.6031746031746,259.44444444444446,24.84126984126984,-120.87301587301586,-93.73015873015872,-166.26984126984127
-26.26984126984127,-1.349206349206349,16.11111111111111,54.68253968253968,-18.333333333333332,102.93650793650794,9.761904761904761,325.0,-22.777777777777775,203.57142857142856,-19.126984126984127,11.984126984126984,38.17460317460317,47.22222222222222,-23.57142857142857,325.0,-20.238095238095237,89.92063492063491,129.6031746031746,259.44444444444446,24.84126984126984,-120.87301587301586,-93.73015873015872,-166.26984126984127
32.61904761904762,48.01587301587301,57.698412698412696,56.904761904761905,31.19047619047619,190.3968253968254,61.666666666666664,325.0,40.079365079365076,77.85714285714285,26.428571428571427,49.6031746031746,37.22222222222222,134.68253968253967,-57.53968253968254,293.0952380952381,26.587301587301585,135.15873015873015,-7.3809523809523805,325.0,-45.79365079365079,120.71428571428571,93.25396825396825,-166.26984126984127
32.61904761904762,48.01587301587301,57.698412698412696,56.904761904761905,31.19047619047619,190.3968253968254,61.666666666666664,325.0,40.079365079365076,77.85714285714285,26.428571428571427,49.6031746031746,37.22222222222222,134.68253968253967,-57.53968253968254,293.0952380952381,26.587301587301585,135.15873015873015,-7.3809523809523805,325.0,-45.79365079365079,120.71428571428571,93.25396825396825,-166.26984126984127
18.65079365079365,52.61904761904761,50.39682539682539,120.87301587301586,20.71428571428571,195.47619047619045,48.80952380952381,325.0,21.03174603174603,15.0,16.428571428571427,68.65079365079364,47.53968253968254,128.96825396825395,-31.349206349206348,325.0,13.412698412698411,259.6031746031746,10.873015873015872,322.3015873015873,-3.73015873015873,-10.238095238095237,-7.222222222222221,-321.8253968253968
18.65079365079365,52.61904761904761,50.39682539682539,120.87301587301586,20.71428571428571,195.47619047619045,48.80952380952381,325.0,21.03174603174603,15.0,16.428571428571427,68.65079365079364,47.53968253968254,128.96825396825395,-31.349206349206348,325.0,13.412698412698411,259.6031746031746,10.873015873015872,322.3015873015873,-3.73015873015873,-10.238095238095237,-7.222222222222221,-321.8253968253968
28.809523809523807,42.3015873015873,55.15873015873016,41.507936507936506,29.126984126984127,177.38095238095238,60.238095238095234,325.0,39.76190476190476,78.96825396825396,25.634920634920633,40.079365079365076,36.904761904761905,125.79365079365078,-62.93650793650793,294.5238095238095,28.015873015873016,132.77777777777777,-1.507936507936508,325.0,-48.33333333333333,126.58730158730158,97.6984126984127,-321.8253968253968
28.809523809523807,42.3015873015873,55.15873015873016,41.507936507936506,29.126984126984127,177.38095238095238,60.238095238095234,325.0,39.76190476190476,78.96825396825396,25.634920634920633,40.079365079365076,36.904761904761905,125.79365079365078,-62.93650793650793,294.5238095238095,28.015873015873016,132.77777777777777,-1.507936507936508,325.0,-48.33333333333333,126.58730158730158,97.6984126984127,-321.8253968253968
-18.015873015873016,7.222222222222221,20.07936507936508,66.26984126984127,-11.984126984126984,106.42857142857142,13.412698412698411,325.0,-18.333333333333332,230.3968253968254,-14.047619047619047,22.142857142857142,40.079365079365076,52.93650793650794,-6.904761904761904,325.0,-17.063492063492063,123.57142857142857,163.73015873015873,325.0,31.507936507936506,-131.19047619047618,-101.5079365079365,-321.8253968253968
-18.015873015873016,7.222222222222221,20.07936507936508,66.26984126984127,-11.984126984126984,106.42857142857142,13.412698412698411,325.0,-18.333333333333332,230.3968253968254,-14.047619047619047,22.142857142857142,40.079365079365076,52.93650793650794,-6.904761904761904,325.0,-17.063492063492063,123.57142857142857,163.73015873015873,325.0,31.507936507936506,-131.19047619047618,-101.5079365079365,-321.8253968253968
23.095238095238095,35.476190476190474,49.76190476190476,28.333333333333332,24.206349206349206,162.3015873015873,55.476190476190474,325.0,36.269841269841265,83.09523809523809,21.984126984126984,29.285714285714285,33.888888888888886,114.2063492063492,-71.34920634920634,296.90476190476187,26.587301587301585,123.25396825396825,6.587301587301587,325.0,-48.80952380952381,132.93650793650792,103.88888888888889,-321.8253968253968
23.095238095238095,35.476190476190474,49.76190476190476,28.333333333333332,24.206349206349206,162.3015873015873,55.476190476190474,325.0,36.269841269841265,83.09523809523809,21.984126984126984,29.285714285714285,33.888888888888886,114.2063492063492,-71.34920634920634,296.90476190476187,26.587301587301585,123.25396825396825,6.587301587301587,325.0,-48.80952380952381,132.93650793650792,103.88888888888889,-321.8253968253968
-12.619047619047619,12.936507936507935,23.57142857142857,74.36507936507937,-7.857142857142857,109.6031746031746,16.428571428571427,325.0,-14.365079365079364,246.26984126984127,-9.603174603174603,29.126984126984127,42.77777777777778,57.22222222222222,3.571428571428571,325.0,-13.095238095238095,127.38095238095238,182.61904761904762,325.0,31.507936507936506,-136.26984126984127,-106.26984126984127,-321.8253968253968
-12.619047619047619,12.936507936507935,23.57142857142857,74.36507936507937,-7.857142857142857,109.6031746031746,16.428571428571427,325.0,-14.365079365079364,246.26984126984127,-9.603174603174603,29.126984126984127,42.77777777777778,57.22222222222222,3.571428571428571,325.0,-13.095238095238095,127.38095238095238,182.61904761904762,325.0,31.507936507936506,-136.26984126984127,-106.26984126984127,-321.8253968253968
17.539682539682538,26.746031746031743,44.36507936507936,13.095238095238095,19.444444444444443,145.79365079365078,49.76190476190476,325.0,31.98412698412698,85.63492063492063,17.38095238095238,16.746031746031743,29.444444444444443,101.98412698412697,-79.44444444444444,298.4920634920635,23.41269841269841,123.4126984126984,13.095238095238095,325.0,-47.53968253968254,139.9206349206349,108.01587301587301,-166.26984126984127
17.539682539682538,26.746031746031743,44.36507936507936,13.095238095238095,19.444444444444443,145.79365079365078,49.76190476190476,325.0,31.98412698412698,85.63492063492063,17.38095238095238,16.746031746031743,29.444444444444443,101.98412698412697,-79.44444444444444,298.4920634920635,23.41269841269841,123.4126984126984,13.095238095238095,325.0,-47.53968253968254,139.9206349206349,108.01587301587301,-166.26984126984127
-7.5396825396825395,18.333333333333332,26.587301587301585,82.3015873015873,-3.095238095238095,112.77777777777777,19.92063492063492,325.0,-10.079365079365079,261.66666666666663,-5.476190476190476,35.15873015873016,45.63492063492063,60.873015873015866,13.888888888888888,325.0,-9.126984126984127,144.84126984126982,184.52380952380952,325.0,30.238095238095237,-141.34920634920636,-111.03174603174602,-166.26984126984127
-7.5396825396825395,18.333333333333332,26.587301587301585,82.3015873015873,-3.095238095238095,112.77777777777777,19.92063492063492,325.0,-10.079365079365079,261.66666666666663,-5.476190476190476,35.15873015873016,45.63492063492063,60.873015873015866,13.888888888888888,325.0,-9.126984126984127,144.84126984126982,184.52380952380952,325.0,30.238095238095237,-141.34920634920636,-111.03174603174602,-166.26984126984127
10.396825396825395,44.84126984126984,42.460317460317455,102.61904761904762,15.0,174.68253968253967,42.3015873015873,325.0,17.698412698412696,67.6984126984127,12.619047619047619,57.698412698412696,42.3015873015873,116.1111111111111,-35.0,325.0,14.206349206349206,269.76190476190476,-5.476190476190476,325.0,6.26984126984127,-1.507936507936508,-0.873015873015873,-166.26984126984127
10.396825396825395,44.84126984126984,42.460317460317455,102.61904761904762,15.0,174.68253968253967,42.3015873015873,325.0,17.698412698412696,67.6984126984127,12.619047619047619,57.698412698412696,42.3015873015873,116.1111111111111,-35.0,325.0,14.206349206349206,269.76190476190476,-5.476190476190476,325.0,6.26984126984127,-1.507936507936508,-0.873015873015873,-166.26984126984127
18.49206349206349,52.3015873015873,49.76190476190476,106.1111111111111,22.936507936507937,180.87301587301587,50.39682539682539,325.0,25.79365079365079,82.3015873015873,20.71428571428571,63.25396825396825,50.238095238095234,122.77777777777777,-29.920634920634917,325.0,22.936507936507937,271.19047619047615,-4.682539682539682,325.0,-1.349206349206349,-7.3809523809523805,-5.158730158730158,-166.26984126984127
18.49206349206349,52.3015873015873,49.76190476190476,106.1111111111111,22.936507936507937,180.87301587301587,50.39682539682539,325.0,25.79365079365079,82.3015873015873,20.71428571428571,63.25396825396825,50.238095238095234,122.77777777777777,-29.920634920634917,325.0,22.936507936507937,271.19047619047615,-4.682539682539682,325.0,-1.349206349206349,-7.3809523809523805,-5.158730158730158,-166.26984126984127
10.238095238095237,44.52380952380952,41.19047619047619,98.33333333333333,15.0,169.9206349206349,41.507936507936506,325.0,17.539682539682538,84.52380952380952,12.619047619047619,55.95238095238095,41.34920634920635,113.25396825396825,-33.888888888888886,325.0,14.523809523809524,271.19047619047615,-8.809523809523808,325.0,6.904761904761904,-0.7142857142857142,-0.23809523809523808,-166.26984126984127
10.238095238095237,44.52380952380952,41.19047619047619,98.33333333333333,15.0,169.9206349206349,41.507936507936506,325.0,17.539682539682538,84.52380952380952,12.619047619047619,55.95238095238095,41.34920634920635,113.25396825396825,-33.888888888888886,325.0,14.523809523809524,271.19047619047615,-8.809523809523808,325.0,6.904761904761904,-0.7142857142857142,-0.23809523809523808,-166.26984126984127
17.857142857142858,51.34920634920635,48.33333333333333,101.03174603174602,22.3015873015873,175.79365079365078,49.12698412698413,325.0,25.317460317460316,99.44444444444444,20.396825396825395,60.55555555555555,48.96825396825397,119.76190476190476,-29.76190476190476,325.0,22.777777777777775,271.3492063492063,-7.3809523809523805,325.0,-1.507936507936508,-6.587301587301587,-4.682539682539682,-321.8253968253968
17.857142857142858,51.34920634920635,48.33333333333333,101.03174603174602,22.3015873015873,175.79365079365078,49.12698412698413,325.0,25.317460317460316,99.44444444444444,20.396825396825395,60.55555555555555,48.96825396825397,119.76190476190476,-29.76190476190476,325.0,22.777777777777775,271.3492063492063,-7.3809523809523805,325.0,-1.507936507936508,-6.587301587301587,-4.682539682539682,-321.8253968253968
9.603174603174603,43.73015873015873,39.76190476190476,93.73015873015872,14.047619047619047,165.63492063492063,40.079365079365076,325.0,16.904761904761905,102.14285714285714,12.142857142857142,53.888888888888886,39.92063492063492,110.87301587301587,-33.41269841269841,325.0,14.047619047619047,271.3492063492063,-10.555555555555555,325.0,7.063492063492063,-1.349206349206349,0.3968253968253968,-321.8253968253968
9.603174603174603,43.73015873015873,39.76190476190476,93.73015873015872,14.047619047619047,165.63492063492063,40.079365079365076,325.0,16.904761904761905,102.14285714285714,12.142857142857142,53.888888888888886,39.92063492063492,110.87301587301587,-33.41269841269841,325.0,14.047619047619047,271.3492063492063,-10.555555555555555,325.0,7.063492063492063,-1.349206349206349,0.3968253968253968,-321.8253968253968
11.19047619047619,34.84126984126984,37.857142857142854,106.58730158730158,11.19047619047619,123.25396825396825,31.19047619047619,325.0,3.73015873015873,306.58730158730157,8.65079365079365,55.63492063492063,54.36507936507936,74.52380952380952,48.01587301587301,325.0,4.365079365079365,201.66666666666666,188.8095238095238,325.0,16.428571428571427,-153.73015873015873,-119.28571428571428,-321.8253968253968
11.19047619047619,34.84126984126984,37.857142857142854,106.58730158730158,11.19047619047619,123.25396825396825,31.19047619047619,325.0,3.73015873015873,306.58730158730157,8.65079365079365,55.63492063492063,54.36507936507936,74.52380952380952,48.01587301587301,325.0,4.365079365079365,201.66666666666666,188.8095238095238,325.0,16.428571428571427,-153.73015873015873,-119.28571428571428,-321.8253968253968
9.126984126984127,42.3015873015873,38.49206349206349,88.4920634920635,13.73015873015873,160.87301587301587,38.65079365079365,325.0,16.26984126984127,120.55555555555554,11.666666666666666,51.34920634920635,38.96825396825397,107.6984126984127,-32.61904761904762,325.0,13.73015873015873,273.88888888888886,-13.253968253968253,325.0,6.746031746031746,-1.0317460317460316,-0.23809523809523808,-321.8253968253968
9.126984126984127,42.3015873015873,38.49206349206349,88.4920634920635,13.73015873015873,160.87301587301587,38.65079365079365,325.0,16.26984126984127,120.55555555555554,11.666666666666666,51.34920634920635,38.96825396825397,107.6984126984127,-32.61904761904762,325.0,13.73015873015873,273.88888888888886,-13.253968253968253,325.0,6.746031746031746,-1.0317460317460316,-0.23809523809523808,-321.8253968253968
18.015873015873016,40.87301587301587,42.14285714285714,115.31746031746032,16.428571428571427,127.22222222222221,35.95238095238095,325.0,9.285714285714285,318.015873015873,14.047619047619047,63.25396825396825,57.857142857142854,79.6031746031746,57.698412698412696,325.0,9.603174603174603,213.57142857142856,191.66666666666666,325.0,10.238095238095237,-155.79365079365078,-122.46031746031746,-321.8253968253968
18.015873015873016,40.87301587301587,42.14285714285714,115.31746031746032,16.428571428571427,127.22222222222221,35.95238095238095,325.0,9.285714285714285,318.015873015873,14.047619047619047,63.25396825396825,57.857142857142854,79.6031746031746,57.698412698412696,325.0,9.603174603174603,213.57142857142856,191.66666666666666,325.0,10.238095238095237,-155.79365079365078,-122.46031746031746,-321.8253968253968
8.333333333333332,41.03174603174603,36.58730158730159,83.4126984126984,12.777777777777777,155.79365079365078,37.06349206349206,325.0,15.634920634920634,138.65079365079364,10.873015873015872,48.80952380952381,37.22222222222222,104.68253968253968,-32.3015873015873,325.0,13.253968253968253,270.7142857142857,-12.46031746031746,325.0,6.26984126984127,-1.0317460317460316,-0.7142857142857142,-166.26984126984127
8.333333333333332,41.03174603174603,36.58730158730159,83.4126984126984,12.777777777777777,155.79365079365078,37.06349206349206,325.0,15.634920634920634,138.65079365079364,10.873015873015872,48.80952380952381,37.22222222222222,104.68253968253968,-32.3015873015873,325.0,13.253968253968253,270.7142857142857,-12.46031746031746,325.0,6.26984126984127,-1.0317460317460316,-0.7142857142857142,-166.26984126984127
-23.253968253968253,-34.36507936507936,-2.619047619047619,84.2063492063492,-28.333333333333332,66.74603174603175,-17.063492063492063,325.0,-39.92063492063492,304.5238095238095,-27.22222222222222,-10.238095238095237,4.2063492063492065,20.238095238095237,28.96825396825397,325.0,-28.809523809523807,240.7142857142857,325.0,325.0,-2.7777777777777777,-193.4126984126984,-155.47619047619048,-166.26984126984127
-23.253968253968253,-34.36507936507936,-2.619047619047619,84.2063492063492,-28.333333333333332,66.74603174603175,-17.063492063492063,325.0,-39.92063492063492,304.5238095238095,-27.22222222222222,-10.238095238095237,4.2063492063492065,20.238095238095237,28.96825396825397,325.0,-28.809523809523807,240.7142857142857,325.0,325.0,-2.7777777777777777,-193.4126984126984,-155.47619047619048,-166.26984126984127
-31.03174603174603,-37.38095238095238,-2.7777777777777777,-56.42857142857142,-23.88888888888889,47.38095238095238,1.8253968253968254,325.0,-10.396825396825395,71.98412698412697,-22.777777777777775,-56.74603174603174,-10.238095238095237,16.428571428571427,-126.74603174603173,287.06349206349205,-15.317460317460316,132.77777777777777,56.42857142857142,325.0,-20.71428571428571,161.34920634920633,124.52380952380952,-166.26984126984127
-31.03174603174603,-37.38095238095238,-2.7777777777777777,-56.42857142857142,-23.88888888888889,47.38095238095238,1.8253968253968254,325.0,-10.396825396825395,71.98412698412697,-22.777777777777775,-56.74603174603174,-10.238095238095237,16.428571428571427,-126.74603174603173,287.06349206349205,-15.317460317460316,132.77777777777777,56.42857142857142,325.0,-20.71428571428571,161.34920634920633,124.52380952380952,-166.26984126984127
13.253968253968253,42.460317460317455,40.238095238095234,75.15873015873015,17.38095238095238,153.88888888888889,41.19047619047619,325.0,20.555555555555554,148.015873015873,16.428571428571427,46.11111111111111,41.666666666666664,104.36507936507935,-31.825396825396822,325.0,18.96825396825397,259.1269841269841,-0.23809523809523808,325.0,-1.349206349206349,-6.587301587301587,-5.0,-166.26984126984127
13.253968253968253,42.460317460317455,40.238095238095234,75.15873015873015,17.38095238095238,153.88888888888889,41.19047619047619,325.0,20.555555555555554,148.015873015873,16.428571428571427,46.11111111111111,41.666666666666664,104.36507936507935,-31.825396825396822,325.0,18.96825396825397,259.1269841269841,-0.23809523809523808,325.0,-1.349206349206349,-6.587301587301587,-5.0,-166.26984126984127
5.952380952380952,36.11111111111111,32.61904761904762,70.39682539682539,10.238095238095237,144.84126984126982,33.095238095238095,325.0,12.936507936507935,154.36507936507937,8.968253968253968,41.507936507936506,33.57142857142857,96.26984126984127,-31.825396825396822,325.0,11.031746031746032,258.8095238095238,3.4126984126984126,325.0,6.587301587301587,-1.984126984126984,-1.0317460317460316,-166.26984126984127
5.952380952380952,36.11111111111111,32.61904761904762,70.39682539682539,10.238095238095237,144.84126984126982,33.095238095238095,325.0,12.936507936507935,154.36507936507937,8.968253968253968,41.507936507936506,33.57142857142857,96.26984126984127,-31.825396825396822,325.0,11.031746031746032,258.8095238095238,3.4126984126984126,325.0,6.587301587301587,-1.984126984126984,-1.0317460317460316,-166.26984126984127
41.507936507936506,59.285714285714285,56.58730158730158,130.55555555555554,34.682539682539684,141.19047619047618,51.19047619047619,325.0,26.9047619047619,297.22222222222223,31.349206349206348,85.79365079365078,68.96825396825396,95.15873015873015,76.42857142857143,325.0,25.952380952380953,242.77777777777777,203.25396825396825,325.0,-11.349206349206348,-162.93650793650792,-128.17460317460316,-321.8253968253968
41.507936507936506,59.285714285714285,56.58730158730158,130.55555555555554,34.682539682539684,141.19047619047618,51.19047619047619,325.0,26.9047619047619,297.22222222222223,31.349206349206348,85.79365079365078,68.96825396825396,95.15873015873015,76.42857142857143,325.0,25.952380952380953,242.77777777777777,203.25396825396825,325.0,-11.349206349206348,-162.93650793650792,-128.17460317460316,-321.8253968253968
-54.841269841269835,-62.460317460317455,-25.317460317460316,-71.34920634920634,-45.317460317460316,16.428571428571427,-21.507936507936506,325.0,-31.98412698412698,70.87301587301587,-42.93650793650794,-76.1111111111111,-28.809523809523807,-12.619047619047619,-135.0,272.46031746031747,-35.0,129.12698412698413,71.82539682539682,325.0,-5.634920634920634,164.68253968253967,128.65079365079364,-321.8253968253968
-54.841269841269835,-62.460317460317455,-25.317460317460316,-71.34920634920634,-45.317460317460316,16.428571428571427,-21.507936507936506,325.0,-31.98412698412698,70.87301587301587,-42.93650793650794,-76.1111111111111,-28.809523809523807,-12.619047619047619,-135.0,272.46031746031747,-35.0,129.12698412698413,71.82539682539682,325.0,-5.634920634920634,164.68253968253967,128.65079365079364,-321.8253968253968
50.55555555555555,65.95238095238095,62.61904761904761,131.66666666666666,41.82539682539682,145.79365079365078,57.38095238095238,325.0,34.2063492063492,287.6984126984127,38.17460317460317,91.19047619047619,73.25396825396825,101.03174603174602,78.96825396825396,325.0,32.3015873015873,245.47619047619045,204.68253968253967,325.0,-19.76190476190476,-163.25396825396825,-128.33333333333331,-321.8253968253968
50.55555555555555,65.95238095238095,62.61904761904761,131.66666666666666,41.82539682539682,145.79365079365078,57.38095238095238,325.0,34.2063492063492,287.6984126984127,38.17460317460317,91.19047619047619,73.25396825396825,101.03174603174602,78.96825396825396,325.0,32.3015873015873,245.47619047619045,204.68253968253967,325.0,-19.76190476190476,-163.25396825396825,-128.33333333333331,-321.8253968253968
3.4126984126984126,30.71428571428571,28.174603174603174,55.317460317460316,7.3809523809523805,131.66666666666666,28.809523809523807,325.0,10.238095238095237,167.38095238095238,6.26984126984127,32.93650793650794,29.6031746031746,86.58730158730158,-31.666666666666664,308.968253968254,8.65079365079365,228.65079365079364,12.46031746031746,325.0,5.634920634920634,-0.7142857142857142,-0.3968253968253968,-321.8253968253968
3.4126984126984126,30.71428571428571,28.174603174603174,55.317460317460316,7.3809523809523805,131.66666666666666,28.809523809523807,325.0,10.238095238095237,167.38095238095238,6.26984126984127,32.93650793650794,29.6031746031746,86.58730158730158,-31.666666666666664,308.968253968254,8.65079365079365,228.65079365079364,12.46031746031746,325.0,5.634920634920634,-0.7142857142857142,-0.3968253968253968,-321.8253968253968
60.079365079365076,72.77777777777777,68.96825396825396,131.03174603174602,49.285714285714285,150.55555555555554,64.04761904761905,325.0,41.82539682539682,279.76190476190476,45.15873015873016,95.0,78.01587301587301,107.53968253968253,79.12698412698413,325.0,39.12698412698413,237.2222222222222,212.77777777777777,325.0,-28.65079365079365,-163.57142857142856,-128.33333333333331,-321.8253968253968
60.079365079365076,72.77777777777777,68.96825396825396,131.03174603174602,49.285714285714285,150.55555555555554,64.04761904761905,325.0,41.82539682539682,279.76190476190476,45.15873015873016,95.0,78.01587301587301,107.53968253968253,79.12698412698413,325.0,39.12698412698413,237.2222222222222,212.77777777777777,325.0,-28.65079365079365,-163.57142857142856,-128.33333333333331,-321.8253968253968
-51.666666666666664,-72.46031746031746,-17.539682539682538,-126.58730158730158,-37.857142857142854,-56.74603174603174,-8.015873015873016,325.0,-18.49206349206349,127.85714285714285,-31.825396825396822,-91.98412698412697,8.333333333333332,-69.6031746031746,-119.44444444444444,203.7301587301587,-22.3015873015873,-44.047619047619044,215.47619047619045,325.0,-36.904761904761905,170.23809523809524,136.58730158730157,-166.26984126984127
-51.666666666666664,-72.46031746031746,-17.539682539682538,-126.58730158730158,-37.857142857142854,-56.74603174603174,-8.015873015873016,325.0,-18.49206349206349,127.85714285714285,-31.825396825396822,-91.98412698412697,8.333333333333332,-69.6031746031746,-119.44444444444444,203.7301587301587,-22.3015873015873,-44.047619047619044,215.47619047619045,325.0,-36.904761904761905,170.23809523809524,136.58730158730157,-166.26984126984127
70.23809523809524,79.76190476190476,75.15873015873015,128.8095238095238,57.53968253968254,156.9047619047619,70.87301587301587,325.0,49.92063492063492,268.4920634920635,53.095238095238095,97.06349206349206,82.93650793650794,114.2063492063492,77.06349206349206,325.0,46.42857142857142,230.07936507936506,218.96825396825395,325.0,-38.49206349206349,-163.73015873015873,-128.4920634920635,-166.26984126984127
70.23809523809524,79.76190476190476,75.15873015873015,128.8095238095238,57.53968253968254,156.9047619047619,70.87301587301587,325.0,49.92063492063492,268.4920634920635,53.095238095238095,97.06349206349206,82.93650793650794,114.2063492063492,77.06349206349206,325.0,46.42857142857142,230.07936507936506,218.96825396825395,325.0,-38.49206349206349,-163.73015873015873,-128.4920634920635,-166.26984126984127
-41.98412698412698,-37.698412698412696,-36.269841269841265,58.8095238095238,-51.34920634920635,71.03174603174602,-45.79365079365079,325.0,-56.11111111111111,115.15873015873015,-55.63492063492063,-8.492063492063492,-58.33333333333333,27.698412698412696,-32.14285714285714,279.1269841269841,-59.6031746031746,291.984126984127,132.61904761904762,325.0,24.047619047619047,9.285714285714285,2.3015873015873014,-166.26984126984127
-41.98412698412698,-37.698412698412696,-36.269841269841265,58.8095238095238,-51.34920634920635,71.03174603174602,-45.79365079365079,325.0,-56.11111111111111,115.15873015873015,-55.63492063492063,-8.492063492063492,-58.33333333333333,27.698412698412696,-32.14285714285714,279.1269841269841,-59.6031746031746,291.984126984127,132.61904761904762,325.0,24.047619047619047,9.285714285714285,2.3015873015873014,-166.26984126984127
23.41269841269841,27.22222222222222,51.03174603174603,-14.047619047619047,30.87301587301587,65.79365079365078,57.857142857142854,325.0,39.92063492063492,221.19047619047618,33.41269841269841,9.126984126984127,81.66666666666666,38.80952380952381,-29.444444444444443,259.2857142857143,38.80952380952381,42.14285714285714,172.46031746031744,325.0,-48.17460317460317,-13.571428571428571,-6.428571428571428,-166.26984126984127
23.41269841269841,27.22222222222222,51.03174603174603,-14.047619047619047,30.87301587301587,65.79365079365078,57.857142857142854,325.0,39.92063492063492,221.19047619047618,33.41269841269841,9.126984126984127,81.66666666666666,38.80952380952381,-29.444444444444443,259.2857142857143,38.80952380952381,42.14285714285714,172.46031746031744,325.0,-48.17460317460317,-13.571428571428571,-6.428571428571428,-166.26984126984127
1.0317460317460316,17.698412698412696,23.730158730158728,25.634920634920633,5.0,107.6984126984127,24.047619047619047,325.0,8.333333333333332,186.58730158730157,5.0,11.031746031746032,26.428571428571427,68.4920634920635,-37.53968253968254,264.2063492063492,8.174603174603174,174.2063492063492,45.15873015873016,325.0,-2.9365079365079363,-2.619047619047619,-1.6666666666666665,-166.26984126984127
1.0317460317460316,17.698412698412696,23.730158730158728,25.634920634920633,5.0,107.6984126984127,24.047619047619047,325.0,8.333333333333332,186.58730158730157,5.0,11.031746031746032,26.428571428571427,68.4920634920635,-37.53968253968254,264.2063492063492,8.174603174603174,174.2063492063492,45.15873015873016,325.0,-2.9365079365079363,-2.619047619047619,-1.6666666666666665,-166.26984126984127
-131.66666666666666,-108.96825396825396,-109.12698412698413,-30.396825396825395,-124.52380952380952,4.2063492063492065,-115.47619047619047,325.0,-121.03174603174602,61.03174603174603,-126.58730158730158,-82.14285714285714,-136.11111111111111,-35.63492063492063,-115.95238095238095,180.23809523809524,-123.25396825396825,224.36507936507934,-68.65079365079364,325.0,90.39682539682539,186.11111111111111,142.3015873015873,-321.8253968253968
-131.66666666666666,-108.96825396825396,-109.12698412698413,-30.396825396825395,-124.52380952380952,4.2063492063492065,-115.47619047619047,325.0,-121.03174603174602,61.03174603174603,-126.58730158730158,-82.14285714285714,-136.11111111111111,-35.63492063492063,-115.95238095238095,180.23809523809524,-123.25396825396825,224.36507936507934,-68.65079365079364,325.0,90.39682539682539,186.11111111111111,142.3015873015873,-321.8253968253968
14.206349206349206,15.0,42.77777777777778,-24.206349206349206,23.253968253968253,52.93650793650794,48.33333333333333,325.0,31.666666666666664,218.015873015873,26.428571428571427,-8.492063492063492,74.04761904761904,27.22222222222222,-42.3015873015873,259.44444444444446,32.460317460317455,43.25396825396825,198.015873015873,325.0,-46.58730158730158,-30.396825396825395,-19.92063492063492,-321.8253968253968
14.206349206349206,15.0,42.77777777777778,-24.206349206349206,23.253968253968253,52.93650793650794,48.33333333333333,325.0,31.666666666666664,218.015873015873,26.428571428571427,-8.492063492063492,74.04761904761904,27.22222222222222,-42.3015873015873,259.44444444444446,32.460317460317455,43.25396825396825,198.015873015873,325.0,-46.58730158730158,-30.396825396825395,-19.92063492063492,-321.8253968253968
-30.555555555555554,-23.88888888888889,-28.809523809523807,70.39682539682539,-41.03174603174603,75.0,-37.06349206349206,325.0,-45.317460317460316,103.88888888888889,-46.42857142857142,11.825396825396824,-55.317460317460316,34.84126984126984,-10.873015873015872,241.66666666666666,-53.095238095238095,265.0,124.52380952380952,325.0,17.38095238095238,34.36507936507936,23.253968253968253,-321.8253968253968
-30.555555555555554,-23.88888888888889,-28.809523809523807,70.39682539682539,-41.03174603174603,75.0,-37.06349206349206,325.0,-45.317460317460316,103.88888888888889,-46.42857142857142,11.825396825396824,-55.317460317460316,34.84126984126984,-10.873015873015872,241.66666666666666,-53.095238095238095,265.0,124.52380952380952,325.0,17.38095238095238,34.36507936507936,23.253968253968253,-321.8253968253968
9.444444444444445,8.015873015873016,38.49206349206349,-27.22222222222222,18.96825396825397,46.42857142857142,43.095238095238095,325.0,26.9047619047619,216.74603174603175,22.619047619047617,-15.95238095238095,69.28571428571428,20.71428571428571,-46.42857142857142,251.19047619047618,28.96825396825397,44.2063492063492,201.5079365079365,325.0,-44.047619047619044,-38.80952380952381,-26.428571428571427,-321.8253968253968
9.444444444444445,8.015873015873016,38.49206349206349,-27.22222222222222,18.96825396825397,46.42857142857142,43.095238095238095,325.0,26.9047619047619,216.74603174603175,22.619047619047617,-15.95238095238095,69.28571428571428,20.71428571428571,-46.42857142857142,251.19047619047618,28.96825396825397,44.2063492063492,201.5079365079365,325.0,-44.047619047619044,-38.80952380952381,-26.428571428571427,-321.8253968253968
-25.79365079365079,-17.857142857142858,-25.634920634920633,74.68253968253968,-37.38095238095238,77.06349206349206,-33.25396825396825,325.0,-40.87301587301587,100.39682539682539,-42.93650793650794,19.6031746031746,-52.14285714285714,38.33333333333333,-5.952380952380952,230.07936507936506,-49.44444444444444,256.4285714285714,121.19047619047619,325.0,13.571428571428571,42.77777777777778,29.444444444444443,-321.8253968253968
-25.79365079365079,-17.857142857142858,-25.634920634920633,74.68253968253968,-37.38095238095238,77.06349206349206,-33.25396825396825,325.0,-40.87301587301587,100.39682539682539,-42.93650793650794,19.6031746031746,-52.14285714285714,38.33333333333333,-5.952380952380952,230.07936507936506,-49.44444444444444,256.4285714285714,121.19047619047619,325.0,13.571428571428571,42.77777777777778,29.444444444444443,-321.8253968253968
-15.95238095238095,-19.444444444444443,-7.222222222222221,31.507936507936506,-21.03174603174603,36.42857142857142,-10.238095238095237,325.0,-20.238095238095237,111.19047619047619,-23.095238095238095,-1.8253968253968254,-5.476190476190476,6.428571428571428,-20.07936507936508,261.984126984127,-26.428571428571427,169.9206349206349,261.1904761904762,325.0,-20.396825396825395,-3.4126984126984126,-2.9365079365079363,-166.26984126984127
-15.95238095238095,-19.444444444444443,-7.222222222222221,31.507936507936506,-21.03174603174603,36.42857142857142,-10.238095238095237,325.0,-20.238095238095237,111.19047619047619,-23.095238095238095,-1.8253968253968254,-5.476190476190476,6.428571428571428,-20.07936507936508,261.984126984127,-26.428571428571427,169.9206349206349,261.1904761904762,325.0,-20.396825396825395,-3.4126984126984126,-2.9365079365079363,-166.26984126984127
-19.92063492063492,-11.349206349206348,-21.03174603174603,77.53968253968253,-31.666666666666664,79.6031746031746,-27.698412698412696,325.0,-35.0,95.15873015873015,-37.53968253968254,27.857142857142854,-47.38095238095238,42.14285714285714,-2.3015873015873014,217.85714285714283,-44.36507936507936,248.33333333333331,118.17460317460316,325.0,9.285714285714285,50.079365079365076,35.317460317460316,-166.26984126984127
-19.92063492063492,-11.349206349206348,-21.03174603174603,77.53968253968253,-31.666666666666664,79.6031746031746,-27.698412698412696,325.0,-35.0,95.15873015873015,-37.53968253968254,27.857142857142854,-47.38095238095238,42.14285714285714,-2.3015873015873014,217.85714285714283,-44.36507936507936,248.33333333333331,118.17460317460316,325.0,9.285714285714285,50.079365079365076,35.317460317460316,-166.26984126984127
95.63492063492063,81.5079365079365,79.28571428571428,162.93650793650792,69.28571428571428,171.984126984127,72.77777777777777,325.0,60.873015873015866,93.73015873015872,63.095238095238095,107.85714285714285,55.15873015873016,132.77777777777777,70.71428571428571,325.0,51.507936507936506,325.0,325.0,325.0,-88.96825396825396,-105.15873015873015,-86.9047619047619,-166.26984126984127
95.63492063492063,81.5079365079365,79.28571428571428,162.93650793650792,69.28571428571428,171.984126984127,72.77777777777777,325.0,60.873015873015866,93.73015873015872,63.095238095238095,107.85714285714285,55.15873015873016,132.77777777777777,70.71428571428571,325.0,51.507936507936506,325.0,325.0,325.0,-88.96825396825396,-105.15873015873015,-86.9047619047619,-166.26984126984127
