Fp1[1],Fp2[2],F3[3],F4[4],C3[5],C4[6],P3[7],P4[8],O1[9],O2[10],F7[11],F8[12],T3[13],T4[14],T5[15],T6[16],Fz[17],Pz[18],Cz[19],Pg1[20],Pg2[21],EOGR[22],EOOGL[23],EMG[24]
-168.8095238095238,-285.0,82.61904761904762,-274.68253968253964,-144.36507936507937,-325.0,21.19047619047619,-325.0,-160.7142857142857,-325.0,-137.69841269841268,-199.28571428571428,35.15873015873016,-244.04761904761904,-193.09523809523807,-325.0,-95.63492063492063,-325.0,-325.0,-325.0,149.76190476190476,199.9206349206349,158.17460317460316,-166.26984126984127
-168.8095238095238,-285.0,82.61904761904762,-274.68253968253964,-144.36507936507937,-325.0,21.19047619047619,-325.0,-160.7142857142857,-325.0,-137.69841269841268,-199.28571428571428,35.15873015873016,-244.04761904761904,-193.09523809523807,-325.0,-95.63492063492063,-325.0,-325.0,-325.0,149.76190476190476,199.9206349206349,158.17460317460316,-166.26984126984127
74.36507936507937,-146.58730158730157,258.4920634920635,-232.77777777777777,76.26984126984127,-325.0,236.9047619047619,-325.0,57.38095238095238,-325.0,84.04761904761904,44.2063492063492,240.3968253968254,-292.9365079365079,-58.49206349206349,-325.0,131.66666666666666,-325.0,-325.0,-325.0,-52.460317460317455,-196.58730158730157,-154.2063492063492,-166.26984126984127
74.36507936507937,-146.58730158730157,258.4920634920635,-232.77777777777777,76.26984126984127,-325.0,236.9047619047619,-325.0,57.38095238095238,-325.0,84.04761904761904,44.2063492063492,240.3968253968254,-292.9365079365079,-58.49206349206349,-325.0,131.66666666666666,-325.0,-325.0,-325.0,-52.460317460317455,-196.58730158730157,-154.2063492063492,-166.26984126984127
-161.19047619047618,-281.66666666666663,83.09523809523809,-268.968253968254,-139.44444444444443,-325.0,23.57142857142857,-325.0,-151.5079365079365,-325.0,-135.0,-195.0,34.047619047619044,-212.3015873015873,-173.4126984126984,-325.0,-98.49206349206348,-325.0,-325.0,-325.0,162.14285714285714,195.79365079365078,155.63492063492063,-166.26984126984127
-161.19047619047618,-281.66666666666663,83.09523809523809,-268.968253968254,-139.44444444444443,-325.0,23.57142857142857,-325.0,-151.5079365079365,-325.0,-135.0,-195.0,34.047619047619044,-212.3015873015873,-173.4126984126984,-325.0,-98.49206349206348,-325.0,-325.0,-325.0,162.14285714285714,195.79365079365078,155.63492063492063,-166.26984126984127
79.28571428571428,-115.47619047619047,260.7142857142857,-200.07936507936506,82.14285714285714,-325.0,240.2380952380952,-325.0,65.63492063492063,-325.0,89.92063492063491,90.07936507936508,243.7301587301587,-254.36507936507934,-58.8095238095238,-325.0,136.26984126984127,-325.0,-325.0,-325.0,-45.63492063492063,-192.77777777777777,-151.34920634920633,-166.26984126984127
79.28571428571428,-115.47619047619047,260.7142857142857,-200.07936507936506,82.14285714285714,-325.0,240.2380952380952,-325.0,65.63492063492063,-325.0,89.92063492063491,90.07936507936508,243.7301587301587,-254.36507936507934,-58.8095238095238,-325.0,136.26984126984127,-325.0,-325.0,-325.0,-45.63492063492063,-192.77777777777777,-151.34920634920633,-166.26984126984127
-137.38095238095238,-325.0,110.23809523809523,-325.0,-110.39682539682539,-325.0,58.8095238095238,-325.0,-110.07936507936508,-325.0,-107.53968253968253,-293.88888888888886,79.28571428571428,-325.0,-155.79365079365078,-325.0,-67.22222222222221,-325.0,-325.0,-325.0,61.34920634920635,118.01587301587301,98.17460317460316,-166.26984126984127
-137.38095238095238,-325.0,110.23809523809523,-325.0,-110.39682539682539,-325.0,58.8095238095238,-325.0,-110.07936507936508,-325.0,-107.53968253968253,-293.88888888888886,79.28571428571428,-325.0,-155.79365079365078,-325.0,-67.22222222222221,-325.0,-325.0,-325.0,61.34920634920635,118.01587301587301,98.17460317460316,-166.26984126984127
83.4126984126984,-73.4126984126984,265.1587301587301,-135.47619047619048,86.9047619047619,-325.0,243.09523809523807,-325.0,71.19047619047619,-325.0,94.52380952380952,127.22222222222221,246.42857142857142,-215.3174603174603,-59.92063492063492,-325.0,142.77777777777777,-325.0,-325.0,-325.0,-40.238095238095234,-188.8095238095238,-149.76190476190476,-321.8253968253968
83.4126984126984,-73.4126984126984,265.1587301587301,-135.47619047619048,86.9047619047619,-325.0,243.09523809523807,-325.0,71.19047619047619,-325.0,94.52380952380952,127.22222222222221,246.42857142857142,-215.3174603174603,-59.92063492063492,-325.0,142.77777777777777,-325.0,-325.0,-325.0,-40.238095238095234,-188.8095238095238,-149.76190476190476,-321.8253968253968
-145.15873015873015,-252.3015873015873,86.9047619047619,-258.3333333333333,-126.58730158730158,-325.0,25.952380952380953,-325.0,-138.17460317460316,-325.0,-126.1111111111111,-151.984126984127,33.095238095238095,-189.28571428571428,-137.53968253968253,-325.0,-91.34920634920634,-325.0,-325.0,-325.0,179.60317460317458,189.12698412698413,149.76190476190476,-321.8253968253968
-145.15873015873015,-252.3015873015873,86.9047619047619,-258.3333333333333,-126.58730158730158,-325.0,25.952380952380953,-325.0,-138.17460317460316,-325.0,-126.1111111111111,-151.984126984127,33.095238095238095,-189.28571428571428,-137.53968253968253,-325.0,-91.34920634920634,-325.0,-325.0,-325.0,179.60317460317458,189.12698412698413,149.76190476190476,-321.8253968253968
85.31746031746032,-31.666666666666664,270.07936507936506,3.4126984126984126,89.92063492063491,-325.0,247.2222222222222,-325.0,74.84126984126983,-325.0,97.85714285714285,148.17460317460316,249.44444444444443,-180.3968253968254,-62.93650793650793,-325.0,148.4920634920635,-325.0,-325.0,-325.0,-36.42857142857142,-184.04761904761904,-146.74603174603175,-321.8253968253968
85.31746031746032,-31.666666666666664,270.07936507936506,3.4126984126984126,89.92063492063491,-325.0,247.2222222222222,-325.0,74.84126984126983,-325.0,97.85714285714285,148.17460317460316,249.44444444444443,-180.3968253968254,-62.93650793650793,-325.0,148.4920634920635,-325.0,-325.0,-325.0,-36.42857142857142,-184.04761904761904,-146.74603174603175,-321.8253968253968
-136.11111111111111,-239.9206349206349,90.07936507936508,-251.5079365079365,-119.28571428571428,-325.0,28.96825396825397,-325.0,-129.9206349206349,-324.36507936507934,-120.55555555555554,-133.57142857142856,34.047619047619044,-186.9047619047619,-120.07936507936508,-325.0,-85.0,-325.0,-325.0,-325.0,186.74603174603175,185.15873015873015,145.95238095238093,-321.8253968253968
-136.11111111111111,-239.9206349206349,90.07936507936508,-251.5079365079365,-119.28571428571428,-325.0,28.96825396825397,-325.0,-129.9206349206349,-324.36507936507934,-120.55555555555554,-133.57142857142856,34.047619047619044,-186.9047619047619,-120.07936507936508,-325.0,-85.0,-325.0,-325.0,-325.0,186.74603174603175,185.15873015873015,145.95238095238093,-321.8253968253968
84.52380952380952,2.3015873015873014,275.0,70.39682539682539,92.14285714285714,-325.0,244.2063492063492,-325.0,77.85714285714285,-319.76190476190476,100.71428571428571,160.87301587301587,252.6190476190476,-24.365079365079364,-66.9047619047619,-325.0,152.61904761904762,-325.0,-325.0,-325.0,-34.2063492063492,-179.60317460317458,-143.25396825396825,-321.8253968253968
84.52380952380952,2.3015873015873014,275.0,70.39682539682539,92.14285714285714,-325.0,244.2063492063492,-325.0,77.85714285714285,-319.76190476190476,100.71428571428571,160.87301587301587,252.6190476190476,-24.365079365079364,-66.9047619047619,-325.0,152.61904761904762,-325.0,-325.0,-325.0,-34.2063492063492,-179.60317460317458,-143.25396825396825,-321.8253968253968
-126.42857142857142,-218.015873015873,94.36507936507935,-211.19047619047618,-110.07936507936508,-283.88888888888886,33.57142857142857,-325.0,-120.07936507936508,-313.73015873015873,-112.93650793650794,-119.12698412698413,37.06349206349206,-180.23809523809524,-103.09523809523809,-325.0,-77.85714285714285,-325.0,-325.0,-325.0,191.03174603174602,179.44444444444443,141.5079365079365,-166.26984126984127
-126.42857142857142,-218.015873015873,94.36507936507935,-211.19047619047618,-110.07936507936508,-283.88888888888886,33.57142857142857,-325.0,-120.07936507936508,-313.73015873015873,-112.93650793650794,-119.12698412698413,37.06349206349206,-180.23809523809524,-103.09523809523809,-325.0,-77.85714285714285,-325.0,-325.0,-325.0,191.03174603174602,179.44444444444443,141.5079365079365,-166.26984126984127
-8.809523809523808,-41.666666666666664,204.84126984126982,-43.25396825396825,7.063492063492063,-283.88888888888886,156.42857142857142,-325.0,-2.619047619047619,-309.4444444444444,10.714285714285714,40.39682539682539,163.4126984126984,15.793650793650793,-91.5079365079365,-325.0,73.57142857142857,-325.0,-325.0,-322.46031746031747,112.30158730158729,-0.07936507936507936,0.07936507936507936,-166.26984126984127
-8.809523809523808,-41.666666666666664,204.84126984126982,-43.25396825396825,7.063492063492063,-283.88888888888886,156.42857142857142,-325.0,-2.619047619047619,-309.4444444444444,10.714285714285714,40.39682539682539,163.4126984126984,15.793650793650793,-91.5079365079365,-325.0,73.57142857142857,-325.0,-325.0,-322.46031746031747,112.30158730158729,-0.07936507936507936,0.07936507936507936,-166.26984126984127
-116.1111111111111,-199.12698412698413,100.39682539682539,-181.984126984127,-100.71428571428571,-257.53968253968253,38.65079365079365,-325.0,-110.55555555555554,-302.77777777777777,-104.36507936507935,-107.06349206349206,41.03174603174603,-144.04761904761904,-86.58730158730158,-325.0,-67.38095238095238,-325.0,-325.0,-315.7936507936508,192.61904761904762,173.88888888888889,137.85714285714286,-166.26984126984127
-116.1111111111111,-199.12698412698413,100.39682539682539,-181.984126984127,-100.71428571428571,-257.53968253968253,38.65079365079365,-325.0,-110.55555555555554,-302.77777777777777,-104.36507936507935,-107.06349206349206,41.03174603174603,-144.04761904761904,-86.58730158730158,-325.0,-67.38095238095238,-325.0,-325.0,-315.7936507936508,192.61904761904762,173.88888888888889,137.85714285714286,-166.26984126984127
-7.5396825396825395,-41.507936507936506,210.07936507936506,-36.58730158730159,8.174603174603174,-257.53968253968253,152.46031746031744,-325.0,-1.1904761904761905,-298.4920634920635,11.349206349206348,30.238095238095237,159.6031746031746,50.238095238095234,-87.06349206349206,-325.0,74.2063492063492,-325.0,-325.0,-311.5079365079365,110.55555555555554,0.7142857142857142,0.873015873015873,-166.26984126984127
-7.5396825396825395,-41.507936507936506,210.07936507936506,-36.58730158730159,8.174603174603174,-257.53968253968253,152.46031746031744,-325.0,-1.1904761904761905,-298.4920634920635,11.349206349206348,30.238095238095237,159.6031746031746,50.238095238095234,-87.06349206349206,-325.0,74.2063492063492,-325.0,-325.0,-311.5079365079365,110.55555555555554,0.7142857142857142,0.873015873015873,-166.26984126984127
-105.31746031746032,-184.84126984126982,107.22222222222221,-158.4920634920635,-90.87301587301587,-250.7142857142857,44.52380952380952,-325.0,-100.23809523809523,-292.1428571428571,-95.31746031746032,-97.22222222222221,45.476190476190474,-118.17460317460316,-71.5079365079365,-325.0,-57.22222222222222,-325.0,-325.0,-305.0,193.88888888888889,168.17460317460316,133.57142857142856,-166.26984126984127
-105.31746031746032,-184.84126984126982,107.22222222222221,-158.4920634920635,-90.87301587301587,-250.7142857142857,44.52380952380952,-325.0,-100.23809523809523,-292.1428571428571,-95.31746031746032,-97.22222222222221,45.476190476190474,-118.17460317460316,-71.5079365079365,-325.0,-57.22222222222222,-325.0,-325.0,-305.0,193.88888888888889,168.17460317460316,133.57142857142856,-166.26984126984127
79.12698412698413,47.38095238095238,285.0,158.33333333333331,88.96825396825396,-209.28571428571428,226.42857142857142,-325.0,76.26984126984127,-287.22222222222223,97.38095238095238,178.4920634920635,238.33333333333331,160.55555555555554,-85.63492063492063,-325.0,155.3174603174603,-325.0,-325.0,-299.6031746031746,-25.317460317460316,-163.25396825396825,-131.8253968253968,-321.8253968253968
79.12698412698413,47.38095238095238,285.0,158.33333333333331,88.96825396825396,-209.28571428571428,226.42857142857142,-325.0,76.26984126984127,-287.22222222222223,97.38095238095238,178.4920634920635,238.33333333333331,160.55555555555554,-85.63492063492063,-325.0,155.3174603174603,-325.0,-325.0,-299.6031746031746,-25.317460317460316,-163.25396825396825,-131.8253968253968,-321.8253968253968
-93.88888888888889,-172.14285714285714,119.28571428571428,-128.33333333333331,-80.07936507936508,-246.1111111111111,51.34920634920635,-325.0,-89.12698412698413,-281.66666666666663,-85.15873015873015,-87.85714285714285,51.34920634920635,-97.22222222222221,-56.904761904761905,-325.0,-45.79365079365079,-325.0,-325.0,-294.2063492063492,191.66666666666666,161.5079365079365,128.33333333333331,-321.8253968253968
-93.88888888888889,-172.14285714285714,119.28571428571428,-128.33333333333331,-80.07936507936508,-246.1111111111111,51.34920634920635,-325.0,-89.12698412698413,-281.66666666666663,-85.15873015873015,-87.85714285714285,51.34920634920635,-97.22222222222221,-56.904761904761905,-325.0,-45.79365079365079,-325.0,-325.0,-294.2063492063492,191.66666666666666,161.5079365079365,128.33333333333331,-321.8253968253968
-5.476190476190476,-53.888888888888886,209.76190476190476,-30.238095238095237,9.444444444444445,-239.44444444444443,144.68253968253967,-325.0,1.0317460317460316,-278.015873015873,12.142857142857142,4.682539682539682,150.7142857142857,80.55555555555556,-80.07936507936508,-325.0,73.88888888888889,-325.0,-325.0,-290.39682539682536,106.1111111111111,2.619047619047619,0.873015873015873,-321.8253968253968
-5.476190476190476,-53.888888888888886,209.76190476190476,-30.238095238095237,9.444444444444445,-239.44444444444443,144.68253968253967,-325.0,1.0317460317460316,-278.015873015873,12.142857142857142,4.682539682539682,150.7142857142857,80.55555555555556,-80.07936507936508,-325.0,73.88888888888889,-325.0,-325.0,-290.39682539682536,106.1111111111111,2.619047619047619,0.873015873015873,-321.8253968253968
-81.34920634920634,-160.7142857142857,123.25396825396825,-98.17460317460316,-69.28571428571428,-243.4126984126984,58.8095238095238,-325.0,-77.38095238095238,-272.3015873015873,-75.0,-76.26984126984127,57.698412698412696,-77.85714285714285,-42.93650793650794,-325.0,-34.52380952380952,-325.0,-325.0,-284.04761904761904,187.69841269841268,154.52380952380952,123.73015873015872,-321.8253968253968
-81.34920634920634,-160.7142857142857,123.25396825396825,-98.17460317460316,-69.28571428571428,-243.4126984126984,58.8095238095238,-325.0,-77.38095238095238,-272.3015873015873,-75.0,-76.26984126984127,57.698412698412696,-77.85714285714285,-42.93650793650794,-325.0,-34.52380952380952,-325.0,-325.0,-284.04761904761904,187.69841269841268,154.52380952380952,123.73015873015872,-321.8253968253968
-4.0476190476190474,-62.14285714285714,204.2063492063492,-36.904761904761905,10.555555555555555,-227.2222222222222,141.66666666666666,-325.0,2.7777777777777777,-268.3333333333333,12.46031746031746,-3.888888888888889,146.58730158730157,83.57142857142857,-76.1111111111111,-325.0,73.88888888888889,-325.0,-325.0,-280.23809523809524,103.09523809523809,1.6666666666666665,0.873015873015873,-321.8253968253968
-4.0476190476190474,-62.14285714285714,204.2063492063492,-36.904761904761905,10.555555555555555,-227.2222222222222,141.66666666666666,-325.0,2.7777777777777777,-268.3333333333333,12.46031746031746,-3.888888888888889,146.58730158730157,83.57142857142857,-76.1111111111111,-325.0,73.88888888888889,-325.0,-325.0,-280.23809523809524,103.09523809523809,1.6666666666666665,0.873015873015873,-321.8253968253968
-88.17460317460316,-174.04761904761904,126.1111111111111,-39.12698412698413,-72.14285714285714,-325.0,57.38095238095238,-325.0,-77.38095238095238,-263.57142857142856,-78.17460317460316,-38.65079365079365,70.87301587301587,-90.87301587301587,-7.3809523809523805,-325.0,-32.3015873015873,-325.0,-325.0,-275.6349206349206,179.12698412698413,7.063492063492063,10.555555555555555,-166.26984126984127
-88.17460317460316,-174.04761904761904,126.1111111111111,-39.12698412698413,-72.14285714285714,-325.0,57.38095238095238,-325.0,-77.38095238095238,-263.57142857142856,-78.17460317460316,-38.65079365079365,70.87301587301587,-90.87301587301587,-7.3809523809523805,-325.0,-32.3015873015873,-325.0,-325.0,-275.6349206349206,179.12698412698413,7.063492063492063,10.555555555555555,-166.26984126984127
65.79365079365078,43.095238095238095,262.46031746031747,187.69841269841268,79.44444444444444,-110.07936507936508,204.2063492063492,-325.0,68.65079365079364,-258.015873015873,88.01587301587301,145.79365079365078,214.36507936507937,228.17460317460316,-98.33333333333333,-325.0,148.015873015873,-325.0,-325.0,-269.9206349206349,-9.920634920634921,-146.11111111111111,-118.65079365079364,-166.26984126984127
65.79365079365078,43.095238095238095,262.46031746031747,187.69841269841268,79.44444444444444,-110.07936507936508,204.2063492063492,-325.0,68.65079365079364,-258.015873015873,88.01587301587301,145.79365079365078,214.36507936507937,228.17460317460316,-98.33333333333333,-325.0,148.015873015873,-325.0,-325.0,-269.9206349206349,-9.920634920634921,-146.11111111111111,-118.65079365079364,-166.26984126984127
-57.698412698412696,-138.4920634920635,136.74603174603175,-87.38095238095238,-47.22222222222222,-246.42857142857142,74.2063492063492,-325.0,-54.2063492063492,-253.25396825396825,-54.047619047619044,-46.42857142857142,71.03174603174602,-45.95238095238095,-19.92063492063492,-322.3015873015873,-12.777777777777777,-325.0,-324.8412698412698,-265.1587301587301,178.65079365079364,142.93650793650792,114.84126984126983,-166.26984126984127
-57.698412698412696,-138.4920634920635,136.74603174603175,-87.38095238095238,-47.22222222222222,-246.42857142857142,74.2063492063492,-325.0,-54.2063492063492,-253.25396825396825,-54.047619047619044,-46.42857142857142,71.03174603174602,-45.95238095238095,-19.92063492063492,-322.3015873015873,-12.777777777777777,-325.0,-324.8412698412698,-265.1587301587301,178.65079365079364,142.93650793650792,114.84126984126983,-166.26984126984127
-2.9365079365079363,-75.63492063492063,192.77777777777777,-45.15873015873016,11.349206349206348,-206.26984126984127,134.2063492063492,-325.0,4.365079365079365,-249.76190476190476,12.936507936507935,-29.444444444444443,138.96825396825395,76.1111111111111,-69.12698412698413,-318.3333333333333,70.87301587301587,-325.0,-321.8253968253968,-261.5079365079365,97.53968253968253,3.095238095238095,1.349206349206349,-166.26984126984127
-2.9365079365079363,-75.63492063492063,192.77777777777777,-45.15873015873016,11.349206349206348,-206.26984126984127,134.2063492063492,-325.0,4.365079365079365,-249.76190476190476,12.936507936507935,-29.444444444444443,138.96825396825395,76.1111111111111,-69.12698412698413,-318.3333333333333,70.87301587301587,-325.0,-321.8253968253968,-261.5079365079365,97.53968253968253,3.095238095238095,1.349206349206349,-166.26984126984127
1.984126984126984,-76.74603174603175,195.47619047619045,-49.76190476190476,16.11111111111111,-206.42857142857142,137.85714285714286,-325.0,10.238095238095237,-245.3174603174603,17.857142857142858,-35.95238095238095,142.46031746031744,73.88888888888889,-67.53968253968253,-312.9365079365079,76.58730158730158,-325.0,-316.58730158730157,-256.90476190476187,89.28571428571428,1.8253968253968254,0.3968253968253968,-166.26984126984127
1.984126984126984,-76.74603174603175,195.47619047619045,-49.76190476190476,16.11111111111111,-206.42857142857142,137.85714285714286,-325.0,10.238095238095237,-245.3174603174603,17.857142857142858,-35.95238095238095,142.46031746031744,73.88888888888889,-67.53968253968253,-312.9365079365079,76.58730158730158,-325.0,-316.58730158730157,-256.90476190476187,89.28571428571428,1.8253968253968254,0.3968253968253968,-166.26984126984127
79.28571428571428,107.06349206349206,259.6031746031746,325.0,90.23809523809523,160.07936507936506,201.19047619047618,-325.0,77.38095238095238,-241.5079365079365,98.33333333333333,229.12698412698413,192.61904761904762,321.5079365079365,-117.6984126984127,-308.4920634920635,148.96825396825395,-325.0,-312.1428571428571,-253.09523809523807,-24.365079365079364,18.333333333333332,9.285714285714285,-321.8253968253968
79.28571428571428,107.06349206349206,259.6031746031746,325.0,90.23809523809523,160.07936507936506,201.19047619047618,-325.0,77.38095238095238,-241.5079365079365,98.33333333333333,229.12698412698413,192.61904761904762,321.5079365079365,-117.6984126984127,-308.4920634920635,148.96825396825395,-325.0,-312.1428571428571,-253.09523809523807,-24.365079365079364,18.333333333333332,9.285714285714285,-321.8253968253968
29.76190476190476,-8.174603174603174,204.68253968253967,77.6984126984127,38.33333333333333,4.2063492063492065,149.6031746031746,-321.8253968253968,29.444444444444443,-238.17460317460316,39.12698412698413,63.41269841269841,136.11111111111111,140.07936507936506,-80.07936507936508,-304.36507936507934,83.88888888888889,-321.5079365079365,-307.85714285714283,-249.60317460317458,59.12698412698413,154.04761904761904,117.53968253968253,-321.8253968253968
29.76190476190476,-8.174603174603174,204.68253968253967,77.6984126984127,38.33333333333333,4.2063492063492065,149.6031746031746,-321.8253968253968,29.444444444444443,-238.17460317460316,39.12698412698413,63.41269841269841,136.11111111111111,140.07936507936506,-80.07936507936508,-304.36507936507934,83.88888888888889,-321.5079365079365,-307.85714285714283,-249.60317460317458,59.12698412698413,154.04761904761904,117.53968253968253,-321.8253968253968
70.39682539682539,103.73015873015872,254.04761904761904,325.0,84.36507936507937,208.015873015873,194.2063492063492,-317.06349206349205,74.2063492063492,-233.4126984126984,93.73015873015872,220.87301587301587,184.52380952380952,325.0,-125.47619047619047,-298.4920634920635,150.23809523809524,-316.1111111111111,-301.8253968253968,-244.52380952380952,-16.746031746031743,32.3015873015873,18.65079365079365,-321.8253968253968
70.39682539682539,103.73015873015872,254.04761904761904,325.0,84.36507936507937,208.015873015873,194.2063492063492,-317.06349206349205,74.2063492063492,-233.4126984126984,93.73015873015872,220.87301587301587,184.52380952380952,325.0,-125.47619047619047,-298.4920634920635,150.23809523809524,-316.1111111111111,-301.8253968253968,-244.52380952380952,-16.746031746031743,32.3015873015873,18.65079365079365,-321.8253968253968
-22.46031746031746,-110.55555555555554,155.3174603174603,-63.095238095238095,-14.047619047619047,-153.4126984126984,98.65079365079364,-309.76190476190476,-18.96825396825397,-227.53968253968253,-21.349206349206348,-43.57142857142857,94.52380952380952,-16.746031746031743,1.349206349206349,-291.66666666666663,20.555555555555554,-309.1269841269841,-295.0,-238.65079365079364,160.07936507936506,118.65079365079364,96.42857142857142,-321.8253968253968
-22.46031746031746,-110.55555555555554,155.3174603174603,-63.095238095238095,-14.047619047619047,-153.4126984126984,98.65079365079364,-309.76190476190476,-18.96825396825397,-227.53968253968253,-21.349206349206348,-43.57142857142857,94.52380952380952,-16.746031746031743,1.349206349206349,-291.66666666666663,20.555555555555554,-309.1269841269841,-295.0,-238.65079365079364,160.07936507936506,118.65079365079364,96.42857142857142,-321.8253968253968
58.17460317460317,98.49206349206348,245.63492063492063,325.0,76.1111111111111,248.33333333333331,183.4126984126984,-306.58730158730157,67.53968253968253,-225.0,86.1111111111111,205.95238095238093,174.52380952380952,325.0,-132.3015873015873,-288.8095238095238,149.44444444444443,-306.1111111111111,-292.1428571428571,-236.1111111111111,-7.698412698412698,43.888888888888886,30.07936507936508,-321.8253968253968
58.17460317460317,98.49206349206348,245.63492063492063,325.0,76.1111111111111,248.33333333333331,183.4126984126984,-306.58730158730157,67.53968253968253,-225.0,86.1111111111111,205.95238095238093,174.52380952380952,325.0,-132.3015873015873,-288.8095238095238,149.44444444444443,-306.1111111111111,-292.1428571428571,-236.1111111111111,-7.698412698412698,43.888888888888886,30.07936507936508,-321.8253968253968
-18.65079365079365,-80.55555555555556,167.2222222222222,65.47619047619047,-8.174603174603174,-100.71428571428571,105.79365079365078,-301.19047619047615,-13.888888888888888,-220.3968253968254,-16.26984126984127,38.80952380952381,115.47619047619047,30.396825396825395,57.53968253968254,-283.4126984126984,27.38095238095238,-300.55555555555554,-286.4285714285714,-231.5079365079365,189.76190476190476,-62.93650793650793,-44.52380952380952,-166.26984126984127
-18.65079365079365,-80.55555555555556,167.2222222222222,65.47619047619047,-8.174603174603174,-100.71428571428571,105.79365079365078,-301.19047619047615,-13.888888888888888,-220.3968253968254,-16.26984126984127,38.80952380952381,115.47619047619047,30.396825396825395,57.53968253968254,-283.4126984126984,27.38095238095238,-300.55555555555554,-286.4285714285714,-231.5079365079365,189.76190476190476,-62.93650793650793,-44.52380952380952,-166.26984126984127
45.63492063492063,89.92063492063491,233.88888888888889,325.0,64.2063492063492,286.58730158730157,170.55555555555554,-296.90476190476187,59.285714285714285,-217.38095238095238,75.95238095238095,183.57142857142856,161.03174603174602,325.0,-138.8095238095238,-279.9206349206349,144.84126984126982,-296.58730158730157,-282.46031746031747,-228.33333333333331,3.4126984126984126,57.06349206349206,39.285714285714285,-166.26984126984127
45.63492063492063,89.92063492063491,233.88888888888889,325.0,64.2063492063492,286.58730158730157,170.55555555555554,-296.90476190476187,59.285714285714285,-217.38095238095238,75.95238095238095,183.57142857142856,161.03174603174602,325.0,-138.8095238095238,-279.9206349206349,144.84126984126982,-296.58730158730157,-282.46031746031747,-228.33333333333331,3.4126984126984126,57.06349206349206,39.285714285714285,-166.26984126984127
-1.507936507936508,-93.09523809523809,165.3174603174603,-50.079365079365076,6.746031746031746,-84.04761904761904,115.0,-290.55555555555554,4.682539682539682,-211.8253968253968,0.3968253968253968,-32.460317460317455,111.34920634920634,-6.111111111111111,10.555555555555555,-272.9365079365079,40.714285714285715,-289.9206349206349,-275.95238095238096,-222.46031746031744,142.77777777777777,101.66666666666666,83.57142857142857,-166.26984126984127
-1.507936507936508,-93.09523809523809,165.3174603174603,-50.079365079365076,6.746031746031746,-84.04761904761904,115.0,-290.55555555555554,4.682539682539682,-211.8253968253968,0.3968253968253968,-32.460317460317455,111.34920634920634,-6.111111111111111,10.555555555555555,-272.9365079365079,40.714285714285715,-289.9206349206349,-275.95238095238096,-222.46031746031744,142.77777777777777,101.66666666666666,83.57142857142857,-166.26984126984127
33.25396825396825,80.07936507936508,219.28571428571428,325.0,52.460317460317455,317.22222222222223,154.52380952380952,-287.6984126984127,47.22222222222222,-209.60317460317458,63.095238095238095,160.07936507936506,145.15873015873015,325.0,-145.0,-270.39682539682536,137.38095238095238,-287.06349206349205,-273.25396825396825,-220.55555555555554,14.84126984126984,68.80952380952381,49.44444444444444,-166.26984126984127
33.25396825396825,80.07936507936508,219.28571428571428,325.0,52.460317460317455,317.22222222222223,154.52380952380952,-287.6984126984127,47.22222222222222,-209.60317460317458,63.095238095238095,160.07936507936506,145.15873015873015,325.0,-145.0,-270.39682539682536,137.38095238095238,-287.06349206349205,-273.25396825396825,-220.55555555555554,14.84126984126984,68.80952380952381,49.44444444444444,-166.26984126984127
7.698412698412698,-85.79365079365078,168.4920634920635,-46.269841269841265,15.634920634920634,-61.82539682539682,121.03174603174602,-281.3492063492063,14.84126984126984,-204.36507936507937,9.603174603174603,-29.126984126984127,118.8095238095238,-2.7777777777777777,12.142857142857142,-264.04761904761904,48.96825396825397,-280.55555555555554,-266.74603174603175,-214.84126984126982,133.73015873015873,95.0,77.22222222222221,-166.26984126984127
7.698412698412698,-85.79365079365078,168.4920634920635,-46.269841269841265,15.634920634920634,-61.82539682539682,121.03174603174602,-281.3492063492063,14.84126984126984,-204.36507936507937,9.603174603174603,-29.126984126984127,118.8095238095238,-2.7777777777777777,12.142857142857142,-264.04761904761904,48.96825396825397,-280.55555555555554,-266.74603174603175,-214.84126984126982,133.73015873015873,95.0,77.22222222222221,-166.26984126984127
3.095238095238095,-15.634920634920634,179.9206349206349,188.33333333333331,21.349206349206348,210.7142857142857,119.76190476190476,-277.06349206349205,12.936507936507935,-201.03174603174602,29.285714285714285,40.238095238095234,127.6984126984127,217.38095238095238,-104.36507936507935,-260.07936507936506,96.58730158730158,-276.58730158730157,-262.77777777777777,-211.34920634920633,47.698412698412696,-90.87301587301587,-76.26984126984127,-321.8253968253968
3.095238095238095,-15.634920634920634,179.9206349206349,188.33333333333331,21.349206349206348,210.7142857142857,119.76190476190476,-277.06349206349205,12.936507936507935,-201.03174603174602,29.285714285714285,40.238095238095234,127.6984126984127,217.38095238095238,-104.36507936507935,-260.07936507936506,96.58730158730158,-276.58730158730157,-262.77777777777777,-211.34920634920633,47.698412698412696,-90.87301587301587,-76.26984126984127,-321.8253968253968
16.26984126984127,-79.6031746031746,171.34920634920633,-43.095238095238095,24.365079365079364,-44.36507936507936,127.6984126984127,-272.3015873015873,24.68253968253968,-197.06349206349205,18.65079365079365,-26.11111111111111,126.1111111111111,-0.7142857142857142,11.984126984126984,-255.63492063492063,57.06349206349206,-271.66666666666663,-258.17460317460313,-207.38095238095238,123.25396825396825,86.26984126984127,71.03174603174602,-321.8253968253968
16.26984126984127,-79.6031746031746,171.34920634920633,-43.095238095238095,24.365079365079364,-44.36507936507936,127.6984126984127,-272.3015873015873,24.68253968253968,-197.06349206349205,18.65079365079365,-26.11111111111111,126.1111111111111,-0.7142857142857142,11.984126984126984,-255.63492063492063,57.06349206349206,-271.66666666666663,-258.17460317460313,-207.38095238095238,123.25396825396825,86.26984126984127,71.03174603174602,-321.8253968253968
5.634920634920634,53.57142857142857,187.06349206349205,325.0,25.634920634920633,325.0,121.19047619047619,-270.07936507936506,20.873015873015873,-195.47619047619045,35.15873015873016,111.5079365079365,109.44444444444444,325.0,-156.42857142857142,-253.09523809523807,113.73015873015872,-269.1269841269841,-255.63492063492063,-205.47619047619045,38.80952380952381,93.88888888888889,70.23809523809524,-321.8253968253968
5.634920634920634,53.57142857142857,187.06349206349205,325.0,25.634920634920633,325.0,121.19047619047619,-270.07936507936506,20.873015873015873,-195.47619047619045,35.15873015873016,111.5079365079365,109.44444444444444,325.0,-156.42857142857142,-253.09523809523807,113.73015873015872,-269.1269841269841,-255.63492063492063,-205.47619047619045,38.80952380952381,93.88888888888889,70.23809523809524,-321.8253968253968
24.047619047619047,-74.04761904761904,174.2063492063492,-39.285714285714285,31.98412698412698,-29.444444444444443,133.4126984126984,-263.57142857142856,33.73015873015873,-190.3968253968254,26.9047619047619,-23.57142857142857,132.3015873015873,1.349206349206349,10.396825396825395,-247.38095238095238,64.68253968253968,-263.0952380952381,-249.44444444444443,-200.3968253968254,111.19047619047619,77.38095238095238,63.888888888888886,-321.8253968253968
24.047619047619047,-74.04761904761904,174.2063492063492,-39.285714285714285,31.98412698412698,-29.444444444444443,133.4126984126984,-263.57142857142856,33.73015873015873,-190.3968253968254,26.9047619047619,-23.57142857142857,132.3015873015873,1.349206349206349,10.396825396825395,-247.38095238095238,64.68253968253968,-263.0952380952381,-249.44444444444443,-200.3968253968254,111.19047619047619,77.38095238095238,63.888888888888886,-321.8253968253968
-7.698412698412698,37.38095238095238,170.55555555555554,325.0,12.936507936507935,325.0,104.36507936507935,-261.1904761904762,7.857142857142857,-188.4920634920635,21.507936507936506,89.44444444444444,92.77777777777777,325.0,-162.14285714285714,-244.84126984126982,99.28571428571428,-260.39682539682536,-247.2222222222222,-198.33333333333331,49.285714285714285,106.26984126984127,78.96825396825396,-321.8253968253968
-7.698412698412698,37.38095238095238,170.55555555555554,325.0,12.936507936507935,325.0,104.36507936507935,-261.1904761904762,7.857142857142857,-188.4920634920635,21.507936507936506,89.44444444444444,92.77777777777777,325.0,-162.14285714285714,-244.84126984126982,99.28571428571428,-260.39682539682536,-247.2222222222222,-198.33333333333331,49.285714285714285,106.26984126984127,78.96825396825396,-321.8253968253968
51.34920634920635,3.253968253968254,207.2222222222222,124.04761904761904,58.01587301587301,82.14285714285714,160.07936507936506,-256.1111111111111,56.58730158730158,-184.36507936507937,51.82539682539682,98.33333333333333,171.19047619047618,95.63492063492063,100.23809523809523,-239.9206349206349,91.03174603174602,-255.79365079365078,-242.3015873015873,-193.88888888888889,142.77777777777777,-126.26984126984127,-93.09523809523809,-166.26984126984127
51.34920634920635,3.253968253968254,207.2222222222222,124.04761904761904,58.01587301587301,82.14285714285714,160.07936507936506,-256.1111111111111,56.58730158730158,-184.36507936507937,51.82539682539682,98.33333333333333,171.19047619047618,95.63492063492063,100.23809523809523,-239.9206349206349,91.03174603174602,-255.79365079365078,-242.3015873015873,-193.88888888888889,142.77777777777777,-126.26984126984127,-93.09523809523809,-166.26984126984127
-20.396825396825395,21.984126984126984,154.2063492063492,308.8095238095238,0.23809523809523808,325.0,88.33333333333333,-252.93650793650792,-4.523809523809524,-182.14285714285714,8.174603174603174,71.19047619047619,75.31746031746032,325.0,-167.06349206349205,-237.06349206349205,85.31746031746032,-252.3015873015873,-239.12698412698413,-191.5079365079365,59.6031746031746,117.6984126984127,88.4920634920635,-166.26984126984127
-20.396825396825395,21.984126984126984,154.2063492063492,308.8095238095238,0.23809523809523808,325.0,88.33333333333333,-252.93650793650792,-4.523809523809524,-182.14285714285714,8.174603174603174,71.19047619047619,75.31746031746032,325.0,-167.06349206349205,-237.06349206349205,85.31746031746032,-252.3015873015873,-239.12698412698413,-191.5079365079365,59.6031746031746,117.6984126984127,88.4920634920635,-166.26984126984127
64.52380952380952,19.6031746031746,215.63492063492063,136.58730158730157,70.23809523809524,104.2063492063492,169.76190476190476,-248.49206349206347,70.23809523809524,-109.12698412698413,64.52380952380952,108.01587301587301,181.34920634920633,108.33333333333333,105.31746031746032,-231.98412698412696,103.88888888888889,-247.53968253968253,-234.2063492063492,-187.38095238095238,128.33333333333331,-138.17460317460316,-103.09523809523809,-166.26984126984127
64.52380952380952,19.6031746031746,215.63492063492063,136.58730158730157,70.23809523809524,104.2063492063492,169.76190476190476,-248.49206349206347,70.23809523809524,-109.12698412698413,64.52380952380952,108.01587301587301,181.34920634920633,108.33333333333333,105.31746031746032,-231.98412698412696,103.88888888888889,-247.53968253968253,-234.2063492063492,-187.38095238095238,128.33333333333331,-138.17460317460316,-103.09523809523809,-166.26984126984127
-25.79365079365079,-52.460317460317455,128.33333333333331,185.0,-12.777777777777777,210.7142857142857,70.55555555555556,-243.7301587301587,-22.777777777777775,-82.3015873015873,-7.063492063492063,-6.746031746031746,73.73015873015872,209.12698412698413,-89.76190476190476,-227.85714285714283,51.507936507936506,-243.09523809523807,-229.9206349206349,-184.04761904761904,73.88888888888889,-56.269841269841265,-48.80952380952381,-166.26984126984127
-25.79365079365079,-52.460317460317455,128.33333333333331,185.0,-12.777777777777777,210.7142857142857,70.55555555555556,-243.7301587301587,-22.777777777777775,-82.3015873015873,-7.063492063492063,-6.746031746031746,73.73015873015872,209.12698412698413,-89.76190476190476,-227.85714285714283,51.507936507936506,-243.09523809523807,-229.9206349206349,-184.04761904761904,73.88888888888889,-56.269841269841265,-48.80952380952381,-166.26984126984127
77.38095238095238,35.317460317460316,222.77777777777777,147.85714285714286,81.82539682539682,123.57142857142857,179.60317460317458,-240.07936507936506,81.98412698412697,31.19047619047619,76.42857142857143,116.1111111111111,191.8253968253968,122.14285714285714,109.28571428571428,-224.2063492063492,115.31746031746032,-239.44444444444443,-226.58730158730157,-180.87301587301587,113.09523809523809,-150.3968253968254,-111.5079365079365,-166.26984126984127
77.38095238095238,35.317460317460316,222.77777777777777,147.85714285714286,81.82539682539682,123.57142857142857,179.60317460317458,-240.07936507936506,81.98412698412697,31.19047619047619,76.42857142857143,116.1111111111111,191.8253968253968,122.14285714285714,109.28571428571428,-224.2063492063492,115.31746031746032,-239.44444444444443,-226.58730158730157,-180.87301587301587,113.09523809523809,-150.3968253968254,-111.5079365079365,-166.26984126984127
29.920634920634917,-36.58730158730159,168.17460317460316,120.39682539682539,33.888888888888886,112.77777777777777,121.34920634920634,-237.38095238095238,25.952380952380953,46.74603174603175,33.095238095238095,26.587301587301585,136.74603174603175,106.58730158730158,55.95238095238095,-221.66666666666666,71.34920634920634,-236.9047619047619,-223.88888888888889,-178.8095238095238,94.2063492063492,-193.4126984126984,-151.8253968253968,-321.8253968253968
29.920634920634917,-36.58730158730159,168.17460317460316,120.39682539682539,33.888888888888886,112.77777777777777,121.34920634920634,-237.38095238095238,25.952380952380953,46.74603174603175,33.095238095238095,26.587301587301585,136.74603174603175,106.58730158730158,55.95238095238095,-221.66666666666666,71.34920634920634,-236.9047619047619,-223.88888888888889,-178.8095238095238,94.2063492063492,-193.4126984126984,-151.8253968253968,-321.8253968253968
44.84126984126984,-51.82539682539682,176.26984126984127,-19.92063492063492,54.36507936507936,10.555555555555555,147.38095238095238,-231.66666666666666,59.76190476190476,-13.73015873015873,51.507936507936506,-15.793650793650793,152.77777777777777,13.412698412698411,3.4126984126984126,-216.1111111111111,86.26984126984127,-231.03174603174602,-218.17460317460316,-174.04761904761904,67.38095238095238,41.82539682539682,36.904761904761905,-321.8253968253968
44.84126984126984,-51.82539682539682,176.26984126984127,-19.92063492063492,54.36507936507936,10.555555555555555,147.38095238095238,-231.66666666666666,59.76190476190476,-13.73015873015873,51.507936507936506,-15.793650793650793,152.77777777777777,13.412698412698411,3.4126984126984126,-216.1111111111111,86.26984126984127,-231.03174603174602,-218.17460317460316,-174.04761904761904,67.38095238095238,41.82539682539682,36.904761904761905,-321.8253968253968
-34.36507936507936,-64.2063492063492,107.85714285714285,169.60317460317458,-24.047619047619047,218.015873015873,50.87301587301587,-228.49206349206347,-35.15873015873016,-52.14285714285714,-19.76190476190476,-15.95238095238095,51.98412698412698,206.9047619047619,-79.12698412698413,-213.25396825396825,32.77777777777778,-164.84126984126982,-92.46031746031746,-171.66666666666666,82.61904761904762,-36.74603174603175,-35.15873015873016,-321.8253968253968
-34.36507936507936,-64.2063492063492,107.85714285714285,169.60317460317458,-24.047619047619047,218.015873015873,50.87301587301587,-228.49206349206347,-35.15873015873016,-52.14285714285714,-19.76190476190476,-15.95238095238095,51.98412698412698,206.9047619047619,-79.12698412698413,-213.25396825396825,32.77777777777778,-164.84126984126982,-92.46031746031746,-171.66666666666666,82.61904761904762,-36.74603174603175,-35.15873015873016,-321.8253968253968
-8.809523809523808,-131.19047619047618,111.66666666666666,-45.63492063492063,-0.3968253968253968,-5.952380952380952,79.6031746031746,-225.3174603174603,-3.73015873015873,-15.0,1.0317460317460316,-106.58730158730158,89.12698412698413,-12.777777777777777,-47.22222222222222,-210.3968253968254,32.61904761904762,-199.12698412698413,-88.96825396825396,-168.8095238095238,52.460317460317455,4.0476190476190474,0.873015873015873,-321.8253968253968
-8.809523809523808,-131.19047619047618,111.66666666666666,-45.63492063492063,-0.3968253968253968,-5.952380952380952,79.6031746031746,-225.3174603174603,-3.73015873015873,-15.0,1.0317460317460316,-106.58730158730158,89.12698412698413,-12.777777777777777,-47.22222222222222,-210.3968253968254,32.61904761904762,-199.12698412698413,-88.96825396825396,-168.8095238095238,52.460317460317455,4.0476190476190474,0.873015873015873,-321.8253968253968
-36.11111111111111,-68.17460317460318,99.6031746031746,163.09523809523807,-27.539682539682538,223.09523809523807,44.36507936507936,-221.34920634920633,-38.80952380952381,-48.96825396825397,-24.206349206349206,-17.698412698412696,42.77777777777778,206.9047619047619,-73.09523809523809,-206.26984126984127,25.158730158730158,-14.365079365079364,-36.904761904761905,-165.47619047619045,85.31746031746032,-27.539682539682538,-27.38095238095238,-321.8253968253968
-36.11111111111111,-68.17460317460318,99.6031746031746,163.09523809523807,-27.539682539682538,223.09523809523807,44.36507936507936,-221.34920634920633,-38.80952380952381,-48.96825396825397,-24.206349206349206,-17.698412698412696,42.77777777777778,206.9047619047619,-73.09523809523809,-206.26984126984127,25.158730158730158,-14.365079365079364,-36.904761904761905,-165.47619047619045,85.31746031746032,-27.539682539682538,-27.38095238095238,-321.8253968253968
-9.126984126984127,-130.07936507936506,105.0,-37.857142857142854,-1.6666666666666665,-0.07936507936507936,75.79365079365078,-218.33333333333331,-5.0,-4.0476190476190474,0.23809523809523808,-102.46031746031746,85.47619047619047,-14.682539682539682,-44.84126984126984,-203.25396825396825,28.49206349206349,-130.55555555555554,-27.539682539682538,-163.09523809523807,48.80952380952381,3.4126984126984126,0.873015873015873,-166.26984126984127
-9.126984126984127,-130.07936507936506,105.0,-37.857142857142854,-1.6666666666666665,-0.07936507936507936,75.79365079365078,-218.33333333333331,-5.0,-4.0476190476190474,0.23809523809523808,-102.46031746031746,85.47619047619047,-14.682539682539682,-44.84126984126984,-203.25396825396825,28.49206349206349,-130.55555555555554,-27.539682539682538,-163.09523809523807,48.80952380952381,3.4126984126984126,0.873015873015873,-166.26984126984127
-36.42857142857142,-71.03174603174602,92.61904761904762,157.38095238095238,-29.76190476190476,228.8095238095238,38.17460317460317,-214.2063492063492,-41.666666666666664,-49.12698412698413,-28.015873015873016,-18.174603174603174,35.15873015873016,194.68253968253967,-66.58730158730158,-199.44444444444443,18.65079365079365,80.07936507936508,-1.8253968253968254,-159.6031746031746,87.6984126984127,-18.174603174603174,-18.96825396825397,-166.26984126984127
-36.42857142857142,-71.03174603174602,92.61904761904762,157.38095238095238,-29.76190476190476,228.8095238095238,38.17460317460317,-214.2063492063492,-41.666666666666664,-49.12698412698413,-28.015873015873016,-18.174603174603174,35.15873015873016,194.68253968253967,-66.58730158730158,-199.44444444444443,18.65079365079365,80.07936507936508,-1.8253968253968254,-159.6031746031746,87.6984126984127,-18.174603174603174,-18.96825396825397,-166.26984126984127
-9.444444444444445,-127.85714285714285,99.12698412698413,-29.444444444444443,-2.619047619047619,6.587301587301587,71.34920634920634,-211.19047619047618,-6.26984126984127,62.14285714285714,-0.873015873015873,-96.74603174603175,82.3015873015873,-16.746031746031743,-41.666666666666664,-196.58730158730157,24.365079365079364,-77.38095238095238,11.507936507936508,-157.2222222222222,44.84126984126984,2.619047619047619,0.5555555555555556,-166.26984126984127
-9.444444444444445,-127.85714285714285,99.12698412698413,-29.444444444444443,-2.619047619047619,6.587301587301587,71.34920634920634,-211.19047619047618,-6.26984126984127,62.14285714285714,-0.873015873015873,-96.74603174603175,82.3015873015873,-16.746031746031743,-41.666666666666664,-196.58730158730157,24.365079365079364,-77.38095238095238,11.507936507936508,-157.2222222222222,44.84126984126984,2.619047619047619,0.5555555555555556,-166.26984126984127
-83.25396825396825,-59.92063492063492,65.15873015873015,159.12698412698413,-64.84126984126983,325.0,4.841269841269841,-208.33333333333331,-68.17460317460318,-102.30158730158729,-61.34920634920635,-15.634920634920634,-13.571428571428571,271.984126984127,-165.15873015873015,-193.88888888888889,4.841269841269841,114.36507936507935,-221.66666666666666,-155.3174603174603,121.66666666666666,185.63492063492063,142.93650793650792,-166.26984126984127
-83.25396825396825,-59.92063492063492,65.15873015873015,159.12698412698413,-64.84126984126983,325.0,4.841269841269841,-208.33333333333331,-68.17460317460318,-102.30158730158729,-61.34920634920635,-15.634920634920634,-13.571428571428571,271.984126984127,-165.15873015873015,-193.88888888888889,4.841269841269841,114.36507936507935,-221.66666666666666,-155.3174603174603,121.66666666666666,185.63492063492063,142.93650793650792,-166.26984126984127
-56.904761904761905,-111.66666666666666,72.3015873015873,-12.777777777777777,-36.74603174603175,103.57142857142857,39.285714285714285,-205.63492063492063,-31.98412698412698,83.09523809523809,-32.460317460317455,-87.85714285714285,37.53968253968254,73.88888888888889,-143.88888888888889,-191.19047619047618,12.936507936507935,-58.17460317460317,-203.57142857142856,-152.93650793650792,73.88888888888889,197.69841269841268,155.63492063492063,-166.26984126984127
-56.904761904761905,-111.66666666666666,72.3015873015873,-12.777777777777777,-36.74603174603175,103.57142857142857,39.285714285714285,-205.63492063492063,-31.98412698412698,83.09523809523809,-32.460317460317455,-87.85714285714285,37.53968253968254,73.88888888888889,-143.88888888888889,-191.19047619047618,12.936507936507935,-58.17460317460317,-203.57142857142856,-152.93650793650792,73.88888888888889,197.69841269841268,155.63492063492063,-166.26984126984127
-2.7777777777777777,-119.28571428571428,94.84126984126983,-14.682539682539682,0.3968253968253968,20.238095238095237,70.23809523809524,-201.5079365079365,-3.4126984126984126,198.17460317460316,1.6666666666666665,-80.87301587301587,79.44444444444444,-16.746031746031743,-33.73015873015873,-187.2222222222222,21.984126984126984,1.984126984126984,65.15873015873015,-149.44444444444443,36.269841269841265,7.063492063492063,3.73015873015873,-321.8253968253968
-2.7777777777777777,-119.28571428571428,94.84126984126983,-14.682539682539682,0.3968253968253968,20.238095238095237,70.23809523809524,-201.5079365079365,-3.4126984126984126,198.17460317460316,1.6666666666666665,-80.87301587301587,79.44444444444444,-16.746031746031743,-33.73015873015873,-187.2222222222222,21.984126984126984,1.984126984126984,65.15873015873015,-149.44444444444443,36.269841269841265,7.063492063492063,3.73015873015873,-321.8253968253968
25.0,-75.31746031746032,110.23809523809523,155.15873015873015,9.444444444444445,158.17460317460316,66.58730158730158,-199.9206349206349,-11.031746031746032,127.85714285714285,6.904761904761904,-1.8253968253968254,70.23809523809524,90.87301587301587,55.15873015873016,-185.79365079365078,23.095238095238095,234.84126984126982,315.7936507936508,-148.33333333333331,46.269841269841265,-195.63492063492063,-160.7142857142857,-321.8253968253968
25.0,-75.31746031746032,110.23809523809523,155.15873015873015,9.444444444444445,158.17460317460316,66.58730158730158,-199.9206349206349,-11.031746031746032,127.85714285714285,6.904761904761904,-1.8253968253968254,70.23809523809524,90.87301587301587,55.15873015873016,-185.79365079365078,23.095238095238095,234.84126984126982,315.7936507936508,-148.33333333333331,46.269841269841265,-195.63492063492063,-160.7142857142857,-321.8253968253968
-30.07936507936508,-71.82539682539682,76.74603174603175,139.9206349206349,-31.03174603174603,249.44444444444443,27.698412698412696,-143.88888888888889,-43.095238095238095,190.7142857142857,-32.460317460317455,-11.031746031746032,17.698412698412696,153.88888888888889,-43.888888888888886,-151.984126984127,3.73015873015873,214.84126984126982,68.96825396825396,-143.73015873015873,86.74603174603175,8.65079365079365,1.1904761904761905,-321.8253968253968
-30.07936507936508,-71.82539682539682,76.74603174603175,139.9206349206349,-31.03174603174603,249.44444444444443,27.698412698412696,-143.88888888888889,-43.095238095238095,190.7142857142857,-32.460317460317455,-11.031746031746032,17.698412698412696,153.88888888888889,-43.888888888888886,-151.984126984127,3.73015873015873,214.84126984126982,68.96825396825396,-143.73015873015873,86.74603174603175,8.65079365079365,1.1904761904761905,-321.8253968253968
-5.952380952380952,-114.36507936507935,85.47619047619047,-4.0476190476190474,-3.888888888888889,29.76190476190476,61.03174603174603,-142.3015873015873,-9.126984126984127,236.1111111111111,-3.4126984126984126,-71.5079365079365,72.61904761904762,-17.063492063492063,-31.03174603174603,-169.28571428571428,14.206349206349206,146.58730158730157,284.5238095238095,-141.5079365079365,32.61904761904762,2.619047619047619,-0.07936507936507936,-321.8253968253968
-5.952380952380952,-114.36507936507935,85.47619047619047,-4.0476190476190474,-3.888888888888889,29.76190476190476,61.03174603174603,-142.3015873015873,-9.126984126984127,236.1111111111111,-3.4126984126984126,-71.5079365079365,72.61904761904762,-17.063492063492063,-31.03174603174603,-169.28571428571428,14.206349206349206,146.58730158730157,284.5238095238095,-141.5079365079365,32.61904761904762,2.619047619047619,-0.07936507936507936,-321.8253968253968
-26.11111111111111,-68.33333333333333,74.36507936507937,134.84126984126982,-28.809523809523807,255.0,27.063492063492063,-23.57142857142857,-40.39682539682539,243.7301587301587,-30.71428571428571,-6.746031746031746,14.523809523809524,142.93650793650792,-35.79365079365079,2.142857142857143,1.0317460317460316,246.58730158730157,126.74603174603173,-138.96825396825395,84.04761904761904,17.539682539682538,8.174603174603174,-321.8253968253968
-26.11111111111111,-68.33333333333333,74.36507936507937,134.84126984126982,-28.809523809523807,255.0,27.063492063492063,-23.57142857142857,-40.39682539682539,243.7301587301587,-30.71428571428571,-6.746031746031746,14.523809523809524,142.93650793650792,-35.79365079365079,2.142857142857143,1.0317460317460316,246.58730158730157,126.74603174603173,-138.96825396825395,84.04761904761904,17.539682539682538,8.174603174603174,-321.8253968253968
-4.0476190476190474,-107.22222222222221,82.93650793650794,4.365079365079365,-2.46031746031746,36.269841269841265,59.12698412698413,-98.65079365079364,-8.015873015873016,245.15873015873015,-2.3015873015873014,-62.61904761904761,69.28571428571428,-14.682539682539682,-28.174603174603174,-112.14285714285714,11.349206349206348,226.58730158730157,325.0,-136.9047619047619,28.96825396825397,1.8253968253968254,0.3968253968253968,-166.26984126984127
-4.0476190476190474,-107.22222222222221,82.93650793650794,4.365079365079365,-2.46031746031746,36.269841269841265,59.12698412698413,-98.65079365079364,-8.015873015873016,245.15873015873015,-2.3015873015873014,-62.61904761904761,69.28571428571428,-14.682539682539682,-28.174603174603174,-112.14285714285714,11.349206349206348,226.58730158730157,325.0,-136.9047619047619,28.96825396825397,1.8253968253968254,0.3968253968253968,-166.26984126984127
104.36507936507935,42.14285714285714,191.8253968253968,165.95238095238093,96.42857142857142,230.07936507936506,159.6031746031746,-140.87301587301587,85.47619047619047,253.7301587301587,95.31746031746032,88.17460317460316,167.2222222222222,153.88888888888889,66.11111111111111,-30.555555555555554,113.73015873015872,325.0,257.85714285714283,-132.61904761904762,-3.095238095238095,-200.7142857142857,-159.44444444444443,-166.26984126984127
104.36507936507935,42.14285714285714,191.8253968253968,165.95238095238093,96.42857142857142,230.07936507936506,159.6031746031746,-140.87301587301587,85.47619047619047,253.7301587301587,95.31746031746032,88.17460317460316,167.2222222222222,153.88888888888889,66.11111111111111,-30.555555555555554,113.73015873015872,325.0,257.85714285714283,-132.61904761904762,-3.095238095238095,-200.7142857142857,-159.44444444444443,-166.26984126984127
-93.09523809523809,-133.0952380952381,19.92063492063492,-49.285714285714285,-74.04761904761904,100.07936507936508,-11.349206349206348,105.63492063492063,-71.5079365079365,325.0,-71.82539682539682,-102.93650793650794,-8.015873015873016,2.7777777777777777,-121.98412698412697,9.285714285714285,-36.74603174603175,212.93650793650792,198.65079365079364,-130.23809523809524,98.96825396825396,199.60317460317458,157.38095238095238,-166.26984126984127
-93.09523809523809,-133.0952380952381,19.92063492063492,-49.285714285714285,-74.04761904761904,100.07936507936508,-11.349206349206348,105.63492063492063,-71.5079365079365,325.0,-71.82539682539682,-102.93650793650794,-8.015873015873016,2.7777777777777777,-121.98412698412697,9.285714285714285,-36.74603174603175,212.93650793650792,198.65079365079364,-130.23809523809524,98.96825396825396,199.60317460317458,157.38095238095238,-166.26984126984127
14.206349206349206,8.492063492063492,129.9206349206349,98.01587301587301,24.523809523809522,288.3333333333333,89.6031746031746,53.095238095238095,21.666666666666664,325.0,25.952380952380953,34.682539682539684,93.09523809523809,168.015873015873,-36.269841269841265,42.3015873015873,69.44444444444444,266.90476190476187,146.74603174603175,-128.33333333333331,64.04761904761905,-6.428571428571428,-4.365079365079365,-166.26984126984127
14.206349206349206,8.492063492063492,129.9206349206349,98.01587301587301,24.523809523809522,288.3333333333333,89.6031746031746,53.095238095238095,21.666666666666664,325.0,25.952380952380953,34.682539682539684,93.09523809523809,168.015873015873,-36.269841269841265,42.3015873015873,69.44444444444444,266.90476190476187,146.74603174603175,-128.33333333333331,64.04761904761905,-6.428571428571428,-4.365079365079365,-166.26984126984127
-100.23809523809523,-135.47619047619048,9.285714285714285,-52.14285714285714,-81.82539682539682,87.06349206349206,-21.507936507936506,148.4920634920635,-79.76190476190476,325.0,-80.07936507936508,-101.82539682539682,-18.333333333333332,-9.126984126984127,-115.63492063492063,15.95238095238095,-46.58730158730158,250.7142857142857,223.4126984126984,-125.79365079365078,106.74603174603175,198.33333333333331,156.11111111111111,-166.26984126984127
-100.23809523809523,-135.47619047619048,9.285714285714285,-52.14285714285714,-81.82539682539682,87.06349206349206,-21.507936507936506,148.4920634920635,-79.76190476190476,325.0,-80.07936507936508,-101.82539682539682,-18.333333333333332,-9.126984126984127,-115.63492063492063,15.95238095238095,-46.58730158730158,250.7142857142857,223.4126984126984,-125.79365079365078,106.74603174603175,198.33333333333331,156.11111111111111,-166.26984126984127
115.15873015873015,56.269841269841265,197.06349206349205,159.9206349206349,107.6984126984127,242.14285714285714,167.69841269841268,72.14285714285714,98.17460317460316,264.68253968253964,107.53968253968253,90.55555555555556,175.0,161.03174603174602,56.74603174603174,105.47619047619047,125.79365079365078,325.0,287.6984126984127,-123.57142857142857,-26.26984126984127,-197.38095238095238,-157.06349206349205,-321.8253968253968
115.15873015873015,56.269841269841265,197.06349206349205,159.9206349206349,107.6984126984127,242.14285714285714,167.69841269841268,72.14285714285714,98.17460317460316,264.68253968253964,107.53968253968253,90.55555555555556,175.0,161.03174603174602,56.74603174603174,105.47619047619047,125.79365079365078,325.0,287.6984126984127,-123.57142857142857,-26.26984126984127,-197.38095238095238,-157.06349206349205,-321.8253968253968
10.238095238095237,3.253968253968254,118.65079365079364,79.28571428571428,19.6031746031746,261.031746031746,81.19047619047619,173.57142857142856,16.428571428571427,325.0,20.873015873015873,28.174603174603174,85.15873015873015,144.36507936507937,-30.396825396825395,107.6984126984127,60.71428571428571,277.53968253968253,207.53968253968253,-121.98412698412697,63.57142857142857,-2.142857142857143,-1.507936507936508,-321.8253968253968
10.238095238095237,3.253968253968254,118.65079365079364,79.28571428571428,19.6031746031746,261.031746031746,81.19047619047619,173.57142857142856,16.428571428571427,325.0,20.873015873015873,28.174603174603174,85.15873015873015,144.36507936507937,-30.396825396825395,107.6984126984127,60.71428571428571,277.53968253968253,207.53968253968253,-121.98412698412697,63.57142857142857,-2.142857142857143,-1.507936507936508,-321.8253968253968
117.53968253968253,60.39682539682539,197.85714285714283,155.95238095238093,111.34920634920634,245.15873015873015,169.76190476190476,227.06349206349205,102.46031746031746,246.74603174603172,111.5079365079365,89.6031746031746,177.38095238095238,163.25396825396825,50.71428571428571,265.1587301587301,130.55555555555554,325.0,301.031746031746,-119.44444444444444,-36.11111111111111,-194.68253968253967,-154.84126984126982,-321.8253968253968
117.53968253968253,60.39682539682539,197.85714285714283,155.95238095238093,111.34920634920634,245.15873015873015,169.76190476190476,227.06349206349205,102.46031746031746,246.74603174603172,111.5079365079365,89.6031746031746,177.38095238095238,163.25396825396825,50.71428571428571,265.1587301587301,130.55555555555554,325.0,301.031746031746,-119.44444444444444,-36.11111111111111,-194.68253968253967,-154.84126984126982,-321.8253968253968
-97.85714285714285,-165.63492063492063,1.349206349206349,-131.34920634920636,-73.88888888888889,-105.79365079365078,-12.3015873015873,85.47619047619047,-68.33333333333333,258.6507936507936,-69.92063492063491,-141.34920634920636,15.793650793650793,-130.23809523809524,-116.9047619047619,11.984126984126984,-51.98412698412698,325.0,325.0,-117.6984126984127,77.38095238095238,137.69841269841268,112.6190476190476,-321.8253968253968
-97.85714285714285,-165.63492063492063,1.349206349206349,-131.34920634920636,-73.88888888888889,-105.79365079365078,-12.3015873015873,85.47619047619047,-68.33333333333333,258.6507936507936,-69.92063492063491,-141.34920634920636,15.793650793650793,-130.23809523809524,-116.9047619047619,11.984126984126984,-51.98412698412698,325.0,325.0,-117.6984126984127,77.38095238095238,137.69841269841268,112.6190476190476,-321.8253968253968
101.82539682539682,23.57142857142857,155.95238095238093,205.0,79.92063492063491,236.58730158730157,126.1111111111111,287.6984126984127,65.95238095238095,120.71428571428571,75.79365079365078,90.55555555555556,110.55555555555554,140.23809523809524,72.77777777777777,325.0,78.65079365079364,325.0,325.0,-116.58730158730158,-35.15873015873016,-126.58730158730158,-106.58730158730158,-321.8253968253968
101.82539682539682,23.57142857142857,155.95238095238093,205.0,79.92063492063491,236.58730158730157,126.1111111111111,287.6984126984127,65.95238095238095,120.71428571428571,75.79365079365078,90.55555555555556,110.55555555555554,140.23809523809524,72.77777777777777,325.0,78.65079365079364,325.0,325.0,-116.58730158730158,-35.15873015873016,-126.58730158730158,-106.58730158730158,-321.8253968253968
-114.36507936507935,-138.4920634920635,-16.904761904761905,-49.285714285714285,-98.96825396825396,50.71428571428571,-46.42857142857142,225.0,-99.12698412698413,258.015873015873,-99.12698412698413,-92.30158730158729,-42.61904761904761,-38.65079365079365,-91.98412698412697,200.3968253968254,-73.25396825396825,285.95238095238096,280.07936507936506,-113.57142857142857,129.12698412698413,191.34920634920633,150.55555555555554,-166.26984126984127
-114.36507936507935,-138.4920634920635,-16.904761904761905,-49.285714285714285,-98.96825396825396,50.71428571428571,-46.42857142857142,225.0,-99.12698412698413,258.015873015873,-99.12698412698413,-92.30158730158729,-42.61904761904761,-38.65079365079365,-91.98412698412697,200.3968253968254,-73.25396825396825,285.95238095238096,280.07936507936506,-113.57142857142857,129.12698412698413,191.34920634920633,150.55555555555554,-166.26984126984127
119.76190476190476,63.73015873015873,194.84126984126982,145.95238095238093,114.04761904761904,247.85714285714283,169.28571428571428,321.19047619047615,106.42857142857142,201.5079365079365,115.95238095238095,85.95238095238095,177.53968253968253,162.77777777777777,36.58730158730159,325.0,136.11111111111111,325.0,323.73015873015873,-111.66666666666666,-53.095238095238095,-189.44444444444443,-150.55555555555554,-166.26984126984127
119.76190476190476,63.73015873015873,194.84126984126982,145.95238095238093,114.04761904761904,247.85714285714283,169.28571428571428,321.19047619047615,106.42857142857142,201.5079365079365,115.95238095238095,85.95238095238095,177.53968253968253,162.77777777777777,36.58730158730159,325.0,136.11111111111111,325.0,323.73015873015873,-111.66666666666666,-53.095238095238095,-189.44444444444443,-150.55555555555554,-166.26984126984127
-116.26984126984127,-136.11111111111111,-22.936507936507937,-43.57142857142857,-101.66666666666666,41.03174603174603,-51.82539682539682,244.2063492063492,-102.46031746031746,220.87301587301587,-102.93650793650794,-85.79365079365078,-47.698412698412696,-44.047619047619044,-82.93650793650794,248.65079365079364,-79.76190476190476,287.22222222222223,294.5238095238095,-109.44444444444444,133.88888888888889,186.74603174603175,148.015873015873,-166.26984126984127
-116.26984126984127,-136.11111111111111,-22.936507936507937,-43.57142857142857,-101.66666666666666,41.03174603174603,-51.82539682539682,244.2063492063492,-102.46031746031746,220.87301587301587,-102.93650793650794,-85.79365079365078,-47.698412698412696,-44.047619047619044,-82.93650793650794,248.65079365079364,-79.76190476190476,287.22222222222223,294.5238095238095,-109.44444444444444,133.88888888888889,186.74603174603175,148.015873015873,-166.26984126984127
118.17460317460316,64.04761904761905,191.8253968253968,141.34920634920636,113.73015873015872,246.58730158730157,167.38095238095238,325.0,106.58730158730158,180.87301587301587,116.58730158730158,83.73015873015872,176.11111111111111,160.87301587301587,28.174603174603174,325.0,137.69841269841268,325.0,325.0,-107.85714285714285,-60.873015873015866,-186.74603174603175,-148.8095238095238,-166.26984126984127
118.17460317460316,64.04761904761905,191.8253968253968,141.34920634920636,113.73015873015872,246.58730158730157,167.38095238095238,325.0,106.58730158730158,180.87301587301587,116.58730158730158,83.73015873015872,176.11111111111111,160.87301587301587,28.174603174603174,325.0,137.69841269841268,325.0,325.0,-107.85714285714285,-60.873015873015866,-186.74603174603175,-148.8095238095238,-166.26984126984127
-115.63492063492063,-160.07936507936506,-22.777777777777775,-92.61904761904762,-93.25396825396825,-94.68253968253968,-39.92063492063492,194.2063492063492,-90.23809523809523,71.03174603174602,-90.87301587301587,-121.82539682539682,-10.873015873015872,-125.0,-91.5079365079365,301.8253968253968,-76.74603174603175,325.0,325.0,-106.1111111111111,110.87301587301587,100.39682539682539,83.4126984126984,-166.26984126984127
-115.63492063492063,-160.07936507936506,-22.777777777777775,-92.61904761904762,-93.25396825396825,-94.68253968253968,-39.92063492063492,194.2063492063492,-90.23809523809523,71.03174603174602,-90.87301587301587,-121.82539682539682,-10.873015873015872,-125.0,-91.5079365079365,301.8253968253968,-76.74603174603175,325.0,325.0,-106.1111111111111,110.87301587301587,100.39682539682539,83.4126984126984,-166.26984126984127
115.63492063492063,62.77777777777777,187.69841269841268,136.11111111111111,112.30158730158729,243.57142857142856,164.84126984126982,325.0,106.1111111111111,160.3968253968254,116.1111111111111,80.55555555555556,173.88888888888889,158.4920634920635,19.126984126984127,325.0,137.85714285714286,325.0,325.0,-104.36507936507935,-67.38095238095238,-182.77777777777777,-146.26984126984127,-321.8253968253968
115.63492063492063,62.77777777777777,187.69841269841268,136.11111111111111,112.30158730158729,243.57142857142856,164.84126984126982,325.0,106.1111111111111,160.3968253968254,116.1111111111111,80.55555555555556,173.88888888888889,158.4920634920635,19.126984126984127,325.0,137.85714285714286,325.0,325.0,-104.36507936507935,-67.38095238095238,-182.77777777777777,-146.26984126984127,-321.8253968253968
1.6666666666666665,-15.476190476190474,87.85714285714285,41.507936507936506,8.809523809523808,184.04761904761904,59.6031746031746,325.0,5.158730158730158,265.4761904761905,10.079365079365079,11.666666666666666,66.42857142857143,87.6984126984127,-28.333333333333332,298.17460317460313,39.76190476190476,286.74603174603175,291.19047619047615,-102.61904761904762,44.36507936507936,1.984126984126984,0.873015873015873,-321.8253968253968
1.6666666666666665,-15.476190476190474,87.85714285714285,41.507936507936506,8.809523809523808,184.04761904761904,59.6031746031746,325.0,5.158730158730158,265.4761904761905,10.079365079365079,11.666666666666666,66.42857142857143,87.6984126984127,-28.333333333333332,298.17460317460313,39.76190476190476,286.74603174603175,291.19047619047615,-102.61904761904762,44.36507936507936,1.984126984126984,0.873015873015873,-321.8253968253968
111.82539682539682,62.61904761904761,182.93650793650792,131.19047619047618,110.07936507936508,240.2380952380952,160.87301587301587,325.0,103.88888888888889,140.23809523809524,114.36507936507935,77.06349206349206,170.87301587301587,156.9047619047619,9.444444444444445,325.0,137.38095238095238,325.0,313.0952380952381,-100.71428571428571,-73.25396825396825,-179.76190476190476,-142.77777777777777,-321.8253968253968
111.82539682539682,62.61904761904761,182.93650793650792,131.19047619047618,110.07936507936508,240.2380952380952,160.87301587301587,325.0,103.88888888888889,140.23809523809524,114.36507936507935,77.06349206349206,170.87301587301587,156.9047619047619,9.444444444444445,325.0,137.38095238095238,325.0,313.0952380952381,-100.71428571428571,-73.25396825396825,-179.76190476190476,-142.77777777777777,-321.8253968253968
-110.23809523809523,-121.82539682539682,-30.555555555555554,-20.555555555555554,-101.03174603174602,21.19047619047619,-57.22222222222222,280.7142857142857,-103.25396825396825,59.92063492063492,-105.0,-59.285714285714285,-53.095238095238095,-48.650793650793645,-50.39682539682539,301.19047619047615,-89.28571428571428,287.53968253968253,273.4126984126984,-98.65079365079364,141.34920634920636,175.3174603174603,139.9206349206349,-321.8253968253968
-110.23809523809523,-121.82539682539682,-30.555555555555554,-20.555555555555554,-101.03174603174602,21.19047619047619,-57.22222222222222,280.7142857142857,-103.25396825396825,59.92063492063492,-105.0,-59.285714285714285,-53.095238095238095,-48.650793650793645,-50.39682539682539,301.19047619047615,-89.28571428571428,287.53968253968253,273.4126984126984,-98.65079365079364,141.34920634920636,175.3174603174603,139.9206349206349,-321.8253968253968
107.38095238095238,61.19047619047619,177.2222222222222,125.47619047619047,106.1111111111111,235.95238095238093,155.79365079365078,325.0,100.87301587301587,118.17460317460316,111.19047619047619,73.4126984126984,165.47619047619045,154.36507936507937,-0.873015873015873,325.0,135.15873015873015,325.0,287.85714285714283,-97.38095238095238,-78.17460317460316,-174.52380952380952,-139.6031746031746,-321.8253968253968
107.38095238095238,61.19047619047619,177.2222222222222,125.47619047619047,106.1111111111111,235.95238095238093,155.79365079365078,325.0,100.87301587301587,118.17460317460316,111.19047619047619,73.4126984126984,165.47619047619045,154.36507936507937,-0.873015873015873,325.0,135.15873015873015,325.0,287.85714285714283,-97.38095238095238,-78.17460317460316,-174.52380952380952,-139.6031746031746,-321.8253968253968
-104.84126984126983,-112.77777777777777,-29.126984126984127,-12.142857142857142,-97.06349206349206,18.80952380952381,-54.52380952380952,289.9206349206349,-99.6031746031746,26.9047619047619,-101.5079365079365,-48.49206349206349,-51.03174603174603,-45.63492063492063,-39.285714285714285,305.3174603174603,-88.80952380952381,288.17460317460313,256.26984126984127,-95.47619047619047,140.87301587301587,171.03174603174602,135.95238095238093,-166.26984126984127
-104.84126984126983,-112.77777777777777,-29.126984126984127,-12.142857142857142,-97.06349206349206,18.80952380952381,-54.52380952380952,289.9206349206349,-99.6031746031746,26.9047619047619,-101.5079365079365,-48.49206349206349,-51.03174603174603,-45.63492063492063,-39.285714285714285,305.3174603174603,-88.80952380952381,288.17460317460313,256.26984126984127,-95.47619047619047,140.87301587301587,171.03174603174602,135.95238095238093,-166.26984126984127
126.1111111111111,79.28571428571428,176.11111111111111,205.63492063492063,111.03174603174602,277.06349206349205,153.09523809523807,325.0,104.36507936507935,-113.73015873015872,109.92063492063491,121.19047619047619,134.84126984126982,187.2222222222222,10.079365079365079,325.0,123.25396825396825,325.0,216.58730158730157,-95.0,-86.1111111111111,-63.57142857142857,-55.15873015873016,-166.26984126984127
126.1111111111111,79.28571428571428,176.11111111111111,205.63492063492063,111.03174603174602,277.06349206349205,153.09523809523807,325.0,104.36507936507935,-113.73015873015872,109.92063492063491,121.19047619047619,134.84126984126982,187.2222222222222,10.079365079365079,325.0,123.25396825396825,325.0,216.58730158730157,-95.0,-86.1111111111111,-63.57142857142857,-55.15873015873016,-166.26984126984127
-98.96825396825396,-102.77777777777777,-26.428571428571427,-4.2063492063492065,-91.98412698412697,18.174603174603174,-51.19047619047619,297.38095238095235,-95.15873015873015,19.76190476190476,-97.53968253968253,-36.904761904761905,-48.17460317460317,-41.19047619047619,-28.333333333333332,311.031746031746,-87.38095238095238,277.85714285714283,227.38095238095238,-92.30158730158729,138.33333333333331,165.79365079365078,131.984126984127,-166.26984126984127
-98.96825396825396,-102.77777777777777,-26.428571428571427,-4.2063492063492065,-91.98412698412697,18.174603174603174,-51.19047619047619,297.38095238095235,-95.15873015873015,19.76190476190476,-97.53968253968253,-36.904761904761905,-48.17460317460317,-41.19047619047619,-28.333333333333332,311.031746031746,-87.38095238095238,277.85714285714283,227.38095238095238,-92.30158730158729,138.33333333333331,165.79365079365078,131.984126984127,-166.26984126984127
126.9047619047619,85.31746031746032,176.26984126984127,200.07936507936506,113.25396825396825,281.984126984127,155.0,325.0,108.01587301587301,-117.6984126984127,112.93650793650794,121.03174603174602,136.42857142857142,194.36507936507937,-3.095238095238095,325.0,128.17460317460316,325.0,178.17460317460316,-91.98412698412697,-92.77777777777777,-52.460317460317455,-47.06349206349206,-166.26984126984127
126.9047619047619,85.31746031746032,176.26984126984127,200.07936507936506,113.25396825396825,281.984126984127,155.0,325.0,108.01587301587301,-117.6984126984127,112.93650793650794,121.03174603174602,136.42857142857142,194.36507936507937,-3.095238095238095,325.0,128.17460317460316,325.0,178.17460317460316,-91.98412698412697,-92.77777777777777,-52.460317460317455,-47.06349206349206,-166.26984126984127
28.809523809523807,8.333333333333332,82.14285714285714,107.53968253968253,19.6031746031746,180.3968253968254,58.650793650793645,325.0,15.158730158730158,-3.253968253968254,13.888888888888888,60.079365079365076,37.857142857142854,101.98412698412697,-11.031746031746032,299.4444444444444,24.84126984126984,236.58730158730157,144.36507936507937,-90.39682539682539,16.26984126984127,118.17460317460316,89.76190476190476,-166.26984126984127
28.809523809523807,8.333333333333332,82.14285714285714,107.53968253968253,19.6031746031746,180.3968253968254,58.650793650793645,325.0,15.158730158730158,-3.253968253968254,13.888888888888888,60.079365079365076,37.857142857142854,101.98412698412697,-11.031746031746032,299.4444444444444,24.84126984126984,236.58730158730157,144.36507936507937,-90.39682539682539,16.26984126984127,118.17460317460316,89.76190476190476,-166.26984126984127
126.1111111111111,95.15873015873015,177.38095238095238,191.03174603174602,114.68253968253967,313.25396825396825,157.2222222222222,325.0,111.98412698412697,-60.71428571428571,115.79365079365078,120.07936507936508,138.96825396825395,214.04761904761904,-20.873015873015873,325.0,133.88888888888889,325.0,202.3015873015873,-88.96825396825396,-98.01587301587301,-38.49206349206349,-33.41269841269841,-321.8253968253968
126.1111111111111,95.15873015873015,177.38095238095238,191.03174603174602,114.68253968253967,313.25396825396825,157.2222222222222,325.0,111.98412698412697,-60.71428571428571,115.79365079365078,120.07936507936508,138.96825396825395,214.04761904761904,-20.873015873015873,325.0,133.88888888888889,325.0,202.3015873015873,-88.96825396825396,-98.01587301587301,-38.49206349206349,-33.41269841269841,-321.8253968253968
-82.3015873015873,-73.88888888888889,-15.476190476190474,18.015873015873016,-77.06349206349206,34.36507936507936,-38.96825396825397,289.2857142857143,-81.03174603174602,109.6031746031746,-83.4126984126984,-6.587301587301587,-36.11111111111111,-15.634920634920634,-4.682539682539682,325.0,-77.53968253968253,112.6190476190476,103.57142857142857,-85.95238095238095,129.9206349206349,156.11111111111111,124.52380952380952,-321.8253968253968
-82.3015873015873,-73.88888888888889,-15.476190476190474,18.015873015873016,-77.06349206349206,34.36507936507936,-38.96825396825397,289.2857142857143,-81.03174603174602,109.6031746031746,-83.4126984126984,-6.587301587301587,-36.11111111111111,-15.634920634920634,-4.682539682539682,325.0,-77.53968253968253,112.6190476190476,103.57142857142857,-85.95238095238095,129.9206349206349,156.11111111111111,124.52380952380952,-321.8253968253968
119.28571428571428,87.6984126984127,171.66666666666666,164.84126984126982,110.87301587301587,282.1428571428571,152.77777777777777,325.0,109.92063492063491,-60.238095238095234,112.46031746031746,105.79365079365078,133.88888888888889,198.8095238095238,-35.0,325.0,133.0952380952381,325.0,88.17460317460316,-85.79365079365078,-100.55555555555554,-24.206349206349206,-22.619047619047617,-321.8253968253968
119.28571428571428,87.6984126984127,171.66666666666666,164.84126984126982,110.87301587301587,282.1428571428571,152.77777777777777,325.0,109.92063492063491,-60.238095238095234,112.46031746031746,105.79365079365078,133.88888888888889,198.8095238095238,-35.0,325.0,133.0952380952381,325.0,88.17460317460316,-85.79365079365078,-100.55555555555554,-24.206349206349206,-22.619047619047617,-321.8253968253968
-72.14285714285714,-60.079365079365076,-8.968253968253968,25.317460317460316,-68.80952380952381,41.82539682539682,-31.666666666666664,297.53968253968253,-73.25396825396825,121.03174603174602,-75.31746031746032,5.0,-28.809523809523807,-4.841269841269841,5.7936507936507935,325.0,-70.23809523809524,74.2063492063492,81.34920634920634,-80.87301587301587,123.73015873015872,150.55555555555554,120.23809523809523,-321.8253968253968
-72.14285714285714,-60.079365079365076,-8.968253968253968,25.317460317460316,-68.80952380952381,41.82539682539682,-31.666666666666664,297.53968253968253,-73.25396825396825,121.03174603174602,-75.31746031746032,5.0,-28.809523809523807,-4.841269841269841,5.7936507936507935,325.0,-70.23809523809524,74.2063492063492,81.34920634920634,-80.87301587301587,123.73015873015872,150.55555555555554,120.23809523809523,-321.8253968253968
74.68253968253968,41.03174603174603,140.7142857142857,76.74603174603175,78.65079365079364,197.53968253968253,121.19047619047619,325.0,74.2063492063492,132.3015873015873,85.0,36.74603174603175,131.19047619047618,130.23809523809524,-47.22222222222222,325.0,112.6190476190476,161.5079365079365,185.95238095238093,-81.03174603174602,-81.19047619047619,-149.44444444444443,-120.23809523809523,-321.8253968253968
74.68253968253968,41.03174603174603,140.7142857142857,76.74603174603175,78.65079365079364,197.53968253968253,121.19047619047619,325.0,74.2063492063492,132.3015873015873,85.0,36.74603174603175,131.19047619047618,130.23809523809524,-47.22222222222222,325.0,112.6190476190476,161.5079365079365,185.95238095238093,-81.03174603174602,-81.19047619047619,-149.44444444444443,-120.23809523809523,-321.8253968253968
-0.5555555555555556,-18.174603174603174,62.61904761904761,10.238095238095237,3.73015873015873,96.26984126984127,43.095238095238095,325.0,-1.349206349206349,275.4761904761905,3.888888888888889,-0.3968253968253968,50.87301587301587,47.22222222222222,-23.57142857142857,325.0,20.873015873015873,-58.49206349206349,172.46031746031744,-16.26984126984127,13.888888888888888,2.619047619047619,0.5555555555555556,-166.26984126984127
-0.5555555555555556,-18.174603174603174,62.61904761904761,10.238095238095237,3.73015873015873,96.26984126984127,43.095238095238095,325.0,-1.349206349206349,275.4761904761905,3.888888888888889,-0.3968253968253968,50.87301587301587,47.22222222222222,-23.57142857142857,325.0,20.873015873015873,-58.49206349206349,172.46031746031744,-16.26984126984127,13.888888888888888,2.619047619047619,0.5555555555555556,-166.26984126984127
65.79365079365078,34.36507936507936,131.66666666666666,66.9047619047619,70.87301587301587,188.8095238095238,112.14285714285714,325.0,67.22222222222221,132.77777777777777,78.01587301587301,27.063492063492063,122.30158730158729,123.25396825396825,-53.25396825396825,325.0,105.95238095238095,161.5079365079365,190.55555555555554,-50.87301587301587,-76.58730158730158,-144.84126984126982,-115.63492063492063,-166.26984126984127
65.79365079365078,34.36507936507936,131.66666666666666,66.9047619047619,70.87301587301587,188.8095238095238,112.14285714285714,325.0,67.22222222222221,132.77777777777777,78.01587301587301,27.063492063492063,122.30158730158729,123.25396825396825,-53.25396825396825,325.0,105.95238095238095,161.5079365079365,190.55555555555554,-50.87301587301587,-76.58730158730158,-144.84126984126982,-115.63492063492063,-166.26984126984127
-53.73015873015873,-37.38095238095238,3.73015873015873,33.41269841269841,-52.61904761904761,53.41269841269841,-17.698412698412696,325.0,-57.857142857142854,161.8253968253968,-59.44444444444444,22.3015873015873,-14.84126984126984,10.396825396825395,20.71428571428571,310.07936507936506,-56.74603174603174,29.76190476190476,93.4126984126984,82.3015873015873,112.14285714285714,138.33333333333331,110.87301587301587,-166.26984126984127
-53.73015873015873,-37.38095238095238,3.73015873015873,33.41269841269841,-52.61904761904761,53.41269841269841,-17.698412698412696,325.0,-57.857142857142854,161.8253968253968,-59.44444444444444,22.3015873015873,-14.84126984126984,10.396825396825395,20.71428571428571,310.07936507936506,-56.74603174603174,29.76190476190476,93.4126984126984,82.3015873015873,112.14285714285714,138.33333333333331,110.87301587301587,-166.26984126984127
56.269841269841265,26.428571428571427,122.14285714285714,57.698412698412696,62.93650793650793,179.12698412698413,102.77777777777777,325.0,59.285714285714285,134.52380952380952,69.92063492063491,16.904761904761905,112.77777777777777,115.47619047619047,-58.33333333333333,325.0,99.12698412698413,170.87301587301587,184.52380952380952,25.317460317460316,-72.14285714285714,-137.06349206349205,-110.71428571428571,-166.26984126984127
56.269841269841265,26.428571428571427,122.14285714285714,57.698412698412696,62.93650793650793,179.12698412698413,102.77777777777777,325.0,59.285714285714285,134.52380952380952,69.92063492063491,16.904761904761905,112.77777777777777,115.47619047619047,-58.33333333333333,325.0,99.12698412698413,170.87301587301587,184.52380952380952,25.317460317460316,-72.14285714285714,-137.06349206349205,-110.71428571428571,-166.26984126984127
-43.57142857142857,-26.587301587301585,10.555555555555555,35.79365079365079,-44.047619047619044,58.49206349206349,-9.603174603174603,325.0,-49.44444444444444,190.07936507936506,-50.71428571428571,30.238095238095237,-7.3809523809523805,17.698412698412696,26.428571428571427,283.88888888888886,-49.44444444444444,32.14285714285714,104.52380952380952,126.9047619047619,104.52380952380952,131.5079365079365,105.0,-166.26984126984127
-43.57142857142857,-26.587301587301585,10.555555555555555,35.79365079365079,-44.047619047619044,58.49206349206349,-9.603174603174603,325.0,-49.44444444444444,190.07936507936506,-50.71428571428571,30.238095238095237,-7.3809523809523805,17.698412698412696,26.428571428571427,283.88888888888886,-49.44444444444444,32.14285714285714,104.52380952380952,126.9047619047619,104.52380952380952,131.5079365079365,105.0,-166.26984126984127
-4.841269841269841,-23.57142857142857,51.82539682539682,-1.1904761904761905,-1.349206349206349,77.38095238095238,33.888888888888886,325.0,-6.904761904761904,292.1428571428571,-1.507936507936508,-8.015873015873016,41.507936507936506,34.52380952380952,-20.71428571428571,283.88888888888886,13.253968253968253,-41.34920634920635,210.87301587301587,256.74603174603175,15.317460317460316,4.2063492063492065,1.349206349206349,-321.8253968253968
-4.841269841269841,-23.57142857142857,51.82539682539682,-1.1904761904761905,-1.349206349206349,77.38095238095238,33.888888888888886,325.0,-6.904761904761904,292.1428571428571,-1.507936507936508,-8.015873015873016,41.507936507936506,34.52380952380952,-20.71428571428571,283.88888888888886,13.253968253968253,-41.34920634920635,210.87301587301587,256.74603174603175,15.317460317460316,4.2063492063492065,1.349206349206349,-321.8253968253968
-33.095238095238095,-14.523809523809524,18.96825396825397,44.047619047619044,-34.2063492063492,67.22222222222221,-0.873015873015873,325.0,-40.079365079365076,222.14285714285714,-41.507936507936506,40.238095238095234,1.349206349206349,27.857142857142854,33.25396825396825,299.2857142857143,-41.507936507936506,44.36507936507936,109.12698412698413,164.04761904761904,98.01587301587301,124.04761904761904,100.23809523809523,-321.8253968253968
-33.095238095238095,-14.523809523809524,18.96825396825397,44.047619047619044,-34.2063492063492,67.22222222222221,-0.873015873015873,325.0,-40.079365079365076,222.14285714285714,-41.507936507936506,40.238095238095234,1.349206349206349,27.857142857142854,33.25396825396825,299.2857142857143,-41.507936507936506,44.36507936507936,109.12698412698413,164.04761904761904,98.01587301587301,124.04761904761904,100.23809523809523,-321.8253968253968
-11.984126984126984,-12.777777777777777,28.809523809523807,7.698412698412698,-17.38095238095238,71.98412698412697,16.587301587301585,325.0,-16.746031746031743,275.95238095238096,-25.952380952380953,29.920634920634917,-4.841269841269841,38.33333333333333,4.365079365079365,273.57142857142856,-25.0,-97.38095238095238,116.9047619047619,325.0,54.047619047619044,293.0952380952381,231.03174603174602,-321.8253968253968
-11.984126984126984,-12.777777777777777,28.809523809523807,7.698412698412698,-17.38095238095238,71.98412698412697,16.587301587301585,325.0,-16.746031746031743,275.95238095238096,-25.952380952380953,29.920634920634917,-4.841269841269841,38.33333333333333,4.365079365079365,273.57142857142856,-25.0,-97.38095238095238,116.9047619047619,325.0,54.047619047619044,293.0952380952381,231.03174603174602,-321.8253968253968
-26.428571428571427,-11.825396825396824,24.365079365079364,36.904761904761905,-27.22222222222222,62.3015873015873,5.476190476190476,325.0,-32.77777777777778,225.0,-34.52380952380952,39.6031746031746,7.698412698412698,26.746031746031743,36.269841269841265,266.74603174603175,-34.84126984126984,-48.49206349206349,60.079365079365076,216.42857142857142,90.23809523809523,116.1111111111111,93.88888888888889,-321.8253968253968
-26.428571428571427,-11.825396825396824,24.365079365079364,36.904761904761905,-27.22222222222222,62.3015873015873,5.476190476190476,325.0,-32.77777777777778,225.0,-34.52380952380952,39.6031746031746,7.698412698412698,26.746031746031743,36.269841269841265,266.74603174603175,-34.84126984126984,-48.49206349206349,60.079365079365076,216.42857142857142,90.23809523809523,116.1111111111111,93.88888888888889,-321.8253968253968
26.587301587301585,2.7777777777777777,88.80952380952381,35.63492063492063,34.36507936507936,151.66666666666666,69.76190476190476,325.0,30.396825396825395,135.79365079365078,42.3015873015873,-7.857142857142857,80.39682539682539,90.07936507936508,-68.4920634920635,325.0,73.25396825396825,149.28571428571428,130.07936507936506,325.0,-52.3015873015873,-114.36507936507935,-94.52380952380952,-321.8253968253968
26.587301587301585,2.7777777777777777,88.80952380952381,35.63492063492063,34.36507936507936,151.66666666666666,69.76190476190476,325.0,30.396825396825395,135.79365079365078,42.3015873015873,-7.857142857142857,80.39682539682539,90.07936507936508,-68.4920634920635,325.0,73.25396825396825,149.28571428571428,130.07936507936506,325.0,-52.3015873015873,-114.36507936507935,-94.52380952380952,-321.8253968253968
-18.174603174603174,-5.476190476190476,30.555555555555554,35.476190476190474,-19.126984126984127,61.507936507936506,13.253968253968253,325.0,-23.41269841269841,249.28571428571428,-26.26984126984127,42.61904761904761,15.793650793650793,28.809523809523807,36.74603174603175,251.66666666666666,-26.587301587301585,-48.49206349206349,68.17460317460318,255.15873015873015,82.93650793650794,109.92063492063491,89.76190476190476,-166.26984126984127
-18.174603174603174,-5.476190476190476,30.555555555555554,35.476190476190474,-19.126984126984127,61.507936507936506,13.253968253968253,325.0,-23.41269841269841,249.28571428571428,-26.26984126984127,42.61904761904761,15.793650793650793,28.809523809523807,36.74603174603175,251.66666666666666,-26.587301587301585,-48.49206349206349,68.17460317460318,255.15873015873015,82.93650793650794,109.92063492063491,89.76190476190476,-166.26984126984127
38.65079365079365,26.587301587301585,98.01587301587301,66.26984126984127,45.15873015873016,218.17460317460316,81.66666666666666,325.0,49.92063492063492,-38.17460317460317,51.98412698412698,15.95238095238095,68.17460317460318,141.03174603174602,-108.33333333333333,325.0,92.46031746031746,325.0,-51.34920634920635,325.0,-77.38095238095238,59.285714285714285,42.93650793650794,-166.26984126984127
38.65079365079365,26.587301587301585,98.01587301587301,66.26984126984127,45.15873015873016,218.17460317460316,81.66666666666666,325.0,49.92063492063492,-38.17460317460317,51.98412698412698,15.95238095238095,68.17460317460318,141.03174603174602,-108.33333333333333,325.0,92.46031746031746,325.0,-51.34920634920635,325.0,-77.38095238095238,59.285714285714285,42.93650793650794,-166.26984126984127
-9.126984126984127,2.142857142857143,37.38095238095238,34.682539682539684,-10.396825396825395,64.84126984126983,21.984126984126984,325.0,-14.047619047619047,265.0,-16.904761904761905,46.58730158730158,25.158730158730158,33.73015873015873,37.698412698412696,250.55555555555554,-17.38095238095238,-22.142857142857142,76.9047619047619,293.88888888888886,74.36507936507937,101.82539682539682,83.25396825396825,-166.26984126984127
-9.126984126984127,2.142857142857143,37.38095238095238,34.682539682539684,-10.396825396825395,64.84126984126983,21.984126984126984,325.0,-14.047619047619047,265.0,-16.904761904761905,46.58730158730158,25.158730158730158,33.73015873015873,37.698412698412696,250.55555555555554,-17.38095238095238,-22.142857142857142,76.9047619047619,293.88888888888886,74.36507936507937,101.82539682539682,83.25396825396825,-166.26984126984127
4.841269841269841,-18.80952380952381,62.14285714285714,19.6031746031746,11.507936507936508,126.26984126984127,42.460317460317455,325.0,7.222222222222221,148.65079365079364,18.333333333333332,-27.22222222222222,52.460317460317455,65.63492063492063,-70.71428571428571,325.0,48.80952380952381,189.12698412698413,139.44444444444443,325.0,-33.73015873015873,-98.80952380952381,-81.34920634920634,-166.26984126984127
4.841269841269841,-18.80952380952381,62.14285714285714,19.6031746031746,11.507936507936508,126.26984126984127,42.460317460317455,325.0,7.222222222222221,148.65079365079364,18.333333333333332,-27.22222222222222,52.460317460317455,65.63492063492063,-70.71428571428571,325.0,48.80952380952381,189.12698412698413,139.44444444444443,325.0,-33.73015873015873,-98.80952380952381,-81.34920634920634,-166.26984126984127
-6.111111111111111,27.857142857142854,48.49206349206349,108.01587301587301,-5.476190476190476,89.44444444444444,25.952380952380953,325.0,-16.428571428571427,307.06349206349205,-11.19047619047619,88.33333333333333,49.92063492063492,52.14285714285714,92.46031746031746,325.0,-13.571428571428571,138.015873015873,18.174603174603174,325.0,111.03174603174602,-89.6031746031746,-65.79365079365078,-166.26984126984127
-6.111111111111111,27.857142857142854,48.49206349206349,108.01587301587301,-5.476190476190476,89.44444444444444,25.952380952380953,325.0,-16.428571428571427,307.06349206349205,-11.19047619047619,88.33333333333333,49.92063492063492,52.14285714285714,92.46031746031746,325.0,-13.571428571428571,138.015873015873,18.174603174603174,325.0,111.03174603174602,-89.6031746031746,-65.79365079365078,-166.26984126984127
-6.111111111111111,27.857142857142854,48.49206349206349,108.01587301587301,-5.476190476190476,89.44444444444444,25.952380952380953,325.0,-16.428571428571427,307.06349206349205,-11.19047619047619,88.33333333333333,49.92063492063492,52.14285714285714,92.46031746031746,325.0,-13.571428571428571,138.015873015873,18.174603174603174,325.0,111.03174603174602,-89.6031746031746,-65.79365079365078,-321.8253968253968
-6.111111111111111,27.857142857142854,48.49206349206349,108.01587301587301,-5.476190476190476,89.44444444444444,25.952380952380953,325.0,-16.428571428571427,307.06349206349205,-11.19047619047619,88.33333333333333,49.92063492063492,52.14285714285714,92.46031746031746,325.0,-13.571428571428571,138.015873015873,18.174603174603174,325.0,111.03174603174602,-89.6031746031746,-65.79365079365078,-321.8253968253968
5.952380952380952,40.39682539682539,58.96825396825397,115.47619047619047,6.428571428571428,100.23809523809523,37.698412698412696,325.0,-3.4126984126984126,325.0,0.873015873015873,97.85714285714285,62.3015873015873,63.095238095238095,99.28571428571428,325.0,-0.5555555555555556,156.26984126984127,19.285714285714285,325.0,97.38095238095238,-102.30158730158729,-74.68253968253968,-321.8253968253968
5.952380952380952,40.39682539682539,58.96825396825397,115.47619047619047,6.428571428571428,100.23809523809523,37.698412698412696,325.0,-3.4126984126984126,325.0,0.873015873015873,97.85714285714285,62.3015873015873,63.095238095238095,99.28571428571428,325.0,-0.5555555555555556,156.26984126984127,19.285714285714285,325.0,97.38095238095238,-102.30158730158729,-74.68253968253968,-321.8253968253968
-13.73015873015873,-36.74603174603175,38.33333333333333,9.444444444444445,-8.174603174603174,102.61904761904762,18.65079365079365,325.0,-13.73015873015873,156.26984126984127,-2.142857142857143,-40.55555555555555,26.9047619047619,45.0,-69.92063492063491,325.0,24.523809523809522,218.4920634920635,128.96825396825395,325.0,-14.523809523809524,-82.61904761904762,-68.33333333333333,-321.8253968253968
-13.73015873015873,-36.74603174603175,38.33333333333333,9.444444444444445,-8.174603174603174,102.61904761904762,18.65079365079365,325.0,-13.73015873015873,156.26984126984127,-2.142857142857143,-40.55555555555555,26.9047619047619,45.0,-69.92063492063491,325.0,24.523809523809522,218.4920634920635,128.96825396825395,325.0,-14.523809523809524,-82.61904761904762,-68.33333333333333,-321.8253968253968
-21.03174603174603,-58.8095238095238,26.746031746031743,-5.634920634920634,-18.015873015873016,39.12698412698413,5.0,325.0,-32.3015873015873,325.0,-11.825396825396824,-56.74603174603174,35.15873015873016,-4.0476190476190474,-5.634920634920634,325.0,2.7777777777777777,113.4126984126984,325.0,325.0,11.031746031746032,-261.5079365079365,-208.65079365079364,-321.8253968253968
-21.03174603174603,-58.8095238095238,26.746031746031743,-5.634920634920634,-18.015873015873016,39.12698412698413,5.0,325.0,-32.3015873015873,325.0,-11.825396825396824,-56.74603174603174,35.15873015873016,-4.0476190476190474,-5.634920634920634,325.0,2.7777777777777777,113.4126984126984,325.0,325.0,11.031746031746032,-261.5079365079365,-208.65079365079364,-321.8253968253968
-22.3015873015873,-45.317460317460316,27.38095238095238,5.952380952380952,-17.38095238095238,91.82539682539682,7.857142857142857,325.0,-22.936507936507937,159.12698412698413,-11.984126984126984,-46.11111111111111,15.0,35.15873015873016,-67.53968253968253,325.0,13.095238095238095,226.26984126984127,125.31746031746032,325.0,-5.158730158730158,-72.93650793650794,-62.460317460317455,-321.8253968253968
-22.3015873015873,-45.317460317460316,27.38095238095238,5.952380952380952,-17.38095238095238,91.82539682539682,7.857142857142857,325.0,-22.936507936507937,159.12698412698413,-11.984126984126984,-46.11111111111111,15.0,35.15873015873016,-67.53968253968253,325.0,13.095238095238095,226.26984126984127,125.31746031746032,325.0,-5.158730158730158,-72.93650793650794,-62.460317460317455,-321.8253968253968
18.96825396825397,23.730158730158728,59.76190476190476,26.9047619047619,19.285714285714285,70.87301587301587,51.34920634920635,325.0,19.76190476190476,273.57142857142856,14.84126984126984,46.74603174603175,57.857142857142854,44.68253968253968,31.349206349206348,256.58730158730157,16.428571428571427,38.01587301587301,108.96825396825396,325.0,32.77777777777778,70.39682539682539,58.01587301587301,-166.26984126984127
18.96825396825397,23.730158730158728,59.76190476190476,26.9047619047619,19.285714285714285,70.87301587301587,51.34920634920635,325.0,19.76190476190476,273.57142857142856,14.84126984126984,46.74603174603175,57.857142857142854,44.68253968253968,31.349206349206348,256.58730158730157,16.428571428571427,38.01587301587301,108.96825396825396,325.0,32.77777777777778,70.39682539682539,58.01587301587301,-166.26984126984127
-29.285714285714285,-51.98412698412698,17.063492063492063,3.73015873015873,-25.476190476190474,82.46031746031746,-2.619047619047619,325.0,-31.19047619047619,160.23809523809524,-20.555555555555554,-49.92063492063492,3.571428571428571,27.063492063492063,-65.31746031746032,325.0,2.3015873015873014,228.8095238095238,123.25396825396825,325.0,3.253968253968254,-64.84126984126983,-55.317460317460316,-166.26984126984127
-29.285714285714285,-51.98412698412698,17.063492063492063,3.73015873015873,-25.476190476190474,82.46031746031746,-2.619047619047619,325.0,-31.19047619047619,160.23809523809524,-20.555555555555554,-49.92063492063492,3.571428571428571,27.063492063492063,-65.31746031746032,325.0,2.3015873015873014,228.8095238095238,123.25396825396825,325.0,3.253968253968254,-64.84126984126983,-55.317460317460316,-166.26984126984127
25.0,26.9047619047619,64.2063492063492,24.365079365079364,25.634920634920633,70.87301587301587,57.53968253968254,325.0,27.22222222222222,267.38095238095235,21.984126984126984,44.84126984126984,65.31746031746032,45.317460317460316,28.49206349206349,256.74603174603175,24.047619047619047,32.14285714285714,117.38095238095238,325.0,22.46031746031746,61.03174603174603,51.82539682539682,-166.26984126984127
25.0,26.9047619047619,64.2063492063492,24.365079365079364,25.634920634920633,70.87301587301587,57.53968253968254,325.0,27.22222222222222,267.38095238095235,21.984126984126984,44.84126984126984,65.31746031746032,45.317460317460316,28.49206349206349,256.74603174603175,24.047619047619047,32.14285714285714,117.38095238095238,325.0,22.46031746031746,61.03174603174603,51.82539682539682,-166.26984126984127
-34.84126984126984,-57.53968253968254,8.492063492063492,2.619047619047619,-32.14285714285714,73.4126984126984,-11.19047619047619,325.0,-38.65079365079365,156.11111111111111,-28.015873015873016,-52.14285714285714,-6.428571428571428,19.6031746031746,-62.61904761904761,325.0,-6.904761904761904,229.76190476190476,118.33333333333333,325.0,10.873015873015872,-55.476190476190474,-48.01587301587301,-166.26984126984127
-34.84126984126984,-57.53968253968254,8.492063492063492,2.619047619047619,-32.14285714285714,73.4126984126984,-11.19047619047619,325.0,-38.65079365079365,156.11111111111111,-28.015873015873016,-52.14285714285714,-6.428571428571428,19.6031746031746,-62.61904761904761,325.0,-6.904761904761904,229.76190476190476,118.33333333333333,325.0,10.873015873015872,-55.476190476190474,-48.01587301587301,-166.26984126984127
54.52380952380952,85.31746031746032,99.28571428571428,136.42857142857142,53.25396825396825,141.03174603174602,84.68253968253968,325.0,48.01587301587301,325.0,49.44444444444444,127.6984126984127,109.12698412698413,104.52380952380952,119.28571428571428,325.0,50.238095238095234,131.66666666666666,42.93650793650794,325.0,37.857142857142854,-147.53968253968253,-110.71428571428571,-166.26984126984127
54.52380952380952,85.31746031746032,99.28571428571428,136.42857142857142,53.25396825396825,141.03174603174602,84.68253968253968,325.0,48.01587301587301,325.0,49.44444444444444,127.6984126984127,109.12698412698413,104.52380952380952,119.28571428571428,325.0,50.238095238095234,131.66666666666666,42.93650793650794,325.0,37.857142857142854,-147.53968253968253,-110.71428571428571,-166.26984126984127
-38.80952380952381,-61.507936507936506,1.0317460317460316,4.2063492063492065,-37.53968253968254,65.63492063492063,-18.333333333333332,325.0,-44.52380952380952,152.46031746031744,-33.888888888888886,-52.61904761904761,-15.158730158730158,13.73015873015873,-59.44444444444444,325.0,-15.476190476190474,235.95238095238093,115.63492063492063,325.0,17.22222222222222,-46.74603174603175,-41.98412698412698,-321.8253968253968
-38.80952380952381,-61.507936507936506,1.0317460317460316,4.2063492063492065,-37.53968253968254,65.63492063492063,-18.333333333333332,325.0,-44.52380952380952,152.46031746031744,-33.888888888888886,-52.61904761904761,-15.158730158730158,13.73015873015873,-59.44444444444444,325.0,-15.476190476190474,235.95238095238093,115.63492063492063,325.0,17.22222222222222,-46.74603174603175,-41.98412698412698,-321.8253968253968
66.26984126984127,95.31746031746032,109.12698412698413,139.44444444444443,64.52380952380952,150.07936507936506,95.79365079365078,325.0,59.285714285714285,325.0,61.03174603174603,132.93650793650792,120.55555555555554,113.73015873015872,121.03174603174602,325.0,62.460317460317455,117.22222222222221,41.03174603174603,325.0,22.777777777777775,-157.69841269841268,-118.65079365079364,-321.8253968253968
66.26984126984127,95.31746031746032,109.12698412698413,139.44444444444443,64.52380952380952,150.07936507936506,95.79365079365078,325.0,59.285714285714285,325.0,61.03174603174603,132.93650793650792,120.55555555555554,113.73015873015872,121.03174603174602,325.0,62.460317460317455,117.22222222222221,41.03174603174603,325.0,22.777777777777775,-157.69841269841268,-118.65079365079364,-321.8253968253968
-41.34920634920635,-65.15873015873015,-5.158730158730158,6.746031746031746,-41.507936507936506,58.49206349206349,-24.047619047619047,325.0,-48.96825396825397,146.42857142857142,-38.80952380952381,-51.507936507936506,-22.619047619047617,8.333333333333332,-55.15873015873016,325.0,-22.46031746031746,244.2063492063492,110.87301587301587,325.0,23.253968253968253,-38.01587301587301,-35.317460317460316,-321.8253968253968
-41.34920634920635,-65.15873015873015,-5.158730158730158,6.746031746031746,-41.507936507936506,58.49206349206349,-24.047619047619047,325.0,-48.96825396825397,146.42857142857142,-38.80952380952381,-51.507936507936506,-22.619047619047617,8.333333333333332,-55.15873015873016,325.0,-22.46031746031746,244.2063492063492,110.87301587301587,325.0,23.253968253968253,-38.01587301587301,-35.317460317460316,-321.8253968253968
-13.253968253968253,-56.74603174603174,11.19047619047619,44.2063492063492,-22.142857142857142,29.6031746031746,-8.174603174603174,325.0,-37.857142857142854,267.06349206349205,-20.555555555555554,-26.26984126984127,9.126984126984127,-8.174603174603174,46.11111111111111,325.0,-19.126984126984127,232.3015873015873,325.0,325.0,24.206349206349206,-233.88888888888889,-189.76190476190476,-321.8253968253968
-13.253968253968253,-56.74603174603174,11.19047619047619,44.2063492063492,-22.142857142857142,29.6031746031746,-8.174603174603174,325.0,-37.857142857142854,267.06349206349205,-20.555555555555554,-26.26984126984127,9.126984126984127,-8.174603174603174,46.11111111111111,325.0,-19.126984126984127,232.3015873015873,325.0,325.0,24.206349206349206,-233.88888888888889,-189.76190476190476,-321.8253968253968
-42.77777777777778,-67.22222222222221,-10.714285714285714,8.809523809523808,-44.84126984126984,53.095238095238095,-29.126984126984127,325.0,-52.61904761904761,144.04761904761904,-42.93650793650794,-48.96825396825397,-29.76190476190476,4.2063492063492065,-50.238095238095234,325.0,-29.126984126984127,253.4126984126984,109.44444444444444,325.0,27.698412698412696,-29.6031746031746,-27.539682539682538,-321.8253968253968
-42.77777777777778,-67.22222222222221,-10.714285714285714,8.809523809523808,-44.84126984126984,53.095238095238095,-29.126984126984127,325.0,-52.61904761904761,144.04761904761904,-42.93650793650794,-48.96825396825397,-29.76190476190476,4.2063492063492065,-50.238095238095234,325.0,-29.126984126984127,253.4126984126984,109.44444444444444,325.0,27.698412698412696,-29.6031746031746,-27.539682539682538,-321.8253968253968
41.03174603174603,32.93650793650794,77.38095238095238,14.84126984126984,45.15873015873016,69.28571428571428,76.58730158730158,325.0,48.96825396825397,248.8095238095238,44.36507936507936,36.58730158730159,90.39682539682539,44.68253968253968,15.476190476190474,237.06349206349205,48.96825396825397,28.333333333333332,150.87301587301587,325.0,-14.365079365079364,26.587301587301585,24.206349206349206,-166.26984126984127
41.03174603174603,32.93650793650794,77.38095238095238,14.84126984126984,45.15873015873016,69.28571428571428,76.58730158730158,325.0,48.96825396825397,248.8095238095238,44.36507936507936,36.58730158730159,90.39682539682539,44.68253968253968,15.476190476190474,237.06349206349205,48.96825396825397,28.333333333333332,150.87301587301587,325.0,-14.365079365079364,26.587301587301585,24.206349206349206,-166.26984126984127
-42.77777777777778,-68.17460317460318,-14.523809523809524,12.46031746031746,-46.42857142857142,48.49206349206349,-32.460317460317455,325.0,-54.52380952380952,139.6031746031746,-45.476190476190474,-45.317460317460316,-35.0,0.873015873015873,-45.0,325.0,-34.36507936507936,260.55555555555554,107.6984126984127,325.0,31.666666666666664,-19.76190476190476,-21.349206349206348,-166.26984126984127
-42.77777777777778,-68.17460317460318,-14.523809523809524,12.46031746031746,-46.42857142857142,48.49206349206349,-32.460317460317455,325.0,-54.52380952380952,139.6031746031746,-45.476190476190474,-45.317460317460316,-35.0,0.873015873015873,-45.0,325.0,-34.36507936507936,260.55555555555554,107.6984126984127,325.0,31.666666666666664,-19.76190476190476,-21.349206349206348,-166.26984126984127
95.95238095238095,119.12698412698413,134.84126984126982,139.12698412698413,94.36507936507935,172.46031746031744,125.47619047619047,300.39682539682536,90.07936507936508,325.0,92.61904761904762,141.5079365079365,150.87301587301587,135.63492063492063,116.42857142857142,325.0,96.1111111111111,80.71428571428571,89.12698412698413,325.0,-19.92063492063492,-187.69841269841268,-141.5079365079365,-166.26984126984127
95.95238095238095,119.12698412698413,134.84126984126982,139.12698412698413,94.36507936507935,172.46031746031744,125.47619047619047,300.39682539682536,90.07936507936508,325.0,92.61904761904762,141.5079365079365,150.87301587301587,135.63492063492063,116.42857142857142,325.0,96.1111111111111,80.71428571428571,89.12698412698413,325.0,-19.92063492063492,-187.69841269841268,-141.5079365079365,-166.26984126984127
-41.19047619047619,-67.6984126984127,-17.539682539682538,15.476190476190474,-47.38095238095238,44.2063492063492,-35.15873015873016,325.0,-56.11111111111111,134.68253968253967,-47.38095238095238,-41.03174603174603,-39.6031746031746,-0.7142857142857142,-38.96825396825397,325.0,-38.49206349206349,271.031746031746,105.79365079365078,325.0,34.682539682539684,-12.3015873015873,-15.476190476190474,-166.26984126984127
-41.19047619047619,-67.6984126984127,-17.539682539682538,15.476190476190474,-47.38095238095238,44.2063492063492,-35.15873015873016,325.0,-56.11111111111111,134.68253968253967,-47.38095238095238,-41.03174603174603,-39.6031746031746,-0.7142857142857142,-38.96825396825397,325.0,-38.49206349206349,271.031746031746,105.79365079365078,325.0,34.682539682539684,-12.3015873015873,-15.476190476190474,-166.26984126984127
42.14285714285714,32.3015873015873,78.17460317460316,8.968253968253968,48.96825396825397,68.17460317460318,79.76190476190476,281.984126984127,53.41269841269841,237.85714285714283,49.92063492063492,31.19047619047619,97.53968253968253,43.41269841269841,6.26984126984127,225.79365079365078,56.11111111111111,39.6031746031746,170.23809523809524,325.0,-27.063492063492063,9.603174603174603,10.873015873015872,-166.26984126984127
42.14285714285714,32.3015873015873,78.17460317460316,8.968253968253968,48.96825396825397,68.17460317460318,79.76190476190476,281.984126984127,53.41269841269841,237.85714285714283,49.92063492063492,31.19047619047619,97.53968253968253,43.41269841269841,6.26984126984127,225.79365079365078,56.11111111111111,39.6031746031746,170.23809523809524,325.0,-27.063492063492063,9.603174603174603,10.873015873015872,-166.26984126984127
-38.96825396825397,-66.42857142857143,-19.6031746031746,18.96825396825397,-47.38095238095238,41.03174603174603,-36.269841269841265,320.07936507936506,-56.11111111111111,132.46031746031744,-47.857142857142854,-36.269841269841265,-43.57142857142857,-1.6666666666666665,-33.25396825396825,325.0,-41.98412698412698,264.36507936507934,105.0,325.0,37.06349206349206,-2.9365079365079363,-7.698412698412698,-321.8253968253968
-38.96825396825397,-66.42857142857143,-19.6031746031746,18.96825396825397,-47.38095238095238,41.03174603174603,-36.269841269841265,320.07936507936506,-56.11111111111111,132.46031746031744,-47.857142857142854,-36.269841269841265,-43.57142857142857,-1.6666666666666665,-33.25396825396825,325.0,-41.98412698412698,264.36507936507934,105.0,325.0,37.06349206349206,-2.9365079365079363,-7.698412698412698,-321.8253968253968
28.333333333333332,-25.317460317460316,26.587301587301585,93.88888888888889,4.2063492063492065,47.06349206349206,11.825396825396824,315.1587301587301,-12.46031746031746,199.28571428571428,0.7142857142857142,28.174603174603174,12.936507936507935,16.26984126984127,80.23809523809523,325.0,-10.873015873015872,325.0,325.0,325.0,11.19047619047619,-202.61904761904762,-165.15873015873015,-321.8253968253968
28.333333333333332,-25.317460317460316,26.587301587301585,93.88888888888889,4.2063492063492065,47.06349206349206,11.825396825396824,315.1587301587301,-12.46031746031746,199.28571428571428,0.7142857142857142,28.174603174603174,12.936507936507935,16.26984126984127,80.23809523809523,325.0,-10.873015873015872,325.0,325.0,325.0,11.19047619047619,-202.61904761904762,-165.15873015873015,-321.8253968253968
-36.42857142857142,-64.04761904761905,-20.71428571428571,21.666666666666664,-45.79365079365079,38.96825396825397,-36.58730158730159,265.0,-55.15873015873016,129.44444444444443,-47.857142857142854,-32.3015873015873,-46.11111111111111,-1.6666666666666665,-27.063492063492063,325.0,-44.84126984126984,258.4920634920635,106.58730158730158,325.0,38.65079365079365,5.317460317460317,-0.7142857142857142,-321.8253968253968
-36.42857142857142,-64.04761904761905,-20.71428571428571,21.666666666666664,-45.79365079365079,38.96825396825397,-36.58730158730159,265.0,-55.15873015873016,129.44444444444443,-47.857142857142854,-32.3015873015873,-46.11111111111111,-1.6666666666666665,-27.063492063492063,325.0,-44.84126984126984,258.4920634920635,106.58730158730158,325.0,38.65079365079365,5.317460317460317,-0.7142857142857142,-321.8253968253968
117.6984126984127,131.8253968253968,151.984126984127,125.0,115.95238095238095,183.25396825396825,146.58730158730157,48.49206349206349,112.6190476190476,325.0,116.26984126984127,135.47619047619048,173.09523809523807,147.69841269841268,94.68253968253968,319.9206349206349,121.98412698412697,57.22222222222222,162.3015873015873,325.0,-56.74603174603174,-214.84126984126982,-163.88888888888889,-321.8253968253968
117.6984126984127,131.8253968253968,151.984126984127,125.0,115.95238095238095,183.25396825396825,146.58730158730157,48.49206349206349,112.6190476190476,325.0,116.26984126984127,135.47619047619048,173.09523809523807,147.69841269841268,94.68253968253968,319.9206349206349,121.98412698412697,57.22222222222222,162.3015873015873,325.0,-56.74603174603174,-214.84126984126982,-163.88888888888889,-321.8253968253968
-34.52380952380952,-61.19047619047619,-21.03174603174603,24.206349206349206,-44.2063492063492,37.857142857142854,-35.79365079365079,218.4920634920635,-53.095238095238095,125.79365079365078,-47.06349206349206,-28.015873015873016,-47.857142857142854,-0.873015873015873,-20.873015873015873,322.6190476190476,-46.269841269841265,253.57142857142856,108.49206349206348,325.0,39.44444444444444,14.206349206349206,5.952380952380952,-321.8253968253968
-34.52380952380952,-61.19047619047619,-21.03174603174603,24.206349206349206,-44.2063492063492,37.857142857142854,-35.79365079365079,218.4920634920635,-53.095238095238095,125.79365079365078,-47.06349206349206,-28.015873015873016,-47.857142857142854,-0.873015873015873,-20.873015873015873,322.6190476190476,-46.269841269841265,253.57142857142856,108.49206349206348,325.0,39.44444444444444,14.206349206349206,5.952380952380952,-321.8253968253968
-0.23809523809523808,-41.507936507936506,13.412698412698411,-7.222222222222221,-3.571428571428571,1.6666666666666665,13.095238095238095,125.0,-5.476190476190476,143.88888888888889,-4.2063492063492065,-21.825396825396822,20.396825396825395,-18.49206349206349,-8.968253968253968,183.88888888888889,-7.5396825396825395,180.87301587301587,273.73015873015873,325.0,-3.73015873015873,2.46031746031746,0.7142857142857142,-166.26984126984127
-0.23809523809523808,-41.507936507936506,13.412698412698411,-7.222222222222221,-3.571428571428571,1.6666666666666665,13.095238095238095,125.0,-5.476190476190476,143.88888888888889,-4.2063492063492065,-21.825396825396822,20.396825396825395,-18.49206349206349,-8.968253968253968,183.88888888888889,-7.5396825396825395,180.87301587301587,273.73015873015873,325.0,-3.73015873015873,2.46031746031746,0.7142857142857142,-166.26984126984127
5.7936507936507935,-35.79365079365079,18.174603174603174,-3.888888888888889,1.8253968253968254,6.587301587301587,18.49206349206349,58.96825396825397,0.07936507936507936,136.11111111111111,1.507936507936508,-17.539682539682538,24.047619047619047,-13.412698412698411,-7.698412698412698,183.88888888888889,-3.888888888888889,180.87301587301587,268.6507936507936,325.0,-8.015873015873016,6.587301587301587,5.158730158730158,-166.26984126984127
5.7936507936507935,-35.79365079365079,18.174603174603174,-3.888888888888889,1.8253968253968254,6.587301587301587,18.49206349206349,58.96825396825397,0.07936507936507936,136.11111111111111,1.507936507936508,-17.539682539682538,24.047619047619047,-13.412698412698411,-7.698412698412698,183.88888888888889,-3.888888888888889,180.87301587301587,268.6507936507936,325.0,-8.015873015873016,6.587301587301587,5.158730158730158,-166.26984126984127
0.07936507936507936,-39.6031746031746,12.46031746031746,-4.841269841269841,-3.73015873015873,2.9365079365079363,11.984126984126984,27.857142857142854,-5.7936507936507935,132.46031746031744,-4.2063492063492065,-20.07936507936508,18.65079365079365,-17.063492063492063,-8.015873015873016,154.68253968253967,-10.079365079365079,187.38095238095238,266.1111111111111,325.0,-2.142857142857143,1.6666666666666665,1.507936507936508,-166.26984126984127
0.07936507936507936,-39.6031746031746,12.46031746031746,-4.841269841269841,-3.73015873015873,2.9365079365079363,11.984126984126984,27.857142857142854,-5.7936507936507935,132.46031746031744,-4.2063492063492065,-20.07936507936508,18.65079365079365,-17.063492063492063,-8.015873015873016,154.68253968253967,-10.079365079365079,187.38095238095238,266.1111111111111,325.0,-2.142857142857143,1.6666666666666665,1.507936507936508,-166.26984126984127
-132.46031746031744,-130.07936507936506,-101.34920634920634,-65.63492063492063,-127.22222222222221,-10.079365079365079,-118.49206349206348,289.2857142857143,-130.55555555555554,101.19047619047619,-128.015873015873,-106.42857142857142,-135.47619047619048,-54.2063492063492,-110.71428571428571,265.3174603174603,-113.09523809523809,162.93650793650792,-95.0,325.0,99.12698412698413,228.33333333333331,175.63492063492063,-166.26984126984127
-132.46031746031744,-130.07936507936506,-101.34920634920634,-65.63492063492063,-127.22222222222221,-10.079365079365079,-118.49206349206348,289.2857142857143,-130.55555555555554,101.19047619047619,-128.015873015873,-106.42857142857142,-135.47619047619048,-54.2063492063492,-110.71428571428571,265.3174603174603,-113.09523809523809,162.93650793650792,-95.0,325.0,99.12698412698413,228.33333333333331,175.63492063492063,-166.26984126984127
-103.88888888888889,-112.30158730158729,-69.92063492063491,-97.22222222222221,-91.34920634920634,-42.77777777777778,-74.36507936507937,154.36507936507937,-87.6984126984127,103.25396825396825,-89.28571428571428,-104.52380952380952,-69.92063492063491,-70.55555555555556,-110.39682539682539,86.1111111111111,-76.58730158730158,109.44444444444444,57.53968253968254,325.0,59.285714285714285,198.65079365079364,155.95238095238093,-166.26984126984127
-103.88888888888889,-112.30158730158729,-69.92063492063491,-97.22222222222221,-91.34920634920634,-42.77777777777778,-74.36507936507937,154.36507936507937,-87.6984126984127,103.25396825396825,-89.28571428571428,-104.52380952380952,-69.92063492063491,-70.55555555555556,-110.39682539682539,86.1111111111111,-76.58730158730158,109.44444444444444,57.53968253968254,325.0,59.285714285714285,198.65079365079364,155.95238095238093,-166.26984126984127
-27.539682539682538,-53.25396825396825,-19.444444444444443,30.555555555555554,-38.80952380952381,35.63492063492063,-32.3015873015873,57.857142857142854,-46.904761904761905,117.38095238095238,-42.3015873015873,-16.904761904761905,-47.857142857142854,0.7142857142857142,-3.253968253968254,246.74603174603172,-46.74603174603175,238.65079365079364,108.80952380952381,325.0,37.22222222222222,39.92063492063492,26.587301587301585,-321.8253968253968
-27.539682539682538,-53.25396825396825,-19.444444444444443,30.555555555555554,-38.80952380952381,35.63492063492063,-32.3015873015873,57.857142857142854,-46.904761904761905,117.38095238095238,-42.3015873015873,-16.904761904761905,-47.857142857142854,0.7142857142857142,-3.253968253968254,246.74603174603172,-46.74603174603175,238.65079365079364,108.80952380952381,325.0,37.22222222222222,39.92063492063492,26.587301587301585,-321.8253968253968
-2.142857142857143,-37.38095238095238,9.603174603174603,-1.6666666666666665,-5.634920634920634,3.888888888888889,9.126984126984127,-75.63492063492063,-7.222222222222221,112.46031746031746,-5.952380952380952,-17.22222222222222,15.0,-15.476190476190474,-7.857142857142857,47.22222222222222,-12.3015873015873,194.84126984126982,249.60317460317458,325.0,1.1904761904761905,1.0317460317460316,-0.23809523809523808,-321.8253968253968
-2.142857142857143,-37.38095238095238,9.603174603174603,-1.6666666666666665,-5.634920634920634,3.888888888888889,9.126984126984127,-75.63492063492063,-7.222222222222221,112.46031746031746,-5.952380952380952,-17.22222222222222,15.0,-15.476190476190474,-7.857142857142857,47.22222222222222,-12.3015873015873,194.84126984126982,249.60317460317458,325.0,1.1904761904761905,1.0317460317460316,-0.23809523809523808,-321.8253968253968
-25.0,-50.87301587301587,-18.96825396825397,32.61904761904762,-37.22222222222222,34.682539682539684,-31.03174603174603,52.77777777777777,-45.0,111.82539682539682,-40.87301587301587,-12.936507936507935,-47.06349206349206,1.1904761904761905,1.0317460317460316,192.93650793650792,-45.79365079365079,234.36507936507934,109.92063492063491,325.0,35.79365079365079,47.857142857142854,32.77777777777778,-321.8253968253968
-25.0,-50.87301587301587,-18.96825396825397,32.61904761904762,-37.22222222222222,34.682539682539684,-31.03174603174603,52.77777777777777,-45.0,111.82539682539682,-40.87301587301587,-12.936507936507935,-47.06349206349206,1.1904761904761905,1.0317460317460316,192.93650793650792,-45.79365079365079,234.36507936507934,109.92063492063491,325.0,35.79365079365079,47.857142857142854,32.77777777777778,-321.8253968253968
89.12698412698413,34.682539682539684,75.31746031746032,130.23809523809524,61.82539682539682,98.49206349206348,67.6984126984127,-174.68253968253967,49.285714285714285,109.28571428571428,56.904761904761905,76.9047619047619,53.095238095238095,70.07936507936508,90.71428571428571,215.15873015873015,37.38095238095238,325.0,299.2857142857143,325.0,-40.714285714285715,-146.9047619047619,-121.5079365079365,-321.8253968253968
89.12698412698413,34.682539682539684,75.31746031746032,130.23809523809524,61.82539682539682,98.49206349206348,67.6984126984127,-174.68253968253967,49.285714285714285,109.28571428571428,56.904761904761905,76.9047619047619,53.095238095238095,70.07936507936508,90.71428571428571,215.15873015873015,37.38095238095238,325.0,299.2857142857143,325.0,-40.714285714285715,-146.9047619047619,-121.5079365079365,-321.8253968253968
-22.46031746031746,-47.698412698412696,-17.063492063492063,35.15873015873016,-34.52380952380952,35.0,-28.015873015873016,51.19047619047619,-41.19047619047619,107.6984126984127,-38.49206349206349,-8.333333333333332,-45.317460317460316,2.142857142857143,4.2063492063492065,152.46031746031744,-43.41269841269841,231.03174603174602,110.39682539682539,325.0,32.61904761904762,56.11111111111111,39.285714285714285,-321.8253968253968
-22.46031746031746,-47.698412698412696,-17.063492063492063,35.15873015873016,-34.52380952380952,35.0,-28.015873015873016,51.19047619047619,-41.19047619047619,107.6984126984127,-38.49206349206349,-8.333333333333332,-45.317460317460316,2.142857142857143,4.2063492063492065,152.46031746031744,-43.41269841269841,231.03174603174602,110.39682539682539,325.0,32.61904761904762,56.11111111111111,39.285714285714285,-321.8253968253968
95.0,42.14285714285714,82.46031746031746,133.0952380952381,69.12698412698413,106.26984126984127,76.1111111111111,-185.0,58.49206349206349,94.84126984126983,64.36507936507937,82.77777777777777,59.6031746031746,78.01587301587301,86.58730158730158,187.38095238095238,47.38095238095238,325.0,295.3174603174603,325.0,-51.666666666666664,-136.58730158730157,-113.73015873015872,-166.26984126984127
95.0,42.14285714285714,82.46031746031746,133.0952380952381,69.12698412698413,106.26984126984127,76.1111111111111,-185.0,58.49206349206349,94.84126984126983,64.36507936507937,82.77777777777777,59.6031746031746,78.01587301587301,86.58730158730158,187.38095238095238,47.38095238095238,325.0,295.3174603174603,325.0,-51.666666666666664,-136.58730158730157,-113.73015873015872,-166.26984126984127
98.33333333333333,45.79365079365079,85.0,133.88888888888889,71.98412698412697,110.55555555555554,78.96825396825396,-189.60317460317458,61.82539682539682,85.79365079365078,67.85714285714285,84.84126984126983,62.93650793650793,81.98412698412697,83.25396825396825,193.7301587301587,51.34920634920635,325.0,289.4444444444444,325.0,-56.11111111111111,-132.14285714285714,-109.6031746031746,-166.26984126984127
98.33333333333333,45.79365079365079,85.0,133.88888888888889,71.98412698412697,110.55555555555554,78.96825396825396,-189.60317460317458,61.82539682539682,85.79365079365078,67.85714285714285,84.84126984126983,62.93650793650793,81.98412698412697,83.25396825396825,193.7301587301587,51.34920634920635,325.0,289.4444444444444,325.0,-56.11111111111111,-132.14285714285714,-109.6031746031746,-166.26984126984127
