Fp1[1],Fp2[2],F3[3],F4[4],C3[5],C4[6],P3[7],P4[8],O1[9],O2[10],F7[11],F8[12],T3[13],T4[14],T5[15],T6[16],Fz[17],Pz[18],Cz[19],Pg1[20],Pg2[21],EOGR[22],EOOGL[23],EMG[24]
188.8095238095238,325.0,325.0,-325.0,266.74603174603175,325.0,194.52380952380952,325.0,162.77777777777777,325.0,325.0,325.0,325.0,-325.0,325.0,325.0,-325.0,325.0,-325.0,-325.0,-325.0,-1.984126984126984,-5.7936507936507935,-166.26984126984127
188.8095238095238,325.0,325.0,-325.0,266.74603174603175,325.0,194.52380952380952,325.0,162.77777777777777,325.0,325.0,325.0,325.0,-325.0,325.0,325.0,-325.0,325.0,-325.0,-325.0,-325.0,-1.984126984126984,-5.7936507936507935,-166.26984126984127
166.9047619047619,-0.07936507936507936,325.0,-324.5238095238095,238.8095238095238,325.0,172.46031746031744,306.74603174603175,143.88888888888889,325.0,325.0,305.6349206349206,325.0,-325.0,304.04761904761904,-126.9047619047619,-325.0,325.0,-325.0,-325.0,-325.0,4.682539682539682,6.904761904761904,-166.26984126984127
166.9047619047619,-0.07936507936507936,325.0,-324.5238095238095,238.8095238095238,325.0,172.46031746031744,306.74603174603175,143.88888888888889,325.0,325.0,305.6349206349206,325.0,-325.0,304.04761904761904,-126.9047619047619,-325.0,325.0,-325.0,-325.0,-325.0,4.682539682539682,6.904761904761904,-166.26984126984127
147.85714285714286,-325.0,325.0,-323.88888888888886,214.36507936507937,325.0,153.57142857142856,288.6507936507936,127.53968253968253,325.0,325.0,286.26984126984127,325.0,-325.0,283.0952380952381,-325.0,-325.0,325.0,-325.0,-325.0,-325.0,4.0476190476190474,7.3809523809523805,-166.26984126984127
147.85714285714286,-325.0,325.0,-323.88888888888886,214.36507936507937,325.0,153.57142857142856,288.6507936507936,127.53968253968253,325.0,325.0,286.26984126984127,325.0,-325.0,283.0952380952381,-325.0,-325.0,325.0,-325.0,-325.0,-325.0,4.0476190476190474,7.3809523809523805,-166.26984126984127
147.85714285714286,-325.0,325.0,-323.88888888888886,214.36507936507937,325.0,153.57142857142856,288.6507936507936,127.53968253968253,325.0,325.0,286.26984126984127,325.0,-325.0,283.0952380952381,-325.0,-325.0,325.0,-325.0,-325.0,-325.0,4.0476190476190474,7.3809523809523805,-166.26984126984127
147.85714285714286,-325.0,325.0,-323.88888888888886,214.36507936507937,325.0,153.57142857142856,288.6507936507936,127.53968253968253,325.0,325.0,286.26984126984127,325.0,-325.0,283.0952380952381,-325.0,-325.0,325.0,-325.0,-325.0,-325.0,4.0476190476190474,7.3809523809523805,-166.26984126984127
147.85714285714286,-325.0,325.0,-323.88888888888886,214.36507936507937,325.0,153.57142857142856,288.6507936507936,127.53968253968253,325.0,325.0,286.26984126984127,325.0,-325.0,283.0952380952381,-325.0,-325.0,325.0,-325.0,-325.0,-325.0,4.0476190476190474,7.3809523809523805,-166.26984126984127
147.85714285714286,-325.0,325.0,-323.88888888888886,214.36507936507937,325.0,153.57142857142856,288.6507936507936,127.53968253968253,325.0,325.0,286.26984126984127,325.0,-325.0,283.0952380952381,-325.0,-325.0,325.0,-325.0,-325.0,-325.0,4.0476190476190474,7.3809523809523805,-166.26984126984127
136.42857142857142,-325.0,325.0,-300.39682539682536,199.28571428571428,302.9365079365079,141.984126984127,267.85714285714283,117.53968253968253,-325.0,325.0,264.68253968253964,325.0,-312.1428571428571,262.3015873015873,-325.0,-325.0,325.0,-325.0,-325.0,-325.0,-0.7142857142857142,-5.0,-321.8253968253968
136.42857142857142,-325.0,325.0,-300.39682539682536,199.28571428571428,302.9365079365079,141.984126984127,267.85714285714283,117.53968253968253,-325.0,325.0,264.68253968253964,325.0,-312.1428571428571,262.3015873015873,-325.0,-325.0,325.0,-325.0,-325.0,-325.0,-0.7142857142857142,-5.0,-321.8253968253968
128.8095238095238,-325.0,325.0,-284.5238095238095,189.28571428571428,287.6984126984127,134.68253968253967,254.04761904761904,111.19047619047619,-325.0,325.0,250.7142857142857,325.0,-295.6349206349206,248.65079365079364,-325.0,-325.0,325.0,-325.0,-325.0,-325.0,-0.873015873015873,-5.0,-321.8253968253968
128.8095238095238,-325.0,325.0,-284.5238095238095,189.28571428571428,287.6984126984127,134.68253968253967,254.04761904761904,111.19047619047619,-325.0,325.0,250.7142857142857,325.0,-295.6349206349206,248.65079365079364,-325.0,-325.0,325.0,-325.0,-325.0,-325.0,-0.873015873015873,-5.0,-321.8253968253968
125.63492063492063,-325.0,325.0,-278.3333333333333,185.3174603174603,281.5079365079365,131.66666666666666,248.65079365079364,108.49206349206348,-325.0,321.19047619047615,245.15873015873015,325.0,-288.968253968254,243.25396825396825,-325.0,-325.0,325.0,-325.0,-325.0,-325.0,3.571428571428571,-0.873015873015873,-321.8253968253968
125.63492063492063,-325.0,325.0,-278.3333333333333,185.3174603174603,281.5079365079365,131.66666666666666,248.65079365079364,108.49206349206348,-325.0,321.19047619047615,245.15873015873015,325.0,-288.968253968254,243.25396825396825,-325.0,-325.0,325.0,-325.0,-325.0,-325.0,3.571428571428571,-0.873015873015873,-321.8253968253968
118.65079365079364,-325.0,322.3015873015873,-263.73015873015873,175.95238095238093,267.22222222222223,124.68253968253967,235.79365079365078,102.61904761904762,-325.0,306.58730158730157,232.14285714285714,321.5079365079365,-273.57142857142856,230.55555555555554,-325.0,-325.0,325.0,-319.6031746031746,-314.2063492063492,-315.6349206349206,-1.1904761904761905,-0.3968253968253968,-321.8253968253968
118.65079365079364,-325.0,322.3015873015873,-263.73015873015873,175.95238095238093,267.22222222222223,124.68253968253967,235.79365079365078,102.61904761904762,-325.0,306.58730158730157,232.14285714285714,321.5079365079365,-273.57142857142856,230.55555555555554,-325.0,-325.0,325.0,-319.6031746031746,-314.2063492063492,-315.6349206349206,-1.1904761904761905,-0.3968253968253968,-321.8253968253968
114.36507936507935,-325.0,311.3492063492063,-254.36507936507934,170.07936507936506,258.3333333333333,120.39682539682539,227.69841269841268,98.65079365079364,-325.0,296.58730158730157,223.88888888888889,310.7142857142857,-263.73015873015873,222.3015873015873,-325.0,-325.0,325.0,-308.6507936507936,-303.4126984126984,-304.2063492063492,2.46031746031746,-1.0317460317460316,-321.8253968253968
114.36507936507935,-325.0,311.3492063492063,-254.36507936507934,170.07936507936506,258.3333333333333,120.39682539682539,227.69841269841268,98.65079365079364,-325.0,296.58730158730157,223.88888888888889,310.7142857142857,-263.73015873015873,222.3015873015873,-325.0,-325.0,325.0,-308.6507936507936,-303.4126984126984,-304.2063492063492,2.46031746031746,-1.0317460317460316,-321.8253968253968
111.5079365079365,-325.0,304.5238095238095,-248.8095238095238,166.58730158730157,252.77777777777777,117.53968253968253,222.61904761904762,96.42857142857142,-325.0,290.23809523809524,218.65079365079364,304.04761904761904,-258.015873015873,217.38095238095238,-325.0,-325.0,325.0,-302.1428571428571,-297.06349206349205,-297.6984126984127,-4.365079365079365,-5.634920634920634,-166.26984126984127
111.5079365079365,-325.0,304.5238095238095,-248.8095238095238,166.58730158730157,252.77777777777777,117.53968253968253,222.61904761904762,96.42857142857142,-325.0,290.23809523809524,218.65079365079364,304.04761904761904,-258.015873015873,217.38095238095238,-325.0,-325.0,325.0,-302.1428571428571,-297.06349206349205,-297.6984126984127,-4.365079365079365,-5.634920634920634,-166.26984126984127
-50.87301587301587,-314.8412698412698,301.031746031746,-2.619047619047619,78.33333333333333,-14.682539682539682,1.507936507936508,-44.36507936507936,-105.63492063492063,-10.238095238095237,-8.174603174603174,-50.87301587301587,153.09523809523807,-112.77777777777777,257.38095238095235,-152.14285714285714,-322.6190476190476,161.984126984127,-296.90476190476187,-292.1428571428571,-292.3015873015873,-4.682539682539682,-15.158730158730158,-166.26984126984127
-50.87301587301587,-314.8412698412698,301.031746031746,-2.619047619047619,78.33333333333333,-14.682539682539682,1.507936507936508,-44.36507936507936,-105.63492063492063,-10.238095238095237,-8.174603174603174,-50.87301587301587,153.09523809523807,-112.77777777777777,257.38095238095235,-152.14285714285714,-322.6190476190476,161.984126984127,-296.90476190476187,-292.1428571428571,-292.3015873015873,-4.682539682539682,-15.158730158730158,-166.26984126984127
108.01587301587301,-325.0,295.3174603174603,-241.19047619047618,161.34920634920633,245.63492063492063,113.88888888888889,216.1111111111111,93.4126984126984,-325.0,281.984126984127,211.66666666666666,295.0,-249.9206349206349,210.3968253968254,-325.0,-325.0,325.0,-293.0952380952381,-288.3333333333333,-288.3333333333333,-5.158730158730158,-0.5555555555555556,-166.26984126984127
108.01587301587301,-325.0,295.3174603174603,-241.19047619047618,161.34920634920633,245.63492063492063,113.88888888888889,216.1111111111111,93.4126984126984,-325.0,281.984126984127,211.66666666666666,295.0,-249.9206349206349,210.3968253968254,-325.0,-325.0,325.0,-293.0952380952381,-288.3333333333333,-288.3333333333333,-5.158730158730158,-0.5555555555555556,-166.26984126984127
95.31746031746032,-325.0,263.25396825396825,-215.0,144.2063492063492,219.60317460317458,101.34920634920634,192.93650793650792,82.93650793650794,-325.0,252.77777777777777,188.015873015873,263.0952380952381,-222.3015873015873,187.38095238095238,-325.0,-325.0,325.0,-262.1428571428571,-257.53968253968253,-256.74603174603175,-3.73015873015873,-7.3809523809523805,-166.26984126984127
95.31746031746032,-325.0,263.25396825396825,-215.0,144.2063492063492,219.60317460317458,101.34920634920634,192.93650793650792,82.93650793650794,-325.0,252.77777777777777,188.015873015873,263.0952380952381,-222.3015873015873,187.38095238095238,-325.0,-325.0,325.0,-262.1428571428571,-257.53968253968253,-256.74603174603175,-3.73015873015873,-7.3809523809523805,-166.26984126984127
95.31746031746032,-325.0,263.25396825396825,-215.0,144.2063492063492,219.60317460317458,101.34920634920634,192.93650793650792,82.93650793650794,-325.0,252.77777777777777,188.015873015873,263.0952380952381,-222.3015873015873,187.38095238095238,-325.0,-325.0,325.0,-262.1428571428571,-257.53968253968253,-256.74603174603175,-3.73015873015873,-7.3809523809523805,-166.26984126984127
95.31746031746032,-325.0,263.25396825396825,-215.0,144.2063492063492,219.60317460317458,101.34920634920634,192.93650793650792,82.93650793650794,-325.0,252.77777777777777,188.015873015873,263.0952380952381,-222.3015873015873,187.38095238095238,-325.0,-325.0,325.0,-262.1428571428571,-257.53968253968253,-256.74603174603175,-3.73015873015873,-7.3809523809523805,-166.26984126984127
95.31746031746032,-325.0,263.25396825396825,-215.0,144.2063492063492,219.60317460317458,101.34920634920634,192.93650793650792,82.93650793650794,-325.0,252.77777777777777,188.015873015873,263.0952380952381,-222.3015873015873,187.38095238095238,-325.0,-325.0,325.0,-262.1428571428571,-257.53968253968253,-256.74603174603175,-3.73015873015873,-7.3809523809523805,-321.8253968253968
95.31746031746032,-325.0,263.25396825396825,-215.0,144.2063492063492,219.60317460317458,101.34920634920634,192.93650793650792,82.93650793650794,-325.0,252.77777777777777,188.015873015873,263.0952380952381,-222.3015873015873,187.38095238095238,-325.0,-325.0,325.0,-262.1428571428571,-257.53968253968253,-256.74603174603175,-3.73015873015873,-7.3809523809523805,-321.8253968253968
58.96825396825397,-213.7301587301587,165.95238095238093,-135.47619047619048,-90.39682539682539,-52.77777777777777,63.57142857142857,-66.11111111111111,52.14285714285714,-228.015873015873,-34.52380952380952,118.01587301587301,166.58730158730157,-140.23809523809524,118.01587301587301,-192.14285714285714,-0.07936507936507936,41.98412698412698,-166.9047619047619,-163.88888888888889,-161.66666666666666,1.1904761904761905,-0.07936507936507936,-321.8253968253968
58.96825396825397,-213.7301587301587,165.95238095238093,-135.47619047619048,-90.39682539682539,-52.77777777777777,63.57142857142857,-66.11111111111111,52.14285714285714,-228.015873015873,-34.52380952380952,118.01587301587301,166.58730158730157,-140.23809523809524,118.01587301587301,-192.14285714285714,-0.07936507936507936,41.98412698412698,-166.9047619047619,-163.88888888888889,-161.66666666666666,1.1904761904761905,-0.07936507936507936,-321.8253968253968
-41.507936507936506,-45.79365079365079,45.317460317460316,-37.06349206349206,-325.0,-325.0,-157.85714285714286,-325.0,14.047619047619047,-87.38095238095238,-221.03174603174602,-325.0,46.74603174603175,325.0,31.825396825396822,319.4444444444444,325.0,-165.15873015873015,-47.857142857142854,-46.74603174603175,-43.888888888888886,-0.5555555555555556,2.9365079365079363,-321.8253968253968
-41.507936507936506,-45.79365079365079,45.317460317460316,-37.06349206349206,-325.0,-325.0,-157.85714285714286,-325.0,14.047619047619047,-87.38095238095238,-221.03174603174602,-325.0,46.74603174603175,325.0,31.825396825396822,319.4444444444444,325.0,-165.15873015873015,-47.857142857142854,-46.74603174603175,-43.888888888888886,-0.5555555555555556,2.9365079365079363,-321.8253968253968
-212.14285714285714,16.11111111111111,39.6031746031746,-32.61904761904762,-325.0,-325.0,-325.0,-325.0,12.46031746031746,-76.9047619047619,-196.58730158730157,-325.0,41.19047619047619,325.0,27.857142857142854,325.0,325.0,-146.58730158730157,-42.14285714285714,-41.34920634920635,-38.49206349206349,-0.873015873015873,2.9365079365079363,-321.8253968253968
-212.14285714285714,16.11111111111111,39.6031746031746,-32.61904761904762,-325.0,-325.0,-325.0,-325.0,12.46031746031746,-76.9047619047619,-196.58730158730157,-325.0,41.19047619047619,325.0,27.857142857142854,325.0,325.0,-146.58730158730157,-42.14285714285714,-41.34920634920635,-38.49206349206349,-0.873015873015873,2.9365079365079363,-321.8253968253968
-325.0,48.96825396825397,38.17460317460317,-31.507936507936506,-325.0,-325.0,-325.0,-325.0,12.142857142857142,-74.52380952380952,-191.03174603174602,-325.0,39.76190476190476,325.0,27.063492063492063,325.0,325.0,-142.46031746031744,-40.714285714285715,-40.079365079365076,-37.22222222222222,3.73015873015873,6.746031746031746,-321.8253968253968
-325.0,48.96825396825397,38.17460317460317,-31.507936507936506,-325.0,-325.0,-325.0,-325.0,12.142857142857142,-74.52380952380952,-191.03174603174602,-325.0,39.76190476190476,325.0,27.063492063492063,325.0,325.0,-142.46031746031744,-40.714285714285715,-40.079365079365076,-37.22222222222222,3.73015873015873,6.746031746031746,-321.8253968253968
-325.0,278.6507936507936,32.61904761904762,312.77777777777777,-325.0,-325.0,-325.0,-325.0,10.555555555555555,-43.57142857142857,-165.63492063492063,-325.0,34.2063492063492,325.0,23.253968253968253,325.0,321.19047619047615,-123.09523809523809,-35.15873015873016,-34.36507936507936,-31.98412698412698,4.0476190476190474,3.4126984126984126,-166.26984126984127
-325.0,278.6507936507936,32.61904761904762,312.77777777777777,-325.0,-325.0,-325.0,-325.0,10.555555555555555,-43.57142857142857,-165.63492063492063,-325.0,34.2063492063492,325.0,23.253968253968253,325.0,321.19047619047615,-123.09523809523809,-35.15873015873016,-34.36507936507936,-31.98412698412698,4.0476190476190474,3.4126984126984126,-166.26984126984127
-325.0,325.0,31.349206349206348,325.0,-325.0,-325.0,-325.0,-325.0,10.079365079365079,1.349206349206349,-158.33333333333331,-325.0,32.61904761904762,325.0,22.142857142857142,325.0,306.58730158730157,-117.38095238095238,-33.57142857142857,-32.77777777777778,-30.238095238095237,3.73015873015873,1.6666666666666665,-166.26984126984127
-325.0,325.0,31.349206349206348,325.0,-325.0,-325.0,-325.0,-325.0,10.079365079365079,1.349206349206349,-158.33333333333331,-325.0,32.61904761904762,325.0,22.142857142857142,325.0,306.58730158730157,-117.38095238095238,-33.57142857142857,-32.77777777777778,-30.238095238095237,3.73015873015873,1.6666666666666665,-166.26984126984127
-325.0,325.0,30.555555555555554,325.0,-325.0,-325.0,-325.0,-325.0,9.603174603174603,173.25396825396825,-154.52380952380952,-325.0,31.825396825396822,325.0,21.507936507936506,325.0,298.968253968254,-114.52380952380952,-32.77777777777778,-32.14285714285714,-29.6031746031746,-2.46031746031746,-7.857142857142857,-166.26984126984127
-325.0,325.0,30.555555555555554,325.0,-325.0,-325.0,-325.0,-325.0,9.603174603174603,173.25396825396825,-154.52380952380952,-325.0,31.825396825396822,325.0,21.507936507936506,325.0,298.968253968254,-114.52380952380952,-32.77777777777778,-32.14285714285714,-29.6031746031746,-2.46031746031746,-7.857142857142857,-166.26984126984127
-325.0,325.0,28.96825396825397,325.0,-323.4126984126984,-325.0,-325.0,-325.0,9.285714285714285,133.25396825396825,-148.8095238095238,-325.0,30.71428571428571,325.0,20.396825396825395,325.0,288.015873015873,-110.39682539682539,-31.507936507936506,68.01587301587301,-28.49206349206349,1.0317460317460316,-2.9365079365079363,-166.26984126984127
-325.0,325.0,28.96825396825397,325.0,-323.4126984126984,-325.0,-325.0,-325.0,9.285714285714285,133.25396825396825,-148.8095238095238,-325.0,30.71428571428571,325.0,20.396825396825395,325.0,288.015873015873,-110.39682539682539,-31.507936507936506,68.01587301587301,-28.49206349206349,1.0317460317460316,-2.9365079365079363,-166.26984126984127
-325.0,325.0,28.333333333333332,325.0,-318.3333333333333,-325.0,-325.0,-325.0,9.126984126984127,141.19047619047618,-146.58730158730157,-325.0,30.238095238095237,325.0,20.238095238095237,325.0,283.0952380952381,-108.65079365079364,-31.19047619047619,-25.0,-28.015873015873016,-1.507936507936508,1.0317460317460316,-166.26984126984127
-325.0,325.0,28.333333333333332,325.0,-318.3333333333333,-325.0,-325.0,-325.0,9.126984126984127,141.19047619047618,-146.58730158730157,-325.0,30.238095238095237,325.0,20.238095238095237,325.0,283.0952380952381,-108.65079365079364,-31.19047619047619,-25.0,-28.015873015873016,-1.507936507936508,1.0317460317460316,-166.26984126984127
-325.0,325.0,28.015873015873016,325.0,-314.5238095238095,-325.0,-325.0,-325.0,9.126984126984127,160.23809523809524,-144.84126984126982,-325.0,29.76190476190476,325.0,19.92063492063492,325.0,279.6031746031746,-107.38095238095238,-30.555555555555554,144.2063492063492,-27.698412698412696,-0.07936507936507936,-0.5555555555555556,-321.8253968253968
-325.0,325.0,28.015873015873016,325.0,-314.5238095238095,-325.0,-325.0,-325.0,9.126984126984127,160.23809523809524,-144.84126984126982,-325.0,29.76190476190476,325.0,19.92063492063492,325.0,279.6031746031746,-107.38095238095238,-30.555555555555554,144.2063492063492,-27.698412698412696,-0.07936507936507936,-0.5555555555555556,-321.8253968253968
-325.0,325.0,27.539682539682538,325.0,-308.3333333333333,-325.0,-325.0,-325.0,8.968253968253968,182.14285714285714,-141.8253968253968,-325.0,29.126984126984127,325.0,19.444444444444443,325.0,273.57142857142856,-105.0,-29.920634920634917,325.0,-27.063492063492063,-1.349206349206349,1.8253968253968254,-321.8253968253968
-325.0,325.0,27.539682539682538,325.0,-308.3333333333333,-325.0,-325.0,-325.0,8.968253968253968,182.14285714285714,-141.8253968253968,-325.0,29.126984126984127,325.0,19.444444444444443,325.0,273.57142857142856,-105.0,-29.920634920634917,325.0,-27.063492063492063,-1.349206349206349,1.8253968253968254,-321.8253968253968
-325.0,325.0,27.063492063492063,325.0,-302.1428571428571,-325.0,-325.0,-325.0,8.492063492063492,210.07936507936506,-139.12698412698413,-325.0,28.65079365079365,325.0,19.126984126984127,325.0,267.85714285714283,-102.93650793650794,-29.444444444444443,325.0,-26.587301587301585,0.07936507936507936,-0.23809523809523808,-321.8253968253968
-325.0,325.0,27.063492063492063,325.0,-302.1428571428571,-325.0,-325.0,-325.0,8.492063492063492,210.07936507936506,-139.12698412698413,-325.0,28.65079365079365,325.0,19.126984126984127,325.0,267.85714285714283,-102.93650793650794,-29.444444444444443,325.0,-26.587301587301585,0.07936507936507936,-0.23809523809523808,-321.8253968253968
-325.0,325.0,25.952380952380953,325.0,-292.6190476190476,-325.0,-325.0,-325.0,8.492063492063492,243.4126984126984,-134.52380952380952,-325.0,27.539682539682538,325.0,18.174603174603174,325.0,258.8095238095238,-99.92063492063491,-28.49206349206349,325.0,-25.476190476190474,-0.23809523809523808,-1.1904761904761905,-321.8253968253968
-325.0,325.0,25.952380952380953,325.0,-292.6190476190476,-325.0,-325.0,-325.0,8.492063492063492,243.4126984126984,-134.52380952380952,-325.0,27.539682539682538,325.0,18.174603174603174,325.0,258.8095238095238,-99.92063492063491,-28.49206349206349,325.0,-25.476190476190474,-0.23809523809523808,-1.1904761904761905,-321.8253968253968
-325.0,325.0,25.0,325.0,-283.25396825396825,-325.0,-325.0,-325.0,8.015873015873016,262.6190476190476,-130.23809523809524,-325.0,26.746031746031743,325.0,17.698412698412696,325.0,250.07936507936506,-96.42857142857142,-27.539682539682538,325.0,-24.68253968253968,-0.5555555555555556,-0.3968253968253968,-321.8253968253968
-325.0,325.0,25.0,325.0,-283.25396825396825,-325.0,-325.0,-325.0,8.015873015873016,262.6190476190476,-130.23809523809524,-325.0,26.746031746031743,325.0,17.698412698412696,325.0,250.07936507936506,-96.42857142857142,-27.539682539682538,325.0,-24.68253968253968,-0.5555555555555556,-0.3968253968253968,-321.8253968253968
-325.0,325.0,24.523809523809522,325.0,-277.6984126984127,-325.0,-325.0,-325.0,7.698412698412698,206.42857142857142,-127.53968253968253,-325.0,26.11111111111111,325.0,17.38095238095238,325.0,244.84126984126982,-94.36507936507935,-27.063492063492063,325.0,-24.206349206349206,3.095238095238095,3.571428571428571,-166.26984126984127
-325.0,325.0,24.523809523809522,325.0,-277.6984126984127,-325.0,-325.0,-325.0,7.698412698412698,206.42857142857142,-127.53968253968253,-325.0,26.11111111111111,325.0,17.38095238095238,325.0,244.84126984126982,-94.36507936507935,-27.063492063492063,325.0,-24.206349206349206,3.095238095238095,3.571428571428571,-166.26984126984127
-122.77777777777777,14.84126984126984,11.984126984126984,-0.07936507936507936,-294.8412698412698,-56.74603174603174,-233.7301587301587,-314.8412698412698,16.26984126984127,274.2063492063492,-44.047619047619044,-0.07936507936507936,129.44444444444443,117.22222222222221,158.17460317460316,314.8412698412698,108.49206349206348,-43.73015873015873,-11.825396825396824,181.19047619047618,-173.09523809523807,-0.07936507936507936,13.253968253968253,-166.26984126984127
-122.77777777777777,14.84126984126984,11.984126984126984,-0.07936507936507936,-294.8412698412698,-56.74603174603174,-233.7301587301587,-314.8412698412698,16.26984126984127,274.2063492063492,-44.047619047619044,-0.07936507936507936,129.44444444444443,117.22222222222221,158.17460317460316,314.8412698412698,108.49206349206348,-43.73015873015873,-11.825396825396824,181.19047619047618,-173.09523809523807,-0.07936507936507936,13.253968253968253,-166.26984126984127
-325.0,325.0,22.777777777777775,325.0,-261.3492063492063,-310.7142857142857,-325.0,-325.0,7.3809523809523805,325.0,-120.07936507936508,-325.0,24.523809523809522,325.0,16.26984126984127,325.0,229.60317460317458,-88.80952380952381,-25.317460317460316,325.0,-22.777777777777775,-5.634920634920634,-4.365079365079365,-166.26984126984127
-325.0,325.0,22.777777777777775,325.0,-261.3492063492063,-310.7142857142857,-325.0,-325.0,7.3809523809523805,325.0,-120.07936507936508,-325.0,24.523809523809522,325.0,16.26984126984127,325.0,229.60317460317458,-88.80952380952381,-25.317460317460316,325.0,-22.777777777777775,-5.634920634920634,-4.365079365079365,-166.26984126984127
-325.0,325.0,22.3015873015873,325.0,-255.47619047619045,-303.25396825396825,-325.0,-321.5079365079365,7.222222222222221,290.39682539682536,-117.06349206349206,-325.0,23.88888888888889,325.0,15.634920634920634,325.0,223.7301587301587,-86.74603174603175,-24.68253968253968,325.0,-9.603174603174603,-0.7142857142857142,-0.3968253968253968,-166.26984126984127
-325.0,325.0,22.3015873015873,325.0,-255.47619047619045,-303.25396825396825,-325.0,-321.5079365079365,7.222222222222221,290.39682539682536,-117.06349206349206,-325.0,23.88888888888889,325.0,15.634920634920634,325.0,223.7301587301587,-86.74603174603175,-24.68253968253968,325.0,-9.603174603174603,-0.7142857142857142,-0.3968253968253968,-166.26984126984127
-325.0,325.0,21.666666666666664,325.0,-250.2380952380952,-297.22222222222223,-325.0,-315.1587301587301,7.063492063492063,300.23809523809524,-114.68253968253967,-325.0,23.253968253968253,325.0,15.476190476190474,325.0,218.96825396825395,-84.84126984126983,-24.206349206349206,325.0,110.55555555555554,2.142857142857143,-2.3015873015873014,-166.26984126984127
-325.0,325.0,21.666666666666664,325.0,-250.2380952380952,-297.22222222222223,-325.0,-315.1587301587301,7.063492063492063,300.23809523809524,-114.68253968253967,-325.0,23.253968253968253,325.0,15.476190476190474,325.0,218.96825396825395,-84.84126984126983,-24.206349206349206,325.0,110.55555555555554,2.142857142857143,-2.3015873015873014,-166.26984126984127
-325.0,325.0,21.03174603174603,325.0,-241.34920634920633,-286.4285714285714,-325.0,-304.04761904761904,6.746031746031746,299.2857142857143,-110.55555555555554,-325.0,22.619047619047617,325.0,14.84126984126984,325.0,210.55555555555554,-81.66666666666666,-23.253968253968253,325.0,206.42857142857142,4.0476190476190474,4.2063492063492065,-321.8253968253968
-325.0,325.0,21.03174603174603,325.0,-241.34920634920633,-286.4285714285714,-325.0,-304.04761904761904,6.746031746031746,299.2857142857143,-110.55555555555554,-325.0,22.619047619047617,325.0,14.84126984126984,325.0,210.55555555555554,-81.66666666666666,-23.253968253968253,325.0,206.42857142857142,4.0476190476190474,4.2063492063492065,-321.8253968253968
-325.0,325.0,20.555555555555554,325.0,-237.53968253968253,-281.984126984127,-325.0,-299.2857142857143,6.746031746031746,309.2857142857143,-108.80952380952381,-325.0,22.142857142857142,325.0,14.523809523809524,325.0,207.06349206349205,-80.39682539682539,-22.936507936507937,325.0,265.6349206349206,4.2063492063492065,4.0476190476190474,-321.8253968253968
-325.0,325.0,20.555555555555554,325.0,-237.53968253968253,-281.984126984127,-325.0,-299.2857142857143,6.746031746031746,309.2857142857143,-108.80952380952381,-325.0,22.142857142857142,325.0,14.523809523809524,325.0,207.06349206349205,-80.39682539682539,-22.936507936507937,325.0,265.6349206349206,4.2063492063492065,4.0476190476190474,-321.8253968253968
-325.0,325.0,19.76190476190476,325.0,-230.2380952380952,-272.77777777777777,-325.0,-289.9206349206349,6.587301587301587,325.0,-105.31746031746032,-325.0,21.19047619047619,325.0,13.888888888888888,325.0,200.07936507936506,-78.01587301587301,-22.142857142857142,325.0,325.0,-0.873015873015873,-0.3968253968253968,-321.8253968253968
-325.0,325.0,19.76190476190476,325.0,-230.2380952380952,-272.77777777777777,-325.0,-289.9206349206349,6.587301587301587,325.0,-105.31746031746032,-325.0,21.19047619047619,325.0,13.888888888888888,325.0,200.07936507936506,-78.01587301587301,-22.142857142857142,325.0,325.0,-0.873015873015873,-0.3968253968253968,-321.8253968253968
-325.0,325.0,19.285714285714285,325.0,-222.61904761904762,-264.04761904761904,-325.0,-281.031746031746,6.587301587301587,325.0,-101.98412698412697,-325.0,20.396825396825395,321.8253968253968,13.73015873015873,325.0,193.4126984126984,-75.47619047619047,-21.349206349206348,325.0,325.0,-4.365079365079365,-4.2063492063492065,-321.8253968253968
-325.0,325.0,19.285714285714285,325.0,-222.61904761904762,-264.04761904761904,-325.0,-281.031746031746,6.587301587301587,325.0,-101.98412698412697,-325.0,20.396825396825395,321.8253968253968,13.73015873015873,325.0,193.4126984126984,-75.47619047619047,-21.349206349206348,325.0,325.0,-4.365079365079365,-4.2063492063492065,-321.8253968253968
-325.0,325.0,19.285714285714285,325.0,-222.61904761904762,-264.04761904761904,-325.0,-281.031746031746,6.587301587301587,325.0,-101.98412698412697,-325.0,20.396825396825395,321.8253968253968,13.73015873015873,325.0,193.4126984126984,-75.47619047619047,-21.349206349206348,325.0,325.0,-4.365079365079365,-4.2063492063492065,-321.8253968253968
-325.0,325.0,19.285714285714285,325.0,-222.61904761904762,-264.04761904761904,-325.0,-281.031746031746,6.587301587301587,325.0,-101.98412698412697,-325.0,20.396825396825395,321.8253968253968,13.73015873015873,325.0,193.4126984126984,-75.47619047619047,-21.349206349206348,325.0,325.0,-4.365079365079365,-4.2063492063492065,-321.8253968253968
-325.0,325.0,18.65079365079365,325.0,-218.33333333333331,-258.8095238095238,-325.0,-275.4761904761905,6.26984126984127,325.0,-99.92063492063491,-321.8253968253968,20.07936507936508,314.8412698412698,13.253968253968253,325.0,189.28571428571428,-74.04761904761904,-21.03174603174603,325.0,325.0,-2.7777777777777777,-5.0,-166.26984126984127
-325.0,325.0,18.65079365079365,325.0,-218.33333333333331,-258.8095238095238,-325.0,-275.4761904761905,6.26984126984127,325.0,-99.92063492063491,-321.8253968253968,20.07936507936508,314.8412698412698,13.253968253968253,325.0,189.28571428571428,-74.04761904761904,-21.03174603174603,325.0,325.0,-2.7777777777777777,-5.0,-166.26984126984127
-325.0,325.0,18.174603174603174,325.0,-213.88888888888889,-253.57142857142856,-325.0,-269.76190476190476,6.111111111111111,325.0,-97.6984126984127,-318.4920634920635,19.76190476190476,308.015873015873,12.936507936507935,325.0,185.15873015873015,-72.46031746031746,-20.555555555555554,325.0,325.0,-1.0317460317460316,-5.634920634920634,-166.26984126984127
-325.0,325.0,18.174603174603174,325.0,-213.88888888888889,-253.57142857142856,-325.0,-269.76190476190476,6.111111111111111,325.0,-97.6984126984127,-318.4920634920635,19.76190476190476,308.015873015873,12.936507936507935,325.0,185.15873015873015,-72.46031746031746,-20.555555555555554,325.0,325.0,-1.0317460317460316,-5.634920634920634,-166.26984126984127
-325.0,325.0,18.174603174603174,325.0,-213.88888888888889,-253.57142857142856,-325.0,-269.76190476190476,6.111111111111111,325.0,-97.6984126984127,-318.4920634920635,19.76190476190476,308.015873015873,12.936507936507935,325.0,185.15873015873015,-72.46031746031746,-20.555555555555554,325.0,325.0,-1.0317460317460316,-5.634920634920634,-166.26984126984127
-325.0,325.0,18.174603174603174,325.0,-213.88888888888889,-253.57142857142856,-325.0,-269.76190476190476,6.111111111111111,325.0,-97.6984126984127,-318.4920634920635,19.76190476190476,308.015873015873,12.936507936507935,325.0,185.15873015873015,-72.46031746031746,-20.555555555555554,325.0,325.0,-1.0317460317460316,-5.634920634920634,-166.26984126984127
-325.0,325.0,18.174603174603174,325.0,-213.88888888888889,-253.57142857142856,-325.0,-269.76190476190476,6.111111111111111,325.0,-97.6984126984127,-318.4920634920635,19.76190476190476,308.015873015873,12.936507936507935,325.0,185.15873015873015,-72.46031746031746,-20.555555555555554,325.0,325.0,-1.0317460317460316,-5.634920634920634,-166.26984126984127
-325.0,325.0,18.174603174603174,325.0,-213.88888888888889,-253.57142857142856,-325.0,-269.76190476190476,6.111111111111111,325.0,-97.6984126984127,-318.4920634920635,19.76190476190476,308.015873015873,12.936507936507935,325.0,185.15873015873015,-72.46031746031746,-20.555555555555554,325.0,325.0,-1.0317460317460316,-5.634920634920634,-166.26984126984127
-325.0,325.0,18.174603174603174,325.0,-213.88888888888889,-253.57142857142856,-325.0,-269.76190476190476,6.111111111111111,325.0,-97.6984126984127,-318.4920634920635,19.76190476190476,308.015873015873,12.936507936507935,325.0,185.15873015873015,-72.46031746031746,-20.555555555555554,325.0,325.0,-1.0317460317460316,-5.634920634920634,-166.26984126984127
-325.0,325.0,18.174603174603174,325.0,-213.88888888888889,-253.57142857142856,-325.0,-269.76190476190476,6.111111111111111,325.0,-97.6984126984127,-318.4920634920635,19.76190476190476,308.015873015873,12.936507936507935,325.0,185.15873015873015,-72.46031746031746,-20.555555555555554,325.0,325.0,-1.0317460317460316,-5.634920634920634,-166.26984126984127
-325.0,325.0,10.396825396825395,325.0,-198.96825396825395,-235.63492063492063,-325.0,-250.87301587301585,5.7936507936507935,325.0,-90.71428571428571,-295.6349206349206,18.49206349206349,285.0,6.904761904761904,325.0,171.34920634920633,-67.22222222222221,-15.158730158730158,325.0,325.0,5.7936507936507935,5.317460317460317,-321.8253968253968
-325.0,325.0,10.396825396825395,325.0,-198.96825396825395,-235.63492063492063,-325.0,-250.87301587301585,5.7936507936507935,325.0,-90.71428571428571,-295.6349206349206,18.49206349206349,285.0,6.904761904761904,325.0,171.34920634920633,-67.22222222222221,-15.158730158730158,325.0,325.0,5.7936507936507935,5.317460317460317,-321.8253968253968
-325.0,325.0,3.095238095238095,325.0,-196.58730158730157,-232.6190476190476,-325.0,-248.015873015873,5.634920634920634,325.0,-89.6031746031746,-292.1428571428571,18.174603174603174,281.19047619047615,-0.07936507936507936,325.0,168.96825396825395,-66.42857142857143,-8.174603174603174,325.0,325.0,3.095238095238095,0.07936507936507936,-321.8253968253968
-325.0,325.0,3.095238095238095,325.0,-196.58730158730157,-232.6190476190476,-325.0,-248.015873015873,5.634920634920634,325.0,-89.6031746031746,-292.1428571428571,18.174603174603174,281.19047619047615,-0.07936507936507936,325.0,168.96825396825395,-66.42857142857143,-8.174603174603174,325.0,325.0,3.095238095238095,0.07936507936507936,-321.8253968253968
-325.0,325.0,-8.65079365079365,325.0,-192.61904761904762,-228.015873015873,-325.0,-243.25396825396825,2.619047619047619,325.0,-87.85714285714285,-286.1111111111111,17.857142857142858,275.1587301587301,-11.349206349206348,325.0,165.3174603174603,-65.0,3.4126984126984126,325.0,325.0,-0.5555555555555556,-0.07936507936507936,-321.8253968253968
-325.0,325.0,-8.65079365079365,325.0,-192.61904761904762,-228.015873015873,-325.0,-243.25396825396825,2.619047619047619,325.0,-87.85714285714285,-286.1111111111111,17.857142857142858,275.1587301587301,-11.349206349206348,325.0,165.3174603174603,-65.0,3.4126984126984126,325.0,325.0,-0.5555555555555556,-0.07936507936507936,-321.8253968253968
-325.0,325.0,-19.92063492063492,325.0,-188.8095238095238,-223.57142857142856,-325.0,-238.17460317460316,-7.698412698412698,325.0,-86.26984126984127,-280.23809523809524,16.26984126984127,269.2857142857143,-21.984126984126984,325.0,161.984126984127,-63.73015873015873,14.206349206349206,325.0,325.0,-2.619047619047619,-5.476190476190476,-321.8253968253968
-325.0,325.0,-19.92063492063492,325.0,-188.8095238095238,-223.57142857142856,-325.0,-238.17460317460316,-7.698412698412698,325.0,-86.26984126984127,-280.23809523809524,16.26984126984127,269.2857142857143,-21.984126984126984,325.0,161.984126984127,-63.73015873015873,14.206349206349206,325.0,325.0,-2.619047619047619,-5.476190476190476,-321.8253968253968
-325.0,325.0,-30.555555555555554,325.0,-185.15873015873015,-218.96825396825395,-323.4126984126984,-233.4126984126984,-18.96825396825397,325.0,-84.36507936507937,-274.2063492063492,5.634920634920634,263.57142857142856,-32.460317460317455,325.0,158.33333333333331,-62.460317460317455,24.68253968253968,325.0,325.0,-0.07936507936507936,-0.07936507936507936,-321.8253968253968
-325.0,325.0,-30.555555555555554,325.0,-185.15873015873015,-218.96825396825395,-323.4126984126984,-233.4126984126984,-18.96825396825397,325.0,-84.36507936507937,-274.2063492063492,5.634920634920634,263.57142857142856,-32.460317460317455,325.0,158.33333333333331,-62.460317460317455,24.68253968253968,325.0,325.0,-0.07936507936507936,-0.07936507936507936,-321.8253968253968
-325.0,325.0,-42.3015873015873,325.0,-180.55555555555554,-213.57142857142856,-316.58730158730157,-228.015873015873,-31.507936507936506,325.0,-82.3015873015873,-267.38095238095235,-8.174603174603174,256.74603174603175,-43.73015873015873,325.0,154.2063492063492,-61.03174603174603,36.11111111111111,325.0,325.0,-0.3968253968253968,-0.873015873015873,-166.26984126984127
-325.0,325.0,-42.3015873015873,325.0,-180.55555555555554,-213.57142857142856,-316.58730158730157,-228.015873015873,-31.507936507936506,325.0,-82.3015873015873,-267.38095238095235,-8.174603174603174,256.74603174603175,-43.73015873015873,325.0,154.2063492063492,-61.03174603174603,36.11111111111111,325.0,325.0,-0.3968253968253968,-0.873015873015873,-166.26984126984127
-325.0,325.0,-53.57142857142857,325.0,-176.26984126984127,-208.33333333333331,-308.8095238095238,-222.46031746031744,-43.57142857142857,325.0,-80.39682539682539,-260.87301587301585,-21.03174603174603,250.07936507936506,-55.0,325.0,150.23809523809524,-59.44444444444444,47.22222222222222,325.0,325.0,-0.3968253968253968,-0.3968253968253968,-166.26984126984127
-325.0,325.0,-53.57142857142857,325.0,-176.26984126984127,-208.33333333333331,-308.8095238095238,-222.46031746031744,-43.57142857142857,325.0,-80.39682539682539,-260.87301587301585,-21.03174603174603,250.07936507936506,-55.0,325.0,150.23809523809524,-59.44444444444444,47.22222222222222,325.0,325.0,-0.3968253968253968,-0.3968253968253968,-166.26984126984127
-325.0,325.0,-57.22222222222222,325.0,-174.84126984126982,-206.58730158730157,-306.1111111111111,-220.87301587301587,-47.38095238095238,325.0,-79.76190476190476,-258.6507936507936,-25.158730158730158,248.015873015873,-58.49206349206349,325.0,149.12698412698413,-58.96825396825397,50.87301587301587,325.0,325.0,4.523809523809524,5.7936507936507935,-166.26984126984127
-325.0,325.0,-57.22222222222222,325.0,-174.84126984126982,-206.58730158730157,-306.1111111111111,-220.87301587301587,-47.38095238095238,325.0,-79.76190476190476,-258.6507936507936,-25.158730158730158,248.015873015873,-58.49206349206349,325.0,149.12698412698413,-58.96825396825397,50.87301587301587,325.0,325.0,4.523809523809524,5.7936507936507935,-166.26984126984127
-325.0,325.0,-70.71428571428571,325.0,-169.12698412698413,-200.07936507936506,-296.1111111111111,-213.4126984126984,-62.61904761904761,325.0,-77.06349206349206,-249.9206349206349,-41.03174603174603,239.28571428571428,-71.66666666666666,318.3333333333333,143.88888888888889,-56.904761904761905,64.04761904761905,325.0,325.0,5.317460317460317,5.952380952380952,-166.26984126984127
-325.0,325.0,-70.71428571428571,325.0,-169.12698412698413,-200.07936507936506,-296.1111111111111,-213.4126984126984,-62.61904761904761,325.0,-77.06349206349206,-249.9206349206349,-41.03174603174603,239.28571428571428,-71.66666666666666,318.3333333333333,143.88888888888889,-56.904761904761905,64.04761904761905,325.0,325.0,5.317460317460317,5.952380952380952,-166.26984126984127
-325.0,325.0,-80.23809523809523,325.0,-165.3174603174603,-195.15873015873015,-288.8095238095238,-208.4920634920635,-72.61904761904762,325.0,-75.31746031746032,-243.88888888888889,-52.14285714285714,233.25396825396825,-81.03174603174602,312.6190476190476,140.23809523809524,-55.79365079365079,73.25396825396825,325.0,325.0,0.07936507936507936,0.5555555555555556,-166.26984126984127
-325.0,325.0,-80.23809523809523,325.0,-165.3174603174603,-195.15873015873015,-288.8095238095238,-208.4920634920635,-72.61904761904762,325.0,-75.31746031746032,-243.88888888888889,-52.14285714285714,233.25396825396825,-81.03174603174602,312.6190476190476,140.23809523809524,-55.79365079365079,73.25396825396825,325.0,325.0,0.07936507936507936,0.5555555555555556,-166.26984126984127
-325.0,325.0,-87.6984126984127,325.0,-161.8253968253968,-191.19047619047618,-282.9365079365079,-204.36507936507937,-80.71428571428571,325.0,-73.73015873015872,-238.8095238095238,-60.71428571428571,228.17460317460316,-88.17460317460316,325.0,137.22222222222223,-54.52380952380952,80.71428571428571,325.0,325.0,-3.4126984126984126,-1.0317460317460316,-321.8253968253968
-325.0,325.0,-87.6984126984127,325.0,-161.8253968253968,-191.19047619047618,-282.9365079365079,-204.36507936507937,-80.71428571428571,325.0,-73.73015873015872,-238.8095238095238,-60.71428571428571,228.17460317460316,-88.17460317460316,325.0,137.22222222222223,-54.52380952380952,80.71428571428571,325.0,325.0,-3.4126984126984126,-1.0317460317460316,-321.8253968253968
-324.2063492063492,325.0,-93.25396825396825,325.0,-159.28571428571428,-188.17460317460316,-278.3333333333333,-201.34920634920633,-119.6031746031746,325.0,-72.61904761904762,-235.15873015873015,-67.38095238095238,224.36507936507934,-93.73015873015872,308.6507936507936,135.0,-53.57142857142857,86.26984126984127,325.0,325.0,3.4126984126984126,0.5555555555555556,-321.8253968253968
-324.2063492063492,325.0,-93.25396825396825,325.0,-159.28571428571428,-188.17460317460316,-278.3333333333333,-201.34920634920633,-119.6031746031746,325.0,-72.61904761904762,-235.15873015873015,-67.38095238095238,224.36507936507934,-93.73015873015872,308.6507936507936,135.0,-53.57142857142857,86.26984126984127,325.0,325.0,3.4126984126984126,0.5555555555555556,-321.8253968253968
-320.87301587301585,325.0,-97.38095238095238,325.0,-157.38095238095238,-186.11111111111111,-274.68253968253964,-198.65079365079364,-115.47619047619047,325.0,-71.98412698412697,-231.66666666666666,-72.14285714285714,221.5079365079365,-97.53968253968253,318.6507936507936,133.0952380952381,-53.095238095238095,90.39682539682539,325.0,325.0,-2.142857142857143,3.571428571428571,-321.8253968253968
-320.87301587301585,325.0,-97.38095238095238,325.0,-157.38095238095238,-186.11111111111111,-274.68253968253964,-198.65079365079364,-115.47619047619047,325.0,-71.98412698412697,-231.66666666666666,-72.14285714285714,221.5079365079365,-97.53968253968253,318.6507936507936,133.0952380952381,-53.095238095238095,90.39682539682539,325.0,325.0,-2.142857142857143,3.571428571428571,-321.8253968253968
-312.77777777777777,325.0,-105.0,325.0,-153.57142857142856,-181.34920634920633,-268.015873015873,-193.88888888888889,-202.46031746031744,325.0,-69.92063492063491,-226.1111111111111,-81.19047619047619,215.63492063492063,-105.31746031746032,318.3333333333333,129.6031746031746,-51.666666666666664,98.01587301587301,325.0,325.0,0.23809523809523808,0.23809523809523808,-321.8253968253968
-312.77777777777777,325.0,-105.0,325.0,-153.57142857142856,-181.34920634920633,-268.015873015873,-193.88888888888889,-202.46031746031744,325.0,-69.92063492063491,-226.1111111111111,-81.19047619047619,215.63492063492063,-105.31746031746032,318.3333333333333,129.6031746031746,-51.666666666666664,98.01587301587301,325.0,325.0,0.23809523809523808,0.23809523809523808,-321.8253968253968
-306.26984126984127,325.0,-111.19047619047619,325.0,-150.3968253968254,-177.69841269841268,-262.46031746031747,-190.23809523809524,-214.52380952380952,325.0,-68.4920634920635,-221.5079365079365,-88.65079365079364,210.7142857142857,-111.34920634920634,325.0,126.9047619047619,-50.87301587301587,104.36507936507935,325.0,325.0,-1.349206349206349,-4.523809523809524,-321.8253968253968
-306.26984126984127,325.0,-111.19047619047619,325.0,-150.3968253968254,-177.69841269841268,-262.46031746031747,-190.23809523809524,-214.52380952380952,325.0,-68.4920634920635,-221.5079365079365,-88.65079365079364,210.7142857142857,-111.34920634920634,325.0,126.9047619047619,-50.87301587301587,104.36507936507935,325.0,325.0,-1.349206349206349,-4.523809523809524,-321.8253968253968
-301.031746031746,325.0,-116.1111111111111,325.0,-147.85714285714286,-174.68253968253967,-258.17460317460313,-187.06349206349205,-255.79365079365078,325.0,-67.53968253968253,-217.85714285714283,-94.2063492063492,207.2222222222222,-115.95238095238095,287.85714285714283,124.68253968253967,-49.92063492063492,109.44444444444444,325.0,325.0,1.0317460317460316,3.888888888888889,-166.26984126984127
-301.031746031746,325.0,-116.1111111111111,325.0,-147.85714285714286,-174.68253968253967,-258.17460317460313,-187.06349206349205,-255.79365079365078,325.0,-67.53968253968253,-217.85714285714283,-94.2063492063492,207.2222222222222,-115.95238095238095,287.85714285714283,124.68253968253967,-49.92063492063492,109.44444444444444,325.0,325.0,1.0317460317460316,3.888888888888889,-166.26984126984127
-295.95238095238096,325.0,-120.39682539682539,325.0,-145.63492063492063,-171.8253968253968,-253.88888888888889,-184.2063492063492,-251.03174603174602,325.0,-66.42857142857143,-214.2063492063492,-99.44444444444444,203.7301587301587,-120.39682539682539,321.3492063492063,122.6190476190476,-48.96825396825397,113.73015873015872,325.0,325.0,-1.6666666666666665,-5.158730158730158,-166.26984126984127
-295.95238095238096,325.0,-120.39682539682539,325.0,-145.63492063492063,-171.8253968253968,-253.88888888888889,-184.2063492063492,-251.03174603174602,325.0,-66.42857142857143,-214.2063492063492,-99.44444444444444,203.7301587301587,-120.39682539682539,321.3492063492063,122.6190476190476,-48.96825396825397,113.73015873015872,325.0,325.0,-1.6666666666666665,-5.158730158730158,-166.26984126984127
-290.87301587301585,325.0,-124.52380952380952,325.0,-143.4126984126984,-169.28571428571428,-249.60317460317458,-181.03174603174602,-325.0,325.0,-65.31746031746032,-210.3968253968254,-104.2063492063492,200.23809523809524,-124.36507936507935,274.2063492063492,120.39682539682539,-48.17460317460317,118.33333333333333,325.0,325.0,1.6666666666666665,4.365079365079365,-166.26984126984127
-290.87301587301585,325.0,-124.52380952380952,325.0,-143.4126984126984,-169.28571428571428,-249.60317460317458,-181.03174603174602,-325.0,325.0,-65.31746031746032,-210.3968253968254,-104.2063492063492,200.23809523809524,-124.36507936507935,274.2063492063492,120.39682539682539,-48.17460317460317,118.33333333333333,325.0,325.0,1.6666666666666665,4.365079365079365,-166.26984126984127
-284.8412698412698,325.0,-129.6031746031746,325.0,-140.23809523809524,-165.63492063492063,-244.36507936507934,-177.38095238095238,-325.0,325.0,-63.888888888888886,-205.95238095238093,-110.23809523809523,195.79365079365078,-129.44444444444443,308.968253968254,118.17460317460316,-47.38095238095238,123.25396825396825,325.0,325.0,2.46031746031746,-3.4126984126984126,-166.26984126984127
-284.8412698412698,325.0,-129.6031746031746,325.0,-140.23809523809524,-165.63492063492063,-244.36507936507934,-177.38095238095238,-325.0,325.0,-63.888888888888886,-205.95238095238093,-110.23809523809523,195.79365079365078,-129.44444444444443,308.968253968254,118.17460317460316,-47.38095238095238,123.25396825396825,325.0,325.0,2.46031746031746,-3.4126984126984126,-166.26984126984127
-278.8095238095238,325.0,-134.52380952380952,325.0,-137.53968253968253,-162.14285714285714,-239.28571428571428,-173.88888888888889,-318.4920634920635,325.0,-62.61904761904761,-201.8253968253968,-116.1111111111111,191.34920634920633,-134.2063492063492,294.68253968253964,115.31746031746032,-46.42857142857142,128.96825396825395,325.0,325.0,-4.2063492063492065,-1.6666666666666665,-166.26984126984127
-278.8095238095238,325.0,-134.52380952380952,325.0,-137.53968253968253,-162.14285714285714,-239.28571428571428,-173.88888888888889,-318.4920634920635,325.0,-62.61904761904761,-201.8253968253968,-116.1111111111111,191.34920634920633,-134.2063492063492,294.68253968253964,115.31746031746032,-46.42857142857142,128.96825396825395,325.0,325.0,-4.2063492063492065,-1.6666666666666665,-166.26984126984127
-274.36507936507934,325.0,-137.85714285714286,325.0,-135.15873015873015,-159.44444444444443,-235.47619047619045,-171.03174603174602,-325.0,325.0,-61.666666666666664,-198.4920634920635,-120.07936507936508,188.17460317460316,-137.53968253968253,272.6190476190476,113.25396825396825,-45.63492063492063,145.47619047619048,325.0,325.0,3.4126984126984126,2.142857142857143,-321.8253968253968
-274.36507936507934,325.0,-137.85714285714286,325.0,-135.15873015873015,-159.44444444444443,-235.47619047619045,-171.03174603174602,-325.0,325.0,-61.666666666666664,-198.4920634920635,-120.07936507936508,188.17460317460316,-137.53968253968253,272.6190476190476,113.25396825396825,-45.63492063492063,145.47619047619048,325.0,325.0,3.4126984126984126,2.142857142857143,-321.8253968253968
-269.6031746031746,325.0,-140.87301587301587,325.0,-133.0952380952381,-156.9047619047619,-231.66666666666666,-168.33333333333331,-325.0,325.0,-60.55555555555555,-195.15873015873015,-123.73015873015872,185.0,-140.7142857142857,286.26984126984127,111.34920634920634,-44.84126984126984,149.12698412698413,325.0,325.0,-4.841269841269841,-1.984126984126984,-321.8253968253968
-269.6031746031746,325.0,-140.87301587301587,325.0,-133.0952380952381,-156.9047619047619,-231.66666666666666,-168.33333333333331,-325.0,325.0,-60.55555555555555,-195.15873015873015,-123.73015873015872,185.0,-140.7142857142857,286.26984126984127,111.34920634920634,-44.84126984126984,149.12698412698413,325.0,325.0,-4.841269841269841,-1.984126984126984,-321.8253968253968
-264.8412698412698,325.0,-144.2063492063492,325.0,-131.03174603174602,-154.52380952380952,-227.53968253968253,-165.63492063492063,-325.0,325.0,-59.6031746031746,-191.8253968253968,-127.85714285714285,181.66666666666666,-143.88888888888889,258.17460317460313,109.44444444444444,-44.2063492063492,229.12698412698413,325.0,325.0,2.7777777777777777,1.984126984126984,-321.8253968253968
-264.8412698412698,325.0,-144.2063492063492,325.0,-131.03174603174602,-154.52380952380952,-227.53968253968253,-165.63492063492063,-325.0,325.0,-59.6031746031746,-191.8253968253968,-127.85714285714285,181.66666666666666,-143.88888888888889,258.17460317460313,109.44444444444444,-44.2063492063492,229.12698412698413,325.0,325.0,2.7777777777777777,1.984126984126984,-321.8253968253968
-260.55555555555554,325.0,-147.38095238095238,324.36507936507934,-128.96825396825395,-151.8253968253968,-223.88888888888889,-162.93650793650792,-325.0,325.0,-58.650793650793645,-188.65079365079364,-131.5079365079365,178.4920634920635,-146.9047619047619,276.26984126984127,107.53968253968253,-43.57142857142857,229.12698412698413,325.0,325.0,-4.523809523809524,-1.984126984126984,-321.8253968253968
-260.55555555555554,325.0,-147.38095238095238,324.36507936507934,-128.96825396825395,-151.8253968253968,-223.88888888888889,-162.93650793650792,-325.0,325.0,-58.650793650793645,-188.65079365079364,-131.5079365079365,178.4920634920635,-146.9047619047619,276.26984126984127,107.53968253968253,-43.57142857142857,229.12698412698413,325.0,325.0,-4.523809523809524,-1.984126984126984,-321.8253968253968
-256.26984126984127,325.0,-150.07936507936506,319.6031746031746,-126.58730158730158,-149.28571428571428,-220.07936507936506,-160.23809523809524,-325.0,325.0,-57.698412698412696,-185.63492063492063,-135.0,175.47619047619045,-149.76190476190476,259.6031746031746,105.47619047619047,-42.77777777777778,320.7142857142857,325.0,325.0,3.571428571428571,1.349206349206349,-321.8253968253968
-256.26984126984127,325.0,-150.07936507936506,319.6031746031746,-126.58730158730158,-149.28571428571428,-220.07936507936506,-160.23809523809524,-325.0,325.0,-57.698412698412696,-185.63492063492063,-135.0,175.47619047619045,-149.76190476190476,259.6031746031746,105.47619047619047,-42.77777777777778,320.7142857142857,325.0,325.0,3.571428571428571,1.349206349206349,-321.8253968253968
-249.76190476190476,325.0,-154.2063492063492,311.5079365079365,-123.73015873015872,-145.79365079365078,-214.84126984126982,-156.42857142857142,-325.0,325.0,-56.42857142857142,-180.87301587301587,-140.23809523809524,170.87301587301587,-153.88888888888889,275.7936507936508,102.93650793650794,-41.666666666666664,325.0,325.0,325.0,-1.1904761904761905,-5.476190476190476,-166.26984126984127
-249.76190476190476,325.0,-154.2063492063492,311.5079365079365,-123.73015873015872,-145.79365079365078,-214.84126984126982,-156.42857142857142,-325.0,325.0,-56.42857142857142,-180.87301587301587,-140.23809523809524,170.87301587301587,-153.88888888888889,275.7936507936508,102.93650793650794,-41.666666666666664,325.0,325.0,325.0,-1.1904761904761905,-5.476190476190476,-166.26984126984127
-245.3174603174603,325.0,-156.74603174603175,306.26984126984127,-121.82539682539682,-143.25396825396825,-211.03174603174602,-153.88888888888889,-325.0,325.0,-55.476190476190474,-177.69841269841268,-143.25396825396825,167.85714285714286,-156.42857142857142,248.65079365079364,101.19047619047619,-41.03174603174603,325.0,325.0,325.0,0.3968253968253968,3.888888888888889,-166.26984126984127
-245.3174603174603,325.0,-156.74603174603175,306.26984126984127,-121.82539682539682,-143.25396825396825,-211.03174603174602,-153.88888888888889,-325.0,325.0,-55.476190476190474,-177.69841269841268,-143.25396825396825,167.85714285714286,-156.42857142857142,248.65079365079364,101.19047619047619,-41.03174603174603,325.0,325.0,325.0,0.3968253968253968,3.888888888888889,-166.26984126984127
-241.19047619047618,325.0,-159.12698412698413,301.19047619047615,-119.76190476190476,-140.87301587301587,-207.53968253968253,-151.5079365079365,-325.0,325.0,-54.68253968253968,-174.68253968253967,-146.11111111111111,164.68253968253967,-158.8095238095238,237.85714285714283,99.44444444444444,-40.39682539682539,325.0,324.36507936507934,325.0,0.3968253968253968,4.365079365079365,-166.26984126984127
-241.19047619047618,325.0,-159.12698412698413,301.19047619047615,-119.76190476190476,-140.87301587301587,-207.53968253968253,-151.5079365079365,-325.0,325.0,-54.68253968253968,-174.68253968253967,-146.11111111111111,164.68253968253967,-158.8095238095238,237.85714285714283,99.44444444444444,-40.39682539682539,325.0,324.36507936507934,325.0,0.3968253968253968,4.365079365079365,-166.26984126984127
-235.15873015873015,325.0,-162.14285714285714,293.73015873015873,-116.9047619047619,-137.38095238095238,-202.61904761904762,-147.85714285714286,-325.0,325.0,-53.25396825396825,-170.55555555555554,-150.23809523809524,160.55555555555554,-162.14285714285714,254.2063492063492,96.74603174603175,-39.6031746031746,325.0,319.76190476190476,325.0,-4.365079365079365,-3.4126984126984126,-166.26984126984127
-235.15873015873015,325.0,-162.14285714285714,293.73015873015873,-116.9047619047619,-137.38095238095238,-202.61904761904762,-147.85714285714286,-325.0,325.0,-53.25396825396825,-170.55555555555554,-150.23809523809524,160.55555555555554,-162.14285714285714,254.2063492063492,96.74603174603175,-39.6031746031746,325.0,319.76190476190476,325.0,-4.365079365079365,-3.4126984126984126,-166.26984126984127
-231.19047619047618,325.0,-164.2063492063492,288.8095238095238,-114.84126984126983,-135.15873015873015,-199.12698412698413,-145.3174603174603,-325.0,325.0,-52.460317460317455,-167.53968253968253,-152.61904761904762,157.85714285714286,-164.04761904761904,229.9206349206349,95.0,-38.80952380952381,325.0,314.5238095238095,325.0,2.7777777777777777,1.507936507936508,-166.26984126984127
-231.19047619047618,325.0,-164.2063492063492,288.8095238095238,-114.84126984126983,-135.15873015873015,-199.12698412698413,-145.3174603174603,-325.0,325.0,-52.460317460317455,-167.53968253968253,-152.61904761904762,157.85714285714286,-164.04761904761904,229.9206349206349,95.0,-38.80952380952381,325.0,314.5238095238095,325.0,2.7777777777777777,1.507936507936508,-166.26984126984127
-227.2222222222222,325.0,-165.79365079365078,283.88888888888886,-113.25396825396825,-132.93650793650792,-195.79365079365078,-143.09523809523807,-325.0,325.0,-51.666666666666664,-164.68253968253967,-154.84126984126982,155.0,-173.73015873015873,245.79365079365078,93.57142857142857,-38.17460317460317,325.0,309.1269841269841,325.0,-5.158730158730158,-3.095238095238095,-321.8253968253968
-227.2222222222222,325.0,-165.79365079365078,283.88888888888886,-113.25396825396825,-132.93650793650792,-195.79365079365078,-143.09523809523807,-325.0,325.0,-51.666666666666664,-164.68253968253967,-154.84126984126982,155.0,-173.73015873015873,245.79365079365078,93.57142857142857,-38.17460317460317,325.0,309.1269841269841,325.0,-5.158730158730158,-3.095238095238095,-321.8253968253968
-223.4126984126984,325.0,-184.2063492063492,278.968253968254,-111.34920634920634,-130.7142857142857,-192.61904761904762,-140.7142857142857,-325.0,325.0,-50.71428571428571,-161.984126984127,-157.38095238095238,152.3015873015873,-187.85714285714283,216.1111111111111,91.82539682539682,-37.53968253968254,325.0,304.04761904761904,325.0,3.095238095238095,2.46031746031746,-321.8253968253968
-223.4126984126984,325.0,-184.2063492063492,278.968253968254,-111.34920634920634,-130.7142857142857,-192.61904761904762,-140.7142857142857,-325.0,325.0,-50.71428571428571,-161.984126984127,-157.38095238095238,152.3015873015873,-187.85714285714283,216.1111111111111,91.82539682539682,-37.53968253968254,325.0,304.04761904761904,325.0,3.095238095238095,2.46031746031746,-321.8253968253968
-219.60317460317458,323.57142857142856,-176.11111111111111,274.5238095238095,-109.6031746031746,-128.4920634920635,-189.28571428571428,-138.4920634920635,-325.0,325.0,-49.92063492063492,-159.44444444444443,-159.28571428571428,149.76190476190476,-215.95238095238093,237.38095238095238,90.23809523809523,-36.42857142857142,325.0,299.2857142857143,325.0,-3.73015873015873,-3.4126984126984126,-321.8253968253968
-219.60317460317458,323.57142857142856,-176.11111111111111,274.5238095238095,-109.6031746031746,-128.4920634920635,-189.28571428571428,-138.4920634920635,-325.0,325.0,-49.92063492063492,-159.44444444444443,-159.28571428571428,149.76190476190476,-215.95238095238093,237.38095238095238,90.23809523809523,-36.42857142857142,325.0,299.2857142857143,325.0,-3.73015873015873,-3.4126984126984126,-321.8253968253968
-215.95238095238093,318.4920634920635,-230.3968253968254,269.9206349206349,-107.6984126984127,-126.58730158730158,-186.11111111111111,-136.42857142857142,-325.0,325.0,-49.12698412698413,-156.58730158730157,-161.34920634920633,147.2222222222222,-260.39682539682536,203.09523809523807,88.65079365079364,-36.269841269841265,325.0,294.2063492063492,325.0,3.571428571428571,2.46031746031746,-321.8253968253968
-215.95238095238093,318.4920634920635,-230.3968253968254,269.9206349206349,-107.6984126984127,-126.58730158730158,-186.11111111111111,-136.42857142857142,-325.0,325.0,-49.12698412698413,-156.58730158730157,-161.34920634920633,147.2222222222222,-260.39682539682536,203.09523809523807,88.65079365079364,-36.269841269841265,325.0,294.2063492063492,325.0,3.571428571428571,2.46031746031746,-321.8253968253968
-212.3015873015873,313.4126984126984,-198.33333333333331,265.4761904761905,-106.1111111111111,-124.68253968253967,-183.09523809523807,-134.04761904761904,-325.0,325.0,-48.49206349206349,-154.04761904761904,-163.25396825396825,144.52380952380952,-263.25396825396825,228.8095238095238,87.22222222222221,-32.3015873015873,325.0,289.4444444444444,325.0,-4.682539682539682,-4.2063492063492065,-321.8253968253968
-212.3015873015873,313.4126984126984,-198.33333333333331,265.4761904761905,-106.1111111111111,-124.68253968253967,-183.09523809523807,-134.04761904761904,-325.0,325.0,-48.49206349206349,-154.04761904761904,-163.25396825396825,144.52380952380952,-263.25396825396825,228.8095238095238,87.22222222222221,-32.3015873015873,325.0,289.4444444444444,325.0,-4.682539682539682,-4.2063492063492065,-321.8253968253968
-206.9047619047619,305.6349206349206,-259.76190476190476,258.6507936507936,-103.4126984126984,-121.34920634920634,-178.4920634920635,-130.7142857142857,-325.0,325.0,-47.22222222222222,-149.9206349206349,-165.95238095238093,140.7142857142857,-306.4285714285714,194.2063492063492,85.0,-32.3015873015873,325.0,282.3015873015873,325.0,-0.5555555555555556,4.0476190476190474,-166.26984126984127
-206.9047619047619,305.6349206349206,-259.76190476190476,258.6507936507936,-103.4126984126984,-121.34920634920634,-178.4920634920635,-130.7142857142857,-325.0,325.0,-47.22222222222222,-149.9206349206349,-165.95238095238093,140.7142857142857,-306.4285714285714,194.2063492063492,85.0,-32.3015873015873,325.0,282.3015873015873,325.0,-0.5555555555555556,4.0476190476190474,-166.26984126984127
-203.25396825396825,300.55555555555554,-258.968253968254,254.2063492063492,-101.66666666666666,-119.28571428571428,-175.63492063492063,-128.65079365079364,-325.0,325.0,-46.269841269841265,-147.53968253968253,-182.46031746031744,138.17460317460316,-325.0,222.93650793650792,83.4126984126984,-14.523809523809524,325.0,277.85714285714283,325.0,-0.873015873015873,-5.317460317460317,-166.26984126984127
-203.25396825396825,300.55555555555554,-258.968253968254,254.2063492063492,-101.66666666666666,-119.28571428571428,-175.63492063492063,-128.65079365079364,-325.0,325.0,-46.269841269841265,-147.53968253968253,-182.46031746031744,138.17460317460316,-325.0,222.93650793650792,83.4126984126984,-14.523809523809524,325.0,277.85714285714283,325.0,-0.873015873015873,-5.317460317460317,-166.26984126984127
-200.55555555555554,297.06349206349205,-303.4126984126984,251.19047619047618,-100.39682539682539,-117.6984126984127,-173.25396825396825,-127.22222222222221,-325.0,325.0,-45.63492063492063,-145.63492063492063,-184.84126984126982,136.42857142857142,-325.0,165.15873015873015,82.3015873015873,-35.15873015873016,325.0,274.2063492063492,325.0,3.571428571428571,6.26984126984127,-166.26984126984127
-200.55555555555554,297.06349206349205,-303.4126984126984,251.19047619047618,-100.39682539682539,-117.6984126984127,-173.25396825396825,-127.22222222222221,-325.0,325.0,-45.63492063492063,-145.63492063492063,-184.84126984126982,136.42857142857142,-325.0,165.15873015873015,82.3015873015873,-35.15873015873016,325.0,274.2063492063492,325.0,3.571428571428571,6.26984126984127,-166.26984126984127
-198.17460317460316,293.25396825396825,-314.2063492063492,248.015873015873,-99.28571428571428,-116.26984126984127,-171.19047619047618,-125.63492063492063,-325.0,325.0,-45.15873015873016,-143.73015873015873,-220.7142857142857,134.68253968253967,-325.0,184.68253968253967,81.19047619047619,-26.11111111111111,325.0,270.87301587301585,325.0,3.4126984126984126,1.984126984126984,-166.26984126984127
-198.17460317460316,293.25396825396825,-314.2063492063492,248.015873015873,-99.28571428571428,-116.26984126984127,-171.19047619047618,-125.63492063492063,-325.0,325.0,-45.15873015873016,-143.73015873015873,-220.7142857142857,134.68253968253967,-325.0,184.68253968253967,81.19047619047619,-26.11111111111111,325.0,270.87301587301585,325.0,3.4126984126984126,1.984126984126984,-166.26984126984127
-193.7301587301587,287.22222222222223,-325.0,242.77777777777777,-97.22222222222221,-113.88888888888889,-167.38095238095238,-122.93650793650794,-325.0,325.0,-44.36507936507936,-140.87301587301587,-224.04761904761904,131.66666666666666,-325.0,155.0,79.6031746031746,-34.36507936507936,325.0,265.4761904761905,325.0,2.7777777777777777,5.952380952380952,-166.26984126984127
-193.7301587301587,287.22222222222223,-325.0,242.77777777777777,-97.22222222222221,-113.88888888888889,-167.38095238095238,-122.93650793650794,-325.0,325.0,-44.36507936507936,-140.87301587301587,-224.04761904761904,131.66666666666666,-325.0,155.0,79.6031746031746,-34.36507936507936,325.0,265.4761904761905,325.0,2.7777777777777777,5.952380952380952,-166.26984126984127
-189.76190476190476,281.3492063492063,-292.3015873015873,237.53968253968253,-95.15873015873015,-111.66666666666666,-164.2063492063492,-120.39682539682539,-325.0,325.0,-43.41269841269841,-137.85714285714286,-247.85714285714283,128.65079365079364,-325.0,208.015873015873,77.6984126984127,27.857142857142854,325.0,259.76190476190476,325.0,-0.07936507936507936,-4.365079365079365,-321.8253968253968
-189.76190476190476,281.3492063492063,-292.3015873015873,237.53968253968253,-95.15873015873015,-111.66666666666666,-164.2063492063492,-120.39682539682539,-325.0,325.0,-43.41269841269841,-137.85714285714286,-247.85714285714283,128.65079365079364,-325.0,208.015873015873,77.6984126984127,27.857142857142854,325.0,259.76190476190476,325.0,-0.07936507936507936,-4.365079365079365,-321.8253968253968
-186.58730158730157,276.74603174603175,-325.0,233.57142857142856,-93.57142857142857,-109.6031746031746,-161.34920634920633,-118.65079365079364,-325.0,298.4920634920635,-42.77777777777778,-135.63492063492063,-271.3492063492063,126.42857142857142,-325.0,169.9206349206349,76.42857142857143,-11.507936507936508,325.0,255.47619047619045,325.0,-1.349206349206349,3.73015873015873,-321.8253968253968
-186.58730158730157,276.74603174603175,-325.0,233.57142857142856,-93.57142857142857,-109.6031746031746,-161.34920634920633,-118.65079365079364,-325.0,298.4920634920635,-42.77777777777778,-135.63492063492063,-271.3492063492063,126.42857142857142,-325.0,169.9206349206349,76.42857142857143,-11.507936507936508,325.0,255.47619047619045,325.0,-1.349206349206349,3.73015873015873,-321.8253968253968
-184.52380952380952,273.25396825396825,-302.3015873015873,230.55555555555554,-92.46031746031746,-108.49206349206348,-159.28571428571428,-117.22222222222221,-325.0,325.0,-42.3015873015873,-133.57142857142856,-203.25396825396825,125.0,-325.0,212.61904761904762,75.63492063492063,89.44444444444444,325.0,252.46031746031744,325.0,-5.7936507936507935,-8.65079365079365,-321.8253968253968
-184.52380952380952,273.25396825396825,-302.3015873015873,230.55555555555554,-92.46031746031746,-108.49206349206348,-159.28571428571428,-117.22222222222221,-325.0,325.0,-42.3015873015873,-133.57142857142856,-203.25396825396825,125.0,-325.0,212.61904761904762,75.63492063492063,89.44444444444444,325.0,252.46031746031744,325.0,-5.7936507936507935,-8.65079365079365,-321.8253968253968
-184.52380952380952,273.25396825396825,-302.3015873015873,230.55555555555554,-92.46031746031746,-108.49206349206348,-159.28571428571428,-117.22222222222221,-325.0,325.0,-42.3015873015873,-133.57142857142856,-203.25396825396825,125.0,-325.0,212.61904761904762,75.63492063492063,89.44444444444444,325.0,252.46031746031744,325.0,-5.7936507936507935,-8.65079365079365,-321.8253968253968
-184.52380952380952,273.25396825396825,-302.3015873015873,230.55555555555554,-92.46031746031746,-108.49206349206348,-159.28571428571428,-117.22222222222221,-325.0,325.0,-42.3015873015873,-133.57142857142856,-203.25396825396825,125.0,-325.0,212.61904761904762,75.63492063492063,89.44444444444444,325.0,252.46031746031744,325.0,-5.7936507936507935,-8.65079365079365,-321.8253968253968
-180.55555555555554,267.6984126984127,-313.73015873015873,225.63492063492063,-90.71428571428571,-106.26984126984127,-156.11111111111111,-114.68253968253967,-325.0,325.0,-41.507936507936506,-130.87301587301587,-264.2063492063492,122.14285714285714,-325.0,196.9047619047619,74.04761904761904,62.14285714285714,325.0,247.2222222222222,325.0,-0.7142857142857142,-4.523809523809524,-321.8253968253968
-180.55555555555554,267.6984126984127,-313.73015873015873,225.63492063492063,-90.71428571428571,-106.26984126984127,-156.11111111111111,-114.68253968253967,-325.0,325.0,-41.507936507936506,-130.87301587301587,-264.2063492063492,122.14285714285714,-325.0,196.9047619047619,74.04761904761904,62.14285714285714,325.0,247.2222222222222,325.0,-0.7142857142857142,-4.523809523809524,-321.8253968253968
-176.42857142857142,262.3015873015873,-325.0,220.7142857142857,-88.80952380952381,-103.88888888888889,-152.77777777777777,-112.14285714285714,-325.0,325.0,-40.55555555555555,-128.015873015873,-325.0,119.28571428571428,-325.0,181.34920634920633,72.46031746031746,35.0,325.0,242.14285714285714,325.0,4.365079365079365,-0.3968253968253968,-166.26984126984127
-176.42857142857142,262.3015873015873,-325.0,220.7142857142857,-88.80952380952381,-103.88888888888889,-152.77777777777777,-112.14285714285714,-325.0,325.0,-40.55555555555555,-128.015873015873,-325.0,119.28571428571428,-325.0,181.34920634920633,72.46031746031746,35.0,325.0,242.14285714285714,325.0,4.365079365079365,-0.3968253968253968,-166.26984126984127
-171.984126984127,255.79365079365078,-325.0,215.47619047619045,-86.58730158730158,-101.5079365079365,-148.8095238095238,-109.76190476190476,-325.0,325.0,-39.76190476190476,-124.84126984126983,-266.4285714285714,116.42857142857142,-325.0,200.87301587301587,70.55555555555556,150.3968253968254,325.0,236.1111111111111,325.0,-6.428571428571428,-9.603174603174603,-166.26984126984127
-171.984126984127,255.79365079365078,-325.0,215.47619047619045,-86.58730158730158,-101.5079365079365,-148.8095238095238,-109.76190476190476,-325.0,325.0,-39.76190476190476,-124.84126984126983,-266.4285714285714,116.42857142857142,-325.0,200.87301587301587,70.55555555555556,150.3968253968254,325.0,236.1111111111111,325.0,-6.428571428571428,-9.603174603174603,-166.26984126984127
-171.984126984127,255.79365079365078,-325.0,215.47619047619045,-86.58730158730158,-101.5079365079365,-148.8095238095238,-109.76190476190476,-325.0,325.0,-39.76190476190476,-124.84126984126983,-266.4285714285714,116.42857142857142,-325.0,200.87301587301587,70.55555555555556,150.3968253968254,325.0,236.1111111111111,325.0,-6.428571428571428,-9.603174603174603,-166.26984126984127
-171.984126984127,255.79365079365078,-325.0,215.47619047619045,-86.58730158730158,-101.5079365079365,-148.8095238095238,-109.76190476190476,-325.0,325.0,-39.76190476190476,-124.84126984126983,-266.4285714285714,116.42857142857142,-325.0,200.87301587301587,70.55555555555556,150.3968253968254,325.0,236.1111111111111,325.0,-6.428571428571428,-9.603174603174603,-166.26984126984127
-171.984126984127,255.79365079365078,-325.0,215.47619047619045,-86.58730158730158,-101.5079365079365,-148.8095238095238,-109.76190476190476,-325.0,325.0,-39.76190476190476,-124.84126984126983,-266.4285714285714,116.42857142857142,-325.0,200.87301587301587,70.55555555555556,150.3968253968254,325.0,236.1111111111111,325.0,-6.428571428571428,-9.603174603174603,-166.26984126984127
-171.984126984127,255.79365079365078,-325.0,215.47619047619045,-86.58730158730158,-101.5079365079365,-148.8095238095238,-109.76190476190476,-325.0,325.0,-39.76190476190476,-124.84126984126983,-266.4285714285714,116.42857142857142,-325.0,200.87301587301587,70.55555555555556,150.3968253968254,325.0,236.1111111111111,325.0,-6.428571428571428,-9.603174603174603,-166.26984126984127
-171.984126984127,255.79365079365078,-325.0,215.47619047619045,-86.58730158730158,-101.5079365079365,-148.8095238095238,-109.76190476190476,-325.0,325.0,-39.76190476190476,-124.84126984126983,-266.4285714285714,116.42857142857142,-325.0,200.87301587301587,70.55555555555556,150.3968253968254,325.0,236.1111111111111,325.0,-6.428571428571428,-9.603174603174603,-166.26984126984127
-171.984126984127,255.79365079365078,-325.0,215.47619047619045,-86.58730158730158,-101.5079365079365,-148.8095238095238,-109.76190476190476,-325.0,325.0,-39.76190476190476,-124.84126984126983,-266.4285714285714,116.42857142857142,-325.0,200.87301587301587,70.55555555555556,150.3968253968254,325.0,236.1111111111111,325.0,-6.428571428571428,-9.603174603174603,-166.26984126984127
-171.984126984127,255.79365079365078,-325.0,215.47619047619045,-86.58730158730158,-101.5079365079365,-148.8095238095238,-109.76190476190476,-325.0,325.0,-39.76190476190476,-124.84126984126983,-266.4285714285714,116.42857142857142,-325.0,200.87301587301587,70.55555555555556,150.3968253968254,325.0,236.1111111111111,325.0,-6.428571428571428,-9.603174603174603,-321.8253968253968
-171.984126984127,255.79365079365078,-325.0,215.47619047619045,-86.58730158730158,-101.5079365079365,-148.8095238095238,-109.76190476190476,-325.0,325.0,-39.76190476190476,-124.84126984126983,-266.4285714285714,116.42857142857142,-325.0,200.87301587301587,70.55555555555556,150.3968253968254,325.0,236.1111111111111,325.0,-6.428571428571428,-9.603174603174603,-321.8253968253968
-163.57142857142856,243.57142857142856,-325.0,204.84126984126982,-82.61904761904762,-96.58730158730158,-141.66666666666666,-104.52380952380952,-325.0,325.0,-37.698412698412696,-118.8095238095238,-295.7936507936508,110.55555555555554,-325.0,192.93650793650792,66.9047619047619,195.0,325.0,224.84126984126982,310.87301587301585,-5.7936507936507935,-9.285714285714285,-321.8253968253968
-163.57142857142856,243.57142857142856,-325.0,204.84126984126982,-82.61904761904762,-96.58730158730158,-141.66666666666666,-104.52380952380952,-325.0,325.0,-37.698412698412696,-118.8095238095238,-295.7936507936508,110.55555555555554,-325.0,192.93650793650792,66.9047619047619,195.0,325.0,224.84126984126982,310.87301587301585,-5.7936507936507935,-9.285714285714285,-321.8253968253968
-153.73015873015873,229.60317460317458,-325.0,192.61904761904762,-77.85714285714285,-90.87301587301587,-133.4126984126984,-98.65079365079364,-325.0,296.58730158730157,-16.428571428571427,-111.82539682539682,-325.0,103.57142857142857,-325.0,144.36507936507937,62.93650793650793,114.84126984126983,325.0,211.66666666666666,294.36507936507934,4.365079365079365,-0.5555555555555556,-321.8253968253968
-153.73015873015873,229.60317460317458,-325.0,192.61904761904762,-77.85714285714285,-90.87301587301587,-133.4126984126984,-98.65079365079364,-325.0,296.58730158730157,-16.428571428571427,-111.82539682539682,-325.0,103.57142857142857,-325.0,144.36507936507937,62.93650793650793,114.84126984126983,325.0,211.66666666666666,294.36507936507934,4.365079365079365,-0.5555555555555556,-321.8253968253968
-151.66666666666666,226.74603174603175,-325.0,190.23809523809524,-76.9047619047619,-89.76190476190476,-131.66666666666666,-97.38095238095238,-325.0,310.7142857142857,-23.88888888888889,-110.55555555555554,-325.0,102.14285714285714,-325.0,162.3015873015873,62.14285714285714,188.96825396825395,325.0,209.12698412698413,290.55555555555554,-0.07936507936507936,-4.682539682539682,-321.8253968253968
-151.66666666666666,226.74603174603175,-325.0,190.23809523809524,-76.9047619047619,-89.76190476190476,-131.66666666666666,-97.38095238095238,-325.0,310.7142857142857,-23.88888888888889,-110.55555555555554,-325.0,102.14285714285714,-325.0,162.3015873015873,62.14285714285714,188.96825396825395,325.0,209.12698412698413,290.55555555555554,-0.07936507936507936,-4.682539682539682,-321.8253968253968
-147.85714285714286,221.03174603174602,-325.0,185.3174603174603,-75.15873015873015,-87.53968253968253,-128.33333333333331,-95.15873015873015,-325.0,271.5079365079365,14.047619047619047,-107.6984126984127,-325.0,99.6031746031746,-325.0,117.85714285714285,60.238095238095234,86.42857142857143,325.0,203.7301587301587,283.25396825396825,3.888888888888889,3.253968253968254,-321.8253968253968
-147.85714285714286,221.03174603174602,-325.0,185.3174603174603,-75.15873015873015,-87.53968253968253,-128.33333333333331,-95.15873015873015,-325.0,271.5079365079365,14.047619047619047,-107.6984126984127,-325.0,99.6031746031746,-325.0,117.85714285714285,60.238095238095234,86.42857142857143,325.0,203.7301587301587,283.25396825396825,3.888888888888889,3.253968253968254,-321.8253968253968
-145.79365079365078,218.33333333333331,-325.0,182.93650793650792,-74.36507936507937,-86.26984126984127,-126.9047619047619,-94.04761904761904,-325.0,287.22222222222223,2.3015873015873014,-106.42857142857142,-325.0,98.33333333333333,-325.0,137.53968253968253,59.44444444444444,164.52380952380952,325.0,201.19047619047618,279.76190476190476,-1.349206349206349,-1.8253968253968254,-166.26984126984127
-145.79365079365078,218.33333333333331,-325.0,182.93650793650792,-74.36507936507937,-86.26984126984127,-126.9047619047619,-94.04761904761904,-325.0,287.22222222222223,2.3015873015873014,-106.42857142857142,-325.0,98.33333333333333,-325.0,137.53968253968253,59.44444444444444,164.52380952380952,325.0,201.19047619047618,279.76190476190476,-1.349206349206349,-1.8253968253968254,-166.26984126984127
-143.4126984126984,214.68253968253967,-325.0,179.9206349206349,-73.09523809523809,-85.0,-125.0,-92.30158730158729,-325.0,283.4126984126984,8.174603174603174,-104.52380952380952,-325.0,96.58730158730158,-325.0,126.1111111111111,58.49206349206349,152.77777777777777,325.0,198.015873015873,274.8412698412698,4.0476190476190474,-0.3968253968253968,-166.26984126984127
-143.4126984126984,214.68253968253967,-325.0,179.9206349206349,-73.09523809523809,-85.0,-125.0,-92.30158730158729,-325.0,283.4126984126984,8.174603174603174,-104.52380952380952,-325.0,96.58730158730158,-325.0,126.1111111111111,58.49206349206349,152.77777777777777,325.0,198.015873015873,274.8412698412698,4.0476190476190474,-0.3968253968253968,-166.26984126984127
-141.66666666666666,211.98412698412696,-325.0,177.53968253968253,-72.3015873015873,-84.04761904761904,-123.25396825396825,-91.19047619047619,-325.0,304.2063492063492,-2.7777777777777777,-103.25396825396825,-325.0,95.31746031746032,-325.0,148.33333333333331,57.698412698412696,227.53968253968253,325.0,195.47619047619045,271.19047619047615,-0.5555555555555556,-5.158730158730158,-166.26984126984127
-141.66666666666666,211.98412698412696,-325.0,177.53968253968253,-72.3015873015873,-84.04761904761904,-123.25396825396825,-91.19047619047619,-325.0,304.2063492063492,-2.7777777777777777,-103.25396825396825,-325.0,95.31746031746032,-325.0,148.33333333333331,57.698412698412696,227.53968253968253,325.0,195.47619047619045,271.19047619047615,-0.5555555555555556,-5.158730158730158,-166.26984126984127
-138.4920634920635,207.69841269841268,-325.0,173.88888888888889,-70.55555555555556,-82.3015873015873,-120.55555555555554,-89.44444444444444,-325.0,256.26984126984127,24.84126984126984,-100.87301587301587,-325.0,93.25396825396825,-325.0,108.96825396825396,56.58730158730158,156.58730158730157,325.0,191.19047619047618,265.3174603174603,4.523809523809524,-0.3968253968253968,-166.26984126984127
-138.4920634920635,207.69841269841268,-325.0,173.88888888888889,-70.55555555555556,-82.3015873015873,-120.55555555555554,-89.44444444444444,-325.0,256.26984126984127,24.84126984126984,-100.87301587301587,-325.0,93.25396825396825,-325.0,108.96825396825396,56.58730158730158,156.58730158730157,325.0,191.19047619047618,265.3174603174603,4.523809523809524,-0.3968253968253968,-166.26984126984127
-136.11111111111111,204.2063492063492,-325.0,170.87301587301587,-69.6031746031746,-81.03174603174602,-118.33333333333333,-87.6984126984127,-325.0,325.0,32.93650793650794,-99.12698412698413,-325.0,91.34920634920634,-325.0,143.57142857142856,55.63492063492063,230.55555555555554,325.0,188.4920634920635,260.87301587301585,-4.365079365079365,-1.507936507936508,-166.26984126984127
-136.11111111111111,204.2063492063492,-325.0,170.87301587301587,-69.6031746031746,-81.03174603174602,-118.33333333333333,-87.6984126984127,-325.0,325.0,32.93650793650794,-99.12698412698413,-325.0,91.34920634920634,-325.0,143.57142857142856,55.63492063492063,230.55555555555554,325.0,188.4920634920635,260.87301587301585,-4.365079365079365,-1.507936507936508,-166.26984126984127
-134.52380952380952,201.66666666666666,-325.0,168.65079365079364,-68.80952380952381,-79.92063492063491,-116.9047619047619,-86.9047619047619,-325.0,276.4285714285714,57.22222222222222,-98.01587301587301,-325.0,90.23809523809523,-325.0,108.65079365079364,54.841269841269835,168.4920634920635,325.0,185.95238095238093,257.38095238095235,-0.873015873015873,2.7777777777777777,-321.8253968253968
-134.52380952380952,201.66666666666666,-325.0,168.65079365079364,-68.80952380952381,-79.92063492063491,-116.9047619047619,-86.9047619047619,-325.0,276.4285714285714,57.22222222222222,-98.01587301587301,-325.0,90.23809523809523,-325.0,108.65079365079364,54.841269841269835,168.4920634920635,325.0,185.95238095238093,257.38095238095235,-0.873015873015873,2.7777777777777777,-321.8253968253968
-131.66666666666666,197.53968253968253,-325.0,165.15873015873015,-67.38095238095238,-78.33333333333333,-114.84126984126983,-85.31746031746032,-325.0,276.4285714285714,51.98412698412698,-96.1111111111111,-325.0,88.33333333333333,-325.0,118.17460317460316,53.57142857142857,215.79365079365078,325.0,181.984126984127,251.98412698412696,-1.0317460317460316,-0.3968253968253968,-321.8253968253968
-131.66666666666666,197.53968253968253,-325.0,165.15873015873015,-67.38095238095238,-78.33333333333333,-114.84126984126983,-85.31746031746032,-325.0,276.4285714285714,51.98412698412698,-96.1111111111111,-325.0,88.33333333333333,-325.0,118.17460317460316,53.57142857142857,215.79365079365078,325.0,181.984126984127,251.98412698412696,-1.0317460317460316,-0.3968253968253968,-321.8253968253968
-128.8095238095238,193.57142857142856,-325.0,161.5079365079365,-65.95238095238095,-76.74603174603175,-112.14285714285714,-83.57142857142857,-325.0,240.07936507936506,81.19047619047619,-94.04761904761904,-325.0,86.42857142857143,-325.0,84.04761904761904,52.61904761904761,165.0,325.0,178.17460317460316,246.58730158730157,3.73015873015873,3.888888888888889,-321.8253968253968
-128.8095238095238,193.57142857142856,-325.0,161.5079365079365,-65.95238095238095,-76.74603174603175,-112.14285714285714,-83.57142857142857,-325.0,240.07936507936506,81.19047619047619,-94.04761904761904,-325.0,86.42857142857143,-325.0,84.04761904761904,52.61904761904761,165.0,325.0,178.17460317460316,246.58730158730157,3.73015873015873,3.888888888888889,-321.8253968253968
-126.58730158730158,190.3968253968254,-325.0,158.65079365079364,-64.84126984126983,-75.47619047619047,-110.23809523809523,-82.14285714285714,-325.0,325.0,56.74603174603174,-92.30158730158729,-325.0,84.84126984126983,-325.0,147.85714285714286,51.82539682539682,305.4761904761905,325.0,175.3174603174603,242.3015873015873,-4.841269841269841,-5.317460317460317,-321.8253968253968
-126.58730158730158,190.3968253968254,-325.0,158.65079365079364,-64.84126984126983,-75.47619047619047,-110.23809523809523,-82.14285714285714,-325.0,325.0,56.74603174603174,-92.30158730158729,-325.0,84.84126984126983,-325.0,147.85714285714286,51.82539682539682,305.4761904761905,325.0,175.3174603174603,242.3015873015873,-4.841269841269841,-5.317460317460317,-321.8253968253968
-124.52380952380952,187.06349206349205,-325.0,156.11111111111111,-63.888888888888886,-74.2063492063492,-108.49206349206348,-80.87301587301587,-325.0,232.77777777777777,127.6984126984127,-90.87301587301587,-325.0,83.25396825396825,-325.0,79.76190476190476,50.71428571428571,179.9206349206349,325.0,172.3015873015873,238.17460317460316,3.095238095238095,3.571428571428571,-321.8253968253968
-124.52380952380952,187.06349206349205,-325.0,156.11111111111111,-63.888888888888886,-74.2063492063492,-108.49206349206348,-80.87301587301587,-325.0,232.77777777777777,127.6984126984127,-90.87301587301587,-325.0,83.25396825396825,-325.0,79.76190476190476,50.71428571428571,179.9206349206349,325.0,172.3015873015873,238.17460317460316,3.095238095238095,3.571428571428571,-321.8253968253968
-122.30158730158729,183.88888888888889,-325.0,153.4126984126984,-62.93650793650793,-73.09523809523809,-106.74603174603175,-79.6031746031746,-325.0,320.7142857142857,118.01587301587301,-89.44444444444444,-325.0,81.82539682539682,-325.0,142.93650793650792,49.76190476190476,312.3015873015873,325.0,169.44444444444443,234.04761904761904,-5.158730158730158,-5.634920634920634,-166.26984126984127
-122.30158730158729,183.88888888888889,-325.0,153.4126984126984,-62.93650793650793,-73.09523809523809,-106.74603174603175,-79.6031746031746,-325.0,320.7142857142857,118.01587301587301,-89.44444444444444,-325.0,81.82539682539682,-325.0,142.93650793650792,49.76190476190476,312.3015873015873,325.0,169.44444444444443,234.04761904761904,-5.158730158730158,-5.634920634920634,-166.26984126984127
-119.12698412698413,179.44444444444443,-325.0,149.44444444444443,-61.34920634920635,-71.19047619047619,-104.04761904761904,-77.38095238095238,-325.0,268.6507936507936,324.04761904761904,-87.06349206349206,-325.0,79.76190476190476,-325.0,94.36507936507935,48.49206349206349,238.65079365079364,325.0,165.15873015873015,228.015873015873,-1.507936507936508,2.46031746031746,-166.26984126984127
-119.12698412698413,179.44444444444443,-325.0,149.44444444444443,-61.34920634920635,-71.19047619047619,-104.04761904761904,-77.38095238095238,-325.0,268.6507936507936,324.04761904761904,-87.06349206349206,-325.0,79.76190476190476,-325.0,94.36507936507935,48.49206349206349,238.65079365079364,325.0,165.15873015873015,228.015873015873,-1.507936507936508,2.46031746031746,-166.26984126984127
-118.65079365079364,178.8095238095238,-325.0,148.8095238095238,-61.03174603174603,-70.87301587301587,-103.73015873015872,-77.06349206349206,-325.0,313.73015873015873,325.0,-86.58730158730158,-325.0,79.44444444444444,-325.0,129.28571428571428,48.33333333333333,316.58730158730157,325.0,164.52380952380952,227.06349206349205,-5.7936507936507935,-2.3015873015873014,-166.26984126984127
-118.65079365079364,178.8095238095238,-325.0,148.8095238095238,-61.03174603174603,-70.87301587301587,-103.73015873015872,-77.06349206349206,-325.0,313.73015873015873,325.0,-86.58730158730158,-325.0,79.44444444444444,-325.0,129.28571428571428,48.33333333333333,316.58730158730157,325.0,164.52380952380952,227.06349206349205,-5.7936507936507935,-2.3015873015873014,-166.26984126984127
-118.65079365079364,178.8095238095238,-325.0,148.8095238095238,-61.03174603174603,-70.87301587301587,-103.73015873015872,-77.06349206349206,-325.0,313.73015873015873,325.0,-86.58730158730158,-325.0,79.44444444444444,-325.0,129.28571428571428,48.33333333333333,316.58730158730157,325.0,164.52380952380952,227.06349206349205,-5.7936507936507935,-2.3015873015873014,-166.26984126984127
-118.65079365079364,178.8095238095238,-325.0,148.8095238095238,-61.03174603174603,-70.87301587301587,-103.73015873015872,-77.06349206349206,-325.0,313.73015873015873,325.0,-86.58730158730158,-325.0,79.44444444444444,-325.0,129.28571428571428,48.33333333333333,316.58730158730157,325.0,164.52380952380952,227.06349206349205,-5.7936507936507935,-2.3015873015873014,-166.26984126984127
-113.25396825396825,170.3968253968254,-325.0,141.984126984127,-58.49206349206349,-67.85714285714285,-98.96825396825396,-74.04761904761904,-325.0,276.4285714285714,325.0,-82.61904761904762,-325.0,75.63492063492063,-325.0,107.85714285714285,46.11111111111111,287.22222222222223,325.0,156.9047619047619,216.42857142857142,1.1904761904761905,-3.571428571428571,-166.26984126984127
-113.25396825396825,170.3968253968254,-325.0,141.984126984127,-58.49206349206349,-67.85714285714285,-98.96825396825396,-74.04761904761904,-325.0,276.4285714285714,325.0,-82.61904761904762,-325.0,75.63492063492063,-325.0,107.85714285714285,46.11111111111111,287.22222222222223,325.0,156.9047619047619,216.42857142857142,1.1904761904761905,-3.571428571428571,-166.26984126984127
-111.82539682539682,168.33333333333331,-325.0,140.23809523809524,-57.857142857142854,-67.06349206349206,-97.85714285714285,-73.09523809523809,-325.0,263.73015873015873,271.66666666666663,-81.5079365079365,-325.0,74.68253968253968,-325.0,95.31746031746032,45.476190476190474,287.22222222222223,325.0,155.0,213.7301587301587,-1.507936507936508,-1.349206349206349,-321.8253968253968
-111.82539682539682,168.33333333333331,-325.0,140.23809523809524,-57.857142857142854,-67.06349206349206,-97.85714285714285,-73.09523809523809,-325.0,263.73015873015873,271.66666666666663,-81.5079365079365,-325.0,74.68253968253968,-325.0,95.31746031746032,45.476190476190474,287.22222222222223,325.0,155.0,213.7301587301587,-1.507936507936508,-1.349206349206349,-321.8253968253968
-109.76190476190476,165.63492063492063,-325.0,137.69841269841268,-56.904761904761905,-66.11111111111111,-95.95238095238095,-71.82539682539682,-325.0,313.88888888888886,116.74603174603173,-80.23809523809523,-325.0,73.4126984126984,-325.0,141.66666666666666,44.84126984126984,325.0,325.0,152.46031746031744,209.76190476190476,-2.46031746031746,-7.857142857142857,-321.8253968253968
-109.76190476190476,165.63492063492063,-325.0,137.69841269841268,-56.904761904761905,-66.11111111111111,-95.95238095238095,-71.82539682539682,-325.0,313.88888888888886,116.74603174603173,-80.23809523809523,-325.0,73.4126984126984,-325.0,141.66666666666666,44.84126984126984,325.0,325.0,152.46031746031744,209.76190476190476,-2.46031746031746,-7.857142857142857,-321.8253968253968
-107.53968253968253,162.14285714285714,-325.0,134.68253968253967,-55.79365079365079,-64.52380952380952,-93.88888888888889,-70.39682539682539,-325.0,248.8095238095238,147.53968253968253,-78.4920634920635,-325.0,71.66666666666666,-325.0,75.47619047619047,43.888888888888886,257.6984126984127,325.0,149.12698412698413,205.3174603174603,-1.6666666666666665,1.507936507936508,-321.8253968253968
-107.53968253968253,162.14285714285714,-325.0,134.68253968253967,-55.79365079365079,-64.52380952380952,-93.88888888888889,-70.39682539682539,-325.0,248.8095238095238,147.53968253968253,-78.4920634920635,-325.0,71.66666666666666,-325.0,75.47619047619047,43.888888888888886,257.6984126984127,325.0,149.12698412698413,205.3174603174603,-1.6666666666666665,1.507936507936508,-321.8253968253968
-105.63492063492063,159.44444444444443,-325.0,132.46031746031744,-54.841269841269835,-63.41269841269841,-92.46031746031746,-69.28571428571428,-325.0,248.49206349206347,102.46031746031746,-77.38095238095238,-325.0,70.39682539682539,-325.0,89.28571428571428,43.095238095238095,280.7142857142857,325.0,146.74603174603175,201.98412698412696,1.0317460317460316,-3.888888888888889,-321.8253968253968
-105.63492063492063,159.44444444444443,-325.0,132.46031746031744,-54.841269841269835,-63.41269841269841,-92.46031746031746,-69.28571428571428,-325.0,248.49206349206347,102.46031746031746,-77.38095238095238,-325.0,70.39682539682539,-325.0,89.28571428571428,43.095238095238095,280.7142857142857,325.0,146.74603174603175,201.98412698412696,1.0317460317460316,-3.888888888888889,-321.8253968253968
-104.36507936507935,157.38095238095238,-325.0,130.87301587301587,-54.36507936507936,-62.61904761904761,-91.34920634920634,-68.4920634920635,-325.0,237.69841269841268,105.15873015873015,-76.42857142857143,-325.0,69.44444444444444,-325.0,77.38095238095238,42.460317460317455,280.7142857142857,325.0,145.0,199.44444444444443,-0.5555555555555556,-1.1904761904761905,-321.8253968253968
-104.36507936507935,157.38095238095238,-325.0,130.87301587301587,-54.36507936507936,-62.61904761904761,-91.34920634920634,-68.4920634920635,-325.0,237.69841269841268,105.15873015873015,-76.42857142857143,-325.0,69.44444444444444,-325.0,77.38095238095238,42.460317460317455,280.7142857142857,325.0,145.0,199.44444444444443,-0.5555555555555556,-1.1904761904761905,-321.8253968253968
-101.82539682539682,153.4126984126984,-325.0,127.38095238095238,-52.93650793650794,-61.19047619047619,-89.28571428571428,-66.9047619047619,-325.0,243.09523809523807,99.12698412698413,-74.36507936507937,-325.0,67.6984126984127,-325.0,77.85714285714285,41.34920634920635,267.85714285714283,325.0,141.19047619047618,194.04761904761904,-0.7142857142857142,-0.5555555555555556,-166.26984126984127
-101.82539682539682,153.4126984126984,-325.0,127.38095238095238,-52.93650793650794,-61.19047619047619,-89.28571428571428,-66.9047619047619,-325.0,243.09523809523807,99.12698412698413,-74.36507936507937,-325.0,67.6984126984127,-325.0,77.85714285714285,41.34920634920635,267.85714285714283,325.0,141.19047619047618,194.04761904761904,-0.7142857142857142,-0.5555555555555556,-166.26984126984127
-98.65079365079364,148.96825396825395,-325.0,123.73015873015872,-51.666666666666664,-59.44444444444444,-86.42857142857143,-65.0,-325.0,231.03174603174602,85.15873015873015,-72.3015873015873,-325.0,65.63492063492063,-325.0,77.22222222222221,40.079365079365076,293.0952380952381,325.0,137.22222222222223,188.33333333333331,1.984126984126984,-2.9365079365079363,-166.26984126984127
-98.65079365079364,148.96825396825395,-325.0,123.73015873015872,-51.666666666666664,-59.44444444444444,-86.42857142857143,-65.0,-325.0,231.03174603174602,85.15873015873015,-72.3015873015873,-325.0,65.63492063492063,-325.0,77.22222222222221,40.079365079365076,293.0952380952381,325.0,137.22222222222223,188.33333333333331,1.984126984126984,-2.9365079365079363,-166.26984126984127
-97.38095238095238,147.06349206349205,-325.0,121.98412698412697,-51.03174603174603,-58.650793650793645,-85.31746031746032,-64.2063492063492,-325.0,223.25396825396825,86.42857142857143,-71.34920634920634,-325.0,64.68253968253968,-325.0,66.26984126984127,39.6031746031746,293.0952380952381,325.0,135.3174603174603,185.95238095238093,0.07936507936507936,-0.3968253968253968,-166.26984126984127
-97.38095238095238,147.06349206349205,-325.0,121.98412698412697,-51.03174603174603,-58.650793650793645,-85.31746031746032,-64.2063492063492,-325.0,223.25396825396825,86.42857142857143,-71.34920634920634,-325.0,64.68253968253968,-325.0,66.26984126984127,39.6031746031746,293.0952380952381,325.0,135.3174603174603,185.95238095238093,0.07936507936507936,-0.3968253968253968,-166.26984126984127
-95.0,143.4126984126984,-325.0,118.96825396825396,-49.76190476190476,-57.22222222222222,-83.25396825396825,-62.61904761904761,-325.0,227.38095238095238,72.93650793650794,-69.6031746031746,-325.0,62.93650793650793,-325.0,66.42857142857143,38.49206349206349,275.1587301587301,325.0,131.984126984127,181.03174603174602,-0.5555555555555556,0.07936507936507936,-166.26984126984127
-95.0,143.4126984126984,-325.0,118.96825396825396,-49.76190476190476,-57.22222222222222,-83.25396825396825,-62.61904761904761,-325.0,227.38095238095238,72.93650793650794,-69.6031746031746,-325.0,62.93650793650793,-325.0,66.42857142857143,38.49206349206349,275.1587301587301,325.0,131.984126984127,181.03174603174602,-0.5555555555555556,0.07936507936507936,-166.26984126984127
-92.93650793650794,140.3968253968254,-325.0,116.42857142857142,-48.80952380952381,-56.11111111111111,-81.66666666666666,-61.507936507936506,-325.0,266.26984126984127,44.52380952380952,-68.01587301587301,-325.0,61.666666666666664,-325.0,112.77777777777777,37.857142857142854,325.0,325.0,129.12698412698413,177.2222222222222,-4.2063492063492065,-6.111111111111111,-166.26984126984127
-92.93650793650794,140.3968253968254,-325.0,116.42857142857142,-48.80952380952381,-56.11111111111111,-81.66666666666666,-61.507936507936506,-325.0,266.26984126984127,44.52380952380952,-68.01587301587301,-325.0,61.666666666666664,-325.0,112.77777777777777,37.857142857142854,325.0,325.0,129.12698412698413,177.2222222222222,-4.2063492063492065,-6.111111111111111,-166.26984126984127
-91.66666666666666,138.8095238095238,-325.0,114.84126984126983,-48.17460317460317,-55.476190476190474,-80.87301587301587,-60.71428571428571,-322.9365079365079,165.79365079365078,77.38095238095238,-67.22222222222221,-325.0,60.873015873015866,-325.0,15.634920634920634,37.38095238095238,270.39682539682536,325.0,127.53968253968253,174.84126984126982,5.158730158730158,2.46031746031746,-321.8253968253968
-91.66666666666666,138.8095238095238,-325.0,114.84126984126983,-48.17460317460317,-55.476190476190474,-80.87301587301587,-60.71428571428571,-322.9365079365079,165.79365079365078,77.38095238095238,-67.22222222222221,-325.0,60.873015873015866,-325.0,15.634920634920634,37.38095238095238,270.39682539682536,325.0,127.53968253968253,174.84126984126982,5.158730158730158,2.46031746031746,-321.8253968253968
-91.66666666666666,138.8095238095238,-325.0,114.84126984126983,-48.17460317460317,-55.476190476190474,-80.87301587301587,-60.71428571428571,-322.9365079365079,165.79365079365078,77.38095238095238,-67.22222222222221,-325.0,60.873015873015866,-325.0,15.634920634920634,37.38095238095238,270.39682539682536,325.0,127.53968253968253,174.84126984126982,5.158730158730158,2.46031746031746,-321.8253968253968
-91.66666666666666,138.8095238095238,-325.0,114.84126984126983,-48.17460317460317,-55.476190476190474,-80.87301587301587,-60.71428571428571,-322.9365079365079,165.79365079365078,77.38095238095238,-67.22222222222221,-325.0,60.873015873015866,-325.0,15.634920634920634,37.38095238095238,270.39682539682536,325.0,127.53968253968253,174.84126984126982,5.158730158730158,2.46031746031746,-321.8253968253968
-91.66666666666666,138.8095238095238,-325.0,114.84126984126983,-48.17460317460317,-55.476190476190474,-80.87301587301587,-60.71428571428571,-322.9365079365079,165.79365079365078,77.38095238095238,-67.22222222222221,-325.0,60.873015873015866,-325.0,15.634920634920634,37.38095238095238,270.39682539682536,325.0,127.53968253968253,174.84126984126982,5.158730158730158,2.46031746031746,-321.8253968253968
-91.66666666666666,138.8095238095238,-325.0,114.84126984126983,-48.17460317460317,-55.476190476190474,-80.87301587301587,-60.71428571428571,-322.9365079365079,165.79365079365078,77.38095238095238,-67.22222222222221,-325.0,60.873015873015866,-325.0,15.634920634920634,37.38095238095238,270.39682539682536,325.0,127.53968253968253,174.84126984126982,5.158730158730158,2.46031746031746,-321.8253968253968
-91.66666666666666,138.8095238095238,-325.0,114.84126984126983,-48.17460317460317,-55.476190476190474,-80.87301587301587,-60.71428571428571,-322.9365079365079,165.79365079365078,77.38095238095238,-67.22222222222221,-325.0,60.873015873015866,-325.0,15.634920634920634,37.38095238095238,270.39682539682536,325.0,127.53968253968253,174.84126984126982,5.158730158730158,2.46031746031746,-321.8253968253968
-91.66666666666666,138.8095238095238,-325.0,114.84126984126983,-48.17460317460317,-55.476190476190474,-80.87301587301587,-60.71428571428571,-322.9365079365079,165.79365079365078,77.38095238095238,-67.22222222222221,-325.0,60.873015873015866,-325.0,15.634920634920634,37.38095238095238,270.39682539682536,325.0,127.53968253968253,174.84126984126982,5.158730158730158,2.46031746031746,-321.8253968253968
-91.66666666666666,138.8095238095238,-325.0,114.84126984126983,-48.17460317460317,-55.476190476190474,-80.87301587301587,-60.71428571428571,-322.9365079365079,165.79365079365078,77.38095238095238,-67.22222222222221,-325.0,60.873015873015866,-325.0,15.634920634920634,37.38095238095238,270.39682539682536,325.0,127.53968253968253,174.84126984126982,5.158730158730158,2.46031746031746,-321.8253968253968
-91.66666666666666,138.8095238095238,-325.0,114.84126984126983,-48.17460317460317,-55.476190476190474,-80.87301587301587,-60.71428571428571,-322.9365079365079,165.79365079365078,77.38095238095238,-67.22222222222221,-325.0,60.873015873015866,-325.0,15.634920634920634,37.38095238095238,270.39682539682536,325.0,127.53968253968253,174.84126984126982,5.158730158730158,2.46031746031746,-321.8253968253968
-91.66666666666666,138.8095238095238,-325.0,114.84126984126983,-48.17460317460317,-55.476190476190474,-80.87301587301587,-60.71428571428571,-322.9365079365079,165.79365079365078,77.38095238095238,-67.22222222222221,-325.0,60.873015873015866,-325.0,15.634920634920634,37.38095238095238,270.39682539682536,325.0,127.53968253968253,174.84126984126982,5.158730158730158,2.46031746031746,-166.26984126984127
-91.66666666666666,138.8095238095238,-325.0,114.84126984126983,-48.17460317460317,-55.476190476190474,-80.87301587301587,-60.71428571428571,-322.9365079365079,165.79365079365078,77.38095238095238,-67.22222222222221,-325.0,60.873015873015866,-325.0,15.634920634920634,37.38095238095238,270.39682539682536,325.0,127.53968253968253,174.84126984126982,5.158730158730158,2.46031746031746,-166.26984126984127
-91.66666666666666,138.8095238095238,-325.0,114.84126984126983,-48.17460317460317,-55.476190476190474,-80.87301587301587,-60.71428571428571,-322.9365079365079,165.79365079365078,77.38095238095238,-67.22222222222221,-325.0,60.873015873015866,-325.0,15.634920634920634,37.38095238095238,270.39682539682536,325.0,127.53968253968253,174.84126984126982,5.158730158730158,2.46031746031746,-166.26984126984127
-91.66666666666666,138.8095238095238,-325.0,114.84126984126983,-48.17460317460317,-55.476190476190474,-80.87301587301587,-60.71428571428571,-322.9365079365079,165.79365079365078,77.38095238095238,-67.22222222222221,-325.0,60.873015873015866,-325.0,15.634920634920634,37.38095238095238,270.39682539682536,325.0,127.53968253968253,174.84126984126982,5.158730158730158,2.46031746031746,-166.26984126984127
-91.66666666666666,138.8095238095238,-325.0,114.84126984126983,-48.17460317460317,-55.476190476190474,-80.87301587301587,-60.71428571428571,-322.9365079365079,165.79365079365078,77.38095238095238,-67.22222222222221,-325.0,60.873015873015866,-325.0,15.634920634920634,37.38095238095238,270.39682539682536,325.0,127.53968253968253,174.84126984126982,5.158730158730158,2.46031746031746,-166.26984126984127
-91.66666666666666,138.8095238095238,-325.0,114.84126984126983,-48.17460317460317,-55.476190476190474,-80.87301587301587,-60.71428571428571,-322.9365079365079,165.79365079365078,77.38095238095238,-67.22222222222221,-325.0,60.873015873015866,-325.0,15.634920634920634,37.38095238095238,270.39682539682536,325.0,127.53968253968253,174.84126984126982,5.158730158730158,2.46031746031746,-166.26984126984127
-79.44444444444444,120.55555555555554,-325.0,99.28571428571428,-42.460317460317455,-48.33333333333333,-70.23809523809524,-53.095238095238095,-282.3015873015873,146.11111111111111,106.9047619047619,-58.33333333333333,-325.0,52.460317460317455,-325.0,-11.825396825396824,32.460317460317455,268.8095238095238,304.5238095238095,110.71428571428571,151.19047619047618,3.253968253968254,5.476190476190476,-166.26984126984127
-79.44444444444444,120.55555555555554,-325.0,99.28571428571428,-42.460317460317455,-48.33333333333333,-70.23809523809524,-53.095238095238095,-282.3015873015873,146.11111111111111,106.9047619047619,-58.33333333333333,-325.0,52.460317460317455,-325.0,-11.825396825396824,32.460317460317455,268.8095238095238,304.5238095238095,110.71428571428571,151.19047619047618,3.253968253968254,5.476190476190476,-166.26984126984127
-78.33333333333333,118.49206349206348,-325.0,97.6984126984127,-41.666666666666664,-47.38095238095238,-68.96825396825396,-52.460317460317455,-277.53968253968253,230.3968253968254,55.317460317460316,-57.53968253968254,-325.0,51.507936507936506,-325.0,97.22222222222221,31.666666666666664,325.0,299.6031746031746,108.96825396825396,148.8095238095238,-3.73015873015873,-6.587301587301587,-166.26984126984127
-78.33333333333333,118.49206349206348,-325.0,97.6984126984127,-41.666666666666664,-47.38095238095238,-68.96825396825396,-52.460317460317455,-277.53968253968253,230.3968253968254,55.317460317460316,-57.53968253968254,-325.0,51.507936507936506,-325.0,97.22222222222221,31.666666666666664,325.0,299.6031746031746,108.96825396825396,148.8095238095238,-3.73015873015873,-6.587301587301587,-166.26984126984127
-77.38095238095238,117.22222222222221,-325.0,96.42857142857142,-41.19047619047619,-46.904761904761905,-68.17460317460318,-51.82539682539682,-274.2063492063492,116.42857142857142,102.93650793650794,-56.74603174603174,-325.0,50.87301587301587,-325.0,-22.936507936507937,31.507936507936506,268.968253968254,295.95238095238096,107.6984126984127,146.58730158730157,5.476190476190476,3.571428571428571,-321.8253968253968
-77.38095238095238,117.22222222222221,-325.0,96.42857142857142,-41.19047619047619,-46.904761904761905,-68.17460317460318,-51.82539682539682,-274.2063492063492,116.42857142857142,102.93650793650794,-56.74603174603174,-325.0,50.87301587301587,-325.0,-22.936507936507937,31.507936507936506,268.968253968254,295.95238095238096,107.6984126984127,146.58730158730157,5.476190476190476,3.571428571428571,-321.8253968253968
-77.38095238095238,117.22222222222221,-325.0,96.42857142857142,-41.19047619047619,-46.904761904761905,-68.17460317460318,-51.82539682539682,-274.2063492063492,116.42857142857142,102.93650793650794,-56.74603174603174,-325.0,50.87301587301587,-325.0,-22.936507936507937,31.507936507936506,268.968253968254,295.95238095238096,107.6984126984127,146.58730158730157,5.476190476190476,3.571428571428571,-321.8253968253968
-77.38095238095238,117.22222222222221,-325.0,96.42857142857142,-41.19047619047619,-46.904761904761905,-68.17460317460318,-51.82539682539682,-274.2063492063492,116.42857142857142,102.93650793650794,-56.74603174603174,-325.0,50.87301587301587,-325.0,-22.936507936507937,31.507936507936506,268.968253968254,295.95238095238096,107.6984126984127,146.58730158730157,5.476190476190476,3.571428571428571,-321.8253968253968
-77.38095238095238,117.22222222222221,-325.0,96.42857142857142,-41.19047619047619,-46.904761904761905,-68.17460317460318,-51.82539682539682,-274.2063492063492,116.42857142857142,102.93650793650794,-56.74603174603174,-325.0,50.87301587301587,-325.0,-22.936507936507937,31.507936507936506,268.968253968254,295.95238095238096,107.6984126984127,146.58730158730157,5.476190476190476,3.571428571428571,-321.8253968253968
-77.38095238095238,117.22222222222221,-325.0,96.42857142857142,-41.19047619047619,-46.904761904761905,-68.17460317460318,-51.82539682539682,-274.2063492063492,116.42857142857142,102.93650793650794,-56.74603174603174,-325.0,50.87301587301587,-325.0,-22.936507936507937,31.507936507936506,268.968253968254,295.95238095238096,107.6984126984127,146.58730158730157,5.476190476190476,3.571428571428571,-321.8253968253968
-73.09523809523809,110.87301587301587,-325.0,91.34920634920634,-39.44444444444444,-44.52380952380952,-64.52380952380952,-49.285714285714285,-259.9206349206349,217.06349206349205,70.87301587301587,-53.73015873015873,-325.0,48.01587301587301,-325.0,87.53968253968253,29.76190476190476,325.0,280.39682539682536,101.66666666666666,138.4920634920635,-3.571428571428571,-6.746031746031746,-321.8253968253968
-73.09523809523809,110.87301587301587,-325.0,91.34920634920634,-39.44444444444444,-44.52380952380952,-64.52380952380952,-49.285714285714285,-259.9206349206349,217.06349206349205,70.87301587301587,-53.73015873015873,-325.0,48.01587301587301,-325.0,87.53968253968253,29.76190476190476,325.0,280.39682539682536,101.66666666666666,138.4920634920635,-3.571428571428571,-6.746031746031746,-321.8253968253968
-72.14285714285714,109.44444444444444,-325.0,89.76190476190476,-38.80952380952381,-44.047619047619044,-63.73015873015873,-48.33333333333333,-256.74603174603175,104.68253968253968,118.65079365079364,-52.93650793650794,-325.0,47.38095238095238,-325.0,-40.39682539682539,29.285714285714285,268.015873015873,276.74603174603175,100.39682539682539,136.74603174603175,5.7936507936507935,4.523809523809524,-321.8253968253968
-72.14285714285714,109.44444444444444,-325.0,89.76190476190476,-38.80952380952381,-44.047619047619044,-63.73015873015873,-48.33333333333333,-256.74603174603175,104.68253968253968,118.65079365079364,-52.93650793650794,-325.0,47.38095238095238,-325.0,-40.39682539682539,29.285714285714285,268.015873015873,276.74603174603175,100.39682539682539,136.74603174603175,5.7936507936507935,4.523809523809524,-321.8253968253968
-70.71428571428571,106.9047619047619,-325.0,88.17460317460316,-38.01587301587301,-43.095238095238095,-62.460317460317455,-47.698412698412696,-251.5079365079365,214.04761904761904,76.74603174603175,-51.82539682539682,-325.0,46.42857142857142,-325.0,88.01587301587301,28.65079365079365,325.0,271.19047619047615,98.33333333333333,133.73015873015873,-3.888888888888889,-6.428571428571428,-166.26984126984127
-70.71428571428571,106.9047619047619,-325.0,88.17460317460316,-38.01587301587301,-43.095238095238095,-62.460317460317455,-47.698412698412696,-251.5079365079365,214.04761904761904,76.74603174603175,-51.82539682539682,-325.0,46.42857142857142,-325.0,88.01587301587301,28.65079365079365,325.0,271.19047619047615,98.33333333333333,133.73015873015873,-3.888888888888889,-6.428571428571428,-166.26984126984127
-69.6031746031746,105.79365079365078,-325.0,87.06349206349206,-37.53968253968254,-42.460317460317455,-61.82539682539682,-47.38095238095238,-248.17460317460316,117.6984126984127,125.63492063492063,-51.19047619047619,-325.0,45.95238095238095,-325.0,-27.857142857142854,28.333333333333332,295.4761904761905,267.85714285714283,97.22222222222221,131.984126984127,6.111111111111111,4.2063492063492065,-166.26984126984127
-69.6031746031746,105.79365079365078,-325.0,87.06349206349206,-37.53968253968254,-42.460317460317455,-61.82539682539682,-47.38095238095238,-248.17460317460316,117.6984126984127,125.63492063492063,-51.19047619047619,-325.0,45.95238095238095,-325.0,-27.857142857142854,28.333333333333332,295.4761904761905,267.85714285714283,97.22222222222221,131.984126984127,6.111111111111111,4.2063492063492065,-166.26984126984127
-69.6031746031746,105.79365079365078,-325.0,87.06349206349206,-37.53968253968254,-42.460317460317455,-61.82539682539682,-47.38095238095238,-248.17460317460316,117.6984126984127,125.63492063492063,-51.19047619047619,-325.0,45.95238095238095,-325.0,-27.857142857142854,28.333333333333332,295.4761904761905,267.85714285714283,97.22222222222221,131.984126984127,6.111111111111111,4.2063492063492065,-166.26984126984127
-69.6031746031746,105.79365079365078,-325.0,87.06349206349206,-37.53968253968254,-42.460317460317455,-61.82539682539682,-47.38095238095238,-248.17460317460316,117.6984126984127,125.63492063492063,-51.19047619047619,-325.0,45.95238095238095,-325.0,-27.857142857142854,28.333333333333332,295.4761904761905,267.85714285714283,97.22222222222221,131.984126984127,6.111111111111111,4.2063492063492065,-166.26984126984127
-67.38095238095238,102.30158730158729,-325.0,83.88888888888889,-36.42857142857142,-41.19047619047619,-59.76190476190476,-45.476190476190474,-240.3968253968254,101.5079365079365,119.12698412698413,-49.44444444444444,-325.0,44.2063492063492,-325.0,-43.41269841269841,27.38095238095238,280.23809523809524,259.2857142857143,93.88888888888889,127.38095238095238,6.26984126984127,4.2063492063492065,-166.26984126984127
-67.38095238095238,102.30158730158729,-325.0,83.88888888888889,-36.42857142857142,-41.19047619047619,-59.76190476190476,-45.476190476190474,-240.3968253968254,101.5079365079365,119.12698412698413,-49.44444444444444,-325.0,44.2063492063492,-325.0,-43.41269841269841,27.38095238095238,280.23809523809524,259.2857142857143,93.88888888888889,127.38095238095238,6.26984126984127,4.2063492063492065,-166.26984126984127
-67.38095238095238,102.30158730158729,-325.0,83.88888888888889,-36.42857142857142,-41.19047619047619,-59.76190476190476,-45.476190476190474,-240.3968253968254,101.5079365079365,119.12698412698413,-49.44444444444444,-325.0,44.2063492063492,-325.0,-43.41269841269841,27.38095238095238,280.23809523809524,259.2857142857143,93.88888888888889,127.38095238095238,6.26984126984127,4.2063492063492065,-166.26984126984127
-67.38095238095238,102.30158730158729,-325.0,83.88888888888889,-36.42857142857142,-41.19047619047619,-59.76190476190476,-45.476190476190474,-240.3968253968254,101.5079365079365,119.12698412698413,-49.44444444444444,-325.0,44.2063492063492,-325.0,-43.41269841269841,27.38095238095238,280.23809523809524,259.2857142857143,93.88888888888889,127.38095238095238,6.26984126984127,4.2063492063492065,-166.26984126984127
-64.84126984126983,98.33333333333333,-325.0,80.71428571428571,-35.15873015873016,-39.6031746031746,-57.38095238095238,-44.047619047619044,-231.5079365079365,119.44444444444444,127.06349206349206,-47.698412698412696,-325.0,42.460317460317455,-323.88888888888886,-31.666666666666664,26.428571428571427,294.8412698412698,249.60317460317458,90.39682539682539,122.46031746031746,3.253968253968254,5.158730158730158,-321.8253968253968
-64.84126984126983,98.33333333333333,-325.0,80.71428571428571,-35.15873015873016,-39.6031746031746,-57.38095238095238,-44.047619047619044,-231.5079365079365,119.44444444444444,127.06349206349206,-47.698412698412696,-325.0,42.460317460317455,-323.88888888888886,-31.666666666666664,26.428571428571427,294.8412698412698,249.60317460317458,90.39682539682539,122.46031746031746,3.253968253968254,5.158730158730158,-321.8253968253968
-64.2063492063492,97.22222222222221,-325.0,79.76190476190476,-34.682539682539684,-39.285714285714285,-56.74603174603174,-43.41269841269841,-228.65079365079364,204.68253968253967,75.63492063492063,-47.06349206349206,-325.0,41.82539682539682,-320.07936507936506,91.82539682539682,25.952380952380953,325.0,246.58730158730157,89.12698412698413,120.87301587301586,-5.476190476190476,-6.26984126984127,-321.8253968253968
-64.2063492063492,97.22222222222221,-325.0,79.76190476190476,-34.682539682539684,-39.285714285714285,-56.74603174603174,-43.41269841269841,-228.65079365079364,204.68253968253967,75.63492063492063,-47.06349206349206,-325.0,41.82539682539682,-320.07936507936506,91.82539682539682,25.952380952380953,325.0,246.58730158730157,89.12698412698413,120.87301587301586,-5.476190476190476,-6.26984126984127,-321.8253968253968
-62.61904761904761,95.15873015873015,-325.0,78.01587301587301,-33.888888888888886,-38.80952380952381,-55.79365079365079,-42.61904761904761,-224.2063492063492,115.15873015873015,125.0,-46.269841269841265,-325.0,41.03174603174603,-313.73015873015873,-35.476190476190474,25.634920634920633,297.53968253968253,241.5079365079365,87.38095238095238,118.17460317460316,3.253968253968254,4.682539682539682,-321.8253968253968
-62.61904761904761,95.15873015873015,-325.0,78.01587301587301,-33.888888888888886,-38.80952380952381,-55.79365079365079,-42.61904761904761,-224.2063492063492,115.15873015873015,125.0,-46.269841269841265,-325.0,41.03174603174603,-313.73015873015873,-35.476190476190474,25.634920634920633,297.53968253968253,241.5079365079365,87.38095238095238,118.17460317460316,3.253968253968254,4.682539682539682,-321.8253968253968
-61.666666666666664,94.04761904761904,-325.0,77.06349206349206,-33.57142857142857,-38.33333333333333,-54.841269841269835,-41.98412698412698,-221.5079365079365,159.44444444444443,98.80952380952381,-45.63492063492063,-325.0,40.39682539682539,-309.9206349206349,22.46031746031746,25.317460317460316,316.1111111111111,238.49206349206347,86.26984126984127,116.58730158730158,0.3968253968253968,-1.0317460317460316,-321.8253968253968
-61.666666666666664,94.04761904761904,-325.0,77.06349206349206,-33.57142857142857,-38.33333333333333,-54.841269841269835,-41.98412698412698,-221.5079365079365,159.44444444444443,98.80952380952381,-45.63492063492063,-325.0,40.39682539682539,-309.9206349206349,22.46031746031746,25.317460317460316,316.1111111111111,238.49206349206347,86.26984126984127,116.58730158730158,0.3968253968253968,-1.0317460317460316,-321.8253968253968
-60.39682539682539,91.98412698412697,-325.0,75.15873015873015,-33.095238095238095,-37.22222222222222,-53.73015873015873,-41.34920634920635,-216.9047619047619,100.71428571428571,302.77777777777777,-44.52380952380952,-325.0,39.6031746031746,-303.88888888888886,-49.44444444444444,24.68253968253968,279.76190476190476,233.4126984126984,84.2063492063492,114.2063492063492,2.7777777777777777,5.476190476190476,-321.8253968253968
-60.39682539682539,91.98412698412697,-325.0,75.15873015873015,-33.095238095238095,-37.22222222222222,-53.73015873015873,-41.34920634920635,-216.9047619047619,100.71428571428571,302.77777777777777,-44.52380952380952,-325.0,39.6031746031746,-303.88888888888886,-49.44444444444444,24.68253968253968,279.76190476190476,233.4126984126984,84.2063492063492,114.2063492063492,2.7777777777777777,5.476190476190476,-321.8253968253968
-60.079365079365076,91.5079365079365,-325.0,74.84126984126983,-32.93650793650794,-37.06349206349206,-53.41269841269841,-41.03174603174603,-215.95238095238093,127.6984126984127,325.0,-44.36507936507936,-325.0,39.44444444444444,-302.77777777777777,-29.444444444444443,24.523809523809522,293.57142857142856,232.46031746031744,83.73015873015872,113.73015873015872,-0.7142857142857142,5.317460317460317,-166.26984126984127
-60.079365079365076,91.5079365079365,-325.0,74.84126984126983,-32.93650793650794,-37.06349206349206,-53.41269841269841,-41.03174603174603,-215.95238095238093,127.6984126984127,325.0,-44.36507936507936,-325.0,39.44444444444444,-302.77777777777777,-29.444444444444443,24.523809523809522,293.57142857142856,232.46031746031744,83.73015873015872,113.73015873015872,-0.7142857142857142,5.317460317460317,-166.26984126984127
-58.49206349206349,88.65079365079364,-321.031746031746,72.77777777777777,-31.98412698412698,-36.11111111111111,-51.98412698412698,-39.92063492063492,-209.76190476190476,80.87301587301587,325.0,-43.25396825396825,-325.0,38.17460317460317,-294.2063492063492,-54.2063492063492,23.88888888888889,280.87301587301585,225.79365079365078,81.66666666666666,110.23809523809523,2.142857142857143,5.634920634920634,-166.26984126984127
-58.49206349206349,88.65079365079364,-321.031746031746,72.77777777777777,-31.98412698412698,-36.11111111111111,-51.98412698412698,-39.92063492063492,-209.76190476190476,80.87301587301587,325.0,-43.25396825396825,-325.0,38.17460317460317,-294.2063492063492,-54.2063492063492,23.88888888888889,280.87301587301585,225.79365079365078,81.66666666666666,110.23809523809523,2.142857142857143,5.634920634920634,-166.26984126984127
-57.698412698412696,87.85714285714285,-317.06349206349205,71.98412698412697,-31.666666666666664,-35.63492063492063,-51.507936507936506,-39.6031746031746,-207.06349206349205,187.69841269841268,325.0,-42.61904761904761,-325.0,37.857142857142854,-290.7142857142857,84.68253968253968,23.730158730158728,325.0,223.09523809523807,80.55555555555556,108.65079365079364,-6.428571428571428,-7.3809523809523805,-166.26984126984127
-57.698412698412696,87.85714285714285,-317.06349206349205,71.98412698412697,-31.666666666666664,-35.63492063492063,-51.507936507936506,-39.6031746031746,-207.06349206349205,187.69841269841268,325.0,-42.61904761904761,-325.0,37.857142857142854,-290.7142857142857,84.68253968253968,23.730158730158728,325.0,223.09523809523807,80.55555555555556,108.65079365079364,-6.428571428571428,-7.3809523809523805,-166.26984126984127
-55.15873015873016,83.73015873015872,-302.9365079365079,68.4920634920635,-30.396825396825395,-34.047619047619044,-49.12698412698413,-37.857142857142854,-198.17460317460316,86.26984126984127,325.0,-40.55555555555555,-325.0,35.95238095238095,-278.015873015873,-30.238095238095237,22.46031746031746,287.06349206349205,212.93650793650792,76.9047619047619,103.57142857142857,3.253968253968254,-0.07936507936507936,-166.26984126984127
-55.15873015873016,83.73015873015872,-302.9365079365079,68.4920634920635,-30.396825396825395,-34.047619047619044,-49.12698412698413,-37.857142857142854,-198.17460317460316,86.26984126984127,325.0,-40.55555555555555,-325.0,35.95238095238095,-278.015873015873,-30.238095238095237,22.46031746031746,287.06349206349205,212.93650793650792,76.9047619047619,103.57142857142857,3.253968253968254,-0.07936507936507936,-166.26984126984127
-54.047619047619044,81.98412698412697,-296.58730158730157,67.06349206349206,-29.76190476190476,-33.57142857142857,-48.17460317460317,-37.06349206349206,-194.04761904761904,123.73015873015872,325.0,-40.079365079365076,-324.36507936507934,35.0,-272.46031746031747,-4.682539682539682,21.984126984126984,308.8095238095238,208.4920634920635,75.15873015873015,101.34920634920634,0.07936507936507936,-0.5555555555555556,-166.26984126984127
-54.047619047619044,81.98412698412697,-296.58730158730157,67.06349206349206,-29.76190476190476,-33.57142857142857,-48.17460317460317,-37.06349206349206,-194.04761904761904,123.73015873015872,325.0,-40.079365079365076,-324.36507936507934,35.0,-272.46031746031747,-4.682539682539682,21.984126984126984,308.8095238095238,208.4920634920635,75.15873015873015,101.34920634920634,0.07936507936507936,-0.5555555555555556,-166.26984126984127
-52.77777777777777,80.23809523809523,-290.39682539682536,65.47619047619047,-29.126984126984127,-32.77777777777778,-47.06349206349206,-36.42857142857142,-189.9206349206349,70.23809523809524,325.0,-39.12698412698413,-319.76190476190476,34.36507936507936,-266.90476190476187,-71.82539682539682,21.507936507936506,279.1269841269841,204.36507936507937,73.57142857142857,99.12698412698413,2.7777777777777777,5.0,-321.8253968253968
-52.77777777777777,80.23809523809523,-290.39682539682536,65.47619047619047,-29.126984126984127,-32.77777777777778,-47.06349206349206,-36.42857142857142,-189.9206349206349,70.23809523809524,325.0,-39.12698412698413,-319.76190476190476,34.36507936507936,-266.90476190476187,-71.82539682539682,21.507936507936506,279.1269841269841,204.36507936507937,73.57142857142857,99.12698412698413,2.7777777777777777,5.0,-321.8253968253968
-51.82539682539682,78.96825396825396,-285.4761904761905,64.36507936507937,-28.96825396825397,-32.460317460317455,-46.269841269841265,-35.95238095238095,-187.06349206349205,158.8095238095238,325.0,-38.49206349206349,-314.5238095238095,33.73015873015873,-262.77777777777777,52.61904761904761,21.19047619047619,325.0,200.87301587301587,72.3015873015873,97.22222222222221,-2.3015873015873014,-6.587301587301587,-321.8253968253968
-51.82539682539682,78.96825396825396,-285.4761904761905,64.36507936507937,-28.96825396825397,-32.460317460317455,-46.269841269841265,-35.95238095238095,-187.06349206349205,158.8095238095238,325.0,-38.49206349206349,-314.5238095238095,33.73015873015873,-262.77777777777777,52.61904761904761,21.19047619047619,325.0,200.87301587301587,72.3015873015873,97.22222222222221,-2.3015873015873014,-6.587301587301587,-321.8253968253968
-50.55555555555555,76.9047619047619,-278.6507936507936,62.77777777777777,-28.174603174603174,-31.349206349206348,-45.0,-35.0,-182.3015873015873,138.8095238095238,-18.65079365079365,-37.38095238095238,-306.58730158730157,32.93650793650794,-256.26984126984127,9.603174603174603,20.873015873015873,312.1428571428571,195.79365079365078,70.71428571428571,94.84126984126983,-3.4126984126984126,-2.142857142857143,-321.8253968253968
