Fp1[1],Fp2[2],F3[3],F4[4],C3[5],C4[6],P3[7],P4[8],O1[9],O2[10],F7[11],F8[12],T3[13],T4[14],T5[15],T6[16],Fz[17],Pz[18],Cz[19],Pg1[20],Pg2[21],EOGR[22],EOOGL[23],EMG[24]
324.2063492063492,325.0,325.0,-256.90476190476187,325.0,325.0,325.0,325.0,279.6031746031746,325.0,325.0,325.0,325.0,-325.0,47.38095238095238,192.3015873015873,-325.0,325.0,-325.0,-325.0,-325.0,2.9365079365079363,3.73015873015873,-166.26984126984127
324.2063492063492,325.0,325.0,-256.90476190476187,325.0,325.0,325.0,325.0,279.6031746031746,325.0,325.0,325.0,325.0,-325.0,47.38095238095238,192.3015873015873,-325.0,325.0,-325.0,-325.0,-325.0,2.9365079365079363,3.73015873015873,-166.26984126984127
271.984126984127,223.4126984126984,325.0,43.25396825396825,323.73015873015873,316.26984126984127,314.36507936507934,314.8412698412698,282.3015873015873,314.8412698412698,1.1904761904761905,0.23809523809523808,173.88888888888889,-314.8412698412698,172.61904761904762,-10.079365079365079,-161.984126984127,10.079365079365079,-193.7301587301587,-41.19047619047619,-111.19047619047619,-148.17460317460316,155.79365079365078,-166.26984126984127
271.984126984127,223.4126984126984,325.0,43.25396825396825,323.73015873015873,316.26984126984127,314.36507936507934,314.8412698412698,282.3015873015873,314.8412698412698,1.1904761904761905,0.23809523809523808,173.88888888888889,-314.8412698412698,172.61904761904762,-10.079365079365079,-161.984126984127,10.079365079365079,-193.7301587301587,-41.19047619047619,-111.19047619047619,-148.17460317460316,155.79365079365078,-166.26984126984127
298.6507936507936,325.0,323.0952380952381,54.2063492063492,109.6031746031746,325.0,147.53968253968253,325.0,280.23809523809524,10.079365079365079,182.46031746031744,10.079365079365079,10.079365079365079,-10.238095238095237,-132.77777777777777,-314.8412698412698,-152.3015873015873,173.88888888888889,-148.4920634920635,-164.68253968253967,-149.76190476190476,-1.1904761904761905,-15.158730158730158,-166.26984126984127
298.6507936507936,325.0,323.0952380952381,54.2063492063492,109.6031746031746,325.0,147.53968253968253,325.0,280.23809523809524,10.079365079365079,182.46031746031744,10.079365079365079,10.079365079365079,-10.238095238095237,-132.77777777777777,-314.8412698412698,-152.3015873015873,173.88888888888889,-148.4920634920635,-164.68253968253967,-149.76190476190476,-1.1904761904761905,-15.158730158730158,-166.26984126984127
265.95238095238096,-0.07936507936507936,325.0,-211.8253968253968,318.6507936507936,325.0,288.6507936507936,325.0,230.07936507936506,325.0,325.0,325.0,325.0,-325.0,38.01587301587301,-325.0,-325.0,325.0,-325.0,-325.0,-325.0,-0.873015873015873,-4.682539682539682,-166.26984126984127
265.95238095238096,-0.07936507936507936,325.0,-211.8253968253968,318.6507936507936,325.0,288.6507936507936,325.0,230.07936507936506,325.0,325.0,325.0,325.0,-325.0,38.01587301587301,-325.0,-325.0,325.0,-325.0,-325.0,-325.0,-0.873015873015873,-4.682539682539682,-166.26984126984127
259.6031746031746,-325.0,325.0,-207.06349206349205,312.3015873015873,325.0,282.1428571428571,325.0,224.68253968253967,325.0,325.0,325.0,325.0,-325.0,37.06349206349206,-325.0,-325.0,325.0,-325.0,-325.0,-325.0,1.984126984126984,-0.23809523809523808,-166.26984126984127
259.6031746031746,-325.0,325.0,-207.06349206349205,312.3015873015873,325.0,282.1428571428571,325.0,224.68253968253967,325.0,325.0,325.0,325.0,-325.0,37.06349206349206,-325.0,-325.0,325.0,-325.0,-325.0,-325.0,1.984126984126984,-0.23809523809523808,-166.26984126984127
259.6031746031746,-325.0,325.0,-207.06349206349205,312.3015873015873,325.0,282.1428571428571,325.0,224.68253968253967,325.0,325.0,325.0,325.0,-325.0,37.06349206349206,-325.0,-325.0,325.0,-325.0,-325.0,-325.0,1.984126984126984,-0.23809523809523808,-321.8253968253968
259.6031746031746,-325.0,325.0,-207.06349206349205,312.3015873015873,325.0,282.1428571428571,325.0,224.68253968253967,325.0,325.0,325.0,325.0,-325.0,37.06349206349206,-325.0,-325.0,325.0,-325.0,-325.0,-325.0,1.984126984126984,-0.23809523809523808,-321.8253968253968
240.07936507936506,-325.0,325.0,-192.3015873015873,291.19047619047615,325.0,261.8253968253968,325.0,208.33333333333331,-0.07936507936507936,314.5238095238095,325.0,325.0,-317.22222222222223,34.2063492063492,-324.68253968253964,-325.0,325.0,-325.0,-325.0,-325.0,2.619047619047619,3.571428571428571,-321.8253968253968
240.07936507936506,-325.0,325.0,-192.3015873015873,291.19047619047615,325.0,261.8253968253968,325.0,208.33333333333331,-0.07936507936507936,314.5238095238095,325.0,325.0,-317.22222222222223,34.2063492063492,-324.68253968253964,-325.0,325.0,-325.0,-325.0,-325.0,2.619047619047619,3.571428571428571,-321.8253968253968
217.53968253968253,-325.0,322.77777777777777,-175.15873015873015,266.4285714285714,325.0,238.17460317460316,325.0,189.44444444444443,-325.0,300.39682539682536,325.0,322.9365079365079,-305.3174603174603,30.87301587301587,-320.39682539682536,-325.0,325.0,-325.0,-325.0,-325.0,3.4126984126984126,4.523809523809524,-321.8253968253968
217.53968253968253,-325.0,322.77777777777777,-175.15873015873015,266.4285714285714,325.0,238.17460317460316,325.0,189.44444444444443,-325.0,300.39682539682536,325.0,322.9365079365079,-305.3174603174603,30.87301587301587,-320.39682539682536,-325.0,325.0,-325.0,-325.0,-325.0,3.4126984126984126,4.523809523809524,-321.8253968253968
212.77777777777777,-325.0,317.85714285714283,-171.19047619047618,260.7142857142857,325.0,232.6190476190476,325.0,185.15873015873015,-325.0,294.36507936507934,325.0,318.015873015873,-298.4920634920635,29.920634920634917,-313.57142857142856,-325.0,325.0,-325.0,-325.0,-325.0,2.142857142857143,8.809523809523808,-321.8253968253968
212.77777777777777,-325.0,317.85714285714283,-171.19047619047618,260.7142857142857,325.0,232.6190476190476,325.0,185.15873015873015,-325.0,294.36507936507934,325.0,318.015873015873,-298.4920634920635,29.920634920634917,-313.57142857142856,-325.0,325.0,-325.0,-325.0,-325.0,2.142857142857143,8.809523809523808,-321.8253968253968
205.47619047619045,-325.0,308.17460317460313,-165.79365079365078,252.77777777777777,316.74603174603175,225.3174603174603,325.0,179.28571428571428,-325.0,285.6349206349206,325.0,308.4920634920635,-289.1269841269841,28.96825396825397,-304.2063492063492,-325.0,325.0,-321.8253968253968,-323.4126984126984,-321.8253968253968,3.095238095238095,4.2063492063492065,-321.8253968253968
205.47619047619045,-325.0,308.17460317460313,-165.79365079365078,252.77777777777777,316.74603174603175,225.3174603174603,325.0,179.28571428571428,-325.0,285.6349206349206,325.0,308.4920634920635,-289.1269841269841,28.96825396825397,-304.2063492063492,-325.0,325.0,-321.8253968253968,-323.4126984126984,-321.8253968253968,3.095238095238095,4.2063492063492065,-321.8253968253968
201.66666666666666,-325.0,302.6190476190476,-162.77777777777777,248.49206349206347,311.5079365079365,221.34920634920633,325.0,175.95238095238093,-325.0,280.87301587301585,325.0,303.0952380952381,-284.04761904761904,28.49206349206349,-299.2857142857143,-325.0,325.0,-316.4285714285714,-318.015873015873,-316.26984126984127,3.571428571428571,4.682539682539682,-166.26984126984127
201.66666666666666,-325.0,302.6190476190476,-162.77777777777777,248.49206349206347,311.5079365079365,221.34920634920633,325.0,175.95238095238093,-325.0,280.87301587301585,325.0,303.0952380952381,-284.04761904761904,28.49206349206349,-299.2857142857143,-325.0,325.0,-316.4285714285714,-318.015873015873,-316.26984126984127,3.571428571428571,4.682539682539682,-166.26984126984127
198.8095238095238,-325.0,298.6507936507936,-160.7142857142857,245.47619047619045,307.69841269841265,218.33333333333331,325.0,173.4126984126984,-325.0,277.38095238095235,325.0,299.2857142857143,-280.07936507936506,28.015873015873016,-295.4761904761905,-325.0,325.0,-312.3015873015873,-314.04761904761904,-311.984126984127,4.523809523809524,1.6666666666666665,-166.26984126984127
198.8095238095238,-325.0,298.6507936507936,-160.7142857142857,245.47619047619045,307.69841269841265,218.33333333333331,325.0,173.4126984126984,-325.0,277.38095238095235,325.0,299.2857142857143,-280.07936507936506,28.015873015873016,-295.4761904761905,-325.0,325.0,-312.3015873015873,-314.04761904761904,-311.984126984127,4.523809523809524,1.6666666666666665,-166.26984126984127
188.015873015873,-325.0,283.4126984126984,-151.984126984127,232.77777777777777,292.46031746031747,206.58730158730157,324.8412698412698,164.2063492063492,-325.0,263.57142857142856,309.1269841269841,284.04761904761904,-265.4761904761905,26.11111111111111,-280.7142857142857,-324.36507936507934,325.0,-296.58730158730157,-298.3333333333333,-295.6349206349206,-4.841269841269841,-2.619047619047619,-166.26984126984127
188.015873015873,-325.0,283.4126984126984,-151.984126984127,232.77777777777777,292.46031746031747,206.58730158730157,324.8412698412698,164.2063492063492,-325.0,263.57142857142856,309.1269841269841,284.04761904761904,-265.4761904761905,26.11111111111111,-280.7142857142857,-324.36507936507934,325.0,-296.58730158730157,-298.3333333333333,-295.6349206349206,-4.841269841269841,-2.619047619047619,-166.26984126984127
188.015873015873,-325.0,283.4126984126984,-151.984126984127,232.77777777777777,292.46031746031747,206.58730158730157,324.8412698412698,164.2063492063492,-325.0,263.57142857142856,309.1269841269841,284.04761904761904,-265.4761904761905,26.11111111111111,-280.7142857142857,-324.36507936507934,325.0,-296.58730158730157,-298.3333333333333,-295.6349206349206,-4.841269841269841,-2.619047619047619,-166.26984126984127
188.015873015873,-325.0,283.4126984126984,-151.984126984127,232.77777777777777,292.46031746031747,206.58730158730157,324.8412698412698,164.2063492063492,-325.0,263.57142857142856,309.1269841269841,284.04761904761904,-265.4761904761905,26.11111111111111,-280.7142857142857,-324.36507936507934,325.0,-296.58730158730157,-298.3333333333333,-295.6349206349206,-4.841269841269841,-2.619047619047619,-166.26984126984127
188.015873015873,-325.0,283.4126984126984,-151.984126984127,232.77777777777777,292.46031746031747,206.58730158730157,324.8412698412698,164.2063492063492,-325.0,263.57142857142856,309.1269841269841,284.04761904761904,-265.4761904761905,26.11111111111111,-280.7142857142857,-324.36507936507934,325.0,-296.58730158730157,-298.3333333333333,-295.6349206349206,-4.841269841269841,-2.619047619047619,-166.26984126984127
188.015873015873,-325.0,283.4126984126984,-151.984126984127,232.77777777777777,292.46031746031747,206.58730158730157,324.8412698412698,164.2063492063492,-325.0,263.57142857142856,309.1269841269841,284.04761904761904,-265.4761904761905,26.11111111111111,-280.7142857142857,-324.36507936507934,325.0,-296.58730158730157,-298.3333333333333,-295.6349206349206,-4.841269841269841,-2.619047619047619,-166.26984126984127
188.015873015873,-325.0,283.4126984126984,-151.984126984127,232.77777777777777,292.46031746031747,206.58730158730157,324.8412698412698,164.2063492063492,-325.0,263.57142857142856,309.1269841269841,284.04761904761904,-265.4761904761905,26.11111111111111,-280.7142857142857,-324.36507936507934,325.0,-296.58730158730157,-298.3333333333333,-295.6349206349206,-4.841269841269841,-2.619047619047619,-321.8253968253968
188.015873015873,-325.0,283.4126984126984,-151.984126984127,232.77777777777777,292.46031746031747,206.58730158730157,324.8412698412698,164.2063492063492,-325.0,263.57142857142856,309.1269841269841,284.04761904761904,-265.4761904761905,26.11111111111111,-280.7142857142857,-324.36507936507934,325.0,-296.58730158730157,-298.3333333333333,-295.6349206349206,-4.841269841269841,-2.619047619047619,-321.8253968253968
176.11111111111111,-323.4126984126984,266.90476190476187,-143.25396825396825,219.60317460317458,275.95238095238096,194.04761904761904,306.90476190476187,154.2063492063492,-325.0,248.8095238095238,291.3492063492063,267.53968253968253,-249.76190476190476,24.523809523809522,-265.0,-306.1111111111111,325.0,-279.76190476190476,-281.19047619047615,-278.3333333333333,-0.873015873015873,0.5555555555555556,-321.8253968253968
176.11111111111111,-323.4126984126984,266.90476190476187,-143.25396825396825,219.60317460317458,275.95238095238096,194.04761904761904,306.90476190476187,154.2063492063492,-325.0,248.8095238095238,291.3492063492063,267.53968253968253,-249.76190476190476,24.523809523809522,-265.0,-306.1111111111111,325.0,-279.76190476190476,-281.19047619047615,-278.3333333333333,-0.873015873015873,0.5555555555555556,-321.8253968253968
164.36507936507937,-321.8253968253968,250.3968253968254,-134.36507936507937,206.42857142857142,259.6031746031746,181.5079365079365,288.968253968254,144.2063492063492,-325.0,234.04761904761904,273.57142857142856,251.19047619047618,-233.88888888888889,22.936507936507937,-249.28571428571428,-287.85714285714283,325.0,-262.9365079365079,-264.04761904761904,-260.87301587301585,3.253968253968254,3.73015873015873,-321.8253968253968
164.36507936507937,-321.8253968253968,250.3968253968254,-134.36507936507937,206.42857142857142,259.6031746031746,181.5079365079365,288.968253968254,144.2063492063492,-325.0,234.04761904761904,273.57142857142856,251.19047619047618,-233.88888888888889,22.936507936507937,-249.28571428571428,-287.85714285714283,325.0,-262.9365079365079,-264.04761904761904,-260.87301587301585,3.253968253968254,3.73015873015873,-321.8253968253968
164.36507936507937,-321.8253968253968,250.3968253968254,-134.36507936507937,206.42857142857142,259.6031746031746,181.5079365079365,288.968253968254,144.2063492063492,-325.0,234.04761904761904,273.57142857142856,251.19047619047618,-233.88888888888889,22.936507936507937,-249.28571428571428,-287.85714285714283,325.0,-262.9365079365079,-264.04761904761904,-260.87301587301585,3.253968253968254,3.73015873015873,-321.8253968253968
164.36507936507937,-321.8253968253968,250.3968253968254,-134.36507936507937,206.42857142857142,259.6031746031746,181.5079365079365,288.968253968254,144.2063492063492,-325.0,234.04761904761904,273.57142857142856,251.19047619047618,-233.88888888888889,22.936507936507937,-249.28571428571428,-287.85714285714283,325.0,-262.9365079365079,-264.04761904761904,-260.87301587301585,3.253968253968254,3.73015873015873,-321.8253968253968
97.22222222222221,-196.11111111111111,150.7142857142857,-80.87301587301587,-59.285714285714285,-32.77777777777778,108.33333333333333,-18.015873015873016,86.42857142857143,-209.9206349206349,-15.95238095238095,-25.79365079365079,151.8253968253968,-1.507936507936508,13.888888888888888,37.857142857142854,18.49206349206349,70.55555555555556,-159.76190476190476,-160.55555555555554,-157.06349206349205,3.253968253968254,5.7936507936507935,-321.8253968253968
97.22222222222221,-196.11111111111111,150.7142857142857,-80.87301587301587,-59.285714285714285,-32.77777777777778,108.33333333333333,-18.015873015873016,86.42857142857143,-209.9206349206349,-15.95238095238095,-25.79365079365079,151.8253968253968,-1.507936507936508,13.888888888888888,37.857142857142854,18.49206349206349,70.55555555555556,-159.76190476190476,-160.55555555555554,-157.06349206349205,3.253968253968254,5.7936507936507935,-321.8253968253968
30.238095238095237,-70.39682539682539,51.19047619047619,-27.22222222222222,-325.0,-325.0,35.15873015873016,-325.0,28.65079365079365,-94.84126984126983,-265.95238095238096,-325.0,52.61904761904761,231.03174603174602,4.841269841269841,325.0,325.0,-183.7301587301587,-56.58730158730158,-56.904761904761905,-53.095238095238095,3.253968253968254,8.015873015873016,-166.26984126984127
30.238095238095237,-70.39682539682539,51.19047619047619,-27.22222222222222,-325.0,-325.0,35.15873015873016,-325.0,28.65079365079365,-94.84126984126983,-265.95238095238096,-325.0,52.61904761904761,231.03174603174602,4.841269841269841,325.0,325.0,-183.7301587301587,-56.58730158730158,-56.904761904761905,-53.095238095238095,3.253968253968254,8.015873015873016,-166.26984126984127
30.238095238095237,-70.39682539682539,51.19047619047619,-27.22222222222222,-325.0,-325.0,35.15873015873016,-325.0,28.65079365079365,-94.84126984126983,-265.95238095238096,-325.0,52.61904761904761,231.03174603174602,4.841269841269841,325.0,325.0,-183.7301587301587,-56.58730158730158,-56.904761904761905,-53.095238095238095,3.253968253968254,8.015873015873016,-166.26984126984127
30.238095238095237,-70.39682539682539,51.19047619047619,-27.22222222222222,-325.0,-325.0,35.15873015873016,-325.0,28.65079365079365,-94.84126984126983,-265.95238095238096,-325.0,52.61904761904761,231.03174603174602,4.841269841269841,325.0,325.0,-183.7301587301587,-56.58730158730158,-56.904761904761905,-53.095238095238095,3.253968253968254,8.015873015873016,-166.26984126984127
24.68253968253968,-21.666666666666664,41.507936507936506,-22.142857142857142,-325.0,-325.0,-34.84126984126984,-325.0,23.095238095238095,-78.01587301587301,-221.34920634920633,-325.0,43.41269841269841,325.0,3.571428571428571,325.0,325.0,-152.61904761904762,-46.58730158730158,-46.904761904761905,-43.57142857142857,0.3968253968253968,-4.2063492063492065,-166.26984126984127
24.68253968253968,-21.666666666666664,41.507936507936506,-22.142857142857142,-325.0,-325.0,-34.84126984126984,-325.0,23.095238095238095,-78.01587301587301,-221.34920634920633,-325.0,43.41269841269841,325.0,3.571428571428571,325.0,325.0,-152.61904761904762,-46.58730158730158,-46.904761904761905,-43.57142857142857,0.3968253968253968,-4.2063492063492065,-166.26984126984127
24.68253968253968,-44.52380952380952,41.34920634920635,-21.984126984126984,-325.0,-325.0,-94.36507936507935,-325.0,23.095238095238095,-77.6984126984127,-220.3968253968254,-325.0,43.25396825396825,325.0,3.4126984126984126,325.0,325.0,-151.8253968253968,-46.42857142857142,-46.74603174603175,-43.095238095238095,4.0476190476190474,0.3968253968253968,-166.26984126984127
24.68253968253968,-44.52380952380952,41.34920634920635,-21.984126984126984,-325.0,-325.0,-94.36507936507935,-325.0,23.095238095238095,-77.6984126984127,-220.3968253968254,-325.0,43.25396825396825,325.0,3.4126984126984126,325.0,325.0,-151.8253968253968,-46.42857142857142,-46.74603174603175,-43.095238095238095,4.0476190476190474,0.3968253968253968,-166.26984126984127
-79.92063492063491,116.26984126984127,-141.8253968253968,107.38095238095238,-205.95238095238093,-210.55555555555554,-130.07936507936506,-218.015873015873,-151.03174603174602,123.57142857142857,-130.87301587301587,-225.0,-111.66666666666666,225.79365079365078,-160.87301587301587,245.15873015873015,198.8095238095238,12.777777777777777,139.28571428571428,96.1111111111111,140.87301587301587,0.7142857142857142,-4.2063492063492065,-166.26984126984127
-79.92063492063491,116.26984126984127,-141.8253968253968,107.38095238095238,-205.95238095238093,-210.55555555555554,-130.07936507936506,-218.015873015873,-151.03174603174602,123.57142857142857,-130.87301587301587,-225.0,-111.66666666666666,225.79365079365078,-160.87301587301587,245.15873015873015,198.8095238095238,12.777777777777777,139.28571428571428,96.1111111111111,140.87301587301587,0.7142857142857142,-4.2063492063492065,-166.26984126984127
-181.8253968253968,273.57142857142856,-325.0,233.88888888888889,-85.79365079365078,-95.0,-163.25396825396825,-109.44444444444444,-325.0,325.0,-40.87301587301587,-123.4126984126984,-315.0,125.15873015873015,-325.0,163.4126984126984,71.66666666666666,53.41269841269841,325.0,236.1111111111111,325.0,2.7777777777777777,4.682539682539682,-321.8253968253968
-181.8253968253968,273.57142857142856,-325.0,233.88888888888889,-85.79365079365078,-95.0,-163.25396825396825,-109.44444444444444,-325.0,325.0,-40.87301587301587,-123.4126984126984,-315.0,125.15873015873015,-325.0,163.4126984126984,71.66666666666666,53.41269841269841,325.0,236.1111111111111,325.0,2.7777777777777777,4.682539682539682,-321.8253968253968
-181.03174603174602,272.46031746031747,-325.0,232.93650793650792,-85.47619047619047,-94.36507936507935,-162.61904761904762,-108.96825396825396,-325.0,325.0,-40.55555555555555,-122.77777777777777,-314.68253968253964,124.68253968253967,-325.0,162.77777777777777,71.34920634920634,36.42857142857142,325.0,235.15873015873015,325.0,1.0317460317460316,7.222222222222221,-321.8253968253968
-181.03174603174602,272.46031746031747,-325.0,232.93650793650792,-85.47619047619047,-94.36507936507935,-162.61904761904762,-108.96825396825396,-325.0,325.0,-40.55555555555555,-122.77777777777777,-314.68253968253964,124.68253968253967,-325.0,162.77777777777777,71.34920634920634,36.42857142857142,325.0,235.15873015873015,325.0,1.0317460317460316,7.222222222222221,-321.8253968253968
-181.03174603174602,272.46031746031747,-325.0,232.93650793650792,-85.47619047619047,-94.36507936507935,-162.61904761904762,-108.96825396825396,-325.0,325.0,-40.55555555555555,-122.77777777777777,-314.68253968253964,124.68253968253967,-325.0,162.77777777777777,71.34920634920634,36.42857142857142,325.0,235.15873015873015,325.0,1.0317460317460316,7.222222222222221,-321.8253968253968
-181.03174603174602,272.46031746031747,-325.0,232.93650793650792,-85.47619047619047,-94.36507936507935,-162.61904761904762,-108.96825396825396,-325.0,325.0,-40.55555555555555,-122.77777777777777,-314.68253968253964,124.68253968253967,-325.0,162.77777777777777,71.34920634920634,36.42857142857142,325.0,235.15873015873015,325.0,1.0317460317460316,7.222222222222221,-321.8253968253968
-181.03174603174602,272.46031746031747,-325.0,232.93650793650792,-85.47619047619047,-94.36507936507935,-162.61904761904762,-108.96825396825396,-325.0,325.0,-40.55555555555555,-122.77777777777777,-314.68253968253964,124.68253968253967,-325.0,162.77777777777777,71.34920634920634,36.42857142857142,325.0,235.15873015873015,325.0,1.0317460317460316,7.222222222222221,-321.8253968253968
-181.03174603174602,272.46031746031747,-325.0,232.93650793650792,-85.47619047619047,-94.36507936507935,-162.61904761904762,-108.96825396825396,-325.0,325.0,-40.55555555555555,-122.77777777777777,-314.68253968253964,124.68253968253967,-325.0,162.77777777777777,71.34920634920634,36.42857142857142,325.0,235.15873015873015,325.0,1.0317460317460316,7.222222222222221,-321.8253968253968
-181.03174603174602,272.46031746031747,-325.0,232.93650793650792,-85.47619047619047,-94.36507936507935,-162.61904761904762,-108.96825396825396,-325.0,325.0,-40.55555555555555,-122.77777777777777,-314.68253968253964,124.68253968253967,-325.0,162.77777777777777,71.34920634920634,36.42857142857142,325.0,235.15873015873015,325.0,1.0317460317460316,7.222222222222221,-321.8253968253968
-181.03174603174602,272.46031746031747,-325.0,232.93650793650792,-85.47619047619047,-94.36507936507935,-162.61904761904762,-108.96825396825396,-325.0,325.0,-40.55555555555555,-122.77777777777777,-314.68253968253964,124.68253968253967,-325.0,162.77777777777777,71.34920634920634,36.42857142857142,325.0,235.15873015873015,325.0,1.0317460317460316,7.222222222222221,-321.8253968253968
-173.57142857142856,261.5079365079365,-325.0,223.4126984126984,-82.14285714285714,-90.87301587301587,-156.11111111111111,-104.84126984126983,-325.0,325.0,-39.12698412698413,-117.6984126984127,-319.9206349206349,119.28571428571428,-325.0,155.95238095238093,68.4920634920635,174.04761904761904,325.0,225.63492063492063,319.76190476190476,-0.873015873015873,-1.0317460317460316,-166.26984126984127
-173.57142857142856,261.5079365079365,-325.0,223.4126984126984,-82.14285714285714,-90.87301587301587,-156.11111111111111,-104.84126984126983,-325.0,325.0,-39.12698412698413,-117.6984126984127,-319.9206349206349,119.28571428571428,-325.0,155.95238095238093,68.4920634920635,174.04761904761904,325.0,225.63492063492063,319.76190476190476,-0.873015873015873,-1.0317460317460316,-166.26984126984127
-164.68253968253967,248.49206349206347,-325.0,211.98412698412696,-78.17460317460316,-85.95238095238095,-148.17460317460316,-99.6031746031746,-325.0,325.0,-37.22222222222222,-111.82539682539682,-325.0,113.25396825396825,-325.0,148.015873015873,65.0,140.07936507936506,325.0,214.36507936507937,311.984126984127,5.476190476190476,2.9365079365079363,-166.26984126984127
-164.68253968253967,248.49206349206347,-325.0,211.98412698412696,-78.17460317460316,-85.95238095238095,-148.17460317460316,-99.6031746031746,-325.0,325.0,-37.22222222222222,-111.82539682539682,-325.0,113.25396825396825,-325.0,148.015873015873,65.0,140.07936507936506,325.0,214.36507936507937,311.984126984127,5.476190476190476,2.9365079365079363,-166.26984126984127
-157.85714285714286,238.49206349206347,-325.0,203.25396825396825,-74.84126984126983,-82.46031746031746,-141.984126984127,-95.79365079365078,-325.0,306.4285714285714,-35.79365079365079,-106.9047619047619,-325.0,108.17460317460316,-325.0,138.65079365079364,62.14285714285714,96.42857142857142,325.0,205.63492063492063,298.8095238095238,1.6666666666666665,6.746031746031746,-166.26984126984127
-157.85714285714286,238.49206349206347,-325.0,203.25396825396825,-74.84126984126983,-82.46031746031746,-141.984126984127,-95.79365079365078,-325.0,306.4285714285714,-35.79365079365079,-106.9047619047619,-325.0,108.17460317460316,-325.0,138.65079365079364,62.14285714285714,96.42857142857142,325.0,205.63492063492063,298.8095238095238,1.6666666666666665,6.746031746031746,-166.26984126984127
-157.85714285714286,238.49206349206347,-325.0,203.25396825396825,-74.84126984126983,-82.46031746031746,-141.984126984127,-95.79365079365078,-325.0,306.4285714285714,-35.79365079365079,-106.9047619047619,-325.0,108.17460317460316,-325.0,138.65079365079364,62.14285714285714,96.42857142857142,325.0,205.63492063492063,298.8095238095238,1.6666666666666665,6.746031746031746,-166.26984126984127
-157.85714285714286,238.49206349206347,-325.0,203.25396825396825,-74.84126984126983,-82.46031746031746,-141.984126984127,-95.79365079365078,-325.0,306.4285714285714,-35.79365079365079,-106.9047619047619,-325.0,108.17460317460316,-325.0,138.65079365079364,62.14285714285714,96.42857142857142,325.0,205.63492063492063,298.8095238095238,1.6666666666666665,6.746031746031746,-166.26984126984127
-157.85714285714286,238.49206349206347,-325.0,203.25396825396825,-74.84126984126983,-82.46031746031746,-141.984126984127,-95.79365079365078,-325.0,306.4285714285714,-35.79365079365079,-106.9047619047619,-325.0,108.17460317460316,-325.0,138.65079365079364,62.14285714285714,96.42857142857142,325.0,205.63492063492063,298.8095238095238,1.6666666666666665,6.746031746031746,-166.26984126984127
-157.85714285714286,238.49206349206347,-325.0,203.25396825396825,-74.84126984126983,-82.46031746031746,-141.984126984127,-95.79365079365078,-325.0,306.4285714285714,-35.79365079365079,-106.9047619047619,-325.0,108.17460317460316,-325.0,138.65079365079364,62.14285714285714,96.42857142857142,325.0,205.63492063492063,298.8095238095238,1.6666666666666665,6.746031746031746,-166.26984126984127
-157.85714285714286,238.49206349206347,-325.0,203.25396825396825,-74.84126984126983,-82.46031746031746,-141.984126984127,-95.79365079365078,-325.0,306.4285714285714,-35.79365079365079,-106.9047619047619,-325.0,108.17460317460316,-325.0,138.65079365079364,62.14285714285714,96.42857142857142,325.0,205.63492063492063,298.8095238095238,1.6666666666666665,6.746031746031746,-321.8253968253968
-157.85714285714286,238.49206349206347,-325.0,203.25396825396825,-74.84126984126983,-82.46031746031746,-141.984126984127,-95.79365079365078,-325.0,306.4285714285714,-35.79365079365079,-106.9047619047619,-325.0,108.17460317460316,-325.0,138.65079365079364,62.14285714285714,96.42857142857142,325.0,205.63492063492063,298.8095238095238,1.6666666666666665,6.746031746031746,-321.8253968253968
-157.85714285714286,238.49206349206347,-325.0,203.25396825396825,-74.84126984126983,-82.46031746031746,-141.984126984127,-95.79365079365078,-325.0,306.4285714285714,-35.79365079365079,-106.9047619047619,-325.0,108.17460317460316,-325.0,138.65079365079364,62.14285714285714,96.42857142857142,325.0,205.63492063492063,298.8095238095238,1.6666666666666665,6.746031746031746,-321.8253968253968
-157.85714285714286,238.49206349206347,-325.0,203.25396825396825,-74.84126984126983,-82.46031746031746,-141.984126984127,-95.79365079365078,-325.0,306.4285714285714,-35.79365079365079,-106.9047619047619,-325.0,108.17460317460316,-325.0,138.65079365079364,62.14285714285714,96.42857142857142,325.0,205.63492063492063,298.8095238095238,1.6666666666666665,6.746031746031746,-321.8253968253968
-157.85714285714286,238.49206349206347,-325.0,203.25396825396825,-74.84126984126983,-82.46031746031746,-141.984126984127,-95.79365079365078,-325.0,306.4285714285714,-35.79365079365079,-106.9047619047619,-325.0,108.17460317460316,-325.0,138.65079365079364,62.14285714285714,96.42857142857142,325.0,205.63492063492063,298.8095238095238,1.6666666666666665,6.746031746031746,-321.8253968253968
-157.85714285714286,238.49206349206347,-325.0,203.25396825396825,-74.84126984126983,-82.46031746031746,-141.984126984127,-95.79365079365078,-325.0,306.4285714285714,-35.79365079365079,-106.9047619047619,-325.0,108.17460317460316,-325.0,138.65079365079364,62.14285714285714,96.42857142857142,325.0,205.63492063492063,298.8095238095238,1.6666666666666665,6.746031746031746,-321.8253968253968
-157.85714285714286,238.49206349206347,-325.0,203.25396825396825,-74.84126984126983,-82.46031746031746,-141.984126984127,-95.79365079365078,-325.0,306.4285714285714,-35.79365079365079,-106.9047619047619,-325.0,108.17460317460316,-325.0,138.65079365079364,62.14285714285714,96.42857142857142,325.0,205.63492063492063,298.8095238095238,1.6666666666666665,6.746031746031746,-321.8253968253968
-157.85714285714286,238.49206349206347,-325.0,203.25396825396825,-74.84126984126983,-82.46031746031746,-141.984126984127,-95.79365079365078,-325.0,306.4285714285714,-35.79365079365079,-106.9047619047619,-325.0,108.17460317460316,-325.0,138.65079365079364,62.14285714285714,96.42857142857142,325.0,205.63492063492063,298.8095238095238,1.6666666666666665,6.746031746031746,-321.8253968253968
-157.85714285714286,238.49206349206347,-325.0,203.25396825396825,-74.84126984126983,-82.46031746031746,-141.984126984127,-95.79365079365078,-325.0,306.4285714285714,-35.79365079365079,-106.9047619047619,-325.0,108.17460317460316,-325.0,138.65079365079364,62.14285714285714,96.42857142857142,325.0,205.63492063492063,298.8095238095238,1.6666666666666665,6.746031746031746,-321.8253968253968
-157.85714285714286,238.49206349206347,-325.0,203.25396825396825,-74.84126984126983,-82.46031746031746,-141.984126984127,-95.79365079365078,-325.0,306.4285714285714,-35.79365079365079,-106.9047619047619,-325.0,108.17460317460316,-325.0,138.65079365079364,62.14285714285714,96.42857142857142,325.0,205.63492063492063,298.8095238095238,1.6666666666666665,6.746031746031746,-321.8253968253968
-157.85714285714286,238.49206349206347,-325.0,203.25396825396825,-74.84126984126983,-82.46031746031746,-141.984126984127,-95.79365079365078,-325.0,306.4285714285714,-35.79365079365079,-106.9047619047619,-325.0,108.17460317460316,-325.0,138.65079365079364,62.14285714285714,96.42857142857142,325.0,205.63492063492063,298.8095238095238,1.6666666666666665,6.746031746031746,-166.26984126984127
-157.85714285714286,238.49206349206347,-325.0,203.25396825396825,-74.84126984126983,-82.46031746031746,-141.984126984127,-95.79365079365078,-325.0,306.4285714285714,-35.79365079365079,-106.9047619047619,-325.0,108.17460317460316,-325.0,138.65079365079364,62.14285714285714,96.42857142857142,325.0,205.63492063492063,298.8095238095238,1.6666666666666665,6.746031746031746,-166.26984126984127
-25.476190476190474,-315.1587301587301,-140.55555555555554,31.98412698412698,-14.682539682539682,-15.158730158730158,-24.206349206349206,-17.539682539682538,-96.26984126984127,-114.36507936507935,325.0,-17.698412698412696,-153.25396825396825,16.428571428571427,-128.33333333333331,-325.0,10.396825396825395,-118.33333333333333,94.36507936507935,33.25396825396825,45.476190476190474,1.984126984126984,8.174603174603174,-166.26984126984127
-25.476190476190474,-315.1587301587301,-140.55555555555554,31.98412698412698,-14.682539682539682,-15.158730158730158,-24.206349206349206,-17.539682539682538,-96.26984126984127,-114.36507936507935,325.0,-17.698412698412696,-153.25396825396825,16.428571428571427,-128.33333333333331,-325.0,10.396825396825395,-118.33333333333333,94.36507936507935,33.25396825396825,45.476190476190474,1.984126984126984,8.174603174603174,-166.26984126984127
-25.476190476190474,-315.1587301587301,-140.55555555555554,31.98412698412698,-14.682539682539682,-15.158730158730158,-24.206349206349206,-17.539682539682538,-96.26984126984127,-114.36507936507935,325.0,-17.698412698412696,-153.25396825396825,16.428571428571427,-128.33333333333331,-325.0,10.396825396825395,-118.33333333333333,94.36507936507935,33.25396825396825,45.476190476190474,1.984126984126984,8.174603174603174,-166.26984126984127
-25.476190476190474,-315.1587301587301,-140.55555555555554,31.98412698412698,-14.682539682539682,-15.158730158730158,-24.206349206349206,-17.539682539682538,-96.26984126984127,-114.36507936507935,325.0,-17.698412698412696,-153.25396825396825,16.428571428571427,-128.33333333333331,-325.0,10.396825396825395,-118.33333333333333,94.36507936507935,33.25396825396825,45.476190476190474,1.984126984126984,8.174603174603174,-166.26984126984127
-25.476190476190474,-315.1587301587301,-140.55555555555554,31.98412698412698,-14.682539682539682,-15.158730158730158,-24.206349206349206,-17.539682539682538,-96.26984126984127,-114.36507936507935,325.0,-17.698412698412696,-153.25396825396825,16.428571428571427,-128.33333333333331,-325.0,10.396825396825395,-118.33333333333333,94.36507936507935,33.25396825396825,45.476190476190474,1.984126984126984,8.174603174603174,-166.26984126984127
-25.476190476190474,-315.1587301587301,-140.55555555555554,31.98412698412698,-14.682539682539682,-15.158730158730158,-24.206349206349206,-17.539682539682538,-96.26984126984127,-114.36507936507935,325.0,-17.698412698412696,-153.25396825396825,16.428571428571427,-128.33333333333331,-325.0,10.396825396825395,-118.33333333333333,94.36507936507935,33.25396825396825,45.476190476190474,1.984126984126984,8.174603174603174,-166.26984126984127
-24.206349206349206,-243.7301587301587,-132.77777777777777,30.238095238095237,-14.047619047619047,-14.523809523809524,-23.095238095238095,-16.904761904761905,-90.87301587301587,-288.8095238095238,325.0,-16.904761904761905,-144.52380952380952,15.317460317460316,-121.19047619047619,-288.4920634920635,9.920634920634921,-61.34920634920635,88.65079365079364,31.507936507936506,42.77777777777778,5.317460317460317,4.2063492063492065,-166.26984126984127
-24.206349206349206,-243.7301587301587,-132.77777777777777,30.238095238095237,-14.047619047619047,-14.523809523809524,-23.095238095238095,-16.904761904761905,-90.87301587301587,-288.8095238095238,325.0,-16.904761904761905,-144.52380952380952,15.317460317460316,-121.19047619047619,-288.4920634920635,9.920634920634921,-61.34920634920635,88.65079365079364,31.507936507936506,42.77777777777778,5.317460317460317,4.2063492063492065,-166.26984126984127
-24.206349206349206,-243.7301587301587,-132.77777777777777,30.238095238095237,-14.047619047619047,-14.523809523809524,-23.095238095238095,-16.904761904761905,-90.87301587301587,-288.8095238095238,325.0,-16.904761904761905,-144.52380952380952,15.317460317460316,-121.19047619047619,-288.4920634920635,9.920634920634921,-61.34920634920635,88.65079365079364,31.507936507936506,42.77777777777778,5.317460317460317,4.2063492063492065,-321.8253968253968
-24.206349206349206,-243.7301587301587,-132.77777777777777,30.238095238095237,-14.047619047619047,-14.523809523809524,-23.095238095238095,-16.904761904761905,-90.87301587301587,-288.8095238095238,325.0,-16.904761904761905,-144.52380952380952,15.317460317460316,-121.19047619047619,-288.4920634920635,9.920634920634921,-61.34920634920635,88.65079365079364,31.507936507936506,42.77777777777778,5.317460317460317,4.2063492063492065,-321.8253968253968
-6.111111111111111,137.38095238095238,-24.84126984126984,6.111111111111111,131.19047619047618,41.03174603174603,-2.46031746031746,260.55555555555554,-17.857142857142858,81.19047619047619,-117.53968253968253,255.79365079365078,-26.11111111111111,15.793650793650793,-24.365079365079364,111.5079365079365,-82.93650793650794,245.15873015873015,16.587301587301585,-325.0,6.746031746031746,-4.841269841269841,-7.698412698412698,-321.8253968253968
-6.111111111111111,137.38095238095238,-24.84126984126984,6.111111111111111,131.19047619047618,41.03174603174603,-2.46031746031746,260.55555555555554,-17.857142857142858,81.19047619047619,-117.53968253968253,255.79365079365078,-26.11111111111111,15.793650793650793,-24.365079365079364,111.5079365079365,-82.93650793650794,245.15873015873015,16.587301587301585,-325.0,6.746031746031746,-4.841269841269841,-7.698412698412698,-321.8253968253968
-6.111111111111111,72.61904761904762,-24.365079365079364,5.952380952380952,15.95238095238095,-115.95238095238095,-6.746031746031746,76.9047619047619,-17.698412698412696,-102.46031746031746,-68.33333333333333,21.19047619047619,-25.79365079365079,15.476190476190474,-23.88888888888889,-48.33333333333333,50.238095238095234,85.63492063492063,16.428571428571427,-205.63492063492063,8.65079365079365,3.888888888888889,3.73015873015873,-321.8253968253968
-6.111111111111111,72.61904761904762,-24.365079365079364,5.952380952380952,15.95238095238095,-115.95238095238095,-6.746031746031746,76.9047619047619,-17.698412698412696,-102.46031746031746,-68.33333333333333,21.19047619047619,-25.79365079365079,15.476190476190474,-23.88888888888889,-48.33333333333333,50.238095238095234,85.63492063492063,16.428571428571427,-205.63492063492063,8.65079365079365,3.888888888888889,3.73015873015873,-321.8253968253968
-6.111111111111111,113.09523809523809,-24.047619047619047,5.7936507936507935,79.92063492063491,-48.80952380952381,-3.888888888888889,160.87301587301587,-17.539682539682538,-22.936507936507937,-87.22222222222221,125.0,-25.476190476190474,15.317460317460316,-23.730158730158728,16.587301587301585,9.285714285714285,163.4126984126984,16.11111111111111,-265.3174603174603,7.698412698412698,0.07936507936507936,-2.619047619047619,-321.8253968253968
-6.111111111111111,113.09523809523809,-24.047619047619047,5.7936507936507935,79.92063492063491,-48.80952380952381,-3.888888888888889,160.87301587301587,-17.539682539682538,-22.936507936507937,-87.22222222222221,125.0,-25.476190476190474,15.317460317460316,-23.730158730158728,16.587301587301585,9.285714285714285,163.4126984126984,16.11111111111111,-265.3174603174603,7.698412698412698,0.07936507936507936,-2.619047619047619,-321.8253968253968
-5.7936507936507935,46.58730158730158,-23.730158730158728,5.7936507936507935,-8.968253968253968,-110.55555555555554,-6.746031746031746,56.11111111111111,-17.063492063492063,-91.5079365079365,-67.85714285714285,14.365079365079364,-24.84126984126984,14.84126984126984,-23.253968253968253,-67.53968253968253,-25.634920634920633,69.12698412698413,15.793650793650793,-231.66666666666666,8.015873015873016,4.365079365079365,5.476190476190476,-321.8253968253968
-5.7936507936507935,46.58730158730158,-23.730158730158728,5.7936507936507935,-8.968253968253968,-110.55555555555554,-6.746031746031746,56.11111111111111,-17.063492063492063,-91.5079365079365,-67.85714285714285,14.365079365079364,-24.84126984126984,14.84126984126984,-23.253968253968253,-67.53968253968253,-25.634920634920633,69.12698412698413,15.793650793650793,-231.66666666666666,8.015873015873016,4.365079365079365,5.476190476190476,-321.8253968253968
-5.634920634920634,92.46031746031746,-23.57142857142857,5.7936507936507935,51.03174603174603,0.07936507936507936,-4.2063492063492065,146.74603174603175,-16.746031746031743,-12.3015873015873,-85.31746031746032,119.6031746031746,-24.68253968253968,14.523809523809524,-23.095238095238095,4.0476190476190474,-65.63492063492063,148.015873015873,15.634920634920634,-294.36507936507934,7.3809523809523805,0.873015873015873,-0.3968253968253968,-166.26984126984127
-5.634920634920634,92.46031746031746,-23.57142857142857,5.7936507936507935,51.03174603174603,0.07936507936507936,-4.2063492063492065,146.74603174603175,-16.746031746031743,-12.3015873015873,-85.31746031746032,119.6031746031746,-24.68253968253968,14.523809523809524,-23.095238095238095,4.0476190476190474,-65.63492063492063,148.015873015873,15.634920634920634,-294.36507936507934,7.3809523809523805,0.873015873015873,-0.3968253968253968,-166.26984126984127
-5.634920634920634,47.22222222222222,-23.095238095238095,5.634920634920634,0.873015873015873,-120.39682539682539,-6.587301587301587,51.666666666666664,-16.746031746031743,-120.07936507936508,-63.888888888888886,0.873015873015873,-24.206349206349206,14.206349206349206,-22.777777777777775,-88.01587301587301,44.047619047619044,61.507936507936506,15.317460317460316,-188.65079365079364,8.174603174603174,4.841269841269841,4.841269841269841,-166.26984126984127
-5.634920634920634,47.22222222222222,-23.095238095238095,5.634920634920634,0.873015873015873,-120.39682539682539,-6.587301587301587,51.666666666666664,-16.746031746031743,-120.07936507936508,-63.888888888888886,0.873015873015873,-24.206349206349206,14.206349206349206,-22.777777777777775,-88.01587301587301,44.047619047619044,61.507936507936506,15.317460317460316,-188.65079365079364,8.174603174603174,4.841269841269841,4.841269841269841,-166.26984126984127
-5.476190476190476,71.34920634920634,-22.46031746031746,5.476190476190476,50.71428571428571,-88.4920634920635,-3.888888888888889,68.80952380952381,-16.26984126984127,-89.12698412698413,-95.79365079365078,42.460317460317455,-23.57142857142857,11.984126984126984,-22.142857142857142,-105.15873015873015,-21.349206349206348,72.46031746031746,15.0,-256.90476190476187,6.428571428571428,1.0317460317460316,-1.8253968253968254,-166.26984126984127
-5.476190476190476,71.34920634920634,-22.46031746031746,5.476190476190476,50.71428571428571,-88.4920634920635,-3.888888888888889,68.80952380952381,-16.26984126984127,-89.12698412698413,-95.79365079365078,42.460317460317455,-23.57142857142857,11.984126984126984,-22.142857142857142,-105.15873015873015,-21.349206349206348,72.46031746031746,15.0,-256.90476190476187,6.428571428571428,1.0317460317460316,-1.8253968253968254,-166.26984126984127
-3.73015873015873,-48.96825396825397,-13.888888888888888,3.73015873015873,73.73015873015872,81.98412698412697,23.253968253968253,103.4126984126984,-10.079365079365079,-36.58730158730159,-45.0,83.73015873015872,-13.888888888888888,12.3015873015873,-13.888888888888888,-32.14285714285714,-159.9206349206349,15.317460317460316,9.126984126984127,-272.46031746031747,-14.206349206349206,0.07936507936507936,4.682539682539682,-166.26984126984127
-3.73015873015873,-48.96825396825397,-13.888888888888888,3.73015873015873,73.73015873015872,81.98412698412697,23.253968253968253,103.4126984126984,-10.079365079365079,-36.58730158730159,-45.0,83.73015873015872,-13.888888888888888,12.3015873015873,-13.888888888888888,-32.14285714285714,-159.9206349206349,15.317460317460316,9.126984126984127,-272.46031746031747,-14.206349206349206,0.07936507936507936,4.682539682539682,-166.26984126984127
-3.4126984126984126,-16.746031746031743,-11.825396825396824,3.253968253968254,100.71428571428571,214.2063492063492,45.95238095238095,96.58730158730158,-8.492063492063492,-24.84126984126984,-40.87301587301587,90.23809523809523,-11.666666666666666,7.698412698412698,-11.825396825396824,-48.96825396825397,-184.52380952380952,-7.3809523809523805,7.857142857142857,-259.44444444444446,-34.36507936507936,-0.23809523809523808,4.0476190476190474,-166.26984126984127
-3.4126984126984126,-16.746031746031743,-11.825396825396824,3.253968253968254,100.71428571428571,214.2063492063492,45.95238095238095,96.58730158730158,-8.492063492063492,-24.84126984126984,-40.87301587301587,90.23809523809523,-11.666666666666666,7.698412698412698,-11.825396825396824,-48.96825396825397,-184.52380952380952,-7.3809523809523805,7.857142857142857,-259.44444444444446,-34.36507936507936,-0.23809523809523808,4.0476190476190474,-166.26984126984127
-3.4126984126984126,-16.746031746031743,-11.825396825396824,3.253968253968254,100.71428571428571,214.2063492063492,45.95238095238095,96.58730158730158,-8.492063492063492,-24.84126984126984,-40.87301587301587,90.23809523809523,-11.666666666666666,7.698412698412698,-11.825396825396824,-48.96825396825397,-184.52380952380952,-7.3809523809523805,7.857142857142857,-259.44444444444446,-34.36507936507936,-0.23809523809523808,4.0476190476190474,-321.8253968253968
-3.4126984126984126,-16.746031746031743,-11.825396825396824,3.253968253968254,100.71428571428571,214.2063492063492,45.95238095238095,96.58730158730158,-8.492063492063492,-24.84126984126984,-40.87301587301587,90.23809523809523,-11.666666666666666,7.698412698412698,-11.825396825396824,-48.96825396825397,-184.52380952380952,-7.3809523809523805,7.857142857142857,-259.44444444444446,-34.36507936507936,-0.23809523809523808,4.0476190476190474,-321.8253968253968
-3.4126984126984126,-16.746031746031743,-11.825396825396824,3.253968253968254,100.71428571428571,214.2063492063492,45.95238095238095,96.58730158730158,-8.492063492063492,-24.84126984126984,-40.87301587301587,90.23809523809523,-11.666666666666666,7.698412698412698,-11.825396825396824,-48.96825396825397,-184.52380952380952,-7.3809523809523805,7.857142857142857,-259.44444444444446,-34.36507936507936,-0.23809523809523808,4.0476190476190474,-321.8253968253968
-3.4126984126984126,-16.746031746031743,-11.825396825396824,3.253968253968254,100.71428571428571,214.2063492063492,45.95238095238095,96.58730158730158,-8.492063492063492,-24.84126984126984,-40.87301587301587,90.23809523809523,-11.666666666666666,7.698412698412698,-11.825396825396824,-48.96825396825397,-184.52380952380952,-7.3809523809523805,7.857142857142857,-259.44444444444446,-34.36507936507936,-0.23809523809523808,4.0476190476190474,-321.8253968253968
-3.4126984126984126,-16.746031746031743,-11.825396825396824,3.253968253968254,100.71428571428571,214.2063492063492,45.95238095238095,96.58730158730158,-8.492063492063492,-24.84126984126984,-40.87301587301587,90.23809523809523,-11.666666666666666,7.698412698412698,-11.825396825396824,-48.96825396825397,-184.52380952380952,-7.3809523809523805,7.857142857142857,-259.44444444444446,-34.36507936507936,-0.23809523809523808,4.0476190476190474,-321.8253968253968
-3.4126984126984126,-16.746031746031743,-11.825396825396824,3.253968253968254,100.71428571428571,214.2063492063492,45.95238095238095,96.58730158730158,-8.492063492063492,-24.84126984126984,-40.87301587301587,90.23809523809523,-11.666666666666666,7.698412698412698,-11.825396825396824,-48.96825396825397,-184.52380952380952,-7.3809523809523805,7.857142857142857,-259.44444444444446,-34.36507936507936,-0.23809523809523808,4.0476190476190474,-321.8253968253968
-3.4126984126984126,-16.746031746031743,-11.825396825396824,3.253968253968254,100.71428571428571,214.2063492063492,45.95238095238095,96.58730158730158,-8.492063492063492,-24.84126984126984,-40.87301587301587,90.23809523809523,-11.666666666666666,7.698412698412698,-11.825396825396824,-48.96825396825397,-184.52380952380952,-7.3809523809523805,7.857142857142857,-259.44444444444446,-34.36507936507936,-0.23809523809523808,4.0476190476190474,-321.8253968253968
-3.4126984126984126,-16.746031746031743,-11.825396825396824,3.253968253968254,100.71428571428571,214.2063492063492,45.95238095238095,96.58730158730158,-8.492063492063492,-24.84126984126984,-40.87301587301587,90.23809523809523,-11.666666666666666,7.698412698412698,-11.825396825396824,-48.96825396825397,-184.52380952380952,-7.3809523809523805,7.857142857142857,-259.44444444444446,-34.36507936507936,-0.23809523809523808,4.0476190476190474,-321.8253968253968
-3.4126984126984126,-16.746031746031743,-11.825396825396824,3.253968253968254,100.71428571428571,214.2063492063492,45.95238095238095,96.58730158730158,-8.492063492063492,-24.84126984126984,-40.87301587301587,90.23809523809523,-11.666666666666666,7.698412698412698,-11.825396825396824,-48.96825396825397,-184.52380952380952,-7.3809523809523805,7.857142857142857,-259.44444444444446,-34.36507936507936,-0.23809523809523808,4.0476190476190474,-321.8253968253968
-3.4126984126984126,-16.746031746031743,-11.825396825396824,3.253968253968254,100.71428571428571,214.2063492063492,45.95238095238095,96.58730158730158,-8.492063492063492,-24.84126984126984,-40.87301587301587,90.23809523809523,-11.666666666666666,7.698412698412698,-11.825396825396824,-48.96825396825397,-184.52380952380952,-7.3809523809523805,7.857142857142857,-259.44444444444446,-34.36507936507936,-0.23809523809523808,4.0476190476190474,-321.8253968253968
-8.809523809523808,-178.17460317460316,-5.317460317460317,0.5555555555555556,-26.587301587301585,-175.95238095238093,-40.238095238095234,-29.126984126984127,-5.0,-134.52380952380952,1.0317460317460316,-78.01587301587301,-4.682539682539682,-104.52380952380952,-5.7936507936507935,-126.9047619047619,-62.61904761904761,-113.73015873015872,3.253968253968254,-0.5555555555555556,21.666666666666664,4.365079365079365,6.428571428571428,-166.26984126984127
-8.809523809523808,-178.17460317460316,-5.317460317460317,0.5555555555555556,-26.587301587301585,-175.95238095238093,-40.238095238095234,-29.126984126984127,-5.0,-134.52380952380952,1.0317460317460316,-78.01587301587301,-4.682539682539682,-104.52380952380952,-5.7936507936507935,-126.9047619047619,-62.61904761904761,-113.73015873015872,3.253968253968254,-0.5555555555555556,21.666666666666664,4.365079365079365,6.428571428571428,-166.26984126984127
-5.317460317460317,-16.746031746031743,-5.317460317460317,0.873015873015873,150.87301587301587,43.25396825396825,187.69841269841268,168.96825396825395,-5.0,53.57142857142857,-23.730158730158728,177.06349206349205,-4.365079365079365,-61.19047619047619,-5.476190476190476,42.460317460317455,-187.06349206349205,68.65079365079364,3.253968253968254,-273.0952380952381,-202.93650793650792,-6.111111111111111,-6.746031746031746,-166.26984126984127
-5.317460317460317,-16.746031746031743,-5.317460317460317,0.873015873015873,150.87301587301587,43.25396825396825,187.69841269841268,168.96825396825395,-5.0,53.57142857142857,-23.730158730158728,177.06349206349205,-4.365079365079365,-61.19047619047619,-5.476190476190476,42.460317460317455,-187.06349206349205,68.65079365079364,3.253968253968254,-273.0952380952381,-202.93650793650792,-6.111111111111111,-6.746031746031746,-166.26984126984127
-5.317460317460317,-16.746031746031743,-5.317460317460317,0.873015873015873,150.87301587301587,43.25396825396825,187.69841269841268,168.96825396825395,-5.0,53.57142857142857,-23.730158730158728,177.06349206349205,-4.365079365079365,-61.19047619047619,-5.476190476190476,42.460317460317455,-187.06349206349205,68.65079365079364,3.253968253968254,-273.0952380952381,-202.93650793650792,-6.111111111111111,-6.746031746031746,-166.26984126984127
-5.317460317460317,-16.746031746031743,-5.317460317460317,0.873015873015873,150.87301587301587,43.25396825396825,187.69841269841268,168.96825396825395,-5.0,53.57142857142857,-23.730158730158728,177.06349206349205,-4.365079365079365,-61.19047619047619,-5.476190476190476,42.460317460317455,-187.06349206349205,68.65079365079364,3.253968253968254,-273.0952380952381,-202.93650793650792,-6.111111111111111,-6.746031746031746,-166.26984126984127
-157.38095238095238,68.01587301587301,-20.396825396825395,-26.9047619047619,-43.41269841269841,57.06349206349206,123.57142857142857,36.74603174603175,112.14285714285714,117.53968253968253,67.38095238095238,-133.25396825396825,35.317460317460316,-185.95238095238093,64.84126984126983,-208.17460317460316,-128.96825396825395,94.52380952380952,40.079365079365076,111.19047619047619,115.0,2.3015873015873014,-145.3174603174603,-166.26984126984127
-157.38095238095238,68.01587301587301,-20.396825396825395,-26.9047619047619,-43.41269841269841,57.06349206349206,123.57142857142857,36.74603174603175,112.14285714285714,117.53968253968253,67.38095238095238,-133.25396825396825,35.317460317460316,-185.95238095238093,64.84126984126983,-208.17460317460316,-128.96825396825395,94.52380952380952,40.079365079365076,111.19047619047619,115.0,2.3015873015873014,-145.3174603174603,-166.26984126984127
-301.66666666666663,222.46031746031744,-36.11111111111111,-20.71428571428571,-78.80952380952381,-82.77777777777777,250.87301587301585,80.07936507936508,228.8095238095238,316.4285714285714,115.79365079365078,-243.57142857142856,74.52380952380952,-257.85714285714283,134.52380952380952,-306.1111111111111,-134.84126984126982,305.95238095238096,77.38095238095238,273.73015873015873,277.53968253968253,2.3015873015873014,-297.6984126984127,-166.26984126984127
-301.66666666666663,222.46031746031744,-36.11111111111111,-20.71428571428571,-78.80952380952381,-82.77777777777777,250.87301587301585,80.07936507936508,228.8095238095238,316.4285714285714,115.79365079365078,-243.57142857142856,74.52380952380952,-257.85714285714283,134.52380952380952,-306.1111111111111,-134.84126984126982,305.95238095238096,77.38095238095238,273.73015873015873,277.53968253968253,2.3015873015873014,-297.6984126984127,-166.26984126984127
-115.0,176.11111111111111,-20.555555555555554,-8.492063492063492,23.88888888888889,121.03174603174602,175.0,92.77777777777777,113.73015873015872,152.93650793650792,50.079365079365076,-64.04761904761905,35.15873015873016,-146.11111111111111,64.52380952380952,-177.38095238095238,-62.460317460317455,156.26984126984127,40.079365079365076,80.55555555555556,120.23809523809523,0.07936507936507936,-152.77777777777777,-321.8253968253968
-115.0,176.11111111111111,-20.555555555555554,-8.492063492063492,23.88888888888889,121.03174603174602,175.0,92.77777777777777,113.73015873015872,152.93650793650792,50.079365079365076,-64.04761904761905,35.15873015873016,-146.11111111111111,64.52380952380952,-177.38095238095238,-62.460317460317455,156.26984126984127,40.079365079365076,80.55555555555556,120.23809523809523,0.07936507936507936,-152.77777777777777,-321.8253968253968
71.66666666666666,129.76190476190476,-5.0,3.73015873015873,126.58730158730158,325.0,99.12698412698413,105.47619047619047,-1.349206349206349,-10.396825396825395,-15.476190476190474,115.63492063492063,-4.0476190476190474,-34.2063492063492,-5.317460317460317,-48.650793650793645,9.920634920634921,6.587301587301587,2.7777777777777777,-112.6190476190476,-36.904761904761905,-2.142857142857143,-7.698412698412698,-321.8253968253968
71.66666666666666,129.76190476190476,-5.0,3.73015873015873,126.58730158730158,325.0,99.12698412698413,105.47619047619047,-1.349206349206349,-10.396825396825395,-15.476190476190474,115.63492063492063,-4.0476190476190474,-34.2063492063492,-5.317460317460317,-48.650793650793645,9.920634920634921,6.587301587301587,2.7777777777777777,-112.6190476190476,-36.904761904761905,-2.142857142857143,-7.698412698412698,-321.8253968253968
-12.619047619047619,-97.22222222222221,37.857142857142854,-181.8253968253968,36.269841269841265,45.95238095238095,148.17460317460316,63.57142857142857,39.44444444444444,0.7142857142857142,72.14285714285714,95.31746031746032,39.92063492063492,-190.7142857142857,-2.9365079365079363,-76.1111111111111,-238.96825396825395,-47.53968253968254,-122.77777777777777,-119.76190476190476,-269.9206349206349,-2.9365079365079363,-1.507936507936508,-321.8253968253968
-12.619047619047619,-97.22222222222221,37.857142857142854,-181.8253968253968,36.269841269841265,45.95238095238095,148.17460317460316,63.57142857142857,39.44444444444444,0.7142857142857142,72.14285714285714,95.31746031746032,39.92063492063492,-190.7142857142857,-2.9365079365079363,-76.1111111111111,-238.96825396825395,-47.53968253968254,-122.77777777777777,-119.76190476190476,-269.9206349206349,-2.9365079365079363,-1.507936507936508,-321.8253968253968
-12.777777777777777,-186.11111111111111,11.19047619047619,-178.8095238095238,-33.57142857142857,-69.28571428571428,39.6031746031746,-28.174603174603174,9.603174603174603,-82.3015873015873,86.74603174603175,-22.936507936507937,11.984126984126984,-205.15873015873015,-2.9365079365079363,-147.69841269841268,-178.17460317460316,-131.19047619047618,-98.49206349206348,6.904761904761904,-119.76190476190476,1.8253968253968254,4.0476190476190474,-321.8253968253968
-12.777777777777777,-186.11111111111111,11.19047619047619,-178.8095238095238,-33.57142857142857,-69.28571428571428,39.6031746031746,-28.174603174603174,9.603174603174603,-82.3015873015873,86.74603174603175,-22.936507936507937,11.984126984126984,-205.15873015873015,-2.9365079365079363,-147.69841269841268,-178.17460317460316,-131.19047619047618,-98.49206349206348,6.904761904761904,-119.76190476190476,1.8253968253968254,4.0476190476190474,-321.8253968253968
36.74603174603175,-210.87301587301587,-11.984126984126984,-127.6984126984127,-73.09523809523809,-235.47619047619045,-58.49206349206349,-99.6031746031746,-16.587301587301585,-164.04761904761904,85.63492063492063,-122.30158730158729,-12.46031746031746,-192.46031746031744,-3.095238095238095,-208.65079365079364,-62.14285714285714,-192.3015873015873,-113.4126984126984,129.44444444444443,62.14285714285714,5.0,5.158730158730158,-321.8253968253968
36.74603174603175,-210.87301587301587,-11.984126984126984,-127.6984126984127,-73.09523809523809,-235.47619047619045,-58.49206349206349,-99.6031746031746,-16.587301587301585,-164.04761904761904,85.63492063492063,-122.30158730158729,-12.46031746031746,-192.46031746031744,-3.095238095238095,-208.65079365079364,-62.14285714285714,-192.3015873015873,-113.4126984126984,129.44444444444443,62.14285714285714,5.0,5.158730158730158,-321.8253968253968
86.26984126984127,-146.74603174603175,-8.492063492063492,-79.6031746031746,-42.77777777777778,-286.58730158730157,-48.17460317460317,-79.12698412698413,-12.777777777777777,-162.93650793650792,70.07936507936508,-103.4126984126984,-9.126984126984127,-165.3174603174603,-3.095238095238095,-197.85714285714283,-7.063492063492063,-169.76190476190476,-152.61904761904762,125.31746031746032,93.73015873015872,3.571428571428571,0.7142857142857142,-166.26984126984127
86.26984126984127,-146.74603174603175,-8.492063492063492,-79.6031746031746,-42.77777777777778,-286.58730158730157,-48.17460317460317,-79.12698412698413,-12.777777777777777,-162.93650793650792,70.07936507936508,-103.4126984126984,-9.126984126984127,-165.3174603174603,-3.095238095238095,-197.85714285714283,-7.063492063492063,-169.76190476190476,-152.61904761904762,125.31746031746032,93.73015873015872,3.571428571428571,0.7142857142857142,-166.26984126984127
86.26984126984127,-146.74603174603175,-8.492063492063492,-79.6031746031746,-42.77777777777778,-286.58730158730157,-48.17460317460317,-79.12698412698413,-12.777777777777777,-162.93650793650792,70.07936507936508,-103.4126984126984,-9.126984126984127,-165.3174603174603,-3.095238095238095,-197.85714285714283,-7.063492063492063,-169.76190476190476,-152.61904761904762,125.31746031746032,93.73015873015872,3.571428571428571,0.7142857142857142,-166.26984126984127
86.26984126984127,-146.74603174603175,-8.492063492063492,-79.6031746031746,-42.77777777777778,-286.58730158730157,-48.17460317460317,-79.12698412698413,-12.777777777777777,-162.93650793650792,70.07936507936508,-103.4126984126984,-9.126984126984127,-165.3174603174603,-3.095238095238095,-197.85714285714283,-7.063492063492063,-169.76190476190476,-152.61904761904762,125.31746031746032,93.73015873015872,3.571428571428571,0.7142857142857142,-166.26984126984127
86.26984126984127,-146.74603174603175,-8.492063492063492,-79.6031746031746,-42.77777777777778,-286.58730158730157,-48.17460317460317,-79.12698412698413,-12.777777777777777,-162.93650793650792,70.07936507936508,-103.4126984126984,-9.126984126984127,-165.3174603174603,-3.095238095238095,-197.85714285714283,-7.063492063492063,-169.76190476190476,-152.61904761904762,125.31746031746032,93.73015873015872,3.571428571428571,0.7142857142857142,-166.26984126984127
86.26984126984127,-146.74603174603175,-8.492063492063492,-79.6031746031746,-42.77777777777778,-286.58730158730157,-48.17460317460317,-79.12698412698413,-12.777777777777777,-162.93650793650792,70.07936507936508,-103.4126984126984,-9.126984126984127,-165.3174603174603,-3.095238095238095,-197.85714285714283,-7.063492063492063,-169.76190476190476,-152.61904761904762,125.31746031746032,93.73015873015872,3.571428571428571,0.7142857142857142,-166.26984126984127
86.26984126984127,-146.74603174603175,-8.492063492063492,-79.6031746031746,-42.77777777777778,-286.58730158730157,-48.17460317460317,-79.12698412698413,-12.777777777777777,-162.93650793650792,70.07936507936508,-103.4126984126984,-9.126984126984127,-165.3174603174603,-3.095238095238095,-197.85714285714283,-7.063492063492063,-169.76190476190476,-152.61904761904762,125.31746031746032,93.73015873015872,3.571428571428571,0.7142857142857142,-166.26984126984127
86.26984126984127,-146.74603174603175,-8.492063492063492,-79.6031746031746,-42.77777777777778,-286.58730158730157,-48.17460317460317,-79.12698412698413,-12.777777777777777,-162.93650793650792,70.07936507936508,-103.4126984126984,-9.126984126984127,-165.3174603174603,-3.095238095238095,-197.85714285714283,-7.063492063492063,-169.76190476190476,-152.61904761904762,125.31746031746032,93.73015873015872,3.571428571428571,0.7142857142857142,-166.26984126984127
86.26984126984127,-146.74603174603175,-8.492063492063492,-79.6031746031746,-42.77777777777778,-286.58730158730157,-48.17460317460317,-79.12698412698413,-12.777777777777777,-162.93650793650792,70.07936507936508,-103.4126984126984,-9.126984126984127,-165.3174603174603,-3.095238095238095,-197.85714285714283,-7.063492063492063,-169.76190476190476,-152.61904761904762,125.31746031746032,93.73015873015872,3.571428571428571,0.7142857142857142,-166.26984126984127
86.26984126984127,-146.74603174603175,-8.492063492063492,-79.6031746031746,-42.77777777777778,-286.58730158730157,-48.17460317460317,-79.12698412698413,-12.777777777777777,-162.93650793650792,70.07936507936508,-103.4126984126984,-9.126984126984127,-165.3174603174603,-3.095238095238095,-197.85714285714283,-7.063492063492063,-169.76190476190476,-152.61904761904762,125.31746031746032,93.73015873015872,3.571428571428571,0.7142857142857142,-166.26984126984127
86.26984126984127,-146.74603174603175,-8.492063492063492,-79.6031746031746,-42.77777777777778,-286.58730158730157,-48.17460317460317,-79.12698412698413,-12.777777777777777,-162.93650793650792,70.07936507936508,-103.4126984126984,-9.126984126984127,-165.3174603174603,-3.095238095238095,-197.85714285714283,-7.063492063492063,-169.76190476190476,-152.61904761904762,125.31746031746032,93.73015873015872,3.571428571428571,0.7142857142857142,-321.8253968253968
86.26984126984127,-146.74603174603175,-8.492063492063492,-79.6031746031746,-42.77777777777778,-286.58730158730157,-48.17460317460317,-79.12698412698413,-12.777777777777777,-162.93650793650792,70.07936507936508,-103.4126984126984,-9.126984126984127,-165.3174603174603,-3.095238095238095,-197.85714285714283,-7.063492063492063,-169.76190476190476,-152.61904761904762,125.31746031746032,93.73015873015872,3.571428571428571,0.7142857142857142,-321.8253968253968
21.984126984126984,213.88888888888889,47.22222222222222,65.31746031746032,75.47619047619047,256.74603174603175,172.93650793650792,306.26984126984127,59.285714285714285,151.66666666666666,61.507936507936506,325.0,49.92063492063492,55.95238095238095,-3.253968253968254,240.55555555555554,-175.95238095238093,189.12698412698413,111.98412698412697,-247.2222222222222,-175.15873015873015,-5.317460317460317,-3.571428571428571,-321.8253968253968
21.984126984126984,213.88888888888889,47.22222222222222,65.31746031746032,75.47619047619047,256.74603174603175,172.93650793650792,306.26984126984127,59.285714285714285,151.66666666666666,61.507936507936506,325.0,49.92063492063492,55.95238095238095,-3.253968253968254,240.55555555555554,-175.95238095238093,189.12698412698413,111.98412698412697,-247.2222222222222,-175.15873015873015,-5.317460317460317,-3.571428571428571,-321.8253968253968
110.39682539682539,70.39682539682539,-10.714285714285714,46.42857142857142,-31.825396825396822,-11.825396825396824,-49.6031746031746,73.09523809523809,-14.682539682539682,-88.4920634920635,81.98412698412697,36.904761904761905,-11.507936507936508,-6.587301587301587,-3.4126984126984126,7.222222222222221,50.55555555555555,-23.41269841269841,61.507936507936506,81.5079365079365,156.26984126984127,4.523809523809524,2.46031746031746,-321.8253968253968
110.39682539682539,70.39682539682539,-10.714285714285714,46.42857142857142,-31.825396825396822,-11.825396825396824,-49.6031746031746,73.09523809523809,-14.682539682539682,-88.4920634920635,81.98412698412697,36.904761904761905,-11.507936507936508,-6.587301587301587,-3.4126984126984126,7.222222222222221,50.55555555555555,-23.41269841269841,61.507936507936506,81.5079365079365,156.26984126984127,4.523809523809524,2.46031746031746,-321.8253968253968
28.174603174603174,77.38095238095238,63.25396825396825,-59.6031746031746,94.84126984126983,166.58730158730157,195.47619047619045,165.0,71.82539682539682,69.92063492063491,68.96825396825396,210.2380952380952,66.9047619047619,-75.95238095238095,-3.095238095238095,78.01587301587301,-191.03174603174602,67.22222222222221,-4.682539682539682,-167.2222222222222,-264.68253968253964,-4.523809523809524,-2.46031746031746,-321.8253968253968
28.174603174603174,77.38095238095238,63.25396825396825,-59.6031746031746,94.84126984126983,166.58730158730157,195.47619047619045,165.0,71.82539682539682,69.92063492063491,68.96825396825396,210.2380952380952,66.9047619047619,-75.95238095238095,-3.095238095238095,78.01587301587301,-191.03174603174602,67.22222222222221,-4.682539682539682,-167.2222222222222,-264.68253968253964,-4.523809523809524,-2.46031746031746,-321.8253968253968
48.49206349206349,-125.0,-14.047619047619047,-43.41269841269841,-54.68253968253968,-141.8253968253968,-47.38095238095238,-17.38095238095238,-18.174603174603174,-114.52380952380952,81.82539682539682,-41.666666666666664,-14.523809523809524,-96.26984126984127,-3.095238095238095,-81.82539682539682,-44.84126984126984,-103.25396825396825,16.428571428571427,101.34920634920634,73.57142857142857,3.888888888888889,5.7936507936507935,-321.8253968253968
48.49206349206349,-125.0,-14.047619047619047,-43.41269841269841,-54.68253968253968,-141.8253968253968,-47.38095238095238,-17.38095238095238,-18.174603174603174,-114.52380952380952,81.82539682539682,-41.666666666666664,-14.523809523809524,-96.26984126984127,-3.095238095238095,-81.82539682539682,-44.84126984126984,-103.25396825396825,16.428571428571427,101.34920634920634,73.57142857142857,3.888888888888889,5.7936507936507935,-321.8253968253968
49.12698412698413,-56.42857142857142,42.14285714285714,-127.38095238095238,85.63492063492063,-61.98412698412698,160.87301587301587,78.33333333333333,43.41269841269841,-1.507936507936508,27.857142857142854,111.5079365079365,45.95238095238095,-143.88888888888889,-2.7777777777777777,-39.44444444444444,-175.15873015873015,-16.746031746031743,-182.93650793650792,-104.84126984126983,-242.93650793650792,-3.571428571428571,-6.904761904761904,-166.26984126984127
49.12698412698413,-56.42857142857142,42.14285714285714,-127.38095238095238,85.63492063492063,-61.98412698412698,160.87301587301587,78.33333333333333,43.41269841269841,-1.507936507936508,27.857142857142854,111.5079365079365,45.95238095238095,-143.88888888888889,-2.7777777777777777,-39.44444444444444,-175.15873015873015,-16.746031746031743,-182.93650793650792,-104.84126984126983,-242.93650793650792,-3.571428571428571,-6.904761904761904,-166.26984126984127
38.65079365079365,-198.015873015873,-15.158730158730158,-121.19047619047619,-66.9047619047619,-325.0,-61.34920634920635,-89.28571428571428,-19.444444444444443,-145.0,71.82539682539682,-112.46031746031746,-15.634920634920634,-165.47619047619045,-2.7777777777777777,-165.0,-67.53968253968253,-172.93650793650792,-85.15873015873015,135.3174603174603,46.58730158730158,4.523809523809524,5.317460317460317,-166.26984126984127
38.65079365079365,-198.015873015873,-15.158730158730158,-121.19047619047619,-66.9047619047619,-325.0,-61.34920634920635,-89.28571428571428,-19.444444444444443,-145.0,71.82539682539682,-112.46031746031746,-15.634920634920634,-165.47619047619045,-2.7777777777777777,-165.0,-67.53968253968253,-172.93650793650792,-85.15873015873015,135.3174603174603,46.58730158730158,4.523809523809524,5.317460317460317,-166.26984126984127
41.507936507936506,-60.55555555555555,35.317460317460316,-123.4126984126984,80.23809523809523,-181.5079365079365,153.73015873015873,81.34920634920634,43.095238095238095,5.317460317460317,17.857142857142858,114.68253968253967,44.047619047619044,-137.06349206349205,-2.3015873015873014,-34.52380952380952,-182.46031746031744,-17.063492063492063,-172.93650793650792,-123.57142857142857,-208.17460317460316,-4.682539682539682,-7.3809523809523805,-166.26984126984127
41.507936507936506,-60.55555555555555,35.317460317460316,-123.4126984126984,80.23809523809523,-181.5079365079365,153.73015873015873,81.34920634920634,43.095238095238095,5.317460317460317,17.857142857142858,114.68253968253967,44.047619047619044,-137.06349206349205,-2.3015873015873014,-34.52380952380952,-182.46031746031744,-17.063492063492063,-172.93650793650792,-123.57142857142857,-208.17460317460316,-4.682539682539682,-7.3809523809523805,-166.26984126984127
25.79365079365079,-220.87301587301587,-16.11111111111111,-141.8253968253968,-67.06349206349206,-325.0,-60.39682539682539,-110.87301587301587,-19.92063492063492,-162.3015873015873,60.55555555555555,-127.38095238095238,-16.428571428571427,-180.7142857142857,-2.7777777777777777,-185.3174603174603,-78.65079365079364,-188.33333333333331,-99.12698412698413,136.9047619047619,54.2063492063492,4.365079365079365,5.0,-166.26984126984127
25.79365079365079,-220.87301587301587,-16.11111111111111,-141.8253968253968,-67.06349206349206,-325.0,-60.39682539682539,-110.87301587301587,-19.92063492063492,-162.3015873015873,60.55555555555555,-127.38095238095238,-16.428571428571427,-180.7142857142857,-2.7777777777777777,-185.3174603174603,-78.65079365079364,-188.33333333333331,-99.12698412698413,136.9047619047619,54.2063492063492,4.365079365079365,5.0,-166.26984126984127
78.33333333333333,-66.11111111111111,53.095238095238095,-118.8095238095238,117.38095238095238,-230.07936507936506,183.57142857142856,79.92063492063491,59.285714285714285,5.476190476190476,50.39682539682539,118.49206349206348,62.3015873015873,-123.88888888888889,-0.5555555555555556,-31.19047619047619,-135.15873015873015,-8.492063492063492,-157.53968253968253,-98.80952380952381,-207.85714285714283,-5.158730158730158,-7.222222222222221,-166.26984126984127
78.33333333333333,-66.11111111111111,53.095238095238095,-118.8095238095238,117.38095238095238,-230.07936507936506,183.57142857142856,79.92063492063491,59.285714285714285,5.476190476190476,50.39682539682539,118.49206349206348,62.3015873015873,-123.88888888888889,-0.5555555555555556,-31.19047619047619,-135.15873015873015,-8.492063492063492,-157.53968253968253,-98.80952380952381,-207.85714285714283,-5.158730158730158,-7.222222222222221,-166.26984126984127
135.15873015873015,-39.44444444444444,39.92063492063492,-75.79365079365078,135.0,-230.55555555555554,174.2063492063492,80.39682539682539,44.68253968253968,-12.777777777777777,51.82539682539682,111.5079365079365,46.58730158730158,-99.76190476190476,-1.8253968253968254,-38.01587301587301,-60.079365079365076,-5.158730158730158,-186.26984126984127,-63.25396825396825,-133.25396825396825,-4.523809523809524,-9.603174603174603,-321.8253968253968
135.15873015873015,-39.44444444444444,39.92063492063492,-75.79365079365078,135.0,-230.55555555555554,174.2063492063492,80.39682539682539,44.68253968253968,-12.777777777777777,51.82539682539682,111.5079365079365,46.58730158730158,-99.76190476190476,-1.8253968253968254,-38.01587301587301,-60.079365079365076,-5.158730158730158,-186.26984126984127,-63.25396825396825,-133.25396825396825,-4.523809523809524,-9.603174603174603,-321.8253968253968
70.23809523809524,-80.23809523809523,46.11111111111111,-104.36507936507935,103.57142857142857,-231.66666666666666,155.47619047619048,91.66666666666666,45.79365079365079,6.904761904761904,30.87301587301587,131.19047619047618,56.904761904761905,-107.53968253968253,0.23809523809523808,-4.2063492063492065,-136.9047619047619,-8.809523809523808,-140.7142857142857,-104.2063492063492,-204.04761904761904,-5.952380952380952,-8.015873015873016,-321.8253968253968
70.23809523809524,-80.23809523809523,46.11111111111111,-104.36507936507935,103.57142857142857,-231.66666666666666,155.47619047619048,91.66666666666666,45.79365079365079,6.904761904761904,30.87301587301587,131.19047619047618,56.904761904761905,-107.53968253968253,0.23809523809523808,-4.2063492063492065,-136.9047619047619,-8.809523809523808,-140.7142857142857,-104.2063492063492,-204.04761904761904,-5.952380952380952,-8.015873015873016,-321.8253968253968
95.31746031746032,-185.95238095238093,-13.412698412698411,-81.19047619047619,-22.46031746031746,-325.0,-96.1111111111111,-94.52380952380952,-17.857142857142858,-183.09523809523807,49.285714285714285,-126.42857142857142,-13.412698412698411,-137.85714285714286,-3.095238095238095,-152.3015873015873,22.777777777777775,-183.57142857142856,-97.85714285714285,188.4920634920635,129.6031746031746,4.2063492063492065,2.7777777777777777,-321.8253968253968
95.31746031746032,-185.95238095238093,-13.412698412698411,-81.19047619047619,-22.46031746031746,-325.0,-96.1111111111111,-94.52380952380952,-17.857142857142858,-183.09523809523807,49.285714285714285,-126.42857142857142,-13.412698412698411,-137.85714285714286,-3.095238095238095,-152.3015873015873,22.777777777777775,-183.57142857142856,-97.85714285714285,188.4920634920635,129.6031746031746,4.2063492063492065,2.7777777777777777,-321.8253968253968
65.0,-15.793650793650793,44.52380952380952,-107.85714285714285,151.03174603174602,-204.52380952380952,133.73015873015873,106.9047619047619,17.698412698412696,-6.428571428571428,-1.507936507936508,124.68253968253967,52.3015873015873,-114.84126984126983,-2.9365079365079363,24.047619047619047,-143.25396825396825,-5.952380952380952,-146.9047619047619,-110.23809523809523,-195.15873015873015,-4.841269841269841,-7.698412698412698,-321.8253968253968
65.0,-15.793650793650793,44.52380952380952,-107.85714285714285,151.03174603174602,-204.52380952380952,133.73015873015873,106.9047619047619,17.698412698412696,-6.428571428571428,-1.507936507936508,124.68253968253967,52.3015873015873,-114.84126984126983,-2.9365079365079363,24.047619047619047,-143.25396825396825,-5.952380952380952,-146.9047619047619,-110.23809523809523,-195.15873015873015,-4.841269841269841,-7.698412698412698,-321.8253968253968
34.2063492063492,-237.06349206349205,-18.015873015873016,-132.93650793650792,-6.587301587301587,-325.0,-75.79365079365078,-74.2063492063492,-23.88888888888889,-161.984126984127,44.52380952380952,-116.74603174603173,-18.80952380952381,-164.68253968253967,-2.9365079365079363,-115.31746031746032,-58.650793650793645,-174.52380952380952,-73.73015873015872,134.68253968253967,51.98412698412698,4.523809523809524,6.746031746031746,-321.8253968253968
34.2063492063492,-237.06349206349205,-18.015873015873016,-132.93650793650792,-6.587301587301587,-325.0,-75.79365079365078,-74.2063492063492,-23.88888888888889,-161.984126984127,44.52380952380952,-116.74603174603173,-18.80952380952381,-164.68253968253967,-2.9365079365079363,-115.31746031746032,-58.650793650793645,-174.52380952380952,-73.73015873015872,134.68253968253967,51.98412698412698,4.523809523809524,6.746031746031746,-321.8253968253968
69.6031746031746,-52.93650793650794,45.476190476190474,-105.31746031746032,156.74603174603175,-85.15873015873015,150.07936507936506,112.77777777777777,7.857142857142857,-2.7777777777777777,3.4126984126984126,124.84126984126983,52.460317460317455,-110.71428571428571,-2.9365079365079363,42.3015873015873,-133.0952380952381,-0.873015873015873,-144.52380952380952,-105.31746031746032,-197.06349206349205,-6.746031746031746,-8.015873015873016,-166.26984126984127
69.6031746031746,-52.93650793650794,45.476190476190474,-105.31746031746032,156.74603174603175,-85.15873015873015,150.07936507936506,112.77777777777777,7.857142857142857,-2.7777777777777777,3.4126984126984126,124.84126984126983,52.460317460317455,-110.71428571428571,-2.9365079365079363,42.3015873015873,-133.0952380952381,-0.873015873015873,-144.52380952380952,-105.31746031746032,-197.06349206349205,-6.746031746031746,-8.015873015873016,-166.26984126984127
118.8095238095238,-28.65079365079365,28.015873015873016,-67.38095238095238,164.68253968253967,-91.34920634920634,131.5079365079365,104.2063492063492,-3.73015873015873,-29.285714285714285,1.8253968253968254,105.79365079365078,31.507936507936506,-93.09523809523809,-2.9365079365079363,29.285714285714285,-63.25396825396825,-7.222222222222221,-173.25396825396825,-56.74603174603174,-111.19047619047619,-5.317460317460317,-9.920634920634921,-166.26984126984127
118.8095238095238,-28.65079365079365,28.015873015873016,-67.38095238095238,164.68253968253967,-91.34920634920634,131.5079365079365,104.2063492063492,-3.73015873015873,-29.285714285714285,1.8253968253968254,105.79365079365078,31.507936507936506,-93.09523809523809,-2.9365079365079363,29.285714285714285,-63.25396825396825,-7.222222222222221,-173.25396825396825,-56.74603174603174,-111.19047619047619,-5.317460317460317,-9.920634920634921,-166.26984126984127
116.74603174603173,-8.492063492063492,27.063492063492063,-61.82539682539682,157.38095238095238,-128.8095238095238,123.4126984126984,106.42857142857142,-2.142857142857143,-26.587301587301585,-2.3015873015873014,111.82539682539682,30.87301587301587,-84.36507936507937,0.23809523809523808,36.269841269841265,-64.84126984126983,-3.253968253968254,-164.04761904761904,-61.666666666666664,-104.52380952380952,-4.523809523809524,-9.444444444444445,-166.26984126984127
116.74603174603173,-8.492063492063492,27.063492063492063,-61.82539682539682,157.38095238095238,-128.8095238095238,123.4126984126984,106.42857142857142,-2.142857142857143,-26.587301587301585,-2.3015873015873014,111.82539682539682,30.87301587301587,-84.36507936507937,0.23809523809523808,36.269841269841265,-64.84126984126983,-3.253968253968254,-164.04761904761904,-61.666666666666664,-104.52380952380952,-4.523809523809524,-9.444444444444445,-166.26984126984127
35.95238095238095,-191.03174603174602,-18.80952380952381,-120.39682539682539,-2.9365079365079363,-325.0,-65.79365079365078,-55.79365079365079,-23.095238095238095,-142.14285714285714,41.666666666666664,-95.15873015873015,-20.07936507936508,-138.65079365079364,-2.46031746031746,-79.28571428571428,-58.96825396825397,-152.46031746031744,-38.33333333333333,124.52380952380952,51.507936507936506,4.841269841269841,6.904761904761904,-166.26984126984127
35.95238095238095,-191.03174603174602,-18.80952380952381,-120.39682539682539,-2.9365079365079363,-325.0,-65.79365079365078,-55.79365079365079,-23.095238095238095,-142.14285714285714,41.666666666666664,-95.15873015873015,-20.07936507936508,-138.65079365079364,-2.46031746031746,-79.28571428571428,-58.96825396825397,-152.46031746031744,-38.33333333333333,124.52380952380952,51.507936507936506,4.841269841269841,6.904761904761904,-166.26984126984127
59.44444444444444,-14.047619047619047,42.61904761904761,-83.09523809523809,146.9047619047619,-132.3015873015873,150.7142857142857,135.0,15.317460317460316,22.936507936507937,-11.031746031746032,146.26984126984127,52.14285714285714,-85.15873015873015,5.7936507936507935,76.9047619047619,-142.61904761904762,32.14285714285714,-100.87301587301587,-123.73015873015872,-179.12698412698413,-3.888888888888889,-7.857142857142857,-166.26984126984127
59.44444444444444,-14.047619047619047,42.61904761904761,-83.09523809523809,146.9047619047619,-132.3015873015873,150.7142857142857,135.0,15.317460317460316,22.936507936507937,-11.031746031746032,146.26984126984127,52.14285714285714,-85.15873015873015,5.7936507936507935,76.9047619047619,-142.61904761904762,32.14285714285714,-100.87301587301587,-123.73015873015872,-179.12698412698413,-3.888888888888889,-7.857142857142857,-166.26984126984127
19.76190476190476,-161.8253968253968,-20.396825396825395,-106.26984126984127,-19.285714285714285,-325.0,-70.87301587301587,-51.666666666666664,-23.57142857142857,-133.88888888888889,29.285714285714285,-81.5079365079365,-21.03174603174603,-122.14285714285714,-1.6666666666666665,-66.58730158730158,-68.33333333333333,-139.44444444444443,-7.222222222222221,116.42857142857142,61.19047619047619,4.841269841269841,6.111111111111111,-321.8253968253968
19.76190476190476,-161.8253968253968,-20.396825396825395,-106.26984126984127,-19.285714285714285,-325.0,-70.87301587301587,-51.666666666666664,-23.57142857142857,-133.88888888888889,29.285714285714285,-81.5079365079365,-21.03174603174603,-122.14285714285714,-1.6666666666666665,-66.58730158730158,-68.33333333333333,-139.44444444444443,-7.222222222222221,116.42857142857142,61.19047619047619,4.841269841269841,6.111111111111111,-321.8253968253968
38.80952380952381,-66.58730158730158,-1.6666666666666665,-95.47619047619047,49.6031746031746,-238.96825396825395,22.777777777777775,31.19047619047619,-14.523809523809524,-64.2063492063492,8.809523809523808,29.920634920634917,1.507936507936508,-98.49206349206348,1.1904761904761905,-3.095238095238095,-99.92063492063491,-63.888888888888886,-58.650793650793645,0.7142857142857142,-51.507936507936506,-0.23809523809523808,-0.07936507936507936,-321.8253968253968
38.80952380952381,-66.58730158730158,-1.6666666666666665,-95.47619047619047,49.6031746031746,-238.96825396825395,22.777777777777775,31.19047619047619,-14.523809523809524,-64.2063492063492,8.809523809523808,29.920634920634917,1.507936507936508,-98.49206349206348,1.1904761904761905,-3.095238095238095,-99.92063492063491,-63.888888888888886,-58.650793650793645,0.7142857142857142,-51.507936507936506,-0.23809523809523808,-0.07936507936507936,-321.8253968253968
28.65079365079365,-147.69841269841268,-19.126984126984127,-114.68253968253967,-25.952380952380953,-325.0,-78.96825396825396,-59.285714285714285,-21.984126984126984,-135.63492063492063,38.80952380952381,-89.6031746031746,-20.873015873015873,-126.58730158730158,-0.3968253968253968,-80.39682539682539,-52.93650793650794,-145.63492063492063,-24.68253968253968,118.65079365079364,53.888888888888886,5.0,6.904761904761904,-321.8253968253968
28.65079365079365,-147.69841269841268,-19.126984126984127,-114.68253968253967,-25.952380952380953,-325.0,-78.96825396825396,-59.285714285714285,-21.984126984126984,-135.63492063492063,38.80952380952381,-89.6031746031746,-20.873015873015873,-126.58730158730158,-0.3968253968253968,-80.39682539682539,-52.93650793650794,-145.63492063492063,-24.68253968253968,118.65079365079364,53.888888888888886,5.0,6.904761904761904,-321.8253968253968
50.87301587301587,-38.17460317460317,3.253968253968254,-92.46031746031746,56.11111111111111,-285.3174603174603,29.76190476190476,36.269841269841265,-9.603174603174603,-54.52380952380952,19.6031746031746,26.11111111111111,2.7777777777777777,-98.65079365079364,3.4126984126984126,-4.841269841269841,-78.4920634920635,-56.58730158730158,-56.58730158730158,6.111111111111111,-59.6031746031746,0.23809523809523808,-0.7142857142857142,-321.8253968253968
50.87301587301587,-38.17460317460317,3.253968253968254,-92.46031746031746,56.11111111111111,-285.3174603174603,29.76190476190476,36.269841269841265,-9.603174603174603,-54.52380952380952,19.6031746031746,26.11111111111111,2.7777777777777777,-98.65079365079364,3.4126984126984126,-4.841269841269841,-78.4920634920635,-56.58730158730158,-56.58730158730158,6.111111111111111,-59.6031746031746,0.23809523809523808,-0.7142857142857142,-321.8253968253968
78.33333333333333,-111.03174603174602,-19.6031746031746,-66.26984126984127,-19.444444444444443,-325.0,-101.19047619047619,-66.58730158730158,-22.46031746031746,-157.38095238095238,39.76190476190476,-119.44444444444444,-21.03174603174603,-109.76190476190476,-4.523809523809524,-96.58730158730158,31.825396825396822,-149.28571428571428,-35.15873015873016,175.0,138.96825396825395,5.0,4.841269841269841,-321.8253968253968
78.33333333333333,-111.03174603174602,-19.6031746031746,-66.26984126984127,-19.444444444444443,-325.0,-101.19047619047619,-66.58730158730158,-22.46031746031746,-157.38095238095238,39.76190476190476,-119.44444444444444,-21.03174603174603,-109.76190476190476,-4.523809523809524,-96.58730158730158,31.825396825396822,-149.28571428571428,-35.15873015873016,175.0,138.96825396825395,5.0,4.841269841269841,-321.8253968253968
78.33333333333333,-111.03174603174602,-19.6031746031746,-66.26984126984127,-19.444444444444443,-325.0,-101.19047619047619,-66.58730158730158,-22.46031746031746,-157.38095238095238,39.76190476190476,-119.44444444444444,-21.03174603174603,-109.76190476190476,-4.523809523809524,-96.58730158730158,31.825396825396822,-149.28571428571428,-35.15873015873016,175.0,138.96825396825395,5.0,4.841269841269841,-166.26984126984127
78.33333333333333,-111.03174603174602,-19.6031746031746,-66.26984126984127,-19.444444444444443,-325.0,-101.19047619047619,-66.58730158730158,-22.46031746031746,-157.38095238095238,39.76190476190476,-119.44444444444444,-21.03174603174603,-109.76190476190476,-4.523809523809524,-96.58730158730158,31.825396825396822,-149.28571428571428,-35.15873015873016,175.0,138.96825396825395,5.0,4.841269841269841,-166.26984126984127
78.33333333333333,-111.03174603174602,-19.6031746031746,-66.26984126984127,-19.444444444444443,-325.0,-101.19047619047619,-66.58730158730158,-22.46031746031746,-157.38095238095238,39.76190476190476,-119.44444444444444,-21.03174603174603,-109.76190476190476,-4.523809523809524,-96.58730158730158,31.825396825396822,-149.28571428571428,-35.15873015873016,175.0,138.96825396825395,5.0,4.841269841269841,-166.26984126984127
78.33333333333333,-111.03174603174602,-19.6031746031746,-66.26984126984127,-19.444444444444443,-325.0,-101.19047619047619,-66.58730158730158,-22.46031746031746,-157.38095238095238,39.76190476190476,-119.44444444444444,-21.03174603174603,-109.76190476190476,-4.523809523809524,-96.58730158730158,31.825396825396822,-149.28571428571428,-35.15873015873016,175.0,138.96825396825395,5.0,4.841269841269841,-166.26984126984127
78.33333333333333,-111.03174603174602,-19.6031746031746,-66.26984126984127,-19.444444444444443,-325.0,-101.19047619047619,-66.58730158730158,-22.46031746031746,-157.38095238095238,39.76190476190476,-119.44444444444444,-21.03174603174603,-109.76190476190476,-4.523809523809524,-96.58730158730158,31.825396825396822,-149.28571428571428,-35.15873015873016,175.0,138.96825396825395,5.0,4.841269841269841,-166.26984126984127
78.33333333333333,-111.03174603174602,-19.6031746031746,-66.26984126984127,-19.444444444444443,-325.0,-101.19047619047619,-66.58730158730158,-22.46031746031746,-157.38095238095238,39.76190476190476,-119.44444444444444,-21.03174603174603,-109.76190476190476,-4.523809523809524,-96.58730158730158,31.825396825396822,-149.28571428571428,-35.15873015873016,175.0,138.96825396825395,5.0,4.841269841269841,-166.26984126984127
78.33333333333333,-111.03174603174602,-19.6031746031746,-66.26984126984127,-19.444444444444443,-325.0,-101.19047619047619,-66.58730158730158,-22.46031746031746,-157.38095238095238,39.76190476190476,-119.44444444444444,-21.03174603174603,-109.76190476190476,-4.523809523809524,-96.58730158730158,31.825396825396822,-149.28571428571428,-35.15873015873016,175.0,138.96825396825395,5.0,4.841269841269841,-166.26984126984127
78.33333333333333,-111.03174603174602,-19.6031746031746,-66.26984126984127,-19.444444444444443,-325.0,-101.19047619047619,-66.58730158730158,-22.46031746031746,-157.38095238095238,39.76190476190476,-119.44444444444444,-21.03174603174603,-109.76190476190476,-4.523809523809524,-96.58730158730158,31.825396825396822,-149.28571428571428,-35.15873015873016,175.0,138.96825396825395,5.0,4.841269841269841,-166.26984126984127
78.33333333333333,-111.03174603174602,-19.6031746031746,-66.26984126984127,-19.444444444444443,-325.0,-101.19047619047619,-66.58730158730158,-22.46031746031746,-157.38095238095238,39.76190476190476,-119.44444444444444,-21.03174603174603,-109.76190476190476,-4.523809523809524,-96.58730158730158,31.825396825396822,-149.28571428571428,-35.15873015873016,175.0,138.96825396825395,5.0,4.841269841269841,-166.26984126984127
78.33333333333333,-111.03174603174602,-19.6031746031746,-66.26984126984127,-19.444444444444443,-325.0,-101.19047619047619,-66.58730158730158,-22.46031746031746,-157.38095238095238,39.76190476190476,-119.44444444444444,-21.03174603174603,-109.76190476190476,-4.523809523809524,-96.58730158730158,31.825396825396822,-149.28571428571428,-35.15873015873016,175.0,138.96825396825395,5.0,4.841269841269841,-166.26984126984127
78.33333333333333,-111.03174603174602,-19.6031746031746,-66.26984126984127,-19.444444444444443,-325.0,-101.19047619047619,-66.58730158730158,-22.46031746031746,-157.38095238095238,39.76190476190476,-119.44444444444444,-21.03174603174603,-109.76190476190476,-4.523809523809524,-96.58730158730158,31.825396825396822,-149.28571428571428,-35.15873015873016,175.0,138.96825396825395,5.0,4.841269841269841,-321.8253968253968
78.33333333333333,-111.03174603174602,-19.6031746031746,-66.26984126984127,-19.444444444444443,-325.0,-101.19047619047619,-66.58730158730158,-22.46031746031746,-157.38095238095238,39.76190476190476,-119.44444444444444,-21.03174603174603,-109.76190476190476,-4.523809523809524,-96.58730158730158,31.825396825396822,-149.28571428571428,-35.15873015873016,175.0,138.96825396825395,5.0,4.841269841269841,-321.8253968253968
141.03174603174602,235.3174603174603,91.34920634920634,136.74603174603175,124.04761904761904,172.61904761904762,166.42857142857142,294.68253968253964,122.6190476190476,118.8095238095238,-0.5555555555555556,295.3174603174603,91.82539682539682,188.8095238095238,24.206349206349206,278.8095238095238,21.03174603174603,245.0,122.30158730158729,-166.9047619047619,-31.349206349206348,-4.2063492063492065,-7.5396825396825395,-321.8253968253968
141.03174603174602,235.3174603174603,91.34920634920634,136.74603174603175,124.04761904761904,172.61904761904762,166.42857142857142,294.68253968253964,122.6190476190476,118.8095238095238,-0.5555555555555556,295.3174603174603,91.82539682539682,188.8095238095238,24.206349206349206,278.8095238095238,21.03174603174603,245.0,122.30158730158729,-166.9047619047619,-31.349206349206348,-4.2063492063492065,-7.5396825396825395,-321.8253968253968
105.79365079365078,60.238095238095234,-38.49206349206349,117.6984126984127,-44.047619047619044,-67.6984126984127,-53.41269841269841,114.2063492063492,-31.03174603174603,-53.888888888888886,60.39682539682539,79.12698412698413,-40.714285714285715,122.93650793650794,-12.142857142857142,114.68253968253967,98.49206349206348,48.96825396825397,120.71428571428571,95.79365079365078,188.65079365079364,6.428571428571428,8.174603174603174,-321.8253968253968
105.79365079365078,60.238095238095234,-38.49206349206349,117.6984126984127,-44.047619047619044,-67.6984126984127,-53.41269841269841,114.2063492063492,-31.03174603174603,-53.888888888888886,60.39682539682539,79.12698412698413,-40.714285714285715,122.93650793650794,-12.142857142857142,114.68253968253967,98.49206349206348,48.96825396825397,120.71428571428571,95.79365079365078,188.65079365079364,6.428571428571428,8.174603174603174,-321.8253968253968
154.2063492063492,148.015873015873,3.571428571428571,126.9047619047619,33.73015873015873,128.65079365079364,34.84126984126984,182.46031746031744,24.365079365079364,-3.571428571428571,54.36507936507936,164.2063492063492,1.6666666666666665,148.17460317460316,-2.619047619047619,163.73015873015873,118.49206349206348,113.57142857142857,118.8095238095238,31.03174603174603,137.85714285714286,3.253968253968254,1.507936507936508,-321.8253968253968
154.2063492063492,148.015873015873,3.571428571428571,126.9047619047619,33.73015873015873,128.65079365079364,34.84126984126984,182.46031746031744,24.365079365079364,-3.571428571428571,54.36507936507936,164.2063492063492,1.6666666666666665,148.17460317460316,-2.619047619047619,163.73015873015873,118.49206349206348,113.57142857142857,118.8095238095238,31.03174603174603,137.85714285714286,3.253968253968254,1.507936507936508,-321.8253968253968
133.73015873015873,67.38095238095238,-40.079365079365076,113.25396825396825,-18.80952380952381,102.30158730158729,-26.428571428571427,106.26984126984127,-30.555555555555554,-54.047619047619044,94.52380952380952,73.73015873015872,-41.98412698412698,114.04761904761904,-5.952380952380952,106.26984126984127,131.66666666666666,42.61904761904761,115.63492063492063,122.6190476190476,182.46031746031744,6.111111111111111,8.492063492063492,-321.8253968253968
133.73015873015873,67.38095238095238,-40.079365079365076,113.25396825396825,-18.80952380952381,102.30158730158729,-26.428571428571427,106.26984126984127,-30.555555555555554,-54.047619047619044,94.52380952380952,73.73015873015872,-41.98412698412698,114.04761904761904,-5.952380952380952,106.26984126984127,131.66666666666666,42.61904761904761,115.63492063492063,122.6190476190476,182.46031746031744,6.111111111111111,8.492063492063492,-321.8253968253968
133.73015873015873,67.38095238095238,-40.079365079365076,113.25396825396825,-18.80952380952381,102.30158730158729,-26.428571428571427,106.26984126984127,-30.555555555555554,-54.047619047619044,94.52380952380952,73.73015873015872,-41.98412698412698,114.04761904761904,-5.952380952380952,106.26984126984127,131.66666666666666,42.61904761904761,115.63492063492063,122.6190476190476,182.46031746031744,6.111111111111111,8.492063492063492,-166.26984126984127
133.73015873015873,67.38095238095238,-40.079365079365076,113.25396825396825,-18.80952380952381,102.30158730158729,-26.428571428571427,106.26984126984127,-30.555555555555554,-54.047619047619044,94.52380952380952,73.73015873015872,-41.98412698412698,114.04761904761904,-5.952380952380952,106.26984126984127,131.66666666666666,42.61904761904761,115.63492063492063,122.6190476190476,182.46031746031744,6.111111111111111,8.492063492063492,-166.26984126984127
109.28571428571428,21.507936507936506,7.5396825396825395,89.76190476190476,27.857142857142854,162.61904761904762,57.06349206349206,136.26984126984127,38.49206349206349,-3.253968253968254,88.80952380952381,141.34920634920636,4.523809523809524,94.2063492063492,125.47619047619047,136.26984126984127,50.079365079365076,70.23809523809524,110.87301587301587,32.3015873015873,34.682539682539684,3.571428571428571,6.904761904761904,-166.26984126984127
109.28571428571428,21.507936507936506,7.5396825396825395,89.76190476190476,27.857142857142854,162.61904761904762,57.06349206349206,136.26984126984127,38.49206349206349,-3.253968253968254,88.80952380952381,141.34920634920636,4.523809523809524,94.2063492063492,125.47619047619047,136.26984126984127,50.079365079365076,70.23809523809524,110.87301587301587,32.3015873015873,34.682539682539684,3.571428571428571,6.904761904761904,-166.26984126984127
151.34920634920633,121.34920634920634,53.25396825396825,100.87301587301587,96.58730158730158,260.55555555555554,133.57142857142856,200.07936507936506,97.38095238095238,42.14285714285714,72.3015873015873,216.26984126984127,49.44444444444444,116.58730158730158,144.04761904761904,178.17460317460316,62.61904761904761,127.06349206349206,109.12698412698413,-41.03174603174603,-14.365079365079364,0.7142857142857142,1.0317460317460316,-166.26984126984127
151.34920634920633,121.34920634920634,53.25396825396825,100.87301587301587,96.58730158730158,260.55555555555554,133.57142857142856,200.07936507936506,97.38095238095238,42.14285714285714,72.3015873015873,216.26984126984127,49.44444444444444,116.58730158730158,144.04761904761904,178.17460317460316,62.61904761904761,127.06349206349206,109.12698412698413,-41.03174603174603,-14.365079365079364,0.7142857142857142,1.0317460317460316,-166.26984126984127
113.09523809523809,104.36507936507935,8.65079365079365,71.5079365079365,34.047619047619044,133.0952380952381,68.96825396825396,126.74603174603173,49.44444444444444,-3.73015873015873,97.38095238095238,123.73015873015872,8.174603174603174,74.2063492063492,155.15873015873015,118.49206349206348,48.33333333333333,52.460317460317455,106.26984126984127,33.41269841269841,26.428571428571427,2.7777777777777777,6.746031746031746,-166.26984126984127
113.09523809523809,104.36507936507935,8.65079365079365,71.5079365079365,34.047619047619044,133.0952380952381,68.96825396825396,126.74603174603173,49.44444444444444,-3.73015873015873,97.38095238095238,123.73015873015872,8.174603174603174,74.2063492063492,155.15873015873015,118.49206349206348,48.33333333333333,52.460317460317455,106.26984126984127,33.41269841269841,26.428571428571427,2.7777777777777777,6.746031746031746,-166.26984126984127
186.26984126984127,251.34920634920633,115.95238095238095,110.55555555555554,151.66666666666666,238.96825396825395,190.7142857142857,251.34920634920633,152.61904761904762,81.5079365079365,46.42857142857142,256.26984126984127,119.92063492063491,124.04761904761904,142.61904761904762,208.015873015873,67.22222222222221,172.61904761904762,104.36507936507935,-90.07936507936508,-54.52380952380952,-3.253968253968254,-6.746031746031746,-166.26984126984127
186.26984126984127,251.34920634920633,115.95238095238095,110.55555555555554,151.66666666666666,238.96825396825395,190.7142857142857,251.34920634920633,152.61904761904762,81.5079365079365,46.42857142857142,256.26984126984127,119.92063492063491,124.04761904761904,142.61904761904762,208.015873015873,67.22222222222221,172.61904761904762,104.36507936507935,-90.07936507936508,-54.52380952380952,-3.253968253968254,-6.746031746031746,-166.26984126984127
130.7142857142857,46.74603174603175,-48.33333333333333,83.25396825396825,-16.11111111111111,-17.698412698412696,-28.49206349206349,53.73015873015873,-38.01587301587301,-77.53968253968253,96.42857142857142,23.095238095238095,-50.87301587301587,58.17460317460317,65.63492063492063,51.507936507936506,120.39682539682539,-13.095238095238095,102.93650793650794,154.52380952380952,163.25396825396825,5.7936507936507935,9.126984126984127,-321.8253968253968
130.7142857142857,46.74603174603175,-48.33333333333333,83.25396825396825,-16.11111111111111,-17.698412698412696,-28.49206349206349,53.73015873015873,-38.01587301587301,-77.53968253968253,96.42857142857142,23.095238095238095,-50.87301587301587,58.17460317460317,65.63492063492063,51.507936507936506,120.39682539682539,-13.095238095238095,102.93650793650794,154.52380952380952,163.25396825396825,5.7936507936507935,9.126984126984127,-321.8253968253968
158.015873015873,105.15873015873015,-9.126984126984127,99.92063492063491,34.36507936507936,127.53968253968253,28.174603174603174,111.03174603174602,8.65079365079365,-39.12698412698413,62.460317460317455,90.87301587301587,-10.714285714285714,80.07936507936508,37.53968253968254,89.6031746031746,120.87301587301586,41.03174603174603,101.34920634920634,88.01587301587301,127.38095238095238,3.095238095238095,2.619047619047619,-321.8253968253968
158.015873015873,105.15873015873015,-9.126984126984127,99.92063492063491,34.36507936507936,127.53968253968253,28.174603174603174,111.03174603174602,8.65079365079365,-39.12698412698413,62.460317460317455,90.87301587301587,-10.714285714285714,80.07936507936508,37.53968253968254,89.6031746031746,120.87301587301586,41.03174603174603,101.34920634920634,88.01587301587301,127.38095238095238,3.095238095238095,2.619047619047619,-321.8253968253968
81.34920634920634,58.33333333333333,4.841269841269841,40.55555555555555,13.888888888888888,178.17460317460316,51.507936507936506,102.77777777777777,38.01587301587301,-11.507936507936508,63.73015873015873,95.31746031746032,6.746031746031746,41.98412698412698,91.66666666666666,90.87301587301587,8.968253968253968,29.444444444444443,98.33333333333333,40.39682539682539,10.714285714285714,3.4126984126984126,5.952380952380952,-321.8253968253968
81.34920634920634,58.33333333333333,4.841269841269841,40.55555555555555,13.888888888888888,178.17460317460316,51.507936507936506,102.77777777777777,38.01587301587301,-11.507936507936508,63.73015873015873,95.31746031746032,6.746031746031746,41.98412698412698,91.66666666666666,90.87301587301587,8.968253968253968,29.444444444444443,98.33333333333333,40.39682539682539,10.714285714285714,3.4126984126984126,5.952380952380952,-321.8253968253968
112.77777777777777,96.26984126984127,44.36507936507936,44.84126984126984,65.15873015873015,217.69841269841268,105.95238095238095,137.38095238095238,85.0,13.412698412698411,36.904761904761905,144.2063492063492,45.95238095238095,44.047619047619044,110.07936507936508,100.39682539682539,12.619047619047619,65.47619047619047,75.79365079365078,-19.285714285714285,-24.365079365079364,1.0317460317460316,0.3968253968253968,-321.8253968253968
112.77777777777777,96.26984126984127,44.36507936507936,44.84126984126984,65.15873015873015,217.69841269841268,105.95238095238095,137.38095238095238,85.0,13.412698412698411,36.904761904761905,144.2063492063492,45.95238095238095,44.047619047619044,110.07936507936508,100.39682539682539,12.619047619047619,65.47619047619047,75.79365079365078,-19.285714285714285,-24.365079365079364,1.0317460317460316,0.3968253968253968,-321.8253968253968
165.95238095238093,93.88888888888889,26.587301587301585,68.33333333333333,64.04761904761905,170.55555555555554,67.06349206349206,105.31746031746032,48.49206349206349,-36.42857142857142,16.746031746031743,100.23809523809523,24.047619047619047,43.095238095238095,55.317460317460316,49.12698412698413,94.04761904761904,39.285714285714285,53.73015873015873,30.238095238095237,83.57142857142857,2.3015873015873014,-1.6666666666666665,-321.8253968253968
165.95238095238093,93.88888888888889,26.587301587301585,68.33333333333333,64.04761904761905,170.55555555555554,67.06349206349206,105.31746031746032,48.49206349206349,-36.42857142857142,16.746031746031743,100.23809523809523,24.047619047619047,43.095238095238095,55.317460317460316,49.12698412698413,94.04761904761904,39.285714285714285,53.73015873015873,30.238095238095237,83.57142857142857,2.3015873015873014,-1.6666666666666665,-321.8253968253968
113.88888888888889,19.92063492063492,86.1111111111111,-109.92063492063491,87.85714285714285,64.84126984126983,129.44444444444443,-6.26984126984127,106.9047619047619,-56.74603174603174,-20.396825396825395,24.365079365079364,85.47619047619047,-114.68253968253967,72.77777777777777,-104.36507936507935,-31.03174603174603,-58.96825396825397,-157.85714285714286,4.523809523809524,-151.8253968253968,-2.9365079365079363,-6.904761904761904,-166.26984126984127
113.88888888888889,19.92063492063492,86.1111111111111,-109.92063492063491,87.85714285714285,64.84126984126983,129.44444444444443,-6.26984126984127,106.9047619047619,-56.74603174603174,-20.396825396825395,24.365079365079364,85.47619047619047,-114.68253968253967,72.77777777777777,-104.36507936507935,-31.03174603174603,-58.96825396825397,-157.85714285714286,4.523809523809524,-151.8253968253968,-2.9365079365079363,-6.904761904761904,-166.26984126984127
17.22222222222222,-104.04761904761904,-4.682539682539682,-179.76190476190476,-30.555555555555554,-91.19047619047619,3.888888888888889,-104.84126984126983,4.2063492063492065,-120.23809523809523,10.555555555555555,-103.73015873015872,-4.2063492063492065,-166.58730158730157,57.698412698412696,-175.79365079365078,-88.17460317460316,-160.7142857142857,-44.047619047619044,105.31746031746032,-58.17460317460317,2.46031746031746,5.634920634920634,-166.26984126984127
17.22222222222222,-104.04761904761904,-4.682539682539682,-179.76190476190476,-30.555555555555554,-91.19047619047619,3.888888888888889,-104.84126984126983,4.2063492063492065,-120.23809523809523,10.555555555555555,-103.73015873015872,-4.2063492063492065,-166.58730158730157,57.698412698412696,-175.79365079365078,-88.17460317460316,-160.7142857142857,-44.047619047619044,105.31746031746032,-58.17460317460317,2.46031746031746,5.634920634920634,-166.26984126984127
90.07936507936508,8.174603174603174,72.3015873015873,-110.55555555555554,73.88888888888889,39.12698412698413,101.34920634920634,7.857142857142857,54.36507936507936,-55.79365079365079,-32.77777777777778,22.777777777777775,76.1111111111111,-124.68253968253967,29.444444444444443,-103.09523809523809,-58.650793650793645,-67.53968253968253,-164.52380952380952,-3.095238095238095,-115.31746031746032,-2.619047619047619,-7.063492063492063,-166.26984126984127
90.07936507936508,8.174603174603174,72.3015873015873,-110.55555555555554,73.88888888888889,39.12698412698413,101.34920634920634,7.857142857142857,54.36507936507936,-55.79365079365079,-32.77777777777778,22.777777777777775,76.1111111111111,-124.68253968253967,29.444444444444443,-103.09523809523809,-58.650793650793645,-67.53968253968253,-164.52380952380952,-3.095238095238095,-115.31746031746032,-2.619047619047619,-7.063492063492063,-166.26984126984127
38.96825396825397,-89.92063492063491,24.523809523809522,-157.69841269841268,14.682539682539682,-37.53968253968254,46.74603174603175,-49.76190476190476,9.920634920634921,-92.77777777777777,-14.365079365079364,-49.285714285714285,26.587301587301585,-158.65079365079364,63.41269841269841,-141.984126984127,-87.53968253968253,-127.38095238095238,-131.34920634920636,54.52380952380952,-95.79365079365078,0.5555555555555556,-0.23809523809523808,-166.26984126984127
38.96825396825397,-89.92063492063491,24.523809523809522,-157.69841269841268,14.682539682539682,-37.53968253968254,46.74603174603175,-49.76190476190476,9.920634920634921,-92.77777777777777,-14.365079365079364,-49.285714285714285,26.587301587301585,-158.65079365079364,63.41269841269841,-141.984126984127,-87.53968253968253,-127.38095238095238,-131.34920634920636,54.52380952380952,-95.79365079365078,0.5555555555555556,-0.23809523809523808,-166.26984126984127
74.52380952380952,-51.507936507936506,56.58730158730158,-124.84126984126983,59.285714285714285,5.317460317460317,88.17460317460316,2.46031746031746,27.22222222222222,-58.17460317460317,-39.285714285714285,6.904761904761904,64.2063492063492,-130.3968253968254,62.61904761904761,-103.4126984126984,-68.01587301587301,-75.0,-181.66666666666666,1.1904761904761905,-111.03174603174602,-3.73015873015873,-5.634920634920634,-166.26984126984127
74.52380952380952,-51.507936507936506,56.58730158730158,-124.84126984126983,59.285714285714285,5.317460317460317,88.17460317460316,2.46031746031746,27.22222222222222,-58.17460317460317,-39.285714285714285,6.904761904761904,64.2063492063492,-130.3968253968254,62.61904761904761,-103.4126984126984,-68.01587301587301,-75.0,-181.66666666666666,1.1904761904761905,-111.03174603174602,-3.73015873015873,-5.634920634920634,-166.26984126984127
1.0317460317460316,-148.96825396825395,-3.095238095238095,-159.9206349206349,-32.14285714285714,-124.68253968253967,-2.7777777777777777,-58.17460317460317,-9.761904761904761,-86.9047619047619,13.253968253968253,-70.07936507936508,1.0317460317460316,-143.57142857142856,36.11111111111111,-118.49206349206348,-106.42857142857142,-131.34920634920636,-16.428571428571427,70.71428571428571,-45.15873015873016,2.619047619047619,5.7936507936507935,-321.8253968253968
1.0317460317460316,-148.96825396825395,-3.095238095238095,-159.9206349206349,-32.14285714285714,-124.68253968253967,-2.7777777777777777,-58.17460317460317,-9.761904761904761,-86.9047619047619,13.253968253968253,-70.07936507936508,1.0317460317460316,-143.57142857142856,36.11111111111111,-118.49206349206348,-106.42857142857142,-131.34920634920636,-16.428571428571427,70.71428571428571,-45.15873015873016,2.619047619047619,5.7936507936507935,-321.8253968253968
116.1111111111111,156.26984126984127,70.55555555555556,44.52380952380952,94.2063492063492,168.4920634920635,106.42857142857142,158.65079365079364,41.507936507936506,38.96825396825397,-4.682539682539682,166.42857142857142,76.58730158730158,32.3015873015873,23.253968253968253,95.15873015873015,-7.698412698412698,71.66666666666666,44.52380952380952,-74.04761904761904,-15.793650793650793,-5.158730158730158,-7.5396825396825395,-321.8253968253968
116.1111111111111,156.26984126984127,70.55555555555556,44.52380952380952,94.2063492063492,168.4920634920635,106.42857142857142,158.65079365079364,41.507936507936506,38.96825396825397,-4.682539682539682,166.42857142857142,76.58730158730158,32.3015873015873,23.253968253968253,95.15873015873015,-7.698412698412698,71.66666666666666,44.52380952380952,-74.04761904761904,-15.793650793650793,-5.158730158730158,-7.5396825396825395,-321.8253968253968
30.71428571428571,-25.79365079365079,-63.57142857142857,35.63492063492063,-81.34920634920634,-32.3015873015873,-107.06349206349206,29.76190476190476,-67.85714285714285,-74.52380952380952,34.047619047619044,-9.126984126984127,-65.0,14.84126984126984,-18.96825396825397,17.539682539682538,13.571428571428571,-52.77777777777777,105.79365079365078,100.55555555555554,184.84126984126982,6.26984126984127,9.920634920634921,-321.8253968253968
30.71428571428571,-25.79365079365079,-63.57142857142857,35.63492063492063,-81.34920634920634,-32.3015873015873,-107.06349206349206,29.76190476190476,-67.85714285714285,-74.52380952380952,34.047619047619044,-9.126984126984127,-65.0,14.84126984126984,-18.96825396825397,17.539682539682538,13.571428571428571,-52.77777777777777,105.79365079365078,100.55555555555554,184.84126984126982,6.26984126984127,9.920634920634921,-321.8253968253968
112.30158730158729,172.46031746031744,63.095238095238095,88.96825396825396,83.73015873015872,143.73015873015873,90.87301587301587,196.42857142857142,31.825396825396822,51.03174603174603,-5.476190476190476,199.76190476190476,67.85714285714285,70.55555555555556,7.698412698412698,141.34920634920636,12.777777777777777,105.63492063492063,85.63492063492063,-80.55555555555556,-2.46031746031746,-3.4126984126984126,-6.746031746031746,-321.8253968253968
112.30158730158729,172.46031746031744,63.095238095238095,88.96825396825396,83.73015873015872,143.73015873015873,90.87301587301587,196.42857142857142,31.825396825396822,51.03174603174603,-5.476190476190476,199.76190476190476,67.85714285714285,70.55555555555556,7.698412698412698,141.34920634920636,12.777777777777777,105.63492063492063,85.63492063492063,-80.55555555555556,-2.46031746031746,-3.4126984126984126,-6.746031746031746,-321.8253968253968
26.428571428571427,48.49206349206349,-0.7142857142857142,8.65079365079365,-8.492063492063492,-82.77777777777777,9.444444444444445,102.30158730158729,-5.634920634920634,-3.095238095238095,37.857142857142854,87.38095238095238,0.5555555555555556,15.158730158730158,35.79365079365079,82.61904761904762,-43.095238095238095,18.65079365079365,102.61904761904762,7.3809523809523805,-1.0317460317460316,2.46031746031746,5.317460317460317,-321.8253968253968
26.428571428571427,48.49206349206349,-0.7142857142857142,8.65079365079365,-8.492063492063492,-82.77777777777777,9.444444444444445,102.30158730158729,-5.634920634920634,-3.095238095238095,37.857142857142854,87.38095238095238,0.5555555555555556,15.158730158730158,35.79365079365079,82.61904761904762,-43.095238095238095,18.65079365079365,102.61904761904762,7.3809523809523805,-1.0317460317460316,2.46031746031746,5.317460317460317,-321.8253968253968
104.68253968253968,191.66666666666666,59.92063492063492,86.58730158730158,81.03174603174602,1.1904761904761905,86.74603174603175,189.28571428571428,31.98412698412698,44.36507936507936,-9.603174603174603,194.04761904761904,64.68253968253968,68.33333333333333,6.428571428571428,141.5079365079365,9.285714285714285,114.36507936507935,83.09523809523809,-88.4920634920635,-15.158730158730158,-3.73015873015873,-6.428571428571428,-166.26984126984127
104.68253968253968,191.66666666666666,59.92063492063492,86.58730158730158,81.03174603174602,1.1904761904761905,86.74603174603175,189.28571428571428,31.98412698412698,44.36507936507936,-9.603174603174603,194.04761904761904,64.68253968253968,68.33333333333333,6.428571428571428,141.5079365079365,9.285714285714285,114.36507936507935,83.09523809523809,-88.4920634920635,-15.158730158730158,-3.73015873015873,-6.428571428571428,-166.26984126984127
26.26984126984127,-11.031746031746032,-66.11111111111111,18.174603174603174,-79.12698412698413,-198.96825396825395,-98.17460317460316,13.888888888888888,-68.96825396825396,-84.2063492063492,41.98412698412698,-17.38095238095238,-68.17460317460318,1.507936507936508,-10.555555555555555,11.19047619047619,17.063492063492063,-48.33333333333333,98.49206349206348,104.52380952380952,149.44444444444443,5.7936507936507935,9.444444444444445,-166.26984126984127
26.26984126984127,-11.031746031746032,-66.11111111111111,18.174603174603174,-79.12698412698413,-198.96825396825395,-98.17460317460316,13.888888888888888,-68.96825396825396,-84.2063492063492,41.98412698412698,-17.38095238095238,-68.17460317460318,1.507936507936508,-10.555555555555555,11.19047619047619,17.063492063492063,-48.33333333333333,98.49206349206348,104.52380952380952,149.44444444444443,5.7936507936507935,9.444444444444445,-166.26984126984127
69.76190476190476,27.22222222222222,-38.33333333333333,51.666666666666664,-37.22222222222222,-105.63492063492063,-61.82539682539682,58.49206349206349,-49.44444444444444,-63.73015873015873,23.88888888888889,27.38095238095238,-40.714285714285715,24.84126984126984,-13.888888888888888,39.285714285714285,50.079365079365076,-10.873015873015872,91.34920634920634,77.38095238095238,147.2222222222222,3.571428571428571,4.0476190476190474,-166.26984126984127
69.76190476190476,27.22222222222222,-38.33333333333333,51.666666666666664,-37.22222222222222,-105.63492063492063,-61.82539682539682,58.49206349206349,-49.44444444444444,-63.73015873015873,23.88888888888889,27.38095238095238,-40.714285714285715,24.84126984126984,-13.888888888888888,39.285714285714285,50.079365079365076,-10.873015873015872,91.34920634920634,77.38095238095238,147.2222222222222,3.571428571428571,4.0476190476190474,-166.26984126984127
5.158730158730158,-21.507936507936506,0.23809523809523808,-2.619047619047619,-25.79365079365079,33.095238095238095,-2.142857142857143,100.07936507936508,-10.714285714285714,-3.095238095238095,23.253968253968253,85.31746031746032,0.3968253968253968,8.333333333333332,76.42857142857143,81.19047619047619,-61.19047619047619,15.317460317460316,95.0,-7.3809523809523805,1.984126984126984,2.3015873015873014,5.317460317460317,-166.26984126984127
5.158730158730158,-21.507936507936506,0.23809523809523808,-2.619047619047619,-25.79365079365079,33.095238095238095,-2.142857142857143,100.07936507936508,-10.714285714285714,-3.095238095238095,23.253968253968253,85.31746031746032,0.3968253968253968,8.333333333333332,76.42857142857143,81.19047619047619,-61.19047619047619,15.317460317460316,95.0,-7.3809523809523805,1.984126984126984,2.3015873015873014,5.317460317460317,-166.26984126984127
93.73015873015872,181.5079365079365,130.7142857142857,70.39682539682539,134.04761904761904,281.984126984127,177.85714285714286,262.6190476190476,78.65079365079364,115.95238095238095,-22.777777777777775,289.1269841269841,131.8253968253968,73.09523809523809,89.92063492063491,202.61904761904762,-51.507936507936506,168.65079365079364,67.53968253968253,-190.55555555555554,-133.4126984126984,-7.698412698412698,-10.714285714285714,-166.26984126984127
93.73015873015872,181.5079365079365,130.7142857142857,70.39682539682539,134.04761904761904,281.984126984127,177.85714285714286,262.6190476190476,78.65079365079364,115.95238095238095,-22.777777777777775,289.1269841269841,131.8253968253968,73.09523809523809,89.92063492063491,202.61904761904762,-51.507936507936506,168.65079365079364,67.53968253968253,-190.55555555555554,-133.4126984126984,-7.698412698412698,-10.714285714285714,-166.26984126984127
-4.2063492063492065,64.36507936507937,-2.142857142857143,-9.126984126984127,-25.0,27.063492063492063,2.7777777777777777,99.76190476190476,-6.904761904761904,-3.095238095238095,16.587301587301585,83.73015873015872,1.349206349206349,1.6666666666666665,65.47619047619047,76.74603174603175,-70.71428571428571,19.6031746031746,91.03174603174602,-13.412698412698411,-7.698412698412698,1.984126984126984,5.317460317460317,-321.8253968253968
-4.2063492063492065,64.36507936507937,-2.142857142857143,-9.126984126984127,-25.0,27.063492063492063,2.7777777777777777,99.76190476190476,-6.904761904761904,-3.095238095238095,16.587301587301585,83.73015873015872,1.349206349206349,1.6666666666666665,65.47619047619047,76.74603174603175,-70.71428571428571,19.6031746031746,91.03174603174602,-13.412698412698411,-7.698412698412698,1.984126984126984,5.317460317460317,-321.8253968253968
75.47619047619047,266.90476190476187,110.39682539682539,63.25396825396825,125.63492063492063,210.7142857142857,178.015873015873,262.77777777777777,79.28571428571428,118.17460317460316,-35.79365079365079,279.6031746031746,125.31746031746032,64.36507936507937,73.73015873015872,195.79365079365078,-69.92063492063491,179.28571428571428,63.095238095238095,-193.09523809523807,-135.15873015873015,-6.587301587301587,-9.603174603174603,-321.8253968253968
75.47619047619047,266.90476190476187,110.39682539682539,63.25396825396825,125.63492063492063,210.7142857142857,178.015873015873,262.77777777777777,79.28571428571428,118.17460317460316,-35.79365079365079,279.6031746031746,125.31746031746032,64.36507936507937,73.73015873015872,195.79365079365078,-69.92063492063491,179.28571428571428,63.095238095238095,-193.09523809523807,-135.15873015873015,-6.587301587301587,-9.603174603174603,-321.8253968253968
38.01587301587301,194.68253968253967,95.47619047619047,11.666666666666666,95.63492063492063,159.28571428571428,159.76190476190476,218.015873015873,78.96825396825396,99.76190476190476,-7.222222222222221,231.66666666666666,105.63492063492063,32.14285714285714,119.6031746031746,166.74603174603175,-96.9047619047619,136.9047619047619,74.2063492063492,-158.33333333333331,-156.74603174603175,-4.523809523809524,-5.0,-321.8253968253968
38.01587301587301,194.68253968253967,95.47619047619047,11.666666666666666,95.63492063492063,159.28571428571428,159.76190476190476,218.015873015873,78.96825396825396,99.76190476190476,-7.222222222222221,231.66666666666666,105.63492063492063,32.14285714285714,119.6031746031746,166.74603174603175,-96.9047619047619,136.9047619047619,74.2063492063492,-158.33333333333331,-156.74603174603175,-4.523809523809524,-5.0,-321.8253968253968
0.5555555555555556,122.6190476190476,80.55555555555556,-39.92063492063492,65.63492063492063,107.85714285714285,141.5079365079365,173.4126984126984,78.80952380952381,81.5079365079365,21.507936507936506,183.88888888888889,86.1111111111111,-0.07936507936507936,165.63492063492063,137.69841269841268,-123.73015873015872,94.68253968253968,85.31746031746032,-123.57142857142857,-178.33333333333331,-2.3015873015873014,-0.23809523809523808,-321.8253968253968
0.5555555555555556,122.6190476190476,80.55555555555556,-39.92063492063492,65.63492063492063,107.85714285714285,141.5079365079365,173.4126984126984,78.80952380952381,81.5079365079365,21.507936507936506,183.88888888888889,86.1111111111111,-0.07936507936507936,165.63492063492063,137.69841269841268,-123.73015873015872,94.68253968253968,85.31746031746032,-123.57142857142857,-178.33333333333331,-2.3015873015873014,-0.23809523809523808,-321.8253968253968
2.46031746031746,73.88888888888889,1.8253968253968254,-25.317460317460316,-18.015873015873016,-80.39682539682539,16.746031746031743,76.9047619047619,-2.142857142857143,-8.174603174603174,28.015873015873016,81.98412698412697,5.476190476190476,-13.888888888888888,69.12698412698413,55.79365079365079,-64.2063492063492,8.174603174603174,83.25396825396825,-16.26984126984127,-21.984126984126984,1.349206349206349,4.682539682539682,-321.8253968253968
2.46031746031746,73.88888888888889,1.8253968253968254,-25.317460317460316,-18.015873015873016,-80.39682539682539,16.746031746031743,76.9047619047619,-2.142857142857143,-8.174603174603174,28.015873015873016,81.98412698412697,5.476190476190476,-13.888888888888888,69.12698412698413,55.79365079365079,-64.2063492063492,8.174603174603174,83.25396825396825,-16.26984126984127,-21.984126984126984,1.349206349206349,4.682539682539682,-321.8253968253968
