Fp1[1],Fp2[2],F3[3],F4[4],C3[5],C4[6],P3[7],P4[8],O1[9],O2[10],F7[11],F8[12],T3[13],T4[14],T5[15],T6[16],Fz[17],Pz[18],Cz[19],Pg1[20],Pg2[21],EOGR[22],EOOGL[23],EMG[24]
325.0,325.0,325.0,-325.0,325.0,325.0,325.0,325.0,325.0,325.0,325.0,325.0,325.0,-325.0,325.0,-234.68253968253967,-325.0,325.0,88.96825396825396,-325.0,-325.0,-0.873015873015873,-4.0476190476190474,-166.26984126984127
325.0,325.0,325.0,-325.0,325.0,325.0,325.0,325.0,325.0,325.0,325.0,325.0,325.0,-325.0,325.0,-234.68253968253967,-325.0,325.0,88.96825396825396,-325.0,-325.0,-0.873015873015873,-4.0476190476190474,-166.26984126984127
325.0,325.0,325.0,-325.0,325.0,325.0,325.0,325.0,325.0,325.0,325.0,325.0,325.0,-325.0,325.0,-325.0,-325.0,325.0,104.36507936507935,-325.0,-325.0,4.0476190476190474,8.968253968253968,-166.26984126984127
325.0,325.0,325.0,-325.0,325.0,325.0,325.0,325.0,325.0,325.0,325.0,325.0,325.0,-325.0,325.0,-325.0,-325.0,325.0,104.36507936507935,-325.0,-325.0,4.0476190476190474,8.968253968253968,-166.26984126984127
325.0,325.0,325.0,-325.0,325.0,325.0,325.0,325.0,325.0,325.0,325.0,325.0,325.0,-325.0,325.0,-325.0,-325.0,325.0,106.42857142857142,-325.0,-325.0,-0.07936507936507936,0.3968253968253968,-166.26984126984127
325.0,325.0,325.0,-325.0,325.0,325.0,325.0,325.0,325.0,325.0,325.0,325.0,325.0,-325.0,325.0,-325.0,-325.0,325.0,106.42857142857142,-325.0,-325.0,-0.07936507936507936,0.3968253968253968,-166.26984126984127
325.0,-0.07936507936507936,325.0,-325.0,325.0,325.0,325.0,325.0,325.0,325.0,325.0,325.0,325.0,-325.0,325.0,-325.0,-325.0,325.0,106.58730158730158,-325.0,-325.0,0.5555555555555556,3.4126984126984126,-166.26984126984127
325.0,-0.07936507936507936,325.0,-325.0,325.0,325.0,325.0,325.0,325.0,325.0,325.0,325.0,325.0,-325.0,325.0,-325.0,-325.0,325.0,106.58730158730158,-325.0,-325.0,0.5555555555555556,3.4126984126984126,-166.26984126984127
325.0,-325.0,325.0,-325.0,325.0,321.5079365079365,325.0,325.0,325.0,-87.53968253968253,49.76190476190476,325.0,325.0,-325.0,325.0,-325.0,-312.3015873015873,325.0,93.25396825396825,-325.0,-325.0,3.4126984126984126,5.158730158730158,-166.26984126984127
325.0,-325.0,325.0,-325.0,325.0,321.5079365079365,325.0,325.0,325.0,-87.53968253968253,49.76190476190476,325.0,325.0,-325.0,325.0,-325.0,-312.3015873015873,325.0,93.25396825396825,-325.0,-325.0,3.4126984126984126,5.158730158730158,-166.26984126984127
325.0,-325.0,325.0,-325.0,325.0,307.22222222222223,325.0,325.0,325.0,-325.0,-325.0,325.0,325.0,-317.85714285714283,325.0,-325.0,-297.53968253968253,325.0,85.15873015873015,-325.0,-325.0,2.46031746031746,1.507936507936508,-321.8253968253968
325.0,-325.0,325.0,-325.0,325.0,307.22222222222223,325.0,325.0,325.0,-325.0,-325.0,325.0,325.0,-317.85714285714283,325.0,-325.0,-297.53968253968253,325.0,85.15873015873015,-325.0,-325.0,2.46031746031746,1.507936507936508,-321.8253968253968
325.0,-325.0,325.0,-325.0,325.0,298.4920634920635,325.0,325.0,325.0,-325.0,325.0,325.0,325.0,-308.3333333333333,325.0,-325.0,-288.968253968254,325.0,74.84126984126983,-325.0,-325.0,-1.507936507936508,-5.0,-321.8253968253968
325.0,-325.0,325.0,-325.0,325.0,298.4920634920635,325.0,325.0,325.0,-325.0,325.0,325.0,325.0,-308.3333333333333,325.0,-325.0,-288.968253968254,325.0,74.84126984126983,-325.0,-325.0,-1.507936507936508,-5.0,-321.8253968253968
325.0,-325.0,325.0,-314.04761904761904,325.0,282.46031746031747,325.0,325.0,325.0,-325.0,-215.0,324.36507936507934,325.0,-290.87301587301585,325.0,-325.0,-272.6190476190476,325.0,72.14285714285714,-321.8253968253968,-319.76190476190476,1.6666666666666665,1.1904761904761905,-321.8253968253968
325.0,-325.0,325.0,-314.04761904761904,325.0,282.46031746031747,325.0,325.0,325.0,-325.0,-215.0,324.36507936507934,325.0,-290.87301587301585,325.0,-325.0,-272.6190476190476,325.0,72.14285714285714,-321.8253968253968,-319.76190476190476,1.6666666666666665,1.1904761904761905,-321.8253968253968
325.0,-325.0,321.8253968253968,-293.25396825396825,325.0,264.2063492063492,325.0,318.17460317460313,325.0,-325.0,27.38095238095238,307.22222222222223,322.46031746031747,-271.19047619047615,319.6031746031746,-325.0,-254.52380952380952,325.0,66.58730158730158,-302.77777777777777,-298.015873015873,3.253968253968254,1.1904761904761905,-321.8253968253968
325.0,-325.0,321.8253968253968,-293.25396825396825,325.0,264.2063492063492,325.0,318.17460317460313,325.0,-325.0,27.38095238095238,307.22222222222223,322.46031746031747,-271.19047619047615,319.6031746031746,-325.0,-254.52380952380952,325.0,66.58730158730158,-302.77777777777777,-298.015873015873,3.253968253968254,1.1904761904761905,-321.8253968253968
309.1269841269841,-325.0,300.23809523809524,-271.3492063492063,318.3333333333333,245.0,314.68253968253964,295.4761904761905,308.6507936507936,-325.0,-0.07936507936507936,284.8412698412698,301.8253968253968,-250.7142857142857,296.90476190476187,-322.9365079365079,-235.3174603174603,306.4285714285714,-129.76190476190476,-280.7142857142857,-275.4761904761905,-0.5555555555555556,-1.984126984126984,-321.8253968253968
309.1269841269841,-325.0,300.23809523809524,-271.3492063492063,318.3333333333333,245.0,314.68253968253964,295.4761904761905,308.6507936507936,-325.0,-0.07936507936507936,284.8412698412698,301.8253968253968,-250.7142857142857,296.90476190476187,-322.9365079365079,-235.3174603174603,306.4285714285714,-129.76190476190476,-280.7142857142857,-275.4761904761905,-0.5555555555555556,-1.984126984126984,-321.8253968253968
275.0,-325.0,264.2063492063492,-238.8095238095238,293.4126984126984,216.58730158730157,285.95238095238096,261.66666666666663,275.0,-325.0,-325.0,250.7142857142857,266.26984126984127,-219.9206349206349,262.3015873015873,-301.19047619047615,-206.74603174603175,-241.03174603174602,-325.0,-247.38095238095238,-241.5079365079365,0.7142857142857142,-2.619047619047619,-166.26984126984127
275.0,-325.0,264.2063492063492,-238.8095238095238,293.4126984126984,216.58730158730157,285.95238095238096,261.66666666666663,275.0,-325.0,-325.0,250.7142857142857,266.26984126984127,-219.9206349206349,262.3015873015873,-301.19047619047615,-206.74603174603175,-241.03174603174602,-325.0,-247.38095238095238,-241.5079365079365,0.7142857142857142,-2.619047619047619,-166.26984126984127
259.6031746031746,-325.0,249.28571428571428,-225.3174603174603,277.85714285714283,204.68253968253967,270.23809523809524,247.85714285714283,259.9206349206349,-325.0,-325.0,236.74603174603175,251.34920634920633,-207.38095238095238,248.17460317460316,-284.68253968253964,-195.0,-325.0,-325.0,-233.57142857142856,-227.53968253968253,3.4126984126984126,3.4126984126984126,-166.26984126984127
259.6031746031746,-325.0,249.28571428571428,-225.3174603174603,277.85714285714283,204.68253968253967,270.23809523809524,247.85714285714283,259.9206349206349,-325.0,-325.0,236.74603174603175,251.34920634920633,-207.38095238095238,248.17460317460316,-284.68253968253964,-195.0,-325.0,-325.0,-233.57142857142856,-227.53968253968253,3.4126984126984126,3.4126984126984126,-166.26984126984127
242.14285714285714,-325.0,232.6190476190476,-210.07936507936506,252.14285714285714,191.34920634920633,252.46031746031744,231.5079365079365,242.93650793650792,-325.0,-325.0,220.7142857142857,234.84126984126982,-193.25396825396825,231.8253968253968,-266.1111111111111,-181.8253968253968,-325.0,-325.0,-218.17460317460316,-211.98412698412696,3.888888888888889,4.2063492063492065,-166.26984126984127
242.14285714285714,-325.0,232.6190476190476,-210.07936507936506,252.14285714285714,191.34920634920633,252.46031746031744,231.5079365079365,242.93650793650792,-325.0,-325.0,220.7142857142857,234.84126984126982,-193.25396825396825,231.8253968253968,-266.1111111111111,-181.8253968253968,-325.0,-325.0,-218.17460317460316,-211.98412698412696,3.888888888888889,4.2063492063492065,-166.26984126984127
233.57142857142856,-325.0,224.52380952380952,-202.77777777777777,235.79365079365078,184.84126984126982,243.88888888888889,223.88888888888889,234.68253968253967,-325.0,-325.0,213.09523809523807,226.9047619047619,-186.42857142857142,224.04761904761904,-257.06349206349205,-175.3174603174603,-325.0,-325.0,-210.55555555555554,-204.36507936507937,3.73015873015873,3.73015873015873,-166.26984126984127
233.57142857142856,-325.0,224.52380952380952,-202.77777777777777,235.79365079365078,184.84126984126982,243.88888888888889,223.88888888888889,234.68253968253967,-325.0,-325.0,213.09523809523807,226.9047619047619,-186.42857142857142,224.04761904761904,-257.06349206349205,-175.3174603174603,-325.0,-325.0,-210.55555555555554,-204.36507936507937,3.73015873015873,3.73015873015873,-166.26984126984127
233.57142857142856,-325.0,224.52380952380952,-202.77777777777777,235.79365079365078,184.84126984126982,243.88888888888889,223.88888888888889,234.68253968253967,-325.0,-325.0,213.09523809523807,226.9047619047619,-186.42857142857142,224.04761904761904,-257.06349206349205,-175.3174603174603,-325.0,-325.0,-210.55555555555554,-204.36507936507937,3.73015873015873,3.73015873015873,-166.26984126984127
233.57142857142856,-325.0,224.52380952380952,-202.77777777777777,235.79365079365078,184.84126984126982,243.88888888888889,223.88888888888889,234.68253968253967,-325.0,-325.0,213.09523809523807,226.9047619047619,-186.42857142857142,224.04761904761904,-257.06349206349205,-175.3174603174603,-325.0,-325.0,-210.55555555555554,-204.36507936507937,3.73015873015873,3.73015873015873,-166.26984126984127
190.55555555555554,-305.95238095238096,183.09523809523807,-165.63492063492063,88.4920634920635,151.8253968253968,200.07936507936506,184.36507936507937,193.09523809523807,-325.0,-50.39682539682539,173.88888888888889,185.47619047619045,-151.8253968253968,183.88888888888889,-211.34920634920633,-143.25396825396825,-325.0,-325.0,-172.77777777777777,-166.42857142857142,-1.6666666666666665,-0.7142857142857142,-321.8253968253968
190.55555555555554,-305.95238095238096,183.09523809523807,-165.63492063492063,88.4920634920635,151.8253968253968,200.07936507936506,184.36507936507937,193.09523809523807,-325.0,-50.39682539682539,173.88888888888889,185.47619047619045,-151.8253968253968,183.88888888888889,-211.34920634920633,-143.25396825396825,-325.0,-325.0,-172.77777777777777,-166.42857142857142,-1.6666666666666665,-0.7142857142857142,-321.8253968253968
188.96825396825395,-303.57142857142856,181.34920634920633,-164.2063492063492,240.3968253968254,150.55555555555554,198.4920634920635,182.77777777777777,191.66666666666666,-325.0,224.2063492063492,172.61904761904762,183.88888888888889,-150.55555555555554,182.3015873015873,-209.76190476190476,-142.14285714285714,-325.0,-325.0,-171.5079365079365,-164.84126984126982,2.7777777777777777,5.158730158730158,-321.8253968253968
188.96825396825395,-303.57142857142856,181.34920634920633,-164.2063492063492,240.3968253968254,150.55555555555554,198.4920634920635,182.77777777777777,191.66666666666666,-325.0,224.2063492063492,172.61904761904762,183.88888888888889,-150.55555555555554,182.3015873015873,-209.76190476190476,-142.14285714285714,-325.0,-325.0,-171.5079365079365,-164.84126984126982,2.7777777777777777,5.158730158730158,-321.8253968253968
168.65079365079364,-273.0952380952381,161.984126984127,-146.74603174603175,-42.3015873015873,135.0,177.69841269841268,164.04761904761904,171.8253968253968,-301.19047619047615,-50.39682539682539,154.2063492063492,164.52380952380952,-134.36507936507937,163.4126984126984,-188.17460317460316,-127.22222222222221,-325.0,-302.1428571428571,-153.4126984126984,-147.06349206349205,0.873015873015873,-0.07936507936507936,-321.8253968253968
168.65079365079364,-273.0952380952381,161.984126984127,-146.74603174603175,-42.3015873015873,135.0,177.69841269841268,164.04761904761904,171.8253968253968,-301.19047619047615,-50.39682539682539,154.2063492063492,164.52380952380952,-134.36507936507937,163.4126984126984,-188.17460317460316,-127.22222222222221,-325.0,-302.1428571428571,-153.4126984126984,-147.06349206349205,0.873015873015873,-0.07936507936507936,-321.8253968253968
148.4920634920635,-242.46031746031744,142.77777777777777,-129.28571428571428,-325.0,119.44444444444444,157.06349206349205,145.3174603174603,152.14285714285714,-277.22222222222223,-325.0,135.79365079365078,145.3174603174603,-118.17460317460316,144.52380952380952,-166.58730158730157,-112.30158730158729,-325.0,-279.2857142857143,-135.3174603174603,-129.12698412698413,-0.873015873015873,-5.158730158730158,-321.8253968253968
148.4920634920635,-242.46031746031744,142.77777777777777,-129.28571428571428,-325.0,119.44444444444444,157.06349206349205,145.3174603174603,152.14285714285714,-277.22222222222223,-325.0,135.79365079365078,145.3174603174603,-118.17460317460316,144.52380952380952,-166.58730158730157,-112.30158730158729,-325.0,-279.2857142857143,-135.3174603174603,-129.12698412698413,-0.873015873015873,-5.158730158730158,-321.8253968253968
148.4920634920635,-242.46031746031744,142.77777777777777,-129.28571428571428,-325.0,119.44444444444444,157.06349206349205,145.3174603174603,152.14285714285714,-277.22222222222223,-325.0,135.79365079365078,145.3174603174603,-118.17460317460316,144.52380952380952,-166.58730158730157,-112.30158730158729,-325.0,-279.2857142857143,-135.3174603174603,-129.12698412698413,-0.873015873015873,-5.158730158730158,-321.8253968253968
148.4920634920635,-242.46031746031744,142.77777777777777,-129.28571428571428,-325.0,119.44444444444444,157.06349206349205,145.3174603174603,152.14285714285714,-277.22222222222223,-325.0,135.79365079365078,145.3174603174603,-118.17460317460316,144.52380952380952,-166.58730158730157,-112.30158730158729,-325.0,-279.2857142857143,-135.3174603174603,-129.12698412698413,-0.873015873015873,-5.158730158730158,-321.8253968253968
82.3015873015873,-133.0952380952381,75.15873015873015,-69.12698412698413,-325.0,64.2063492063492,9.444444444444445,-195.63492063492063,81.98412698412697,-149.76190476190476,-227.2222222222222,71.82539682539682,77.38095238095238,325.0,77.85714285714285,191.34920634920633,-60.873015873015866,-239.76190476190476,-151.34920634920633,-73.25396825396825,-67.85714285714285,-1.8253968253968254,-7.222222222222221,-166.26984126984127
82.3015873015873,-133.0952380952381,75.15873015873015,-69.12698412698413,-325.0,64.2063492063492,9.444444444444445,-195.63492063492063,81.98412698412697,-149.76190476190476,-227.2222222222222,71.82539682539682,77.38095238095238,325.0,77.85714285714285,191.34920634920633,-60.873015873015866,-239.76190476190476,-151.34920634920633,-73.25396825396825,-67.85714285714285,-1.8253968253968254,-7.222222222222221,-166.26984126984127
81.82539682539682,-132.46031746031744,75.0,-68.96825396825396,-325.0,64.04761904761905,-76.58730158730158,-325.0,81.5079365079365,-149.12698412698413,-226.26984126984127,71.5079365079365,77.22222222222221,325.0,77.53968253968253,118.96825396825396,-60.71428571428571,-238.49206349206347,-150.7142857142857,-72.77777777777777,-67.53968253968253,3.095238095238095,-1.8253968253968254,-166.26984126984127
81.82539682539682,-132.46031746031744,75.0,-68.96825396825396,-325.0,64.04761904761905,-76.58730158730158,-325.0,81.5079365079365,-149.12698412698413,-226.26984126984127,71.5079365079365,77.22222222222221,325.0,77.53968253968253,118.96825396825396,-60.71428571428571,-238.49206349206347,-150.7142857142857,-72.77777777777777,-67.53968253968253,3.095238095238095,-1.8253968253968254,-166.26984126984127
77.06349206349206,-128.4920634920635,72.46031746031746,-66.58730158730158,-325.0,48.650793650793645,27.539682539682538,-325.0,79.12698412698413,-144.52380952380952,-219.76190476190476,69.44444444444444,74.84126984126983,325.0,75.0,251.66666666666666,-51.666666666666664,-231.98412698412696,-146.42857142857142,-70.39682539682539,-65.47619047619047,-2.3015873015873014,-6.111111111111111,-166.26984126984127
77.06349206349206,-128.4920634920635,72.46031746031746,-66.58730158730158,-325.0,48.650793650793645,27.539682539682538,-325.0,79.12698412698413,-144.52380952380952,-219.76190476190476,69.44444444444444,74.84126984126983,325.0,75.0,251.66666666666666,-51.666666666666664,-231.98412698412696,-146.42857142857142,-70.39682539682539,-65.47619047619047,-2.3015873015873014,-6.111111111111111,-166.26984126984127
75.63492063492063,-126.26984126984127,71.19047619047619,-65.47619047619047,-325.0,-3.888888888888889,44.68253968253968,-325.0,77.6984126984127,-141.984126984127,-215.95238095238093,68.01587301587301,73.73015873015872,325.0,73.73015873015872,225.3174603174603,-42.14285714285714,-228.17460317460316,-143.73015873015873,-69.28571428571428,-64.36507936507937,1.349206349206349,5.0,-166.26984126984127
75.63492063492063,-126.26984126984127,71.19047619047619,-65.47619047619047,-325.0,-3.888888888888889,44.68253968253968,-325.0,77.6984126984127,-141.984126984127,-215.95238095238093,68.01587301587301,73.73015873015872,325.0,73.73015873015872,225.3174603174603,-42.14285714285714,-228.17460317460316,-143.73015873015873,-69.28571428571428,-64.36507936507937,1.349206349206349,5.0,-166.26984126984127
74.2063492063492,-124.2063492063492,69.92063492063491,-64.04761904761905,-325.0,-198.015873015873,-246.1111111111111,-325.0,76.26984126984127,-139.6031746031746,-212.46031746031744,67.06349206349206,72.14285714285714,325.0,72.3015873015873,276.1111111111111,-50.39682539682539,-224.36507936507934,-141.19047619047618,-68.17460317460318,-63.095238095238095,-1.984126984126984,-5.476190476190476,-166.26984126984127
74.2063492063492,-124.2063492063492,69.92063492063491,-64.04761904761905,-325.0,-198.015873015873,-246.1111111111111,-325.0,76.26984126984127,-139.6031746031746,-212.46031746031744,67.06349206349206,72.14285714285714,325.0,72.3015873015873,276.1111111111111,-50.39682539682539,-224.36507936507934,-141.19047619047618,-68.17460317460318,-63.095238095238095,-1.984126984126984,-5.476190476190476,-166.26984126984127
72.46031746031746,-121.34920634920634,68.4920634920635,-62.77777777777777,-143.25396825396825,-325.0,-1.984126984126984,-325.0,74.52380952380952,-136.42857142857142,-159.44444444444443,65.63492063492063,70.71428571428571,325.0,70.87301587301587,325.0,325.0,-219.44444444444443,-138.015873015873,-66.26984126984127,-61.666666666666664,-5.317460317460317,-1.0317460317460316,-321.8253968253968
72.46031746031746,-121.34920634920634,68.4920634920635,-62.77777777777777,-143.25396825396825,-325.0,-1.984126984126984,-325.0,74.52380952380952,-136.42857142857142,-159.44444444444443,65.63492063492063,70.71428571428571,325.0,70.87301587301587,325.0,325.0,-219.44444444444443,-138.015873015873,-66.26984126984127,-61.666666666666664,-5.317460317460317,-1.0317460317460316,-321.8253968253968
70.71428571428571,-119.28571428571428,66.9047619047619,-61.666666666666664,325.0,-325.0,111.98412698412697,-325.0,73.09523809523809,-133.57142857142856,325.0,64.04761904761905,69.28571428571428,325.0,69.28571428571428,207.2222222222222,325.0,-215.47619047619045,-135.3174603174603,-65.15873015873015,-60.39682539682539,2.619047619047619,4.2063492063492065,-321.8253968253968
70.71428571428571,-119.28571428571428,66.9047619047619,-61.666666666666664,325.0,-325.0,111.98412698412697,-325.0,73.09523809523809,-133.57142857142856,325.0,64.04761904761905,69.28571428571428,325.0,69.28571428571428,207.2222222222222,325.0,-215.47619047619045,-135.3174603174603,-65.15873015873015,-60.39682539682539,2.619047619047619,4.2063492063492065,-321.8253968253968
69.28571428571428,-116.74603174603173,65.15873015873015,-60.238095238095234,325.0,-325.0,102.30158730158729,-325.0,71.5079365079365,-131.03174603174602,325.0,62.77777777777777,67.6984126984127,325.0,67.85714285714285,290.23809523809524,325.0,-211.19047619047618,-132.3015873015873,-64.04761904761905,-59.12698412698413,-0.5555555555555556,-0.873015873015873,-321.8253968253968
69.28571428571428,-116.74603174603173,65.15873015873015,-60.238095238095234,325.0,-325.0,102.30158730158729,-325.0,71.5079365079365,-131.03174603174602,325.0,62.77777777777777,67.6984126984127,325.0,67.85714285714285,290.23809523809524,325.0,-211.19047619047618,-132.3015873015873,-64.04761904761905,-59.12698412698413,-0.5555555555555556,-0.873015873015873,-321.8253968253968
67.6984126984127,-114.36507936507935,63.888888888888886,-58.96825396825397,325.0,-325.0,99.92063492063491,-325.0,70.07936507936508,-128.015873015873,325.0,61.34920634920635,66.26984126984127,325.0,66.42857142857143,281.984126984127,325.0,-206.9047619047619,-129.76190476190476,-62.460317460317455,-57.857142857142854,0.5555555555555556,4.0476190476190474,-321.8253968253968
67.6984126984127,-114.36507936507935,63.888888888888886,-58.96825396825397,325.0,-325.0,99.92063492063491,-325.0,70.07936507936508,-128.015873015873,325.0,61.34920634920635,66.26984126984127,325.0,66.42857142857143,281.984126984127,325.0,-206.9047619047619,-129.76190476190476,-62.460317460317455,-57.857142857142854,0.5555555555555556,4.0476190476190474,-321.8253968253968
65.15873015873015,-111.34920634920634,62.460317460317455,-57.698412698412696,-298.015873015873,-325.0,-325.0,-325.0,68.4920634920635,-125.0,-122.93650793650794,48.96825396825397,64.68253968253968,325.0,64.84126984126983,263.0952380952381,325.0,-202.46031746031744,-126.74603174603173,-60.71428571428571,-56.269841269841265,3.73015873015873,-0.07936507936507936,-321.8253968253968
65.15873015873015,-111.34920634920634,62.460317460317455,-57.698412698412696,-298.015873015873,-325.0,-325.0,-325.0,68.4920634920635,-125.0,-122.93650793650794,48.96825396825397,64.68253968253968,325.0,64.84126984126983,263.0952380952381,325.0,-202.46031746031744,-126.74603174603173,-60.71428571428571,-56.269841269841265,3.73015873015873,-0.07936507936507936,-321.8253968253968
-325.0,-106.1111111111111,59.44444444444444,-54.047619047619044,-325.0,-325.0,-325.0,-325.0,65.31746031746032,-118.65079365079364,-240.55555555555554,-162.46031746031744,61.82539682539682,325.0,61.82539682539682,307.69841269841265,-314.68253968253964,-193.09523809523807,-120.23809523809523,-57.698412698412696,-53.095238095238095,1.507936507936508,4.0476190476190474,-166.26984126984127
-325.0,-106.1111111111111,59.44444444444444,-54.047619047619044,-325.0,-325.0,-325.0,-325.0,65.31746031746032,-118.65079365079364,-240.55555555555554,-162.46031746031744,61.82539682539682,325.0,61.82539682539682,307.69841269841265,-314.68253968253964,-193.09523809523807,-120.23809523809523,-57.698412698412696,-53.095238095238095,1.507936507936508,4.0476190476190474,-166.26984126984127
-325.0,-105.63492063492063,59.285714285714285,-53.73015873015873,-325.0,-325.0,-325.0,-325.0,65.15873015873015,-118.33333333333333,-239.44444444444443,-92.61904761904762,61.507936507936506,325.0,61.666666666666664,325.0,-325.0,-192.3015873015873,-119.6031746031746,-57.53968253968254,-52.93650793650794,-3.253968253968254,-2.142857142857143,-166.26984126984127
-325.0,-105.63492063492063,59.285714285714285,-53.73015873015873,-325.0,-325.0,-325.0,-325.0,65.15873015873015,-118.33333333333333,-239.44444444444443,-92.61904761904762,61.507936507936506,325.0,61.666666666666664,325.0,-325.0,-192.3015873015873,-119.6031746031746,-57.53968253968254,-52.93650793650794,-3.253968253968254,-2.142857142857143,-166.26984126984127
-325.0,-103.57142857142857,57.857142857142854,-52.77777777777777,-325.0,-325.0,-325.0,-325.0,63.57142857142857,-115.95238095238095,-234.04761904761904,-208.8095238095238,60.079365079365076,325.0,60.238095238095234,325.0,-320.7142857142857,-188.4920634920635,-117.06349206349206,-56.42857142857142,-51.82539682539682,-4.841269841269841,-5.952380952380952,-166.26984126984127
-325.0,-103.57142857142857,57.857142857142854,-52.77777777777777,-325.0,-325.0,-325.0,-325.0,63.57142857142857,-115.95238095238095,-234.04761904761904,-208.8095238095238,60.079365079365076,325.0,60.238095238095234,325.0,-320.7142857142857,-188.4920634920635,-117.06349206349206,-56.42857142857142,-51.82539682539682,-4.841269841269841,-5.952380952380952,-166.26984126984127
-325.0,-99.92063492063491,55.79365079365079,-51.03174603174603,-325.0,-325.0,-325.0,-325.0,61.34920634920635,-111.82539682539682,-225.63492063492063,-325.0,57.857142857142854,325.0,58.01587301587301,325.0,-310.23809523809524,-182.46031746031744,-113.25396825396825,-54.36507936507936,-49.76190476190476,2.7777777777777777,5.476190476190476,-166.26984126984127
-325.0,-99.92063492063491,55.79365079365079,-51.03174603174603,-325.0,-325.0,-325.0,-325.0,61.34920634920635,-111.82539682539682,-225.63492063492063,-325.0,57.857142857142854,325.0,58.01587301587301,325.0,-310.23809523809524,-182.46031746031744,-113.25396825396825,-54.36507936507936,-49.76190476190476,2.7777777777777777,5.476190476190476,-166.26984126984127
-311.031746031746,-76.42857142857143,54.68253968253968,-49.92063492063492,-325.0,-325.0,-325.0,-325.0,59.92063492063492,-109.44444444444444,-220.7142857142857,-325.0,56.904761904761905,325.0,56.74603174603174,325.0,60.079365079365076,-178.65079365079364,-110.87301587301587,-53.095238095238095,-48.80952380952381,-1.507936507936508,-0.23809523809523808,-166.26984126984127
-311.031746031746,-76.42857142857143,54.68253968253968,-49.92063492063492,-325.0,-325.0,-325.0,-325.0,59.92063492063492,-109.44444444444444,-220.7142857142857,-325.0,56.904761904761905,325.0,56.74603174603174,325.0,60.079365079365076,-178.65079365079364,-110.87301587301587,-53.095238095238095,-48.80952380952381,-1.507936507936508,-0.23809523809523808,-166.26984126984127
-268.8095238095238,-98.01587301587301,53.41269841269841,-48.96825396825397,-325.0,-325.0,-325.0,-325.0,58.8095238095238,-107.22222222222221,-215.95238095238093,-325.0,55.317460317460316,325.0,55.476190476190474,325.0,325.0,-175.47619047619045,-108.80952380952381,-51.98412698412698,-47.857142857142854,-0.07936507936507936,3.888888888888889,-321.8253968253968
-268.8095238095238,-98.01587301587301,53.41269841269841,-48.96825396825397,-325.0,-325.0,-325.0,-325.0,58.8095238095238,-107.22222222222221,-215.95238095238093,-325.0,55.317460317460316,325.0,55.476190476190474,325.0,325.0,-175.47619047619045,-108.80952380952381,-51.98412698412698,-47.857142857142854,-0.07936507936507936,3.888888888888889,-321.8253968253968
-325.0,-95.47619047619047,52.460317460317455,-48.17460317460317,-325.0,-325.0,-325.0,-325.0,57.698412698412696,-105.47619047619047,-212.3015873015873,-325.0,54.52380952380952,325.0,54.841269841269835,325.0,325.0,-172.3015873015873,-106.58730158730158,-51.34920634920635,-46.904761904761905,-0.3968253968253968,-5.158730158730158,-321.8253968253968
-325.0,-95.47619047619047,52.460317460317455,-48.17460317460317,-325.0,-325.0,-325.0,-325.0,57.698412698412696,-105.47619047619047,-212.3015873015873,-325.0,54.52380952380952,325.0,54.841269841269835,325.0,325.0,-172.3015873015873,-106.58730158730158,-51.34920634920635,-46.904761904761905,-0.3968253968253968,-5.158730158730158,-321.8253968253968
-325.0,-93.73015873015872,51.34920634920635,-47.22222222222222,-325.0,-325.0,-325.0,-325.0,56.74603174603174,-103.57142857142857,-208.65079365079364,-325.0,53.57142857142857,325.0,53.73015873015873,325.0,325.0,-169.60317460317458,-104.84126984126983,-50.39682539682539,-46.269841269841265,-1.0317460317460316,-5.476190476190476,-321.8253968253968
-325.0,-93.73015873015872,51.34920634920635,-47.22222222222222,-325.0,-325.0,-325.0,-325.0,56.74603174603174,-103.57142857142857,-208.65079365079364,-325.0,53.57142857142857,325.0,53.73015873015873,325.0,325.0,-169.60317460317458,-104.84126984126983,-50.39682539682539,-46.269841269841265,-1.0317460317460316,-5.476190476190476,-321.8253968253968
-325.0,-91.82539682539682,50.079365079365076,-45.95238095238095,-325.0,-325.0,-325.0,-325.0,55.476190476190474,-101.34920634920634,-204.2063492063492,-325.0,52.460317460317455,325.0,52.460317460317455,325.0,325.0,-166.26984126984127,-102.61904761904762,-49.12698412698413,-45.0,-0.873015873015873,-1.1904761904761905,-321.8253968253968
-325.0,-91.82539682539682,50.079365079365076,-45.95238095238095,-325.0,-325.0,-325.0,-325.0,55.476190476190474,-101.34920634920634,-204.2063492063492,-325.0,52.460317460317455,325.0,52.460317460317455,325.0,325.0,-166.26984126984127,-102.61904761904762,-49.12698412698413,-45.0,-0.873015873015873,-1.1904761904761905,-321.8253968253968
-256.1111111111111,86.58730158730158,47.857142857142854,-44.047619047619044,-325.0,-325.0,-325.0,-325.0,52.93650793650794,-96.58730158730158,-157.2222222222222,-325.0,50.079365079365076,325.0,49.92063492063492,325.0,325.0,-158.8095238095238,-97.85714285714285,-47.22222222222222,-42.93650793650794,-1.984126984126984,-4.841269841269841,-321.8253968253968
-256.1111111111111,86.58730158730158,47.857142857142854,-44.047619047619044,-325.0,-325.0,-325.0,-325.0,52.93650793650794,-96.58730158730158,-157.2222222222222,-325.0,50.079365079365076,325.0,49.92063492063492,325.0,325.0,-158.8095238095238,-97.85714285714285,-47.22222222222222,-42.93650793650794,-1.984126984126984,-4.841269841269841,-321.8253968253968
-325.0,106.58730158730158,46.58730158730158,-42.93650793650794,-325.0,-325.0,-325.0,-325.0,51.666666666666664,-94.04761904761904,-192.14285714285714,-325.0,48.49206349206349,325.0,48.80952380952381,325.0,325.0,-154.84126984126982,-95.31746031746032,-45.95238095238095,-41.82539682539682,3.571428571428571,5.317460317460317,-166.26984126984127
-325.0,106.58730158730158,46.58730158730158,-42.93650793650794,-325.0,-325.0,-325.0,-325.0,51.666666666666664,-94.04761904761904,-192.14285714285714,-325.0,48.49206349206349,325.0,48.80952380952381,325.0,325.0,-154.84126984126982,-95.31746031746032,-45.95238095238095,-41.82539682539682,3.571428571428571,5.317460317460317,-166.26984126984127
-257.85714285714283,193.57142857142856,45.63492063492063,-42.14285714285714,-311.66666666666663,-325.0,-325.0,-325.0,50.39682539682539,-92.14285714285714,-142.14285714285714,-325.0,47.698412698412696,325.0,47.53968253968254,325.0,325.0,-151.8253968253968,-93.4126984126984,-45.0,-41.03174603174603,-0.873015873015873,-0.5555555555555556,-166.26984126984127
-257.85714285714283,193.57142857142856,45.63492063492063,-42.14285714285714,-311.66666666666663,-325.0,-325.0,-325.0,50.39682539682539,-92.14285714285714,-142.14285714285714,-325.0,47.698412698412696,325.0,47.53968253968254,325.0,325.0,-151.8253968253968,-93.4126984126984,-45.0,-41.03174603174603,-0.873015873015873,-0.5555555555555556,-166.26984126984127
-325.0,-86.1111111111111,44.84126984126984,-41.34920634920635,-325.0,-325.0,-325.0,-325.0,49.76190476190476,-90.39682539682539,-188.17460317460316,-325.0,46.74603174603175,325.0,46.904761904761905,325.0,325.0,-149.28571428571428,-91.5079365079365,-44.2063492063492,-40.079365079365076,4.2063492063492065,9.603174603174603,-166.26984126984127
-325.0,-86.1111111111111,44.84126984126984,-41.34920634920635,-325.0,-325.0,-325.0,-325.0,49.76190476190476,-90.39682539682539,-188.17460317460316,-325.0,46.74603174603175,325.0,46.904761904761905,325.0,325.0,-149.28571428571428,-91.5079365079365,-44.2063492063492,-40.079365079365076,4.2063492063492065,9.603174603174603,-166.26984126984127
-325.0,-92.93650793650794,44.047619047619044,-40.714285714285715,-325.0,-325.0,-325.0,-325.0,48.96825396825397,-89.28571428571428,-184.68253968253967,-325.0,46.11111111111111,325.0,46.269841269841265,325.0,198.33333333333331,-147.38095238095238,-90.39682539682539,-43.57142857142857,-39.6031746031746,4.365079365079365,6.111111111111111,-166.26984126984127
-325.0,-92.93650793650794,44.047619047619044,-40.714285714285715,-325.0,-325.0,-325.0,-325.0,48.96825396825397,-89.28571428571428,-184.68253968253967,-325.0,46.11111111111111,325.0,46.269841269841265,325.0,198.33333333333331,-147.38095238095238,-90.39682539682539,-43.57142857142857,-39.6031746031746,4.365079365079365,6.111111111111111,-166.26984126984127
-325.0,-100.87301587301587,43.25396825396825,-39.76190476190476,-325.0,-325.0,-325.0,-325.0,47.857142857142854,-87.06349206349206,-179.28571428571428,-325.0,45.317460317460316,325.0,45.317460317460316,325.0,-325.0,-144.2063492063492,-88.33333333333333,-42.3015873015873,-38.49206349206349,5.0,8.492063492063492,-166.26984126984127
-325.0,-100.87301587301587,43.25396825396825,-39.76190476190476,-325.0,-325.0,-325.0,-325.0,47.857142857142854,-87.06349206349206,-179.28571428571428,-325.0,45.317460317460316,325.0,45.317460317460316,325.0,-325.0,-144.2063492063492,-88.33333333333333,-42.3015873015873,-38.49206349206349,5.0,8.492063492063492,-166.26984126984127
-325.0,-87.85714285714285,41.666666666666664,-38.96825396825397,-308.3333333333333,-325.0,-325.0,-325.0,46.42857142857142,-84.68253968253968,-96.9047619047619,-325.0,44.047619047619044,325.0,43.888888888888886,325.0,325.0,-140.3968253968254,-85.95238095238095,-41.507936507936506,-37.53968253968254,2.619047619047619,5.476190476190476,-321.8253968253968
-325.0,-87.85714285714285,41.666666666666664,-38.96825396825397,-308.3333333333333,-325.0,-325.0,-325.0,46.42857142857142,-84.68253968253968,-96.9047619047619,-325.0,44.047619047619044,325.0,43.888888888888886,325.0,325.0,-140.3968253968254,-85.95238095238095,-41.507936507936506,-37.53968253968254,2.619047619047619,5.476190476190476,-321.8253968253968
-0.07936507936507936,-39.12698412698413,41.19047619047619,-38.33333333333333,16.587301587301585,-325.0,-325.0,-325.0,45.95238095238095,-83.73015873015872,150.87301587301587,-325.0,43.25396825396825,325.0,43.41269841269841,325.0,325.0,-138.8095238095238,-85.0,-40.87301587301587,-37.38095238095238,-1.1904761904761905,-0.873015873015873,-321.8253968253968
-0.07936507936507936,-39.12698412698413,41.19047619047619,-38.33333333333333,16.587301587301585,-325.0,-325.0,-325.0,45.95238095238095,-83.73015873015872,150.87301587301587,-325.0,43.25396825396825,325.0,43.41269841269841,325.0,325.0,-138.8095238095238,-85.0,-40.87301587301587,-37.38095238095238,-1.1904761904761905,-0.873015873015873,-321.8253968253968
325.0,148.4920634920635,40.079365079365076,-12.3015873015873,325.0,-325.0,68.01587301587301,-325.0,44.84126984126984,-81.98412698412697,325.0,-325.0,42.14285714285714,325.0,42.14285714285714,325.0,325.0,-135.63492063492063,-83.09523809523809,-40.39682539682539,-36.58730158730159,-2.3015873015873014,-1.0317460317460316,-321.8253968253968
325.0,148.4920634920635,40.079365079365076,-12.3015873015873,325.0,-325.0,68.01587301587301,-325.0,44.84126984126984,-81.98412698412697,325.0,-325.0,42.14285714285714,325.0,42.14285714285714,325.0,325.0,-135.63492063492063,-83.09523809523809,-40.39682539682539,-36.58730158730159,-2.3015873015873014,-1.0317460317460316,-321.8253968253968
325.0,307.22222222222223,39.44444444444444,55.0,325.0,-325.0,325.0,-325.0,43.888888888888886,-80.55555555555556,325.0,-325.0,41.507936507936506,325.0,41.34920634920635,325.0,325.0,-133.57142857142856,-81.82539682539682,-39.76190476190476,-36.269841269841265,-1.0317460317460316,-0.873015873015873,-321.8253968253968
325.0,307.22222222222223,39.44444444444444,55.0,325.0,-325.0,325.0,-325.0,43.888888888888886,-80.55555555555556,325.0,-325.0,41.507936507936506,325.0,41.34920634920635,325.0,325.0,-133.57142857142856,-81.82539682539682,-39.76190476190476,-36.269841269841265,-1.0317460317460316,-0.873015873015873,-321.8253968253968
325.0,325.0,38.01587301587301,230.87301587301587,325.0,-325.0,325.0,-325.0,42.460317460317455,-67.53968253968253,325.0,-325.0,40.079365079365076,325.0,40.079365079365076,325.0,325.0,-129.28571428571428,-79.28571428571428,-38.33333333333333,-34.84126984126984,-0.873015873015873,0.07936507936507936,-321.8253968253968
325.0,325.0,38.01587301587301,230.87301587301587,325.0,-325.0,325.0,-325.0,42.460317460317455,-67.53968253968253,325.0,-325.0,40.079365079365076,325.0,40.079365079365076,325.0,325.0,-129.28571428571428,-79.28571428571428,-38.33333333333333,-34.84126984126984,-0.873015873015873,0.07936507936507936,-321.8253968253968
325.0,325.0,37.22222222222222,289.6031746031746,325.0,-325.0,244.68253968253967,-325.0,41.507936507936506,-58.650793650793645,325.0,-325.0,39.44444444444444,325.0,38.96825396825397,325.0,325.0,-126.58730158730158,-77.38095238095238,-37.53968253968254,-34.047619047619044,-0.7142857142857142,2.46031746031746,-166.26984126984127
325.0,325.0,37.22222222222222,289.6031746031746,325.0,-325.0,244.68253968253967,-325.0,41.507936507936506,-58.650793650793645,325.0,-325.0,39.44444444444444,325.0,38.96825396825397,325.0,325.0,-126.58730158730158,-77.38095238095238,-37.53968253968254,-34.047619047619044,-0.7142857142857142,2.46031746031746,-166.26984126984127
325.0,325.0,36.74603174603175,325.0,325.0,-325.0,139.28571428571428,-325.0,41.03174603174603,-56.42857142857142,325.0,-325.0,38.80952380952381,325.0,38.49206349206349,325.0,325.0,-125.0,-76.26984126984127,-37.22222222222222,-33.57142857142857,-0.5555555555555556,-0.23809523809523808,-166.26984126984127
325.0,325.0,36.74603174603175,325.0,325.0,-325.0,139.28571428571428,-325.0,41.03174603174603,-56.42857142857142,325.0,-325.0,38.80952380952381,325.0,38.49206349206349,325.0,325.0,-125.0,-76.26984126984127,-37.22222222222222,-33.57142857142857,-0.5555555555555556,-0.23809523809523808,-166.26984126984127
325.0,325.0,35.79365079365079,325.0,325.0,-325.0,-141.8253968253968,-325.0,40.079365079365076,-14.84126984126984,325.0,-325.0,37.857142857142854,325.0,37.857142857142854,325.0,325.0,-122.46031746031746,-74.68253968253968,-36.42857142857142,-32.93650793650794,-0.5555555555555556,1.6666666666666665,-166.26984126984127
325.0,325.0,35.79365079365079,325.0,325.0,-325.0,-141.8253968253968,-325.0,40.079365079365076,-14.84126984126984,325.0,-325.0,37.857142857142854,325.0,37.857142857142854,325.0,325.0,-122.46031746031746,-74.68253968253968,-36.42857142857142,-32.93650793650794,-0.5555555555555556,1.6666666666666665,-166.26984126984127
295.3174603174603,325.0,35.0,325.0,325.0,-325.0,110.71428571428571,-325.0,39.285714285714285,-70.07936507936508,325.0,-325.0,37.22222222222222,325.0,37.06349206349206,325.0,325.0,-119.76190476190476,-72.93650793650794,-35.15873015873016,-31.98412698412698,0.873015873015873,2.46031746031746,-166.26984126984127
295.3174603174603,325.0,35.0,325.0,325.0,-325.0,110.71428571428571,-325.0,39.285714285714285,-70.07936507936508,325.0,-325.0,37.22222222222222,325.0,37.06349206349206,325.0,325.0,-119.76190476190476,-72.93650793650794,-35.15873015873016,-31.98412698412698,0.873015873015873,2.46031746031746,-166.26984126984127
325.0,325.0,34.2063492063492,325.0,325.0,-325.0,325.0,-325.0,38.33333333333333,-1.8253968253968254,325.0,-325.0,36.42857142857142,325.0,36.11111111111111,325.0,325.0,-117.53968253968253,-71.66666666666666,145.3174603174603,-31.507936507936506,-3.888888888888889,-7.3809523809523805,-166.26984126984127
325.0,325.0,34.2063492063492,325.0,325.0,-325.0,325.0,-325.0,38.33333333333333,-1.8253968253968254,325.0,-325.0,36.42857142857142,325.0,36.11111111111111,325.0,325.0,-117.53968253968253,-71.66666666666666,145.3174603174603,-31.507936507936506,-3.888888888888889,-7.3809523809523805,-166.26984126984127
325.0,310.23809523809524,33.57142857142857,325.0,325.0,-325.0,160.87301587301587,-325.0,37.698412698412696,7.698412698412698,325.0,-325.0,35.63492063492063,325.0,35.317460317460316,325.0,325.0,-115.15873015873015,-69.92063492063491,87.38095238095238,-30.71428571428571,0.873015873015873,-0.5555555555555556,-321.8253968253968
325.0,310.23809523809524,33.57142857142857,325.0,325.0,-325.0,160.87301587301587,-325.0,37.698412698412696,7.698412698412698,325.0,-325.0,35.63492063492063,325.0,35.317460317460316,325.0,325.0,-115.15873015873015,-69.92063492063491,87.38095238095238,-30.71428571428571,0.873015873015873,-0.5555555555555556,-321.8253968253968
325.0,246.9047619047619,32.77777777777778,325.0,325.0,-325.0,-87.38095238095238,-325.0,36.74603174603175,-26.26984126984127,325.0,-325.0,34.682539682539684,325.0,34.52380952380952,325.0,325.0,-112.93650793650794,-68.65079365079364,325.0,-30.07936507936508,0.873015873015873,-2.619047619047619,-321.8253968253968
325.0,246.9047619047619,32.77777777777778,325.0,325.0,-325.0,-87.38095238095238,-325.0,36.74603174603175,-26.26984126984127,325.0,-325.0,34.682539682539684,325.0,34.52380952380952,325.0,325.0,-112.93650793650794,-68.65079365079364,325.0,-30.07936507936508,0.873015873015873,-2.619047619047619,-321.8253968253968
325.0,168.96825396825395,32.460317460317455,325.0,325.0,-325.0,-191.34920634920633,-325.0,36.74603174603175,-64.68253968253968,325.0,-325.0,34.52380952380952,325.0,34.36507936507936,325.0,325.0,-112.6190476190476,-68.17460317460318,325.0,-29.920634920634917,4.0476190476190474,4.2063492063492065,-321.8253968253968
325.0,168.96825396825395,32.460317460317455,325.0,325.0,-325.0,-191.34920634920633,-325.0,36.74603174603175,-64.68253968253968,325.0,-325.0,34.52380952380952,325.0,34.36507936507936,325.0,325.0,-112.6190476190476,-68.17460317460318,325.0,-29.920634920634917,4.0476190476190474,4.2063492063492065,-321.8253968253968
269.76190476190476,325.0,31.03174603174603,325.0,325.0,-325.0,-154.04761904761904,-325.0,35.0,25.476190476190474,325.0,-325.0,33.095238095238095,325.0,32.77777777777778,325.0,325.0,-107.38095238095238,-65.15873015873015,325.0,-28.65079365079365,1.507936507936508,-2.3015873015873014,-321.8253968253968
269.76190476190476,325.0,31.03174603174603,325.0,325.0,-325.0,-154.04761904761904,-325.0,35.0,25.476190476190474,325.0,-325.0,33.095238095238095,325.0,32.77777777777778,325.0,325.0,-107.38095238095238,-65.15873015873015,325.0,-28.65079365079365,1.507936507936508,-2.3015873015873014,-321.8253968253968
-290.07936507936506,325.0,30.238095238095237,325.0,100.23809523809523,-325.0,-325.0,-325.0,34.047619047619044,16.904761904761905,325.0,-325.0,32.3015873015873,325.0,31.825396825396822,325.0,325.0,-104.36507936507935,-63.095238095238095,325.0,-27.539682539682538,5.476190476190476,8.174603174603174,-321.8253968253968
-290.07936507936506,325.0,30.238095238095237,325.0,100.23809523809523,-325.0,-325.0,-325.0,34.047619047619044,16.904761904761905,325.0,-325.0,32.3015873015873,325.0,31.825396825396822,325.0,325.0,-104.36507936507935,-63.095238095238095,325.0,-27.539682539682538,5.476190476190476,8.174603174603174,-321.8253968253968
41.34920634920635,325.0,29.444444444444443,325.0,298.968253968254,-325.0,-7.063492063492063,-325.0,33.25396825396825,125.79365079365078,325.0,-325.0,31.507936507936506,325.0,31.19047619047619,325.0,325.0,-102.61904761904762,-61.82539682539682,325.0,-27.063492063492063,-1.1904761904761905,-1.1904761904761905,-166.26984126984127
41.34920634920635,325.0,29.444444444444443,325.0,298.968253968254,-325.0,-7.063492063492063,-325.0,33.25396825396825,125.79365079365078,325.0,-325.0,31.507936507936506,325.0,31.19047619047619,325.0,325.0,-102.61904761904762,-61.82539682539682,325.0,-27.063492063492063,-1.1904761904761905,-1.1904761904761905,-166.26984126984127
305.7936507936508,325.0,28.96825396825397,325.0,325.0,-325.0,226.1111111111111,-325.0,32.61904761904762,188.015873015873,325.0,-325.0,30.87301587301587,325.0,30.71428571428571,325.0,325.0,-100.55555555555554,-60.71428571428571,325.0,-26.587301587301585,-0.3968253968253968,-0.5555555555555556,-166.26984126984127
305.7936507936508,325.0,28.96825396825397,325.0,325.0,-325.0,226.1111111111111,-325.0,32.61904761904762,188.015873015873,325.0,-325.0,30.87301587301587,325.0,30.71428571428571,325.0,325.0,-100.55555555555554,-60.71428571428571,325.0,-26.587301587301585,-0.3968253968253968,-0.5555555555555556,-166.26984126984127
-268.6507936507936,325.0,28.333333333333332,325.0,18.174603174603174,-325.0,-325.0,-325.0,31.98412698412698,111.98412698412697,263.0952380952381,-325.0,30.396825396825395,324.36507936507934,30.07936507936508,325.0,325.0,-98.65079365079364,-59.6031746031746,325.0,-25.952380952380953,1.984126984126984,-1.349206349206349,-166.26984126984127
-268.6507936507936,325.0,28.333333333333332,325.0,18.174603174603174,-325.0,-325.0,-325.0,31.98412698412698,111.98412698412697,263.0952380952381,-325.0,30.396825396825395,324.36507936507934,30.07936507936508,325.0,325.0,-98.65079365079364,-59.6031746031746,325.0,-25.952380952380953,1.984126984126984,-1.349206349206349,-166.26984126984127
-325.0,325.0,27.698412698412696,325.0,-297.6984126984127,-325.0,-325.0,-325.0,31.03174603174603,227.2222222222222,-218.17460317460316,-325.0,29.6031746031746,316.90476190476187,29.285714285714285,325.0,325.0,-96.1111111111111,-57.857142857142854,325.0,-25.158730158730158,-2.619047619047619,-7.222222222222221,-166.26984126984127
-325.0,325.0,27.698412698412696,325.0,-297.6984126984127,-325.0,-325.0,-325.0,31.03174603174603,227.2222222222222,-218.17460317460316,-325.0,29.6031746031746,316.90476190476187,29.285714285714285,325.0,325.0,-96.1111111111111,-57.857142857142854,325.0,-25.158730158730158,-2.619047619047619,-7.222222222222221,-166.26984126984127
-325.0,325.0,27.063492063492063,325.0,-325.0,-325.0,-325.0,-325.0,30.555555555555554,167.06349206349205,-295.0,-325.0,29.126984126984127,310.23809523809524,28.49206349206349,325.0,325.0,-94.04761904761904,-56.42857142857142,325.0,-24.365079365079364,-0.3968253968253968,-0.23809523809523808,-166.26984126984127
-325.0,325.0,27.063492063492063,325.0,-325.0,-325.0,-325.0,-325.0,30.555555555555554,167.06349206349205,-295.0,-325.0,29.126984126984127,310.23809523809524,28.49206349206349,325.0,325.0,-94.04761904761904,-56.42857142857142,325.0,-24.365079365079364,-0.3968253968253968,-0.23809523809523808,-166.26984126984127
-325.0,325.0,26.11111111111111,325.0,-167.85714285714286,-325.0,-325.0,-325.0,29.6031746031746,82.46031746031746,68.4920634920635,-325.0,28.174603174603174,300.87301587301585,27.698412698412696,325.0,325.0,-91.5079365079365,-55.0,325.0,-23.730158730158728,4.682539682539682,7.5396825396825395,-321.8253968253968
-325.0,325.0,26.11111111111111,325.0,-167.85714285714286,-325.0,-325.0,-325.0,29.6031746031746,82.46031746031746,68.4920634920635,-325.0,28.174603174603174,300.87301587301585,27.698412698412696,325.0,325.0,-91.5079365079365,-55.0,325.0,-23.730158730158728,4.682539682539682,7.5396825396825395,-321.8253968253968
-325.0,325.0,26.11111111111111,325.0,-325.0,-325.0,-325.0,-325.0,29.6031746031746,131.5079365079365,-188.015873015873,-325.0,28.015873015873016,299.6031746031746,27.698412698412696,325.0,325.0,-91.03174603174602,-54.68253968253968,325.0,-23.57142857142857,4.2063492063492065,8.809523809523808,-321.8253968253968
-325.0,325.0,26.11111111111111,325.0,-325.0,-325.0,-325.0,-325.0,29.6031746031746,131.5079365079365,-188.015873015873,-325.0,28.015873015873016,299.6031746031746,27.698412698412696,325.0,325.0,-91.03174603174602,-54.68253968253968,325.0,-23.57142857142857,4.2063492063492065,8.809523809523808,-321.8253968253968
-325.0,325.0,25.158730158730158,325.0,-254.04761904761904,-325.0,-325.0,-323.73015873015873,18.80952380952381,221.03174603174602,-58.01587301587301,-325.0,27.063492063492063,289.2857142857143,26.746031746031743,325.0,325.0,-87.85714285714285,-52.77777777777777,325.0,-22.936507936507937,-0.873015873015873,-0.3968253968253968,-321.8253968253968
-325.0,325.0,25.158730158730158,325.0,-254.04761904761904,-325.0,-325.0,-323.73015873015873,18.80952380952381,221.03174603174602,-58.01587301587301,-325.0,27.063492063492063,289.2857142857143,26.746031746031743,325.0,325.0,-87.85714285714285,-52.77777777777777,325.0,-22.936507936507937,-0.873015873015873,-0.3968253968253968,-321.8253968253968
-325.0,325.0,-150.07936507936506,325.0,-254.04761904761904,-324.36507936507934,-325.0,-312.77777777777777,-155.47619047619048,289.4444444444444,-110.55555555555554,-325.0,-149.12698412698413,278.17460317460313,-149.28571428571428,325.0,-0.07936507936507936,-84.2063492063492,-50.079365079365076,29.444444444444443,151.19047619047618,-2.142857142857143,-0.3968253968253968,-321.8253968253968
-325.0,325.0,-150.07936507936506,325.0,-254.04761904761904,-324.36507936507934,-325.0,-312.77777777777777,-155.47619047619048,289.4444444444444,-110.55555555555554,-325.0,-149.12698412698413,278.17460317460313,-149.28571428571428,325.0,-0.07936507936507936,-84.2063492063492,-50.079365079365076,29.444444444444443,151.19047619047618,-2.142857142857143,-0.3968253968253968,-321.8253968253968
-325.0,325.0,-325.0,325.0,-325.0,-321.031746031746,-325.0,-301.031746031746,-325.0,266.74603174603175,-325.0,-325.0,-325.0,267.53968253968253,-325.0,325.0,-325.0,-80.39682539682539,-47.38095238095238,-295.4761904761905,325.0,0.23809523809523808,-1.1904761904761905,-321.8253968253968
-325.0,325.0,-325.0,325.0,-325.0,-321.031746031746,-325.0,-301.031746031746,-325.0,266.74603174603175,-325.0,-325.0,-325.0,267.53968253968253,-325.0,325.0,-325.0,-80.39682539682539,-47.38095238095238,-295.4761904761905,325.0,0.23809523809523808,-1.1904761904761905,-321.8253968253968
-325.0,325.0,-325.0,325.0,-325.0,-314.5238095238095,-325.0,-294.8412698412698,-325.0,197.53968253968253,-325.0,-325.0,-325.0,261.66666666666663,-325.0,325.0,-325.0,-78.4920634920635,-46.42857142857142,-325.0,325.0,2.7777777777777777,6.26984126984127,-166.26984126984127
-325.0,325.0,-325.0,325.0,-325.0,-314.5238095238095,-325.0,-294.8412698412698,-325.0,197.53968253968253,-325.0,-325.0,-325.0,261.66666666666663,-325.0,325.0,-325.0,-78.4920634920635,-46.42857142857142,-325.0,325.0,2.7777777777777777,6.26984126984127,-166.26984126984127
-325.0,325.0,-325.0,325.0,-325.0,-309.2857142857143,-325.0,-290.23809523809524,-325.0,199.60317460317458,-325.0,-325.0,-325.0,257.22222222222223,-325.0,325.0,-325.0,-77.38095238095238,-45.476190476190474,-297.38095238095235,325.0,2.7777777777777777,6.26984126984127,-166.26984126984127
-325.0,325.0,-325.0,325.0,-325.0,-309.2857142857143,-325.0,-290.23809523809524,-325.0,199.60317460317458,-325.0,-325.0,-325.0,257.22222222222223,-325.0,325.0,-325.0,-77.38095238095238,-45.476190476190474,-297.38095238095235,325.0,2.7777777777777777,6.26984126984127,-166.26984126984127
-325.0,325.0,-325.0,325.0,-325.0,-303.0952380952381,-325.0,-284.2063492063492,-325.0,265.1587301587301,-325.0,-325.0,-325.0,251.66666666666666,-325.0,325.0,-325.0,-75.63492063492063,-44.36507936507936,-325.0,325.0,1.0317460317460316,5.7936507936507935,-166.26984126984127
-325.0,325.0,-325.0,325.0,-325.0,-303.0952380952381,-325.0,-284.2063492063492,-325.0,265.1587301587301,-325.0,-325.0,-325.0,251.66666666666666,-325.0,325.0,-325.0,-75.63492063492063,-44.36507936507936,-325.0,325.0,1.0317460317460316,5.7936507936507935,-166.26984126984127
-325.0,325.0,-325.0,325.0,-325.0,-299.4444444444444,-325.0,-280.87301587301585,-325.0,208.4920634920635,-325.0,-325.0,-325.0,248.49206349206347,-325.0,325.0,-325.0,-74.84126984126983,-43.888888888888886,-139.28571428571428,325.0,2.46031746031746,6.428571428571428,-166.26984126984127
-325.0,325.0,-325.0,325.0,-325.0,-299.4444444444444,-325.0,-280.87301587301585,-325.0,208.4920634920635,-325.0,-325.0,-325.0,248.49206349206347,-325.0,325.0,-325.0,-74.84126984126983,-43.888888888888886,-139.28571428571428,325.0,2.46031746031746,6.428571428571428,-166.26984126984127
-325.0,325.0,-325.0,325.0,-325.0,-290.07936507936506,-325.0,-272.1428571428571,-325.0,294.2063492063492,-325.0,-324.5238095238095,-325.0,239.76190476190476,-325.0,325.0,-325.0,-72.3015873015873,-42.61904761904761,-116.1111111111111,325.0,-3.253968253968254,-7.063492063492063,-166.26984126984127
-325.0,325.0,-325.0,325.0,-325.0,-290.07936507936506,-325.0,-272.1428571428571,-325.0,294.2063492063492,-325.0,-324.5238095238095,-325.0,239.76190476190476,-325.0,325.0,-325.0,-72.3015873015873,-42.61904761904761,-116.1111111111111,325.0,-3.253968253968254,-7.063492063492063,-166.26984126984127
-325.0,325.0,-325.0,325.0,-325.0,-285.1587301587301,-325.0,-267.6984126984127,-325.0,214.04761904761904,-325.0,-319.76190476190476,-325.0,235.79365079365078,-325.0,325.0,-325.0,-71.19047619047619,-41.82539682539682,118.65079365079364,325.0,2.9365079365079363,6.428571428571428,-321.8253968253968
-325.0,325.0,-325.0,325.0,-325.0,-285.1587301587301,-325.0,-267.6984126984127,-325.0,214.04761904761904,-325.0,-319.76190476190476,-325.0,235.79365079365078,-325.0,325.0,-325.0,-71.19047619047619,-41.82539682539682,118.65079365079364,325.0,2.9365079365079363,6.428571428571428,-321.8253968253968
-325.0,325.0,-325.0,325.0,-325.0,-278.3333333333333,-325.0,-261.3492063492063,-325.0,299.4444444444444,-325.0,-311.984126984127,-325.0,229.60317460317458,-325.0,325.0,-325.0,-69.44444444444444,-40.714285714285715,197.38095238095238,325.0,-2.7777777777777777,-1.507936507936508,-321.8253968253968
-325.0,325.0,-325.0,325.0,-325.0,-278.3333333333333,-325.0,-261.3492063492063,-325.0,299.4444444444444,-325.0,-311.984126984127,-325.0,229.60317460317458,-325.0,325.0,-325.0,-69.44444444444444,-40.714285714285715,197.38095238095238,325.0,-2.7777777777777777,-1.507936507936508,-321.8253968253968
-325.0,325.0,-325.0,325.0,-325.0,-270.23809523809524,-325.0,-254.2063492063492,-325.0,248.015873015873,-325.0,-302.9365079365079,-325.0,222.61904761904762,-325.0,325.0,-325.0,-67.53968253968253,-39.6031746031746,325.0,325.0,-3.095238095238095,-6.746031746031746,-321.8253968253968
-325.0,325.0,-325.0,325.0,-325.0,-270.23809523809524,-325.0,-254.2063492063492,-325.0,248.015873015873,-325.0,-302.9365079365079,-325.0,222.61904761904762,-325.0,325.0,-325.0,-67.53968253968253,-39.6031746031746,325.0,325.0,-3.095238095238095,-6.746031746031746,-321.8253968253968
-325.0,325.0,-325.0,325.0,-325.0,-261.8253968253968,-325.0,-245.95238095238093,-325.0,325.0,-325.0,-292.9365079365079,-325.0,214.84126984126982,-325.0,325.0,-325.0,-65.31746031746032,-38.49206349206349,325.0,325.0,-0.5555555555555556,4.365079365079365,-321.8253968253968
-325.0,325.0,-325.0,325.0,-325.0,-261.8253968253968,-325.0,-245.95238095238093,-325.0,325.0,-325.0,-292.9365079365079,-325.0,214.84126984126982,-325.0,325.0,-325.0,-65.31746031746032,-38.49206349206349,325.0,325.0,-0.5555555555555556,4.365079365079365,-321.8253968253968
-325.0,325.0,-325.0,325.0,-325.0,-257.53968253968253,-325.0,-242.14285714285714,-325.0,325.0,-325.0,-288.17460317460313,-325.0,211.19047619047618,-325.0,325.0,-325.0,-64.36507936507937,-37.857142857142854,325.0,325.0,-0.5555555555555556,4.523809523809524,-321.8253968253968
-325.0,325.0,-325.0,325.0,-325.0,-257.53968253968253,-325.0,-242.14285714285714,-325.0,325.0,-325.0,-288.17460317460313,-325.0,211.19047619047618,-325.0,325.0,-325.0,-64.36507936507937,-37.857142857142854,325.0,325.0,-0.5555555555555556,4.523809523809524,-321.8253968253968
-325.0,325.0,-325.0,325.0,-320.39682539682536,-236.42857142857142,-324.04761904761904,-222.46031746031744,-325.0,325.0,-319.2857142857143,-263.88888888888886,-325.0,192.61904761904762,-325.0,315.1587301587301,-325.0,-59.12698412698413,-34.682539682539684,325.0,325.0,-0.23809523809523808,-0.5555555555555556,-166.26984126984127
-325.0,325.0,-325.0,325.0,-320.39682539682536,-236.42857142857142,-324.04761904761904,-222.46031746031744,-325.0,325.0,-319.2857142857143,-263.88888888888886,-325.0,192.61904761904762,-325.0,315.1587301587301,-325.0,-59.12698412698413,-34.682539682539684,325.0,325.0,-0.23809523809523808,-0.5555555555555556,-166.26984126984127
-325.0,325.0,-325.0,325.0,-312.1428571428571,-212.46031746031744,-318.968253968254,-200.3968253968254,-325.0,325.0,-309.4444444444444,-236.58730158730157,-325.0,171.66666666666666,-325.0,298.17460317460313,-325.0,-53.25396825396825,-31.19047619047619,325.0,325.0,2.46031746031746,6.111111111111111,-166.26984126984127
-325.0,325.0,-325.0,325.0,-312.1428571428571,-212.46031746031744,-318.968253968254,-200.3968253968254,-325.0,325.0,-309.4444444444444,-236.58730158730157,-325.0,171.66666666666666,-325.0,298.17460317460313,-325.0,-53.25396825396825,-31.19047619047619,325.0,325.0,2.46031746031746,6.111111111111111,-166.26984126984127
-325.0,325.0,-325.0,325.0,-305.7936507936508,-208.33333333333331,-312.3015873015873,-196.74603174603175,-325.0,325.0,-302.9365079365079,-231.66666666666666,-325.0,168.015873015873,-325.0,298.968253968254,-325.0,-52.3015873015873,-30.555555555555554,325.0,325.0,0.07936507936507936,-1.0317460317460316,-166.26984126984127
-325.0,325.0,-325.0,325.0,-305.7936507936508,-208.33333333333331,-312.3015873015873,-196.74603174603175,-325.0,325.0,-302.9365079365079,-231.66666666666666,-325.0,168.015873015873,-325.0,298.968253968254,-325.0,-52.3015873015873,-30.555555555555554,325.0,325.0,0.07936507936507936,-1.0317460317460316,-166.26984126984127
-325.0,325.0,-325.0,325.0,-303.25396825396825,-206.58730158730157,-309.6031746031746,-195.0,-325.0,325.0,-300.39682539682536,-229.60317460317458,-325.0,166.58730158730157,-325.0,289.76190476190476,-325.0,-51.98412698412698,-30.238095238095237,325.0,325.0,5.7936507936507935,8.333333333333332,-166.26984126984127
-325.0,325.0,-325.0,325.0,-303.25396825396825,-206.58730158730157,-309.6031746031746,-195.0,-325.0,325.0,-300.39682539682536,-229.60317460317458,-325.0,166.58730158730157,-325.0,289.76190476190476,-325.0,-51.98412698412698,-30.238095238095237,325.0,325.0,5.7936507936507935,8.333333333333332,-166.26984126984127
-325.0,325.0,-325.0,325.0,-294.8412698412698,-200.7142857142857,-300.87301587301585,-189.60317460317458,-325.0,325.0,-291.8253968253968,-223.09523809523807,-325.0,161.34920634920633,-325.0,283.4126984126984,-325.0,-50.55555555555555,-29.6031746031746,325.0,325.0,2.46031746031746,2.9365079365079363,-166.26984126984127
-325.0,325.0,-325.0,325.0,-294.8412698412698,-200.7142857142857,-300.87301587301585,-189.60317460317458,-325.0,325.0,-291.8253968253968,-223.09523809523807,-325.0,161.34920634920633,-325.0,283.4126984126984,-325.0,-50.55555555555555,-29.6031746031746,325.0,325.0,2.46031746031746,2.9365079365079363,-166.26984126984127
-325.0,325.0,-325.0,325.0,-287.6984126984127,-195.95238095238093,-293.4126984126984,-185.15873015873015,-325.0,325.0,-284.5238095238095,-217.53968253968253,-325.0,157.2222222222222,-325.0,284.04761904761904,-325.0,-49.285714285714285,-28.809523809523807,325.0,325.0,-3.571428571428571,-7.5396825396825395,-321.8253968253968
-325.0,325.0,-325.0,325.0,-287.6984126984127,-195.95238095238093,-293.4126984126984,-185.15873015873015,-325.0,325.0,-284.5238095238095,-217.53968253968253,-325.0,157.2222222222222,-325.0,284.04761904761904,-325.0,-49.285714285714285,-28.809523809523807,325.0,325.0,-3.571428571428571,-7.5396825396825395,-321.8253968253968
-325.0,325.0,-325.0,325.0,-282.9365079365079,-192.77777777777777,-288.6507936507936,-182.14285714285714,-325.0,325.0,-279.9206349206349,-214.04761904761904,-325.0,154.52380952380952,-325.0,275.6349206349206,-325.0,-48.49206349206349,-28.333333333333332,325.0,325.0,0.5555555555555556,5.158730158730158,-321.8253968253968
-325.0,325.0,-325.0,325.0,-282.9365079365079,-192.77777777777777,-288.6507936507936,-182.14285714285714,-325.0,325.0,-279.9206349206349,-214.04761904761904,-325.0,154.52380952380952,-325.0,275.6349206349206,-325.0,-48.49206349206349,-28.333333333333332,325.0,325.0,0.5555555555555556,5.158730158730158,-321.8253968253968
-325.0,325.0,-325.0,325.0,-278.4920634920635,-189.76190476190476,-283.88888888888886,-179.44444444444443,-325.0,325.0,-275.3174603174603,-210.3968253968254,-325.0,151.8253968253968,-325.0,265.4761904761905,-325.0,-47.857142857142854,-27.698412698412696,325.0,325.0,1.507936507936508,5.634920634920634,-321.8253968253968
-325.0,325.0,-325.0,325.0,-278.4920634920635,-189.76190476190476,-283.88888888888886,-179.44444444444443,-325.0,325.0,-275.3174603174603,-210.3968253968254,-325.0,151.8253968253968,-325.0,265.4761904761905,-325.0,-47.857142857142854,-27.698412698412696,325.0,325.0,1.507936507936508,5.634920634920634,-321.8253968253968
-325.0,325.0,-325.0,325.0,-271.8253968253968,-185.15873015873015,-276.90476190476187,-175.0,-325.0,325.0,-268.3333333333333,-205.15873015873015,-325.0,147.85714285714286,-325.0,269.44444444444446,-325.0,-46.58730158730158,-27.22222222222222,325.0,325.0,-3.4126984126984126,-4.0476190476190474,-321.8253968253968
-325.0,325.0,-325.0,325.0,-271.8253968253968,-185.15873015873015,-276.90476190476187,-175.0,-325.0,325.0,-268.3333333333333,-205.15873015873015,-325.0,147.85714285714286,-325.0,269.44444444444446,-325.0,-46.58730158730158,-27.22222222222222,325.0,325.0,-3.4126984126984126,-4.0476190476190474,-321.8253968253968
-325.0,325.0,-325.0,325.0,-267.38095238095235,-182.14285714285714,-272.3015873015873,-172.3015873015873,-325.0,325.0,-263.88888888888886,-201.98412698412696,-325.0,145.15873015873015,-325.0,243.4126984126984,-325.0,-45.95238095238095,-26.9047619047619,325.0,325.0,1.8253968253968254,3.253968253968254,-321.8253968253968
-325.0,325.0,-325.0,325.0,-267.38095238095235,-182.14285714285714,-272.3015873015873,-172.3015873015873,-325.0,325.0,-263.88888888888886,-201.98412698412696,-325.0,145.15873015873015,-325.0,243.4126984126984,-325.0,-45.95238095238095,-26.9047619047619,325.0,325.0,1.8253968253968254,3.253968253968254,-321.8253968253968
-325.0,325.0,-325.0,325.0,-263.25396825396825,-179.28571428571428,-267.85714285714283,-169.44444444444443,-325.0,325.0,-259.44444444444446,-198.65079365079364,-325.0,142.77777777777777,-325.0,260.07936507936506,-325.0,-45.317460317460316,-26.428571428571427,325.0,325.0,-3.253968253968254,-4.682539682539682,-166.26984126984127
-325.0,325.0,-325.0,325.0,-263.25396825396825,-179.28571428571428,-267.85714285714283,-169.44444444444443,-325.0,325.0,-259.44444444444446,-198.65079365079364,-325.0,142.77777777777777,-325.0,260.07936507936506,-325.0,-45.317460317460316,-26.428571428571427,325.0,325.0,-3.253968253968254,-4.682539682539682,-166.26984126984127
-325.0,325.0,-325.0,325.0,-258.8095238095238,-176.58730158730157,-263.4126984126984,-166.74603174603175,-325.0,325.0,-255.15873015873015,-195.3174603174603,-325.0,140.23809523809524,-325.0,258.3333333333333,-325.0,-44.68253968253968,-26.11111111111111,325.0,325.0,-3.095238095238095,-4.841269841269841,-166.26984126984127
-325.0,325.0,-325.0,325.0,-258.8095238095238,-176.58730158730157,-263.4126984126984,-166.74603174603175,-325.0,325.0,-255.15873015873015,-195.3174603174603,-325.0,140.23809523809524,-325.0,258.3333333333333,-325.0,-44.68253968253968,-26.11111111111111,325.0,325.0,-3.095238095238095,-4.841269841269841,-166.26984126984127
-321.984126984127,325.0,-325.0,322.9365079365079,-251.8253968253968,-171.34920634920633,-255.63492063492063,-162.46031746031744,-325.0,325.0,-247.69841269841268,-189.60317460317458,-325.0,135.95238095238093,-325.0,245.79365079365078,-325.0,-43.41269841269841,-25.158730158730158,325.0,325.0,-0.23809523809523808,-1.507936507936508,-166.26984126984127
-321.984126984127,325.0,-325.0,322.9365079365079,-251.8253968253968,-171.34920634920633,-255.63492063492063,-162.46031746031744,-325.0,325.0,-247.69841269841268,-189.60317460317458,-325.0,135.95238095238093,-325.0,245.79365079365078,-325.0,-43.41269841269841,-25.158730158730158,325.0,325.0,-0.23809523809523808,-1.507936507936508,-166.26984126984127
-313.88888888888886,325.0,-325.0,315.6349206349206,-245.63492063492063,-167.2222222222222,-249.12698412698413,-158.33333333333331,-325.0,325.0,-241.5079365079365,-184.68253968253967,-325.0,132.3015873015873,-325.0,245.63492063492063,-325.0,-42.460317460317455,-24.68253968253968,325.0,325.0,-4.365079365079365,-10.714285714285714,-166.26984126984127
-313.88888888888886,325.0,-325.0,315.6349206349206,-245.63492063492063,-167.2222222222222,-249.12698412698413,-158.33333333333331,-325.0,325.0,-241.5079365079365,-184.68253968253967,-325.0,132.3015873015873,-325.0,245.63492063492063,-325.0,-42.460317460317455,-24.68253968253968,325.0,325.0,-4.365079365079365,-10.714285714285714,-166.26984126984127
-307.38095238095235,325.0,-325.0,308.8095238095238,-240.87301587301587,-163.88888888888889,-244.2063492063492,-155.15873015873015,-325.0,325.0,-236.58730158730157,-181.19047619047618,-325.0,129.44444444444443,-325.0,226.42857142857142,-325.0,-41.666666666666664,-24.206349206349206,325.0,325.0,0.873015873015873,5.7936507936507935,-166.26984126984127
-307.38095238095235,325.0,-325.0,308.8095238095238,-240.87301587301587,-163.88888888888889,-244.2063492063492,-155.15873015873015,-325.0,325.0,-236.58730158730157,-181.19047619047618,-325.0,129.44444444444443,-325.0,226.42857142857142,-325.0,-41.666666666666664,-24.206349206349206,325.0,325.0,0.873015873015873,5.7936507936507935,-166.26984126984127
-300.87301587301585,325.0,-325.0,302.3015873015873,-235.95238095238093,-160.7142857142857,-239.12698412698413,-151.984126984127,-325.0,325.0,-231.66666666666666,-177.38095238095238,-325.0,126.42857142857142,-325.0,231.98412698412696,-324.68253968253964,-40.714285714285715,-23.88888888888889,325.0,325.0,-0.5555555555555556,-0.07936507936507936,-321.8253968253968
-300.87301587301585,325.0,-325.0,302.3015873015873,-235.95238095238093,-160.7142857142857,-239.12698412698413,-151.984126984127,-325.0,325.0,-231.66666666666666,-177.38095238095238,-325.0,126.42857142857142,-325.0,231.98412698412696,-324.68253968253964,-40.714285714285715,-23.88888888888889,325.0,325.0,-0.5555555555555556,-0.07936507936507936,-321.8253968253968
-294.5238095238095,325.0,-325.0,296.26984126984127,-231.19047619047618,-157.38095238095238,-234.04761904761904,-149.12698412698413,-325.0,325.0,-226.74603174603175,-173.88888888888889,-325.0,123.73015873015872,-325.0,230.2380952380952,-320.23809523809524,-40.079365079365076,-23.41269841269841,325.0,325.0,-3.095238095238095,-5.317460317460317,-321.8253968253968
-294.5238095238095,325.0,-325.0,296.26984126984127,-231.19047619047618,-157.38095238095238,-234.04761904761904,-149.12698412698413,-325.0,325.0,-226.74603174603175,-173.88888888888889,-325.0,123.73015873015872,-325.0,230.2380952380952,-320.23809523809524,-40.079365079365076,-23.41269841269841,325.0,325.0,-3.095238095238095,-5.317460317460317,-321.8253968253968
-289.76190476190476,325.0,-325.0,291.19047619047615,-227.38095238095238,-154.84126984126982,-230.2380952380952,-146.74603174603175,-325.0,325.0,-223.09523809523807,-170.87301587301587,-325.0,121.66666666666666,-325.0,214.68253968253967,-314.8412698412698,-39.44444444444444,-15.0,325.0,325.0,2.46031746031746,3.571428571428571,-321.8253968253968
-289.76190476190476,325.0,-325.0,291.19047619047615,-227.38095238095238,-154.84126984126982,-230.2380952380952,-146.74603174603175,-325.0,325.0,-223.09523809523807,-170.87301587301587,-325.0,121.66666666666666,-325.0,214.68253968253967,-314.8412698412698,-39.44444444444444,-15.0,325.0,325.0,2.46031746031746,3.571428571428571,-321.8253968253968
-282.3015873015873,305.95238095238096,-325.0,283.73015873015873,-221.98412698412696,-150.87301587301587,-224.68253968253967,-143.25396825396825,-325.0,325.0,-217.38095238095238,-166.9047619047619,-325.0,118.49206349206348,-325.0,220.07936507936506,-306.74603174603175,-38.65079365079365,9.761904761904761,325.0,325.0,-2.46031746031746,-5.476190476190476,-321.8253968253968
-282.3015873015873,305.95238095238096,-325.0,283.73015873015873,-221.98412698412696,-150.87301587301587,-224.68253968253967,-143.25396825396825,-325.0,325.0,-217.38095238095238,-166.9047619047619,-325.0,118.49206349206348,-325.0,220.07936507936506,-306.74603174603175,-38.65079365079365,9.761904761904761,325.0,325.0,-2.46031746031746,-5.476190476190476,-321.8253968253968
-277.38095238095235,252.6190476190476,-325.0,278.968253968254,-218.33333333333331,-148.65079365079364,-220.7142857142857,-140.87301587301587,-325.0,325.0,-213.7301587301587,-163.88888888888889,-325.0,116.26984126984127,-325.0,214.68253968253967,-301.5079365079365,-37.857142857142854,22.142857142857142,325.0,325.0,0.23809523809523808,5.158730158730158,-321.8253968253968
-277.38095238095235,252.6190476190476,-325.0,278.968253968254,-218.33333333333331,-148.65079365079364,-220.7142857142857,-140.87301587301587,-325.0,325.0,-213.7301587301587,-163.88888888888889,-325.0,116.26984126984127,-325.0,214.68253968253967,-301.5079365079365,-37.857142857142854,22.142857142857142,325.0,325.0,0.23809523809523808,5.158730158730158,-321.8253968253968
-272.9365079365079,244.84126984126982,-325.0,274.36507936507934,-214.84126984126982,-146.11111111111111,-217.06349206349205,-138.8095238095238,-325.0,325.0,-210.2380952380952,-161.03174603174602,-325.0,114.36507936507935,-325.0,199.12698412698413,-296.4285714285714,-37.38095238095238,32.77777777777778,325.0,325.0,-2.142857142857143,-5.634920634920634,-166.26984126984127
-272.9365079365079,244.84126984126982,-325.0,274.36507936507934,-214.84126984126982,-146.11111111111111,-217.06349206349205,-138.8095238095238,-325.0,325.0,-210.2380952380952,-161.03174603174602,-325.0,114.36507936507935,-325.0,199.12698412698413,-296.4285714285714,-37.38095238095238,32.77777777777778,325.0,325.0,-2.142857142857143,-5.634920634920634,-166.26984126984127
-267.06349206349205,228.015873015873,-325.0,268.3333333333333,-210.3968253968254,-143.09523809523807,-212.61904761904762,-135.95238095238093,-325.0,325.0,-205.79365079365078,-157.85714285714286,-325.0,111.82539682539682,-325.0,198.33333333333331,-290.23809523809524,-36.58730158730159,127.53968253968253,325.0,325.0,-0.873015873015873,-0.3968253968253968,-166.26984126984127
-267.06349206349205,228.015873015873,-325.0,268.3333333333333,-210.3968253968254,-143.09523809523807,-212.61904761904762,-135.95238095238093,-325.0,325.0,-205.79365079365078,-157.85714285714286,-325.0,111.82539682539682,-325.0,198.33333333333331,-290.23809523809524,-36.58730158730159,127.53968253968253,325.0,325.0,-0.873015873015873,-0.3968253968253968,-166.26984126984127
-261.5079365079365,301.8253968253968,-325.0,262.77777777777777,-206.1111111111111,-140.23809523809524,-208.33333333333331,-133.0952380952381,-325.0,325.0,-201.66666666666666,-154.68253968253967,-325.0,109.28571428571428,-325.0,202.93650793650792,-284.04761904761904,-35.15873015873016,182.3015873015873,325.0,325.0,-4.2063492063492065,-5.317460317460317,-166.26984126984127
-261.5079365079365,301.8253968253968,-325.0,262.77777777777777,-206.1111111111111,-140.23809523809524,-208.33333333333331,-133.0952380952381,-325.0,325.0,-201.66666666666666,-154.68253968253967,-325.0,109.28571428571428,-325.0,202.93650793650792,-284.04761904761904,-35.15873015873016,182.3015873015873,325.0,325.0,-4.2063492063492065,-5.317460317460317,-166.26984126984127
-258.17460317460313,299.1269841269841,-325.0,259.2857142857143,-203.57142857142856,-138.65079365079364,-205.63492063492063,-131.34920634920636,-325.0,325.0,-199.12698412698413,-152.61904761904762,-325.0,107.6984126984127,-325.0,196.11111111111111,-280.23809523809524,-33.888888888888886,255.47619047619045,325.0,325.0,-3.253968253968254,-0.5555555555555556,-166.26984126984127
-258.17460317460313,299.1269841269841,-325.0,259.2857142857143,-203.57142857142856,-138.65079365079364,-205.63492063492063,-131.34920634920636,-325.0,325.0,-199.12698412698413,-152.61904761904762,-325.0,107.6984126984127,-325.0,196.11111111111111,-280.23809523809524,-33.888888888888886,255.47619047619045,325.0,325.0,-3.253968253968254,-0.5555555555555556,-166.26984126984127
-248.49206349206347,287.85714285714283,-324.68253968253964,249.76190476190476,-196.26984126984127,-133.57142857142856,-198.015873015873,-126.9047619047619,-325.0,325.0,-191.66666666666666,-147.06349206349205,-325.0,103.73015873015872,-325.0,195.95238095238093,-269.6031746031746,-28.65079365079365,160.07936507936506,325.0,325.0,-3.253968253968254,-5.634920634920634,-166.26984126984127
-248.49206349206347,287.85714285714283,-324.68253968253964,249.76190476190476,-196.26984126984127,-133.57142857142856,-198.015873015873,-126.9047619047619,-325.0,325.0,-191.66666666666666,-147.06349206349205,-325.0,103.73015873015872,-325.0,195.95238095238093,-269.6031746031746,-28.65079365079365,160.07936507936506,325.0,325.0,-3.253968253968254,-5.634920634920634,-166.26984126984127
-244.04761904761904,283.0952380952381,-320.23809523809524,245.47619047619045,-193.4126984126984,-131.34920634920636,-194.68253968253967,-124.84126984126983,-324.36507936507934,325.0,-188.4920634920635,-144.36507936507937,-323.25396825396825,101.82539682539682,-325.0,166.42857142857142,-265.0,-33.73015873015873,230.87301587301587,324.36507936507934,322.1428571428571,3.888888888888889,4.365079365079365,-321.8253968253968
-244.04761904761904,283.0952380952381,-320.23809523809524,245.47619047619045,-193.4126984126984,-131.34920634920636,-194.68253968253967,-124.84126984126983,-324.36507936507934,325.0,-188.4920634920635,-144.36507936507937,-323.25396825396825,101.82539682539682,-325.0,166.42857142857142,-265.0,-33.73015873015873,230.87301587301587,324.36507936507934,322.1428571428571,3.888888888888889,4.365079365079365,-321.8253968253968
-238.015873015873,265.4761904761905,-312.46031746031747,239.28571428571428,-188.65079365079364,-128.33333333333331,-190.07936507936506,-121.98412698412697,-317.22222222222223,325.0,-183.88888888888889,-140.87301587301587,-315.1587301587301,99.12698412698413,-323.57142857142856,185.63492063492063,-258.17460317460313,-1.349206349206349,323.88888888888886,317.06349206349205,313.88888888888886,-1.0317460317460316,-4.841269841269841,-321.8253968253968
-238.015873015873,265.4761904761905,-312.46031746031747,239.28571428571428,-188.65079365079364,-128.33333333333331,-190.07936507936506,-121.98412698412697,-317.22222222222223,325.0,-183.88888888888889,-140.87301587301587,-315.1587301587301,99.12698412698413,-323.57142857142856,185.63492063492063,-258.17460317460313,-1.349206349206349,323.88888888888886,317.06349206349205,313.88888888888886,-1.0317460317460316,-4.841269841269841,-321.8253968253968
-234.2063492063492,249.44444444444443,-307.22222222222223,235.47619047619045,-185.63492063492063,-125.95238095238095,-186.74603174603175,-120.07936507936508,-311.8253968253968,325.0,-180.7142857142857,-138.4920634920635,-310.07936507936506,97.38095238095238,-318.3333333333333,182.93650793650792,-253.88888888888889,-12.936507936507935,325.0,311.984126984127,308.4920634920635,0.873015873015873,3.571428571428571,-321.8253968253968
-234.2063492063492,249.44444444444443,-307.22222222222223,235.47619047619045,-185.63492063492063,-125.95238095238095,-186.74603174603175,-120.07936507936508,-311.8253968253968,325.0,-180.7142857142857,-138.4920634920635,-310.07936507936506,97.38095238095238,-318.3333333333333,182.93650793650792,-253.88888888888889,-12.936507936507935,325.0,311.984126984127,308.4920634920635,0.873015873015873,3.571428571428571,-321.8253968253968
-230.07936507936506,267.6984126984127,-302.1428571428571,231.19047619047618,-182.61904761904762,-124.04761904761904,-183.7301587301587,-118.01587301587301,-307.06349206349205,325.0,-177.85714285714286,-136.42857142857142,-304.68253968253964,95.63492063492063,-313.4126984126984,175.3174603174603,-249.44444444444443,-12.619047619047619,325.0,306.90476190476187,303.4126984126984,-0.873015873015873,-4.841269841269841,-321.8253968253968
-230.07936507936506,267.6984126984127,-302.1428571428571,231.19047619047618,-182.61904761904762,-124.04761904761904,-183.7301587301587,-118.01587301587301,-307.06349206349205,325.0,-177.85714285714286,-136.42857142857142,-304.68253968253964,95.63492063492063,-313.4126984126984,175.3174603174603,-249.44444444444443,-12.619047619047619,325.0,306.90476190476187,303.4126984126984,-0.873015873015873,-4.841269841269841,-321.8253968253968
-225.0,261.66666666666663,-296.1111111111111,226.42857142857142,-178.96825396825395,-121.66666666666666,-179.76190476190476,-115.95238095238095,-300.55555555555554,325.0,-174.04761904761904,-133.4126984126984,-298.6507936507936,93.57142857142857,-307.06349206349205,174.68253968253967,-244.2063492063492,-16.587301587301585,325.0,300.39682539682536,296.58730158730157,-0.07936507936507936,-0.23809523809523808,-321.8253968253968
-225.0,261.66666666666663,-296.1111111111111,226.42857142857142,-178.96825396825395,-121.66666666666666,-179.76190476190476,-115.95238095238095,-300.55555555555554,325.0,-174.04761904761904,-133.4126984126984,-298.6507936507936,93.57142857142857,-307.06349206349205,174.68253968253967,-244.2063492063492,-16.587301587301585,325.0,300.39682539682536,296.58730158730157,-0.07936507936507936,-0.23809523809523808,-321.8253968253968
-218.4920634920635,253.25396825396825,-287.38095238095235,219.76190476190476,-173.88888888888889,-118.17460317460316,-174.68253968253967,-112.46031746031746,-292.3015873015873,82.61904761904762,-169.12698412698413,-129.44444444444443,-289.9206349206349,90.71428571428571,-298.6507936507936,157.53968253968253,-236.9047619047619,9.920634920634921,325.0,291.8253968253968,288.015873015873,-0.5555555555555556,-4.523809523809524,-166.26984126984127
-218.4920634920635,253.25396825396825,-287.38095238095235,219.76190476190476,-173.88888888888889,-118.17460317460316,-174.68253968253967,-112.46031746031746,-292.3015873015873,82.61904761904762,-169.12698412698413,-129.44444444444443,-289.9206349206349,90.71428571428571,-298.6507936507936,157.53968253968253,-236.9047619047619,9.920634920634921,325.0,291.8253968253968,288.015873015873,-0.5555555555555556,-4.523809523809524,-166.26984126984127
-215.63492063492063,251.5079365079365,-283.73015873015873,216.9047619047619,-171.8253968253968,-116.74603174603173,-172.3015873015873,-111.03174603174602,-288.8095238095238,-75.95238095238095,-167.06349206349205,-127.6984126984127,-286.1111111111111,89.6031746031746,-294.8412698412698,173.88888888888889,-233.7301587301587,47.53968253968254,325.0,288.3333333333333,284.2063492063492,-4.682539682539682,-10.238095238095237,-166.26984126984127
-215.63492063492063,251.5079365079365,-283.73015873015873,216.9047619047619,-171.8253968253968,-116.74603174603173,-172.3015873015873,-111.03174603174602,-288.8095238095238,-75.95238095238095,-167.06349206349205,-127.6984126984127,-286.1111111111111,89.6031746031746,-294.8412698412698,173.88888888888889,-233.7301587301587,47.53968253968254,325.0,288.3333333333333,284.2063492063492,-4.682539682539682,-10.238095238095237,-166.26984126984127
-215.63492063492063,251.5079365079365,-283.73015873015873,216.9047619047619,-171.8253968253968,-116.74603174603173,-172.3015873015873,-111.03174603174602,-288.8095238095238,-75.95238095238095,-167.06349206349205,-127.6984126984127,-286.1111111111111,89.6031746031746,-294.8412698412698,173.88888888888889,-233.7301587301587,47.53968253968254,325.0,288.3333333333333,284.2063492063492,-4.682539682539682,-10.238095238095237,-166.26984126984127
-215.63492063492063,251.5079365079365,-283.73015873015873,216.9047619047619,-171.8253968253968,-116.74603174603173,-172.3015873015873,-111.03174603174602,-288.8095238095238,-75.95238095238095,-167.06349206349205,-127.6984126984127,-286.1111111111111,89.6031746031746,-294.8412698412698,173.88888888888889,-233.7301587301587,47.53968253968254,325.0,288.3333333333333,284.2063492063492,-4.682539682539682,-10.238095238095237,-166.26984126984127
-215.63492063492063,251.5079365079365,-283.73015873015873,216.9047619047619,-171.8253968253968,-116.74603174603173,-172.3015873015873,-111.03174603174602,-288.8095238095238,-75.95238095238095,-167.06349206349205,-127.6984126984127,-286.1111111111111,89.6031746031746,-294.8412698412698,173.88888888888889,-233.7301587301587,47.53968253968254,325.0,288.3333333333333,284.2063492063492,-4.682539682539682,-10.238095238095237,-166.26984126984127
-215.63492063492063,251.5079365079365,-283.73015873015873,216.9047619047619,-171.8253968253968,-116.74603174603173,-172.3015873015873,-111.03174603174602,-288.8095238095238,-75.95238095238095,-167.06349206349205,-127.6984126984127,-286.1111111111111,89.6031746031746,-294.8412698412698,173.88888888888889,-233.7301587301587,47.53968253968254,325.0,288.3333333333333,284.2063492063492,-4.682539682539682,-10.238095238095237,-166.26984126984127
-215.63492063492063,251.5079365079365,-283.73015873015873,216.9047619047619,-171.8253968253968,-116.74603174603173,-172.3015873015873,-111.03174603174602,-288.8095238095238,-75.95238095238095,-167.06349206349205,-127.6984126984127,-286.1111111111111,89.6031746031746,-294.8412698412698,173.88888888888889,-233.7301587301587,47.53968253968254,325.0,288.3333333333333,284.2063492063492,-4.682539682539682,-10.238095238095237,-166.26984126984127
-215.63492063492063,251.5079365079365,-283.73015873015873,216.9047619047619,-171.8253968253968,-116.74603174603173,-172.3015873015873,-111.03174603174602,-288.8095238095238,-75.95238095238095,-167.06349206349205,-127.6984126984127,-286.1111111111111,89.6031746031746,-294.8412698412698,173.88888888888889,-233.7301587301587,47.53968253968254,325.0,288.3333333333333,284.2063492063492,-4.682539682539682,-10.238095238095237,-166.26984126984127
-215.63492063492063,251.5079365079365,-283.73015873015873,216.9047619047619,-171.8253968253968,-116.74603174603173,-172.3015873015873,-111.03174603174602,-288.8095238095238,-75.95238095238095,-167.06349206349205,-127.6984126984127,-286.1111111111111,89.6031746031746,-294.8412698412698,173.88888888888889,-233.7301587301587,47.53968253968254,325.0,288.3333333333333,284.2063492063492,-4.682539682539682,-10.238095238095237,-321.8253968253968
-215.63492063492063,251.5079365079365,-283.73015873015873,216.9047619047619,-171.8253968253968,-116.74603174603173,-172.3015873015873,-111.03174603174602,-288.8095238095238,-75.95238095238095,-167.06349206349205,-127.6984126984127,-286.1111111111111,89.6031746031746,-294.8412698412698,173.88888888888889,-233.7301587301587,47.53968253968254,325.0,288.3333333333333,284.2063492063492,-4.682539682539682,-10.238095238095237,-321.8253968253968
-215.63492063492063,251.5079365079365,-283.73015873015873,216.9047619047619,-171.8253968253968,-116.74603174603173,-172.3015873015873,-111.03174603174602,-288.8095238095238,-75.95238095238095,-167.06349206349205,-127.6984126984127,-286.1111111111111,89.6031746031746,-294.8412698412698,173.88888888888889,-233.7301587301587,47.53968253968254,325.0,288.3333333333333,284.2063492063492,-4.682539682539682,-10.238095238095237,-321.8253968253968
-215.63492063492063,251.5079365079365,-283.73015873015873,216.9047619047619,-171.8253968253968,-116.74603174603173,-172.3015873015873,-111.03174603174602,-288.8095238095238,-75.95238095238095,-167.06349206349205,-127.6984126984127,-286.1111111111111,89.6031746031746,-294.8412698412698,173.88888888888889,-233.7301587301587,47.53968253968254,325.0,288.3333333333333,284.2063492063492,-4.682539682539682,-10.238095238095237,-321.8253968253968
-235.95238095238093,251.5079365079365,-283.73015873015873,237.2222222222222,-171.8253968253968,-96.42857142857142,132.46031746031744,-111.03174603174602,-288.8095238095238,-75.95238095238095,-167.06349206349205,-127.6984126984127,-286.1111111111111,89.6031746031746,-294.8412698412698,173.88888888888889,-233.7301587301587,47.53968253968254,325.0,288.3333333333333,284.2063492063492,-4.682539682539682,-10.238095238095237,-321.8253968253968
-235.95238095238093,251.5079365079365,-283.73015873015873,237.2222222222222,-171.8253968253968,-96.42857142857142,132.46031746031744,-111.03174603174602,-288.8095238095238,-75.95238095238095,-167.06349206349205,-127.6984126984127,-286.1111111111111,89.6031746031746,-294.8412698412698,173.88888888888889,-233.7301587301587,47.53968253968254,325.0,288.3333333333333,284.2063492063492,-4.682539682539682,-10.238095238095237,-321.8253968253968
-235.95238095238093,251.5079365079365,-283.73015873015873,237.2222222222222,-171.8253968253968,-96.42857142857142,132.46031746031744,-111.03174603174602,-288.8095238095238,-75.95238095238095,-167.06349206349205,-127.6984126984127,-286.1111111111111,89.6031746031746,-294.8412698412698,173.88888888888889,-233.7301587301587,47.53968253968254,325.0,288.3333333333333,284.2063492063492,-4.682539682539682,-10.238095238095237,-321.8253968253968
-235.95238095238093,251.5079365079365,-283.73015873015873,237.2222222222222,-171.8253968253968,-96.42857142857142,132.46031746031744,-111.03174603174602,-288.8095238095238,-75.95238095238095,-167.06349206349205,-127.6984126984127,-286.1111111111111,89.6031746031746,-294.8412698412698,173.88888888888889,-233.7301587301587,47.53968253968254,325.0,288.3333333333333,284.2063492063492,-4.682539682539682,-10.238095238095237,-321.8253968253968
-182.14285714285714,212.61904761904762,325.0,182.77777777777777,325.0,-99.6031746031746,-146.11111111111111,-95.15873015873015,-237.38095238095238,55.95238095238095,325.0,-108.33333333333333,325.0,75.0,158.8095238095238,146.9047619047619,325.0,244.04761904761904,325.0,244.04761904761904,238.96825396825395,-5.0,-10.396825396825395,-321.8253968253968
-182.14285714285714,212.61904761904762,325.0,182.77777777777777,325.0,-99.6031746031746,-146.11111111111111,-95.15873015873015,-237.38095238095238,55.95238095238095,325.0,-108.33333333333333,325.0,75.0,158.8095238095238,146.9047619047619,325.0,244.04761904761904,325.0,244.04761904761904,238.96825396825395,-5.0,-10.396825396825395,-321.8253968253968
-176.74603174603175,206.1111111111111,216.74603174603175,177.38095238095238,325.0,-96.58730158730158,-141.66666666666666,-92.46031746031746,-238.33333333333331,51.19047619047619,325.0,-105.15873015873015,214.2063492063492,72.61904761904762,-21.825396825396822,139.6031746031746,325.0,247.85714285714283,325.0,236.9047619047619,231.98412698412696,-6.111111111111111,-6.904761904761904,-166.26984126984127
-176.74603174603175,206.1111111111111,216.74603174603175,177.38095238095238,325.0,-96.58730158730158,-141.66666666666666,-92.46031746031746,-238.33333333333331,51.19047619047619,325.0,-105.15873015873015,214.2063492063492,72.61904761904762,-21.825396825396822,139.6031746031746,325.0,247.85714285714283,325.0,236.9047619047619,231.98412698412696,-6.111111111111111,-6.904761904761904,-166.26984126984127
-173.57142857142856,202.77777777777777,222.61904761904762,174.36507936507937,325.0,-94.84126984126983,-139.44444444444443,-90.87301587301587,-184.36507936507937,-54.68253968253968,325.0,-103.57142857142857,174.36507936507937,71.34920634920634,183.57142857142856,87.53968253968253,325.0,137.38095238095238,325.0,233.09523809523807,228.015873015873,4.365079365079365,6.587301587301587,-166.26984126984127
-173.57142857142856,202.77777777777777,222.61904761904762,174.36507936507937,325.0,-94.84126984126983,-139.44444444444443,-90.87301587301587,-184.36507936507937,-54.68253968253968,325.0,-103.57142857142857,174.36507936507937,71.34920634920634,183.57142857142856,87.53968253968253,325.0,137.38095238095238,325.0,233.09523809523807,228.015873015873,4.365079365079365,6.587301587301587,-166.26984126984127
-169.44444444444443,197.85714285714283,325.0,169.76190476190476,325.0,-92.77777777777777,-135.79365079365078,-88.65079365079364,-84.2063492063492,-59.92063492063492,325.0,-101.19047619047619,275.1587301587301,69.6031746031746,263.0952380952381,67.85714285714285,325.0,160.55555555555554,325.0,227.2222222222222,222.14285714285714,1.8253968253968254,-3.4126984126984126,-166.26984126984127
-169.44444444444443,197.85714285714283,325.0,169.76190476190476,325.0,-92.77777777777777,-135.79365079365078,-88.65079365079364,-84.2063492063492,-59.92063492063492,325.0,-101.19047619047619,275.1587301587301,69.6031746031746,263.0952380952381,67.85714285714285,325.0,160.55555555555554,325.0,227.2222222222222,222.14285714285714,1.8253968253968254,-3.4126984126984126,-166.26984126984127
-165.95238095238093,194.36507936507937,325.0,167.06349206349205,325.0,-90.87301587301587,147.53968253968253,-87.22222222222221,175.63492063492063,-35.95238095238095,325.0,-99.28571428571428,325.0,68.33333333333333,325.0,76.26984126984127,325.0,156.58730158730157,325.0,223.57142857142856,218.33333333333331,-0.7142857142857142,2.142857142857143,-166.26984126984127
-165.95238095238093,194.36507936507937,325.0,167.06349206349205,325.0,-90.87301587301587,147.53968253968253,-87.22222222222221,175.63492063492063,-35.95238095238095,325.0,-99.28571428571428,325.0,68.33333333333333,325.0,76.26984126984127,325.0,156.58730158730157,325.0,223.57142857142856,218.33333333333331,-0.7142857142857142,2.142857142857143,-166.26984126984127
-25.476190476190474,191.8253968253968,325.0,164.84126984126982,325.0,-89.92063492063491,324.68253968253964,-86.26984126984127,325.0,-38.17460317460317,325.0,-98.33333333333333,325.0,67.38095238095238,325.0,47.53968253968254,325.0,178.65079365079364,325.0,220.55555555555554,215.63492063492063,-1.6666666666666665,-1.349206349206349,-166.26984126984127
-25.476190476190474,191.8253968253968,325.0,164.84126984126982,325.0,-89.92063492063491,324.68253968253964,-86.26984126984127,325.0,-38.17460317460317,325.0,-98.33333333333333,325.0,67.38095238095238,325.0,47.53968253968254,325.0,178.65079365079364,325.0,220.55555555555554,215.63492063492063,-1.6666666666666665,-1.349206349206349,-166.26984126984127
219.60317460317458,188.015873015873,325.0,161.19047619047618,325.0,-88.33333333333333,325.0,-84.68253968253968,325.0,-43.25396825396825,325.0,-96.26984126984127,325.0,65.79365079365078,325.0,33.25396825396825,325.0,204.52380952380952,325.0,215.95238095238093,210.87301587301587,0.873015873015873,-2.9365079365079363,-321.8253968253968
219.60317460317458,188.015873015873,325.0,161.19047619047618,325.0,-88.33333333333333,325.0,-84.68253968253968,325.0,-43.25396825396825,325.0,-96.26984126984127,325.0,65.79365079365078,325.0,33.25396825396825,325.0,204.52380952380952,325.0,215.95238095238093,210.87301587301587,0.873015873015873,-2.9365079365079363,-321.8253968253968
325.0,183.25396825396825,325.0,157.2222222222222,325.0,-86.26984126984127,325.0,-82.77777777777777,325.0,-110.71428571428571,325.0,-93.73015873015872,325.0,64.2063492063492,325.0,-47.53968253968254,325.0,121.66666666666666,325.0,210.55555555555554,205.15873015873015,4.2063492063492065,6.428571428571428,-321.8253968253968
325.0,183.25396825396825,325.0,157.2222222222222,325.0,-86.26984126984127,325.0,-82.77777777777777,325.0,-110.71428571428571,325.0,-93.73015873015872,325.0,64.2063492063492,325.0,-47.53968253968254,325.0,121.66666666666666,325.0,210.55555555555554,205.15873015873015,4.2063492063492065,6.428571428571428,-321.8253968253968
325.0,180.07936507936506,325.0,154.68253968253967,325.0,-84.84126984126983,325.0,-81.66666666666666,325.0,38.80952380952381,325.0,-92.14285714285714,325.0,62.93650793650793,325.0,68.01587301587301,325.0,283.88888888888886,325.0,207.2222222222222,201.98412698412696,-4.2063492063492065,-7.3809523809523805,-321.8253968253968
325.0,180.07936507936506,325.0,154.68253968253967,325.0,-84.84126984126983,325.0,-81.66666666666666,325.0,38.80952380952381,325.0,-92.14285714285714,325.0,62.93650793650793,325.0,68.01587301587301,325.0,283.88888888888886,325.0,207.2222222222222,201.98412698412696,-4.2063492063492065,-7.3809523809523805,-321.8253968253968
325.0,175.0,325.0,149.9206349206349,325.0,-82.46031746031746,325.0,-79.12698412698413,325.0,44.36507936507936,325.0,-89.44444444444444,325.0,61.19047619047619,325.0,64.36507936507937,325.0,279.9206349206349,325.0,201.19047619047618,195.63492063492063,0.07936507936507936,-0.7142857142857142,-321.8253968253968
325.0,175.0,325.0,149.9206349206349,325.0,-82.46031746031746,325.0,-79.12698412698413,325.0,44.36507936507936,325.0,-89.44444444444444,325.0,61.19047619047619,325.0,64.36507936507937,325.0,279.9206349206349,325.0,201.19047619047618,195.63492063492063,0.07936507936507936,-0.7142857142857142,-321.8253968253968
325.0,171.984126984127,325.0,147.53968253968253,325.0,-81.03174603174602,325.0,-77.85714285714285,325.0,-29.6031746031746,325.0,-88.01587301587301,325.0,60.079365079365076,325.0,59.6031746031746,325.0,291.031746031746,325.0,197.85714285714283,192.3015873015873,3.888888888888889,4.2063492063492065,-321.8253968253968
325.0,171.984126984127,325.0,147.53968253968253,325.0,-81.03174603174602,325.0,-77.85714285714285,325.0,-29.6031746031746,325.0,-88.01587301587301,325.0,60.079365079365076,325.0,59.6031746031746,325.0,291.031746031746,325.0,197.85714285714283,192.3015873015873,3.888888888888889,4.2063492063492065,-321.8253968253968
325.0,169.12698412698413,325.0,144.84126984126982,325.0,-79.92063492063491,325.0,-76.74603174603175,325.0,-42.77777777777778,325.0,-86.58730158730158,325.0,58.96825396825397,325.0,55.317460317460316,325.0,284.5238095238095,325.0,194.52380952380952,188.8095238095238,4.523809523809524,4.0476190476190474,-166.26984126984127
325.0,169.12698412698413,325.0,144.84126984126982,325.0,-79.92063492063491,325.0,-76.74603174603175,325.0,-42.77777777777778,325.0,-86.58730158730158,325.0,58.96825396825397,325.0,55.317460317460316,325.0,284.5238095238095,325.0,194.52380952380952,188.8095238095238,4.523809523809524,4.0476190476190474,-166.26984126984127
325.0,164.04761904761904,325.0,140.55555555555554,325.0,-77.38095238095238,325.0,-74.52380952380952,325.0,69.28571428571428,325.0,-84.04761904761904,325.0,56.904761904761905,325.0,97.6984126984127,325.0,310.55555555555554,325.0,188.8095238095238,183.4126984126984,-1.0317460317460316,1.6666666666666665,-166.26984126984127
325.0,164.04761904761904,325.0,140.55555555555554,325.0,-77.38095238095238,325.0,-74.52380952380952,325.0,69.28571428571428,325.0,-84.04761904761904,325.0,56.904761904761905,325.0,97.6984126984127,325.0,310.55555555555554,325.0,188.8095238095238,183.4126984126984,-1.0317460317460316,1.6666666666666665,-166.26984126984127
325.0,161.984126984127,325.0,138.8095238095238,325.0,-76.42857142857143,325.0,-73.57142857142857,325.0,53.095238095238095,325.0,-82.93650793650794,325.0,56.269841269841265,325.0,79.76190476190476,325.0,307.38095238095235,325.0,186.42857142857142,180.87301587301587,0.07936507936507936,-0.07936507936507936,-166.26984126984127
325.0,161.984126984127,325.0,138.8095238095238,325.0,-76.42857142857143,325.0,-73.57142857142857,325.0,53.095238095238095,325.0,-82.93650793650794,325.0,56.269841269841265,325.0,79.76190476190476,325.0,307.38095238095235,325.0,186.42857142857142,180.87301587301587,0.07936507936507936,-0.07936507936507936,-166.26984126984127
325.0,158.015873015873,325.0,135.15873015873015,325.0,-74.68253968253968,325.0,-71.98412698412697,325.0,94.36507936507935,325.0,-80.87301587301587,325.0,55.0,325.0,88.65079365079364,325.0,325.0,325.0,181.8253968253968,176.26984126984127,-0.3968253968253968,-0.7142857142857142,-166.26984126984127
325.0,158.015873015873,325.0,135.15873015873015,325.0,-74.68253968253968,325.0,-71.98412698412697,325.0,94.36507936507935,325.0,-80.87301587301587,325.0,55.0,325.0,88.65079365079364,325.0,325.0,325.0,181.8253968253968,176.26984126984127,-0.3968253968253968,-0.7142857142857142,-166.26984126984127
325.0,154.68253968253967,325.0,132.14285714285714,325.0,-73.09523809523809,325.0,-70.39682539682539,325.0,26.9047619047619,325.0,-79.12698412698413,325.0,53.73015873015873,325.0,44.047619047619044,325.0,307.38095238095235,325.0,177.85714285714286,172.46031746031744,2.619047619047619,5.634920634920634,-166.26984126984127
325.0,154.68253968253967,325.0,132.14285714285714,325.0,-73.09523809523809,325.0,-70.39682539682539,325.0,26.9047619047619,325.0,-79.12698412698413,325.0,53.73015873015873,325.0,44.047619047619044,325.0,307.38095238095235,325.0,177.85714285714286,172.46031746031744,2.619047619047619,5.634920634920634,-166.26984126984127
325.0,151.984126984127,325.0,129.9206349206349,325.0,-71.82539682539682,325.0,-69.28571428571428,325.0,186.42857142857142,325.0,-77.85714285714285,325.0,52.77777777777777,325.0,113.88888888888889,325.0,325.0,325.0,175.0,169.44444444444443,-3.571428571428571,-6.428571428571428,-321.8253968253968
325.0,151.984126984127,325.0,129.9206349206349,325.0,-71.82539682539682,325.0,-69.28571428571428,325.0,186.42857142857142,325.0,-77.85714285714285,325.0,52.77777777777777,325.0,113.88888888888889,325.0,325.0,325.0,175.0,169.44444444444443,-3.571428571428571,-6.428571428571428,-321.8253968253968
325.0,148.17460317460316,325.0,126.74603174603173,325.0,-70.07936507936508,325.0,-67.53968253968253,325.0,111.5079365079365,325.0,-75.95238095238095,325.0,51.19047619047619,325.0,82.14285714285714,325.0,311.19047619047615,325.0,170.55555555555554,165.0,-1.349206349206349,0.23809523809523808,-321.8253968253968
325.0,148.17460317460316,325.0,126.74603174603173,325.0,-70.07936507936508,325.0,-67.53968253968253,325.0,111.5079365079365,325.0,-75.95238095238095,325.0,51.19047619047619,325.0,82.14285714285714,325.0,311.19047619047615,325.0,170.55555555555554,165.0,-1.349206349206349,0.23809523809523808,-321.8253968253968
325.0,145.63492063492063,325.0,124.52380952380952,325.0,-68.96825396825396,325.0,-66.58730158730158,325.0,-13.888888888888888,325.0,-74.52380952380952,325.0,50.39682539682539,325.0,-5.317460317460317,325.0,266.58730158730157,325.0,167.53968253968253,162.14285714285714,1.1904761904761905,-0.3968253968253968,-321.8253968253968
325.0,145.63492063492063,325.0,124.52380952380952,325.0,-68.96825396825396,325.0,-66.58730158730158,325.0,-13.888888888888888,325.0,-74.52380952380952,325.0,50.39682539682539,325.0,-5.317460317460317,325.0,266.58730158730157,325.0,167.53968253968253,162.14285714285714,1.1904761904761905,-0.3968253968253968,-321.8253968253968
325.0,140.55555555555554,325.0,119.6031746031746,325.0,-66.11111111111111,325.0,-64.04761904761905,325.0,104.04761904761904,325.0,-71.66666666666666,325.0,48.49206349206349,325.0,65.15873015873015,325.0,325.0,325.0,161.34920634920633,155.95238095238093,-6.111111111111111,-7.063492063492063,-321.8253968253968
325.0,140.55555555555554,325.0,119.6031746031746,325.0,-66.11111111111111,325.0,-64.04761904761905,325.0,104.04761904761904,325.0,-71.66666666666666,325.0,48.49206349206349,325.0,65.15873015873015,325.0,325.0,325.0,161.34920634920633,155.95238095238093,-6.111111111111111,-7.063492063492063,-321.8253968253968
325.0,140.07936507936506,325.0,116.26984126984127,325.0,-64.52380952380952,325.0,-62.3015873015873,325.0,-32.14285714285714,325.0,-69.44444444444444,325.0,46.904761904761905,325.0,-85.63492063492063,325.0,260.87301587301585,325.0,156.74603174603175,151.03174603174602,1.6666666666666665,-0.23809523809523808,-321.8253968253968
325.0,140.07936507936506,325.0,116.26984126984127,325.0,-64.52380952380952,325.0,-62.3015873015873,325.0,-32.14285714285714,325.0,-69.44444444444444,325.0,46.904761904761905,325.0,-85.63492063492063,325.0,260.87301587301585,325.0,156.74603174603175,151.03174603174602,1.6666666666666665,-0.23809523809523808,-321.8253968253968
325.0,135.47619047619048,325.0,113.57142857142857,325.0,-63.095238095238095,325.0,-61.19047619047619,325.0,-22.46031746031746,325.0,-68.17460317460318,325.0,45.95238095238095,325.0,-103.73015873015872,325.0,265.1587301587301,325.0,153.57142857142856,147.85714285714286,-0.7142857142857142,-0.23809523809523808,-166.26984126984127
325.0,135.47619047619048,325.0,113.57142857142857,325.0,-63.095238095238095,325.0,-61.19047619047619,325.0,-22.46031746031746,325.0,-68.17460317460318,325.0,45.95238095238095,325.0,-103.73015873015872,325.0,265.1587301587301,325.0,153.57142857142856,147.85714285714286,-0.7142857142857142,-0.23809523809523808,-166.26984126984127
325.0,132.3015873015873,325.0,111.19047619047619,325.0,-61.82539682539682,325.0,-59.6031746031746,325.0,-119.12698412698413,325.0,-66.58730158730158,325.0,45.0,325.0,-191.98412698412696,325.0,159.12698412698413,325.0,150.23809523809524,144.68253968253967,3.571428571428571,7.222222222222221,-166.26984126984127
325.0,132.3015873015873,325.0,111.19047619047619,325.0,-61.82539682539682,325.0,-59.6031746031746,325.0,-119.12698412698413,325.0,-66.58730158730158,325.0,45.0,325.0,-191.98412698412696,325.0,159.12698412698413,325.0,150.23809523809524,144.68253968253967,3.571428571428571,7.222222222222221,-166.26984126984127
315.1587301587301,130.87301587301587,325.0,109.76190476190476,325.0,-61.03174603174603,325.0,-58.96825396825397,325.0,-26.746031746031743,325.0,-65.79365079365078,325.0,44.36507936507936,325.0,-105.15873015873015,325.0,262.1428571428571,325.0,148.4920634920635,142.77777777777777,-0.23809523809523808,0.23809523809523808,-166.26984126984127
315.1587301587301,130.87301587301587,325.0,109.76190476190476,325.0,-61.03174603174603,325.0,-58.96825396825397,325.0,-26.746031746031743,325.0,-65.79365079365078,325.0,44.36507936507936,325.0,-105.15873015873015,325.0,262.1428571428571,325.0,148.4920634920635,142.77777777777777,-0.23809523809523808,0.23809523809523808,-166.26984126984127
325.0,126.74603174603173,325.0,106.58730158730158,325.0,-59.285714285714285,325.0,-57.38095238095238,325.0,144.04761904761904,325.0,-63.888888888888886,325.0,42.93650793650794,325.0,18.96825396825397,325.0,325.0,325.0,144.2063492063492,138.4920634920635,-2.46031746031746,0.3968253968253968,-166.26984126984127
325.0,126.74603174603173,325.0,106.58730158730158,325.0,-59.285714285714285,325.0,-57.38095238095238,325.0,144.04761904761904,325.0,-63.888888888888886,325.0,42.93650793650794,325.0,18.96825396825397,325.0,325.0,325.0,144.2063492063492,138.4920634920635,-2.46031746031746,0.3968253968253968,-166.26984126984127
325.0,125.15873015873015,325.0,105.31746031746032,325.0,-58.650793650793645,325.0,-56.74603174603174,325.0,130.55555555555554,325.0,-62.93650793650793,325.0,42.61904761904761,325.0,21.984126984126984,325.0,325.0,325.0,142.14285714285714,136.58730158730157,-1.8253968253968254,-7.857142857142857,-166.26984126984127
325.0,125.15873015873015,325.0,105.31746031746032,325.0,-58.650793650793645,325.0,-56.74603174603174,325.0,130.55555555555554,325.0,-62.93650793650793,325.0,42.61904761904761,325.0,21.984126984126984,325.0,325.0,325.0,142.14285714285714,136.58730158730157,-1.8253968253968254,-7.857142857142857,-166.26984126984127
325.0,121.82539682539682,325.0,102.46031746031746,325.0,-57.22222222222222,325.0,-55.476190476190474,325.0,89.44444444444444,325.0,-61.34920634920635,325.0,41.34920634920635,325.0,-37.857142857142854,325.0,325.0,325.0,138.65079365079364,108.17460317460316,0.3968253968253968,-0.5555555555555556,-321.8253968253968
325.0,121.82539682539682,325.0,102.46031746031746,325.0,-57.22222222222222,325.0,-55.476190476190474,325.0,89.44444444444444,325.0,-61.34920634920635,325.0,41.34920634920635,325.0,-37.857142857142854,325.0,325.0,325.0,138.65079365079364,108.17460317460316,0.3968253968253968,-0.5555555555555556,-321.8253968253968
325.0,98.17460317460316,325.0,100.55555555555554,325.0,-56.11111111111111,325.0,-54.36507936507936,325.0,82.46031746031746,325.0,-60.238095238095234,325.0,40.55555555555555,325.0,-60.238095238095234,325.0,313.57142857142856,325.0,136.42857142857142,-119.92063492063491,-0.07936507936507936,-0.5555555555555556,-321.8253968253968
325.0,98.17460317460316,325.0,100.55555555555554,325.0,-56.11111111111111,325.0,-54.36507936507936,325.0,82.46031746031746,325.0,-60.238095238095234,325.0,40.55555555555555,325.0,-60.238095238095234,325.0,313.57142857142856,325.0,136.42857142857142,-119.92063492063491,-0.07936507936507936,-0.5555555555555556,-321.8253968253968
325.0,114.52380952380952,325.0,98.33333333333333,325.0,-54.841269841269835,325.0,-53.25396825396825,325.0,109.92063492063491,325.0,-59.12698412698413,325.0,39.76190476190476,325.0,-30.555555555555554,325.0,325.0,325.0,133.25396825396825,-325.0,-3.095238095238095,-7.3809523809523805,-321.8253968253968
325.0,114.52380952380952,325.0,98.33333333333333,325.0,-54.841269841269835,325.0,-53.25396825396825,325.0,109.92063492063491,325.0,-59.12698412698413,325.0,39.76190476190476,325.0,-30.555555555555554,325.0,325.0,325.0,133.25396825396825,-325.0,-3.095238095238095,-7.3809523809523805,-321.8253968253968
325.0,105.79365079365078,325.0,96.9047619047619,325.0,-54.047619047619044,325.0,-52.460317460317455,325.0,7.3809523809523805,325.0,-58.17460317460317,325.0,39.12698412698413,325.0,-130.87301587301587,325.0,245.95238095238093,325.0,131.03174603174602,116.26984126984127,1.984126984126984,6.428571428571428,-321.8253968253968
325.0,105.79365079365078,325.0,96.9047619047619,325.0,-54.047619047619044,325.0,-52.460317460317455,325.0,7.3809523809523805,325.0,-58.17460317460317,325.0,39.12698412698413,325.0,-130.87301587301587,325.0,245.95238095238093,325.0,131.03174603174602,116.26984126984127,1.984126984126984,6.428571428571428,-321.8253968253968
325.0,114.52380952380952,325.0,94.68253968253968,325.0,-53.095238095238095,325.0,-51.507936507936506,325.0,143.25396825396825,325.0,-56.74603174603174,325.0,38.33333333333333,325.0,-10.079365079365079,325.0,325.0,325.0,128.33333333333331,152.61904761904762,-1.1904761904761905,-6.111111111111111,-321.8253968253968
325.0,114.52380952380952,325.0,94.68253968253968,325.0,-53.095238095238095,325.0,-51.507936507936506,325.0,143.25396825396825,325.0,-56.74603174603174,325.0,38.33333333333333,325.0,-10.079365079365079,325.0,325.0,325.0,128.33333333333331,152.61904761904762,-1.1904761904761905,-6.111111111111111,-321.8253968253968
325.0,109.92063492063491,325.0,92.77777777777777,325.0,-51.98412698412698,325.0,-50.39682539682539,325.0,140.23809523809524,325.0,-55.79365079365079,325.0,37.38095238095238,325.0,-42.3015873015873,325.0,301.19047619047615,325.0,125.63492063492063,146.58730158730157,-2.142857142857143,-0.3968253968253968,-166.26984126984127
325.0,109.92063492063491,325.0,92.77777777777777,325.0,-51.98412698412698,325.0,-50.39682539682539,325.0,140.23809523809524,325.0,-55.79365079365079,325.0,37.38095238095238,325.0,-42.3015873015873,325.0,301.19047619047615,325.0,125.63492063492063,146.58730158730157,-2.142857142857143,-0.3968253968253968,-166.26984126984127
325.0,109.28571428571428,325.0,90.55555555555556,325.0,-50.71428571428571,325.0,-49.44444444444444,325.0,118.8095238095238,325.0,-54.68253968253968,325.0,36.42857142857142,325.0,-58.96825396825397,325.0,317.69841269841265,325.0,123.09523809523809,143.09523809523807,-0.3968253968253968,-0.23809523809523808,-166.26984126984127
325.0,109.28571428571428,325.0,90.55555555555556,325.0,-50.71428571428571,325.0,-49.44444444444444,325.0,118.8095238095238,325.0,-54.68253968253968,325.0,36.42857142857142,325.0,-58.96825396825397,325.0,317.69841269841265,325.0,123.09523809523809,143.09523809523807,-0.3968253968253968,-0.23809523809523808,-166.26984126984127
325.0,106.1111111111111,325.0,87.85714285714285,325.0,-49.44444444444444,325.0,-48.17460317460317,325.0,46.904761904761905,325.0,-52.93650793650794,325.0,35.476190476190474,325.0,-135.3174603174603,325.0,258.968253968254,325.0,119.28571428571428,138.015873015873,2.46031746031746,1.8253968253968254,-166.26984126984127
325.0,106.1111111111111,325.0,87.85714285714285,325.0,-49.44444444444444,325.0,-48.17460317460317,325.0,46.904761904761905,325.0,-52.93650793650794,325.0,35.476190476190474,325.0,-135.3174603174603,325.0,258.968253968254,325.0,119.28571428571428,138.015873015873,2.46031746031746,1.8253968253968254,-166.26984126984127
325.0,103.88888888888889,325.0,86.1111111111111,325.0,-48.33333333333333,325.0,-47.06349206349206,325.0,85.31746031746032,325.0,-51.507936507936506,325.0,34.682539682539684,325.0,-112.93650793650794,325.0,274.5238095238095,325.0,116.9047619047619,-242.77777777777777,0.23809523809523808,-0.5555555555555556,-166.26984126984127
325.0,103.88888888888889,325.0,86.1111111111111,325.0,-48.33333333333333,325.0,-47.06349206349206,325.0,85.31746031746032,325.0,-51.507936507936506,325.0,34.682539682539684,325.0,-112.93650793650794,325.0,274.5238095238095,325.0,116.9047619047619,-242.77777777777777,0.23809523809523808,-0.5555555555555556,-166.26984126984127
325.0,101.66666666666666,325.0,84.2063492063492,325.0,-47.38095238095238,325.0,-46.11111111111111,325.0,94.52380952380952,325.0,-50.55555555555555,325.0,33.888888888888886,325.0,-112.6190476190476,325.0,253.88888888888889,325.0,114.52380952380952,-325.0,1.8253968253968254,5.7936507936507935,-166.26984126984127
325.0,101.66666666666666,325.0,84.2063492063492,325.0,-47.38095238095238,325.0,-46.11111111111111,325.0,94.52380952380952,325.0,-50.55555555555555,325.0,33.888888888888886,325.0,-112.6190476190476,325.0,253.88888888888889,325.0,114.52380952380952,-325.0,1.8253968253968254,5.7936507936507935,-166.26984126984127
325.0,99.12698412698413,325.0,81.98412698412697,325.0,-46.269841269841265,325.0,-45.0,325.0,80.87301587301587,325.0,-49.6031746031746,325.0,33.095238095238095,325.0,-115.0,325.0,264.36507936507934,325.0,111.66666666666666,-21.666666666666664,2.142857142857143,1.1904761904761905,-321.8253968253968
325.0,99.12698412698413,325.0,81.98412698412697,325.0,-46.269841269841265,325.0,-45.0,325.0,80.87301587301587,325.0,-49.6031746031746,325.0,33.095238095238095,325.0,-115.0,325.0,264.36507936507934,325.0,111.66666666666666,-21.666666666666664,2.142857142857143,1.1904761904761905,-321.8253968253968
325.0,96.9047619047619,325.0,80.23809523809523,325.0,-45.15873015873016,325.0,-44.2063492063492,325.0,190.7142857142857,325.0,-48.33333333333333,325.0,32.3015873015873,325.0,-32.93650793650794,325.0,325.0,325.0,109.12698412698413,-301.3492063492063,0.3968253968253968,-0.3968253968253968,-321.8253968253968
325.0,96.9047619047619,325.0,80.23809523809523,325.0,-45.15873015873016,325.0,-44.2063492063492,325.0,190.7142857142857,325.0,-48.33333333333333,325.0,32.3015873015873,325.0,-32.93650793650794,325.0,325.0,325.0,109.12698412698413,-301.3492063492063,0.3968253968253968,-0.3968253968253968,-321.8253968253968
325.0,94.84126984126983,325.0,78.4920634920635,325.0,-44.2063492063492,325.0,-43.25396825396825,325.0,104.68253968253968,325.0,-47.38095238095238,325.0,31.666666666666664,325.0,-114.04761904761904,325.0,241.03174603174602,325.0,106.9047619047619,-220.07936507936506,1.6666666666666665,5.476190476190476,-321.8253968253968
325.0,94.84126984126983,325.0,78.4920634920635,325.0,-44.2063492063492,325.0,-43.25396825396825,325.0,104.68253968253968,325.0,-47.38095238095238,325.0,31.666666666666664,325.0,-114.04761904761904,325.0,241.03174603174602,325.0,106.9047619047619,-220.07936507936506,1.6666666666666665,5.476190476190476,-321.8253968253968
325.0,93.25396825396825,325.0,23.730158730158728,325.0,-43.57142857142857,325.0,-42.460317460317455,325.0,228.8095238095238,325.0,-46.58730158730158,325.0,31.03174603174603,325.0,15.317460317460316,325.0,325.0,325.0,105.0,-225.0,-3.253968253968254,-7.222222222222221,-321.8253968253968
325.0,93.25396825396825,325.0,23.730158730158728,325.0,-43.57142857142857,325.0,-42.460317460317455,325.0,228.8095238095238,325.0,-46.58730158730158,325.0,31.03174603174603,325.0,15.317460317460316,325.0,325.0,325.0,105.0,-225.0,-3.253968253968254,-7.222222222222221,-321.8253968253968
325.0,90.87301587301587,325.0,-325.0,325.0,-42.3015873015873,325.0,-41.507936507936506,325.0,256.1111111111111,325.0,-45.317460317460316,325.0,30.238095238095237,325.0,41.34920634920635,325.0,325.0,323.88888888888886,102.46031746031746,-325.0,-2.619047619047619,-1.8253968253968254,-321.8253968253968
325.0,90.87301587301587,325.0,-325.0,325.0,-42.3015873015873,325.0,-41.507936507936506,325.0,256.1111111111111,325.0,-45.317460317460316,325.0,30.238095238095237,325.0,41.34920634920635,325.0,325.0,323.88888888888886,102.46031746031746,-325.0,-2.619047619047619,-1.8253968253968254,-321.8253968253968
325.0,89.44444444444444,325.0,-325.0,325.0,-41.666666666666664,325.0,-40.55555555555555,325.0,139.12698412698413,325.0,-44.52380952380952,325.0,29.6031746031746,325.0,-51.34920634920635,324.5238095238095,288.968253968254,318.6507936507936,100.55555555555554,-325.0,2.7777777777777777,1.984126984126984,-166.26984126984127
325.0,89.44444444444444,325.0,-325.0,325.0,-41.666666666666664,325.0,-40.55555555555555,325.0,139.12698412698413,325.0,-44.52380952380952,325.0,29.6031746031746,325.0,-51.34920634920635,324.5238095238095,288.968253968254,318.6507936507936,100.55555555555554,-325.0,2.7777777777777777,1.984126984126984,-166.26984126984127
325.0,87.38095238095238,325.0,-325.0,325.0,-40.87301587301587,325.0,-40.079365079365076,325.0,194.52380952380952,325.0,-43.41269841269841,325.0,29.126984126984127,325.0,-3.73015873015873,318.4920634920635,324.5238095238095,312.3015873015873,98.49206349206348,-126.1111111111111,-0.7142857142857142,-0.5555555555555556,-166.26984126984127
325.0,87.38095238095238,325.0,-325.0,325.0,-40.87301587301587,325.0,-40.079365079365076,325.0,194.52380952380952,325.0,-43.41269841269841,325.0,29.126984126984127,325.0,-3.73015873015873,318.4920634920635,324.5238095238095,312.3015873015873,98.49206349206348,-126.1111111111111,-0.7142857142857142,-0.5555555555555556,-166.26984126984127
325.0,85.15873015873015,325.0,-325.0,325.0,-39.76190476190476,325.0,-39.12698412698413,325.0,118.96825396825396,324.5238095238095,-42.460317460317455,325.0,28.333333333333332,325.0,-60.55555555555555,310.55555555555554,258.015873015873,304.5238095238095,95.79365079365078,-150.87301587301587,0.07936507936507936,-0.07936507936507936,-166.26984126984127
325.0,85.15873015873015,325.0,-325.0,325.0,-39.76190476190476,325.0,-39.12698412698413,325.0,118.96825396825396,324.5238095238095,-42.460317460317455,325.0,28.333333333333332,325.0,-60.55555555555555,310.55555555555554,258.015873015873,304.5238095238095,95.79365079365078,-150.87301587301587,0.07936507936507936,-0.07936507936507936,-166.26984126984127
325.0,83.4126984126984,325.0,-325.0,325.0,-39.12698412698413,325.0,-38.33333333333333,325.0,100.55555555555554,320.07936507936506,-41.666666666666664,325.0,27.698412698412696,325.0,-78.01587301587301,304.04761904761904,238.015873015873,298.3333333333333,94.04761904761904,-325.0,3.095238095238095,3.4126984126984126,-166.26984126984127
325.0,83.4126984126984,325.0,-325.0,325.0,-39.12698412698413,325.0,-38.33333333333333,325.0,100.55555555555554,320.07936507936506,-41.666666666666664,325.0,27.698412698412696,325.0,-78.01587301587301,304.04761904761904,238.015873015873,298.3333333333333,94.04761904761904,-325.0,3.095238095238095,3.4126984126984126,-166.26984126984127
325.0,81.5079365079365,324.36507936507934,-325.0,325.0,-38.17460317460317,325.0,-37.698412698412696,325.0,302.9365079365079,313.57142857142856,-40.714285714285715,324.8412698412698,27.063492063492063,325.0,-10.238095238095237,297.6984126984127,325.0,292.3015873015873,91.82539682539682,-325.0,-0.07936507936507936,-0.3968253968253968,-166.26984126984127
325.0,81.5079365079365,324.36507936507934,-325.0,325.0,-38.17460317460317,325.0,-37.698412698412696,325.0,302.9365079365079,313.57142857142856,-40.714285714285715,324.8412698412698,27.063492063492063,325.0,-10.238095238095237,297.6984126984127,325.0,292.3015873015873,91.82539682539682,-325.0,-0.07936507936507936,-0.3968253968253968,-166.26984126984127
325.0,79.28571428571428,316.74603174603175,-325.0,325.0,-36.904761904761905,325.0,-36.42857142857142,325.0,325.0,304.68253968253964,-39.6031746031746,317.85714285714283,26.26984126984127,325.0,11.19047619047619,288.8095238095238,308.015873015873,283.88888888888886,89.28571428571428,-325.0,-4.0476190476190474,-3.571428571428571,-321.8253968253968
325.0,79.28571428571428,316.74603174603175,-325.0,325.0,-36.904761904761905,325.0,-36.42857142857142,325.0,325.0,304.68253968253964,-39.6031746031746,317.85714285714283,26.26984126984127,325.0,11.19047619047619,288.8095238095238,308.015873015873,283.88888888888886,89.28571428571428,-325.0,-4.0476190476190474,-3.571428571428571,-321.8253968253968
325.0,72.61904761904762,309.9206349206349,-325.0,323.73015873015873,-36.42857142857142,325.0,-35.79365079365079,325.0,325.0,298.3333333333333,-38.65079365079365,311.031746031746,25.79365079365079,321.3492063492063,5.634920634920634,282.6190476190476,325.0,278.015873015873,87.53968253968253,-325.0,-1.1904761904761905,-0.07936507936507936,-321.8253968253968
325.0,72.61904761904762,309.9206349206349,-325.0,323.73015873015873,-36.42857142857142,325.0,-35.79365079365079,325.0,325.0,298.3333333333333,-38.65079365079365,311.031746031746,25.79365079365079,321.3492063492063,5.634920634920634,282.6190476190476,325.0,278.015873015873,87.53968253968253,-325.0,-1.1904761904761905,-0.07936507936507936,-321.8253968253968
325.0,71.82539682539682,304.68253968253964,-325.0,319.76190476190476,-35.79365079365079,325.0,-35.15873015873016,324.5238095238095,283.73015873015873,293.57142857142856,-38.17460317460317,305.95238095238096,25.158730158730158,315.95238095238096,39.12698412698413,277.85714285714283,325.0,273.4126984126984,86.1111111111111,-317.38095238095235,-1.0317460317460316,0.07936507936507936,-321.8253968253968
325.0,71.82539682539682,304.68253968253964,-325.0,319.76190476190476,-35.79365079365079,325.0,-35.15873015873016,324.5238095238095,283.73015873015873,293.57142857142856,-38.17460317460317,305.95238095238096,25.158730158730158,315.95238095238096,39.12698412698413,277.85714285714283,325.0,273.4126984126984,86.1111111111111,-317.38095238095235,-1.0317460317460316,0.07936507936507936,-321.8253968253968
325.0,75.47619047619047,299.2857142857143,-325.0,314.5238095238095,-35.317460317460316,325.0,-34.682539682539684,321.66666666666663,191.66666666666666,288.8095238095238,-37.22222222222222,300.7142857142857,25.0,311.031746031746,-62.77777777777777,273.25396825396825,270.23809523809524,269.1269841269841,84.52380952380952,-135.79365079365078,4.2063492063492065,7.698412698412698,-321.8253968253968
325.0,75.47619047619047,299.2857142857143,-325.0,314.5238095238095,-35.317460317460316,325.0,-34.682539682539684,321.66666666666663,191.66666666666666,288.8095238095238,-37.22222222222222,300.7142857142857,25.0,311.031746031746,-62.77777777777777,273.25396825396825,270.23809523809524,269.1269841269841,84.52380952380952,-135.79365079365078,4.2063492063492065,7.698412698412698,-321.8253968253968
318.6507936507936,73.09523809523809,290.39682539682536,-325.0,305.4761904761905,-34.36507936507936,320.87301587301585,-33.73015873015873,312.3015873015873,198.17460317460316,280.55555555555554,-36.269841269841265,291.66666666666663,24.047619047619047,301.66666666666663,-102.61904761904762,265.1587301587301,264.8412698412698,261.3492063492063,81.82539682539682,110.07936507936508,2.7777777777777777,1.6666666666666665,-321.8253968253968
318.6507936507936,73.09523809523809,290.39682539682536,-325.0,305.4761904761905,-34.36507936507936,320.87301587301585,-33.73015873015873,312.3015873015873,198.17460317460316,280.55555555555554,-36.269841269841265,291.66666666666663,24.047619047619047,301.66666666666663,-102.61904761904762,265.1587301587301,264.8412698412698,261.3492063492063,81.82539682539682,110.07936507936508,2.7777777777777777,1.6666666666666665,-321.8253968253968
313.25396825396825,71.82539682539682,285.4761904761905,-325.0,300.55555555555554,-33.73015873015873,315.6349206349206,-33.25396825396825,307.06349206349205,307.85714285714283,275.95238095238096,-35.79365079365079,286.74603174603175,23.57142857142857,293.4126984126984,5.7936507936507935,260.7142857142857,325.0,256.74603174603175,80.55555555555556,42.61904761904761,-3.571428571428571,-4.0476190476190474,-166.26984126984127
313.25396825396825,71.82539682539682,285.4761904761905,-325.0,300.55555555555554,-33.73015873015873,315.6349206349206,-33.25396825396825,307.06349206349205,307.85714285714283,275.95238095238096,-35.79365079365079,286.74603174603175,23.57142857142857,293.4126984126984,5.7936507936507935,260.7142857142857,325.0,256.74603174603175,80.55555555555556,42.61904761904761,-3.571428571428571,-4.0476190476190474,-166.26984126984127
286.4285714285714,70.71428571428571,-121.34920634920634,-325.0,295.6349206349206,-33.25396825396825,310.23809523809524,-32.61904761904762,-7.5396825396825395,241.98412698412696,271.5079365079365,-35.0,-108.33333333333333,23.253968253968253,-126.74603174603173,-97.53968253968253,256.26984126984127,284.5238095238095,252.6190476190476,79.28571428571428,315.1587301587301,4.523809523809524,4.0476190476190474,-166.26984126984127
286.4285714285714,70.71428571428571,-121.34920634920634,-325.0,295.6349206349206,-33.25396825396825,310.23809523809524,-32.61904761904762,-7.5396825396825395,241.98412698412696,271.5079365079365,-35.0,-108.33333333333333,23.253968253968253,-126.74603174603173,-97.53968253968253,256.26984126984127,284.5238095238095,252.6190476190476,79.28571428571428,315.1587301587301,4.523809523809524,4.0476190476190474,-166.26984126984127
266.26984126984127,69.12698412698413,6.746031746031746,-325.0,289.6031746031746,-32.3015873015873,303.73015873015873,-31.98412698412698,76.1111111111111,310.7142857142857,265.95238095238096,-34.36507936507936,50.238095238095234,22.777777777777775,-32.14285714285714,-24.047619047619047,250.87301587301585,325.0,247.53968253968253,77.53968253968253,325.0,-1.984126984126984,-1.0317460317460316,-166.26984126984127
266.26984126984127,69.12698412698413,6.746031746031746,-325.0,289.6031746031746,-32.3015873015873,303.73015873015873,-31.98412698412698,76.1111111111111,310.7142857142857,265.95238095238096,-34.36507936507936,50.238095238095234,22.777777777777775,-32.14285714285714,-24.047619047619047,250.87301587301585,325.0,247.53968253968253,77.53968253968253,325.0,-1.984126984126984,-1.0317460317460316,-166.26984126984127
