Fp1[1],Fp2[2],F3[3],F4[4],C3[5],C4[6],P3[7],P4[8],O1[9],O2[10],F7[11],F8[12],T3[13],T4[14],T5[15],T6[16],Fz[17],Pz[18],Cz[19],Pg1[20],Pg2[21],EOGR[22],EOOGL[23],EMG[24]
325.0,325.0,140.23809523809524,-325.0,325.0,325.0,325.0,325.0,325.0,325.0,325.0,325.0,304.04761904761904,-325.0,325.0,325.0,-325.0,325.0,-325.0,-325.0,-325.0,2.7777777777777777,7.222222222222221,-166.26984126984127
325.0,325.0,140.23809523809524,-325.0,325.0,325.0,325.0,325.0,325.0,325.0,325.0,325.0,304.04761904761904,-325.0,325.0,325.0,-325.0,325.0,-325.0,-325.0,-325.0,2.7777777777777777,7.222222222222221,-166.26984126984127
325.0,325.0,325.0,-325.0,325.0,325.0,325.0,325.0,325.0,325.0,325.0,325.0,325.0,-325.0,325.0,325.0,-325.0,325.0,-325.0,-325.0,-325.0,-5.7936507936507935,-7.857142857142857,-166.26984126984127
325.0,325.0,325.0,-325.0,325.0,325.0,325.0,325.0,325.0,325.0,325.0,325.0,325.0,-325.0,325.0,325.0,-325.0,325.0,-325.0,-325.0,-325.0,-5.7936507936507935,-7.857142857142857,-166.26984126984127
325.0,325.0,325.0,-325.0,325.0,325.0,325.0,325.0,325.0,325.0,325.0,325.0,325.0,-325.0,325.0,-100.71428571428571,-325.0,325.0,-325.0,-325.0,-325.0,-0.23809523809523808,0.7142857142857142,-166.26984126984127
325.0,325.0,325.0,-325.0,325.0,325.0,325.0,325.0,325.0,325.0,325.0,325.0,325.0,-325.0,325.0,-100.71428571428571,-325.0,325.0,-325.0,-325.0,-325.0,-0.23809523809523808,0.7142857142857142,-166.26984126984127
325.0,-0.07936507936507936,325.0,-325.0,325.0,325.0,325.0,325.0,325.0,325.0,325.0,325.0,325.0,-325.0,325.0,-325.0,-325.0,325.0,-325.0,-325.0,-325.0,2.46031746031746,8.333333333333332,-166.26984126984127
325.0,-0.07936507936507936,325.0,-325.0,325.0,325.0,325.0,325.0,325.0,325.0,325.0,325.0,325.0,-325.0,325.0,-325.0,-325.0,325.0,-325.0,-325.0,-325.0,2.46031746031746,8.333333333333332,-166.26984126984127
325.0,-325.0,325.0,-325.0,325.0,325.0,325.0,325.0,325.0,325.0,325.0,325.0,325.0,-325.0,325.0,-325.0,-325.0,325.0,-325.0,-325.0,-325.0,-0.23809523809523808,-0.3968253968253968,-166.26984126984127
325.0,-325.0,325.0,-325.0,325.0,325.0,325.0,325.0,325.0,325.0,325.0,325.0,325.0,-325.0,325.0,-325.0,-325.0,325.0,-325.0,-325.0,-325.0,-0.23809523809523808,-0.3968253968253968,-166.26984126984127
325.0,-325.0,325.0,-325.0,325.0,321.031746031746,325.0,325.0,325.0,283.4126984126984,325.0,325.0,325.0,-325.0,325.0,-325.0,-325.0,325.0,-325.0,-325.0,-325.0,0.07936507936507936,-0.5555555555555556,-321.8253968253968
325.0,-325.0,325.0,-325.0,325.0,321.031746031746,325.0,325.0,325.0,283.4126984126984,325.0,325.0,325.0,-325.0,325.0,-325.0,-325.0,325.0,-325.0,-325.0,-325.0,0.07936507936507936,-0.5555555555555556,-321.8253968253968
325.0,-325.0,325.0,-325.0,325.0,305.95238095238096,325.0,325.0,325.0,-325.0,325.0,325.0,325.0,-325.0,325.0,-325.0,-325.0,325.0,-325.0,-325.0,-325.0,0.873015873015873,-0.3968253968253968,-321.8253968253968
325.0,-325.0,325.0,-325.0,325.0,305.95238095238096,325.0,325.0,325.0,-325.0,325.0,325.0,325.0,-325.0,325.0,-325.0,-325.0,325.0,-325.0,-325.0,-325.0,0.873015873015873,-0.3968253968253968,-321.8253968253968
325.0,-325.0,325.0,-325.0,324.04761904761904,298.3333333333333,323.4126984126984,322.9365079365079,325.0,-325.0,325.0,325.0,325.0,-321.19047619047615,325.0,-325.0,-325.0,325.0,-325.0,-325.0,-325.0,3.4126984126984126,6.904761904761904,-321.8253968253968
325.0,-325.0,325.0,-325.0,324.04761904761904,298.3333333333333,323.4126984126984,322.9365079365079,325.0,-325.0,325.0,325.0,325.0,-321.19047619047615,325.0,-325.0,-325.0,325.0,-325.0,-325.0,-325.0,3.4126984126984126,6.904761904761904,-321.8253968253968
325.0,-325.0,325.0,-325.0,319.2857142857143,290.7142857142857,317.38095238095235,317.06349206349205,325.0,-325.0,325.0,325.0,325.0,-313.0952380952381,325.0,-325.0,-325.0,325.0,-325.0,-325.0,-325.0,-1.8253968253968254,-1.1904761904761905,-321.8253968253968
325.0,-325.0,325.0,-325.0,319.2857142857143,290.7142857142857,317.38095238095235,317.06349206349205,325.0,-325.0,325.0,325.0,325.0,-313.0952380952381,325.0,-325.0,-325.0,325.0,-325.0,-325.0,-325.0,-1.8253968253968254,-1.1904761904761905,-321.8253968253968
325.0,-325.0,325.0,-325.0,313.88888888888886,285.95238095238096,311.984126984127,311.66666666666663,325.0,-325.0,325.0,321.031746031746,325.0,-307.69841269841265,325.0,-325.0,-325.0,325.0,-325.0,-325.0,-325.0,1.1904761904761905,-0.07936507936507936,-321.8253968253968
325.0,-325.0,325.0,-325.0,313.88888888888886,285.95238095238096,311.984126984127,311.66666666666663,325.0,-325.0,325.0,321.031746031746,325.0,-307.69841269841265,325.0,-325.0,-325.0,325.0,-325.0,-325.0,-325.0,1.1904761904761905,-0.07936507936507936,-321.8253968253968
325.0,-325.0,325.0,-325.0,308.8095238095238,281.031746031746,306.74603174603175,306.58730158730157,325.0,-325.0,325.0,315.4761904761905,325.0,-302.3015873015873,325.0,-325.0,-325.0,325.0,-325.0,-325.0,-325.0,-2.46031746031746,-0.23809523809523808,-166.26984126984127
325.0,-325.0,325.0,-325.0,308.8095238095238,281.031746031746,306.74603174603175,306.58730158730157,325.0,-325.0,325.0,315.4761904761905,325.0,-302.3015873015873,325.0,-325.0,-325.0,325.0,-325.0,-325.0,-325.0,-2.46031746031746,-0.23809523809523808,-166.26984126984127
325.0,-325.0,325.0,-325.0,305.0,277.38095238095235,302.6190476190476,302.77777777777777,325.0,-325.0,325.0,311.3492063492063,325.0,-298.3333333333333,325.0,-325.0,-325.0,325.0,-325.0,-325.0,-325.0,-1.6666666666666665,-6.111111111111111,-166.26984126984127
325.0,-325.0,325.0,-325.0,305.0,277.38095238095235,302.6190476190476,302.77777777777777,325.0,-325.0,325.0,311.3492063492063,325.0,-298.3333333333333,325.0,-325.0,-325.0,325.0,-325.0,-325.0,-325.0,-1.6666666666666665,-6.111111111111111,-166.26984126984127
325.0,-325.0,325.0,-325.0,292.6190476190476,265.7936507936508,289.76190476190476,290.23809523809524,325.0,-325.0,325.0,298.015873015873,325.0,-285.6349206349206,313.25396825396825,-325.0,-325.0,325.0,-323.25396825396825,-318.015873015873,-315.0,4.2063492063492065,7.698412698412698,-166.26984126984127
325.0,-325.0,325.0,-325.0,292.6190476190476,265.7936507936508,289.76190476190476,290.23809523809524,325.0,-325.0,325.0,298.015873015873,325.0,-285.6349206349206,313.25396825396825,-325.0,-325.0,325.0,-323.25396825396825,-318.015873015873,-315.0,4.2063492063492065,7.698412698412698,-166.26984126984127
325.0,-325.0,325.0,-325.0,292.6190476190476,265.7936507936508,289.76190476190476,290.23809523809524,325.0,-325.0,325.0,298.015873015873,325.0,-285.6349206349206,313.25396825396825,-325.0,-325.0,325.0,-323.25396825396825,-318.015873015873,-315.0,4.2063492063492065,7.698412698412698,-166.26984126984127
325.0,-325.0,325.0,-325.0,292.6190476190476,265.7936507936508,289.76190476190476,290.23809523809524,325.0,-325.0,325.0,298.015873015873,325.0,-285.6349206349206,313.25396825396825,-325.0,-325.0,325.0,-323.25396825396825,-318.015873015873,-315.0,4.2063492063492065,7.698412698412698,-166.26984126984127
306.90476190476187,-325.0,325.0,-325.0,271.19047619047615,246.42857142857142,268.015873015873,268.968253968254,320.55555555555554,-325.0,325.0,275.1587301587301,325.0,-263.25396825396825,290.07936507936506,-325.0,-325.0,325.0,-299.1269841269841,-294.36507936507934,-290.7142857142857,0.7142857142857142,5.317460317460317,-166.26984126984127
306.90476190476187,-325.0,325.0,-325.0,271.19047619047615,246.42857142857142,268.015873015873,268.968253968254,320.55555555555554,-325.0,325.0,275.1587301587301,325.0,-263.25396825396825,290.07936507936506,-325.0,-325.0,325.0,-299.1269841269841,-294.36507936507934,-290.7142857142857,0.7142857142857142,5.317460317460317,-166.26984126984127
-33.25396825396825,-279.1269841269841,5.7936507936507935,-191.03174603174602,69.6031746031746,246.58730158730157,63.888888888888886,116.74603174603173,71.98412698412697,-169.9206349206349,19.6031746031746,164.2063492063492,96.26984126984127,-213.7301587301587,94.52380952380952,-258.968253968254,-284.5238095238095,-284.36507936507934,-61.507936507936506,-210.2380952380952,-215.3174603174603,15.476190476190474,10.079365079365079,-321.8253968253968
-33.25396825396825,-279.1269841269841,5.7936507936507935,-191.03174603174602,69.6031746031746,246.58730158730157,63.888888888888886,116.74603174603173,71.98412698412697,-169.9206349206349,19.6031746031746,164.2063492063492,96.26984126984127,-213.7301587301587,94.52380952380952,-258.968253968254,-284.5238095238095,-284.36507936507934,-61.507936507936506,-210.2380952380952,-215.3174603174603,15.476190476190474,10.079365079365079,-321.8253968253968
-106.1111111111111,-176.74603174603175,-71.5079365079365,-111.82539682539682,-190.7142857142857,58.17460317460317,0.23809523809523808,52.14285714285714,-3.4126984126984126,-75.47619047619047,-104.52380952380952,99.28571428571428,19.6031746031746,-134.84126984126982,26.11111111111111,-58.17460317460317,10.079365079365079,-244.04761904761904,8.492063492063492,-141.34920634920636,-146.74603174603175,15.0,7.222222222222221,-321.8253968253968
-106.1111111111111,-176.74603174603175,-71.5079365079365,-111.82539682539682,-190.7142857142857,58.17460317460317,0.23809523809523808,52.14285714285714,-3.4126984126984126,-75.47619047619047,-104.52380952380952,99.28571428571428,19.6031746031746,-134.84126984126982,26.11111111111111,-58.17460317460317,10.079365079365079,-244.04761904761904,8.492063492063492,-141.34920634920636,-146.74603174603175,15.0,7.222222222222221,-321.8253968253968
70.71428571428571,-120.23809523809523,76.9047619047619,-80.87301587301587,-325.0,-200.3968253968254,63.888888888888886,63.888888888888886,78.65079365079364,-135.95238095238093,-306.74603174603175,65.15873015873015,78.65079365079364,-28.49206349206349,71.19047619047619,146.58730158730157,325.0,-244.36507936507934,-73.88888888888889,-72.46031746031746,-67.85714285714285,4.365079365079365,4.365079365079365,-321.8253968253968
70.71428571428571,-120.23809523809523,76.9047619047619,-80.87301587301587,-325.0,-200.3968253968254,63.888888888888886,63.888888888888886,78.65079365079364,-135.95238095238093,-306.74603174603175,65.15873015873015,78.65079365079364,-28.49206349206349,71.19047619047619,146.58730158730157,325.0,-244.36507936507934,-73.88888888888889,-72.46031746031746,-67.85714285714285,4.365079365079365,4.365079365079365,-321.8253968253968
70.71428571428571,-120.23809523809523,76.9047619047619,-80.87301587301587,-325.0,-200.3968253968254,63.888888888888886,63.888888888888886,78.65079365079364,-135.95238095238093,-306.74603174603175,65.15873015873015,78.65079365079364,-28.49206349206349,71.19047619047619,146.58730158730157,325.0,-244.36507936507934,-73.88888888888889,-72.46031746031746,-67.85714285714285,4.365079365079365,4.365079365079365,-321.8253968253968
70.71428571428571,-120.23809523809523,76.9047619047619,-80.87301587301587,-325.0,-200.3968253968254,63.888888888888886,63.888888888888886,78.65079365079364,-135.95238095238093,-306.74603174603175,65.15873015873015,78.65079365079364,-28.49206349206349,71.19047619047619,146.58730158730157,325.0,-244.36507936507934,-73.88888888888889,-72.46031746031746,-67.85714285714285,4.365079365079365,4.365079365079365,-321.8253968253968
50.71428571428571,-88.17460317460316,55.79365079365079,-58.8095238095238,-325.0,-325.0,-325.0,-325.0,57.53968253968254,-99.28571428571428,-229.44444444444443,-325.0,57.38095238095238,325.0,51.98412698412698,298.4920634920635,325.0,-182.61904761904762,-53.888888888888886,-53.095238095238095,-48.96825396825397,2.9365079365079363,0.7142857142857142,-321.8253968253968
50.71428571428571,-88.17460317460316,55.79365079365079,-58.8095238095238,-325.0,-325.0,-325.0,-325.0,57.53968253968254,-99.28571428571428,-229.44444444444443,-325.0,57.38095238095238,325.0,51.98412698412698,298.4920634920635,325.0,-182.61904761904762,-53.888888888888886,-53.095238095238095,-48.96825396825397,2.9365079365079363,0.7142857142857142,-321.8253968253968
49.92063492063492,-86.74603174603175,54.841269841269835,-57.857142857142854,-325.0,-325.0,-325.0,-325.0,56.42857142857142,-97.53968253968253,-225.63492063492063,-325.0,56.42857142857142,325.0,51.03174603174603,325.0,325.0,-179.44444444444443,-52.93650793650794,-52.14285714285714,-48.17460317460317,-2.142857142857143,-2.142857142857143,-166.26984126984127
49.92063492063492,-86.74603174603175,54.841269841269835,-57.857142857142854,-325.0,-325.0,-325.0,-325.0,56.42857142857142,-97.53968253968253,-225.63492063492063,-325.0,56.42857142857142,325.0,51.03174603174603,325.0,325.0,-179.44444444444443,-52.93650793650794,-52.14285714285714,-48.17460317460317,-2.142857142857143,-2.142857142857143,-166.26984126984127
49.285714285714285,-85.47619047619047,54.2063492063492,-57.06349206349206,-325.0,-325.0,-325.0,-325.0,55.63492063492063,-96.1111111111111,-222.93650793650792,-325.0,55.95238095238095,325.0,50.079365079365076,325.0,325.0,-177.2222222222222,-52.460317460317455,-51.507936507936506,-47.38095238095238,-1.6666666666666665,-6.26984126984127,-166.26984126984127
49.285714285714285,-85.47619047619047,54.2063492063492,-57.06349206349206,-325.0,-325.0,-325.0,-325.0,55.63492063492063,-96.1111111111111,-222.93650793650792,-325.0,55.95238095238095,325.0,50.079365079365076,325.0,325.0,-177.2222222222222,-52.460317460317455,-51.507936507936506,-47.38095238095238,-1.6666666666666665,-6.26984126984127,-166.26984126984127
36.74603174603175,-16.746031746031743,37.38095238095238,-29.444444444444443,-152.3015873015873,-314.8412698412698,-152.3015873015873,-314.8412698412698,64.04761904761905,-93.09523809523809,-53.095238095238095,-314.8412698412698,-108.80952380952381,314.8412698412698,58.8095238095238,325.0,325.0,-171.5079365079365,111.98412698412697,-49.76190476190476,116.42857142857142,-0.873015873015873,156.11111111111111,-166.26984126984127
36.74603174603175,-16.746031746031743,37.38095238095238,-29.444444444444443,-152.3015873015873,-314.8412698412698,-152.3015873015873,-314.8412698412698,64.04761904761905,-93.09523809523809,-53.095238095238095,-314.8412698412698,-108.80952380952381,314.8412698412698,58.8095238095238,325.0,325.0,-171.5079365079365,111.98412698412697,-49.76190476190476,116.42857142857142,-0.873015873015873,156.11111111111111,-166.26984126984127
-250.7142857142857,325.0,-139.6031746031746,294.04761904761904,-116.9047619047619,-159.28571428571428,-201.8253968253968,-168.8095238095238,-323.57142857142856,325.0,19.76190476190476,-198.8095238095238,-124.52380952380952,170.7142857142857,-143.88888888888889,224.2063492063492,117.38095238095238,-43.73015873015873,325.0,325.0,325.0,-5.317460317460317,-6.746031746031746,-166.26984126984127
-250.7142857142857,325.0,-139.6031746031746,294.04761904761904,-116.9047619047619,-159.28571428571428,-201.8253968253968,-168.8095238095238,-323.57142857142856,325.0,19.76190476190476,-198.8095238095238,-124.52380952380952,170.7142857142857,-143.88888888888889,224.2063492063492,117.38095238095238,-43.73015873015873,325.0,325.0,325.0,-5.317460317460317,-6.746031746031746,-166.26984126984127
-250.7142857142857,325.0,-139.6031746031746,294.04761904761904,-116.9047619047619,-159.28571428571428,-201.8253968253968,-168.8095238095238,-323.57142857142856,325.0,19.76190476190476,-198.8095238095238,-124.52380952380952,170.7142857142857,-143.88888888888889,224.2063492063492,117.38095238095238,-43.73015873015873,325.0,325.0,325.0,-5.317460317460317,-6.746031746031746,-166.26984126984127
-250.7142857142857,325.0,-139.6031746031746,294.04761904761904,-116.9047619047619,-159.28571428571428,-201.8253968253968,-168.8095238095238,-323.57142857142856,325.0,19.76190476190476,-198.8095238095238,-124.52380952380952,170.7142857142857,-143.88888888888889,224.2063492063492,117.38095238095238,-43.73015873015873,325.0,325.0,325.0,-5.317460317460317,-6.746031746031746,-166.26984126984127
-210.55555555555554,292.3015873015873,-232.3015873015873,247.2222222222222,-98.80952380952381,-134.52380952380952,-169.9206349206349,-142.93650793650792,-324.36507936507934,273.0952380952381,-19.126984126984127,-167.38095238095238,-224.84126984126982,142.61904761904762,-234.52380952380952,179.28571428571428,98.33333333333333,-31.349206349206348,325.0,284.36507936507934,319.9206349206349,-1.8253968253968254,-5.634920634920634,-321.8253968253968
-210.55555555555554,292.3015873015873,-232.3015873015873,247.2222222222222,-98.80952380952381,-134.52380952380952,-169.9206349206349,-142.93650793650792,-324.36507936507934,273.0952380952381,-19.126984126984127,-167.38095238095238,-224.84126984126982,142.61904761904762,-234.52380952380952,179.28571428571428,98.33333333333333,-31.349206349206348,325.0,284.36507936507934,319.9206349206349,-1.8253968253968254,-5.634920634920634,-321.8253968253968
-170.3968253968254,259.6031746031746,-325.0,200.55555555555554,-80.71428571428571,-109.76190476190476,-138.015873015873,-117.06349206349206,-325.0,221.34920634920633,-58.01587301587301,-135.79365079365078,-325.0,114.68253968253967,-325.0,134.52380952380952,79.28571428571428,-18.96825396825397,325.0,243.88888888888889,315.0,1.8253968253968254,-4.523809523809524,-321.8253968253968
-170.3968253968254,259.6031746031746,-325.0,200.55555555555554,-80.71428571428571,-109.76190476190476,-138.015873015873,-117.06349206349206,-325.0,221.34920634920633,-58.01587301587301,-135.79365079365078,-325.0,114.68253968253967,-325.0,134.52380952380952,79.28571428571428,-18.96825396825397,325.0,243.88888888888889,315.0,1.8253968253968254,-4.523809523809524,-321.8253968253968
-167.53968253968253,255.15873015873015,-325.0,197.06349206349205,-79.44444444444444,-107.85714285714285,-135.79365079365078,-115.15873015873015,-325.0,222.14285714285714,-57.06349206349206,-133.73015873015873,-325.0,112.6190476190476,-325.0,128.4920634920635,77.85714285714285,-14.047619047619047,325.0,239.76190476190476,309.6031746031746,1.8253968253968254,-4.0476190476190474,-321.8253968253968
-167.53968253968253,255.15873015873015,-325.0,197.06349206349205,-79.44444444444444,-107.85714285714285,-135.79365079365078,-115.15873015873015,-325.0,222.14285714285714,-57.06349206349206,-133.73015873015873,-325.0,112.6190476190476,-325.0,128.4920634920635,77.85714285714285,-14.047619047619047,325.0,239.76190476190476,309.6031746031746,1.8253968253968254,-4.0476190476190474,-321.8253968253968
-163.4126984126984,249.12698412698413,-325.0,191.98412698412696,-77.22222222222221,-105.15873015873015,-132.14285714285714,-112.30158730158729,-325.0,111.82539682539682,-50.71428571428571,-130.07936507936506,-325.0,109.6031746031746,-325.0,41.34920634920635,75.95238095238095,-31.19047619047619,325.0,233.88888888888889,301.5079365079365,5.634920634920634,7.857142857142857,-321.8253968253968
-163.4126984126984,249.12698412698413,-325.0,191.98412698412696,-77.22222222222221,-105.15873015873015,-132.14285714285714,-112.30158730158729,-325.0,111.82539682539682,-50.71428571428571,-130.07936507936506,-325.0,109.6031746031746,-325.0,41.34920634920635,75.95238095238095,-31.19047619047619,325.0,233.88888888888889,301.5079365079365,5.634920634920634,7.857142857142857,-321.8253968253968
-160.3968253968254,244.84126984126982,-325.0,188.4920634920635,-76.26984126984127,-103.25396825396825,-130.07936507936506,-110.39682539682539,-325.0,315.4761904761905,-54.68253968253968,-128.015873015873,-280.23809523809524,107.53968253968253,-325.0,151.34920634920633,74.68253968253968,35.79365079365079,325.0,229.76190476190476,296.4285714285714,-7.222222222222221,-9.126984126984127,-321.8253968253968
-160.3968253968254,244.84126984126982,-325.0,188.4920634920635,-76.26984126984127,-103.25396825396825,-130.07936507936506,-110.39682539682539,-325.0,315.4761904761905,-54.68253968253968,-128.015873015873,-280.23809523809524,107.53968253968253,-325.0,151.34920634920633,74.68253968253968,35.79365079365079,325.0,229.76190476190476,296.4285714285714,-7.222222222222221,-9.126984126984127,-321.8253968253968
-160.3968253968254,244.84126984126982,-325.0,188.4920634920635,-76.26984126984127,-103.25396825396825,-130.07936507936506,-110.39682539682539,-325.0,315.4761904761905,-54.68253968253968,-128.015873015873,-280.23809523809524,107.53968253968253,-325.0,151.34920634920633,74.68253968253968,35.79365079365079,325.0,229.76190476190476,296.4285714285714,-7.222222222222221,-9.126984126984127,-166.26984126984127
-160.3968253968254,244.84126984126982,-325.0,188.4920634920635,-76.26984126984127,-103.25396825396825,-130.07936507936506,-110.39682539682539,-325.0,315.4761904761905,-54.68253968253968,-128.015873015873,-280.23809523809524,107.53968253968253,-325.0,151.34920634920633,74.68253968253968,35.79365079365079,325.0,229.76190476190476,296.4285714285714,-7.222222222222221,-9.126984126984127,-166.26984126984127
-157.06349206349205,239.9206349206349,-325.0,184.52380952380952,-74.84126984126983,-101.19047619047619,-127.38095238095238,-108.17460317460316,-325.0,281.8253968253968,-53.73015873015873,-125.31746031746032,-302.6190476190476,105.15873015873015,-325.0,125.63492063492063,73.09523809523809,30.71428571428571,325.0,225.15873015873015,290.23809523809524,-3.4126984126984126,-6.26984126984127,-166.26984126984127
-157.06349206349205,239.9206349206349,-325.0,184.52380952380952,-74.84126984126983,-101.19047619047619,-127.38095238095238,-108.17460317460316,-325.0,281.8253968253968,-53.73015873015873,-125.31746031746032,-302.6190476190476,105.15873015873015,-325.0,125.63492063492063,73.09523809523809,30.71428571428571,325.0,225.15873015873015,290.23809523809524,-3.4126984126984126,-6.26984126984127,-166.26984126984127
-150.23809523809524,229.76190476190476,-325.0,176.9047619047619,-71.82539682539682,-97.22222222222221,-122.14285714285714,-103.73015873015872,-325.0,187.06349206349205,-49.76190476190476,-120.07936507936508,-325.0,100.71428571428571,-325.0,32.3015873015873,69.92063492063491,-3.571428571428571,325.0,215.79365079365078,278.17460317460313,3.253968253968254,2.46031746031746,-166.26984126984127
-150.23809523809524,229.76190476190476,-325.0,176.9047619047619,-71.82539682539682,-97.22222222222221,-122.14285714285714,-103.73015873015872,-325.0,187.06349206349205,-49.76190476190476,-120.07936507936508,-325.0,100.71428571428571,-325.0,32.3015873015873,69.92063492063491,-3.571428571428571,325.0,215.79365079365078,278.17460317460313,3.253968253968254,2.46031746031746,-166.26984126984127
-142.77777777777777,218.4920634920635,-325.0,168.015873015873,-68.4920634920635,-92.46031746031746,-116.1111111111111,-98.80952380952381,-325.0,167.2222222222222,-47.22222222222222,-114.04761904761904,-325.0,95.63492063492063,-325.0,-16.587301587301585,66.26984126984127,-5.952380952380952,325.0,205.15873015873015,264.04761904761904,3.888888888888889,2.46031746031746,-166.26984126984127
-142.77777777777777,218.4920634920635,-325.0,168.015873015873,-68.4920634920635,-92.46031746031746,-116.1111111111111,-98.80952380952381,-325.0,167.2222222222222,-47.22222222222222,-114.04761904761904,-325.0,95.63492063492063,-325.0,-16.587301587301585,66.26984126984127,-5.952380952380952,325.0,205.15873015873015,264.04761904761904,3.888888888888889,2.46031746031746,-166.26984126984127
-134.04761904761904,205.79365079365078,-325.0,157.53968253968253,-64.04761904761905,-86.9047619047619,-108.96825396825396,-93.09523809523809,-325.0,199.9206349206349,-46.269841269841265,-107.06349206349206,-325.0,89.28571428571428,-325.0,-22.3015873015873,62.3015873015873,38.80952380952381,325.0,192.93650793650792,247.38095238095238,1.0317460317460316,-1.984126984126984,-166.26984126984127
-134.04761904761904,205.79365079365078,-325.0,157.53968253968253,-64.04761904761905,-86.9047619047619,-108.96825396825396,-93.09523809523809,-325.0,199.9206349206349,-46.269841269841265,-107.06349206349206,-325.0,89.28571428571428,-325.0,-22.3015873015873,62.3015873015873,38.80952380952381,325.0,192.93650793650792,247.38095238095238,1.0317460317460316,-1.984126984126984,-166.26984126984127
-134.04761904761904,205.79365079365078,-325.0,157.53968253968253,-64.04761904761905,-86.9047619047619,-108.96825396825396,-93.09523809523809,-325.0,199.9206349206349,-46.269841269841265,-107.06349206349206,-325.0,89.28571428571428,-325.0,-22.3015873015873,62.3015873015873,38.80952380952381,325.0,192.93650793650792,247.38095238095238,1.0317460317460316,-1.984126984126984,-321.8253968253968
-134.04761904761904,205.79365079365078,-325.0,157.53968253968253,-64.04761904761905,-86.9047619047619,-108.96825396825396,-93.09523809523809,-325.0,199.9206349206349,-46.269841269841265,-107.06349206349206,-325.0,89.28571428571428,-325.0,-22.3015873015873,62.3015873015873,38.80952380952381,325.0,192.93650793650792,247.38095238095238,1.0317460317460316,-1.984126984126984,-321.8253968253968
-134.04761904761904,205.79365079365078,-325.0,157.53968253968253,-64.04761904761905,-86.9047619047619,-108.96825396825396,-93.09523809523809,-325.0,199.9206349206349,-46.269841269841265,-107.06349206349206,-325.0,89.28571428571428,-325.0,-22.3015873015873,62.3015873015873,38.80952380952381,325.0,192.93650793650792,247.38095238095238,1.0317460317460316,-1.984126984126984,-321.8253968253968
-134.04761904761904,205.79365079365078,-325.0,157.53968253968253,-64.04761904761905,-86.9047619047619,-108.96825396825396,-93.09523809523809,-325.0,199.9206349206349,-46.269841269841265,-107.06349206349206,-325.0,89.28571428571428,-325.0,-22.3015873015873,62.3015873015873,38.80952380952381,325.0,192.93650793650792,247.38095238095238,1.0317460317460316,-1.984126984126984,-321.8253968253968
-134.04761904761904,205.79365079365078,-325.0,157.53968253968253,-64.04761904761905,-86.9047619047619,-108.96825396825396,-93.09523809523809,-325.0,199.9206349206349,-46.269841269841265,-107.06349206349206,-325.0,89.28571428571428,-325.0,-22.3015873015873,62.3015873015873,38.80952380952381,325.0,192.93650793650792,247.38095238095238,1.0317460317460316,-1.984126984126984,-321.8253968253968
-134.04761904761904,205.79365079365078,-325.0,157.53968253968253,-64.04761904761905,-86.9047619047619,-108.96825396825396,-93.09523809523809,-325.0,199.9206349206349,-46.269841269841265,-107.06349206349206,-325.0,89.28571428571428,-325.0,-22.3015873015873,62.3015873015873,38.80952380952381,325.0,192.93650793650792,247.38095238095238,1.0317460317460316,-1.984126984126984,-321.8253968253968
-63.25396825396825,98.49206349206348,-325.0,73.73015873015872,-32.460317460317455,-42.460317460317455,-52.460317460317455,-45.95238095238095,-250.07936507936506,219.60317460317458,132.77777777777777,-51.19047619047619,-325.0,41.03174603174603,-325.0,-41.507936507936506,29.285714285714285,325.0,247.69841269841268,91.82539682539682,115.0,0.23809523809523808,-2.9365079365079363,-321.8253968253968
-63.25396825396825,98.49206349206348,-325.0,73.73015873015872,-32.460317460317455,-42.460317460317455,-52.460317460317455,-45.95238095238095,-250.07936507936506,219.60317460317458,132.77777777777777,-51.19047619047619,-325.0,41.03174603174603,-325.0,-41.507936507936506,29.285714285714285,325.0,247.69841269841268,91.82539682539682,115.0,0.23809523809523808,-2.9365079365079363,-321.8253968253968
-61.98412698412698,96.9047619047619,-325.0,72.46031746031746,-31.825396825396822,-41.666666666666664,-51.666666666666664,-45.317460317460316,-245.95238095238093,225.15873015873015,163.09523809523807,-50.238095238095234,-325.0,40.39682539682539,-325.0,-45.95238095238095,28.65079365079365,325.0,243.57142857142856,90.23809523809523,113.09523809523809,-1.349206349206349,2.7777777777777777,-321.8253968253968
-61.98412698412698,96.9047619047619,-325.0,72.46031746031746,-31.825396825396822,-41.666666666666664,-51.666666666666664,-45.317460317460316,-245.95238095238093,225.15873015873015,163.09523809523807,-50.238095238095234,-325.0,40.39682539682539,-325.0,-45.95238095238095,28.65079365079365,325.0,243.57142857142856,90.23809523809523,113.09523809523809,-1.349206349206349,2.7777777777777777,-321.8253968253968
-51.19047619047619,79.76190476190476,-281.5079365079365,59.6031746031746,-26.746031746031743,-34.682539682539684,-42.77777777777778,-37.698412698412696,-203.4126984126984,124.04761904761904,140.7142857142857,-41.19047619047619,-289.2857142857143,32.93650793650794,-271.8253968253968,-145.47619047619048,23.730158730158728,221.34920634920633,201.03174603174602,74.2063492063492,92.30158730158729,-0.07936507936507936,1.349206349206349,-166.26984126984127
-51.19047619047619,79.76190476190476,-281.5079365079365,59.6031746031746,-26.746031746031743,-34.682539682539684,-42.77777777777778,-37.698412698412696,-203.4126984126984,124.04761904761904,140.7142857142857,-41.19047619047619,-289.2857142857143,32.93650793650794,-271.8253968253968,-145.47619047619048,23.730158730158728,221.34920634920633,201.03174603174602,74.2063492063492,92.30158730158729,-0.07936507936507936,1.349206349206349,-166.26984126984127
-40.55555555555555,63.25396825396825,-237.85714285714283,47.06349206349206,-21.825396825396822,-27.698412698412696,-34.2063492063492,-30.396825396825395,-161.8253968253968,4.682539682539682,131.19047619047618,-32.61904761904762,-253.4126984126984,25.79365079365079,-218.65079365079364,-325.0,18.96825396825397,117.6984126984127,159.28571428571428,58.8095238095238,72.3015873015873,5.0,5.7936507936507935,-166.26984126984127
-40.55555555555555,63.25396825396825,-237.85714285714283,47.06349206349206,-21.825396825396822,-27.698412698412696,-34.2063492063492,-30.396825396825395,-161.8253968253968,4.682539682539682,131.19047619047618,-32.61904761904762,-253.4126984126984,25.79365079365079,-218.65079365079364,-325.0,18.96825396825397,117.6984126984127,159.28571428571428,58.8095238095238,72.3015873015873,5.0,5.7936507936507935,-166.26984126984127
-39.285714285714285,61.666666666666664,-232.14285714285714,45.79365079365079,-21.349206349206348,-27.22222222222222,-33.25396825396825,-29.920634920634917,-158.015873015873,136.9047619047619,83.09523809523809,-32.3015873015873,-247.06349206349205,25.317460317460316,-213.25396825396825,-239.60317460317458,18.49206349206349,277.38095238095235,155.63492063492063,57.53968253968254,70.39682539682539,-0.873015873015873,-7.698412698412698,-166.26984126984127
-39.285714285714285,61.666666666666664,-232.14285714285714,45.79365079365079,-21.349206349206348,-27.22222222222222,-33.25396825396825,-29.920634920634917,-158.015873015873,136.9047619047619,83.09523809523809,-32.3015873015873,-247.06349206349205,25.317460317460316,-213.25396825396825,-239.60317460317458,18.49206349206349,277.38095238095235,155.63492063492063,57.53968253968254,70.39682539682539,-0.873015873015873,-7.698412698412698,-166.26984126984127
-38.65079365079365,60.71428571428571,-228.015873015873,44.84126984126984,-21.03174603174603,-26.428571428571427,-32.61904761904762,-29.126984126984127,-155.47619047619048,111.34920634920634,137.53968253968253,-31.666666666666664,-242.77777777777777,24.84126984126984,-209.9206349206349,-274.36507936507934,18.174603174603174,232.93650793650792,152.77777777777777,56.42857142857142,69.28571428571428,1.8253968253968254,4.682539682539682,-166.26984126984127
-38.65079365079365,60.71428571428571,-228.015873015873,44.84126984126984,-21.03174603174603,-26.428571428571427,-32.61904761904762,-29.126984126984127,-155.47619047619048,111.34920634920634,137.53968253968253,-31.666666666666664,-242.77777777777777,24.84126984126984,-209.9206349206349,-274.36507936507934,18.174603174603174,232.93650793650792,152.77777777777777,56.42857142857142,69.28571428571428,1.8253968253968254,4.682539682539682,-166.26984126984127
-38.01587301587301,59.44444444444444,-223.4126984126984,43.888888888888886,-20.555555555555554,-26.11111111111111,-32.3015873015873,-28.809523809523807,-152.14285714285714,62.93650793650793,96.58730158730158,-31.03174603174603,-238.015873015873,24.206349206349206,-205.63492063492063,-265.4761904761905,17.539682539682538,249.12698412698413,149.76190476190476,55.15873015873016,67.6984126984127,2.142857142857143,-0.07936507936507936,-166.26984126984127
-38.01587301587301,59.44444444444444,-223.4126984126984,43.888888888888886,-20.555555555555554,-26.11111111111111,-32.3015873015873,-28.809523809523807,-152.14285714285714,62.93650793650793,96.58730158730158,-31.03174603174603,-238.015873015873,24.206349206349206,-205.63492063492063,-265.4761904761905,17.539682539682538,249.12698412698413,149.76190476190476,55.15873015873016,67.6984126984127,2.142857142857143,-0.07936507936507936,-166.26984126984127
-37.22222222222222,58.33333333333333,-219.60317460317458,43.095238095238095,-20.555555555555554,-25.634920634920633,-31.666666666666664,-28.174603174603174,-149.76190476190476,82.61904761904762,116.42857142857142,-30.396825396825395,-233.88888888888889,23.88888888888889,-202.46031746031744,-301.031746031746,17.38095238095238,264.36507936507934,147.2222222222222,54.047619047619044,66.58730158730158,-2.9365079365079363,-2.142857142857143,-321.8253968253968
-37.22222222222222,58.33333333333333,-219.60317460317458,43.095238095238095,-20.555555555555554,-25.634920634920633,-31.666666666666664,-28.174603174603174,-149.76190476190476,82.61904761904762,116.42857142857142,-30.396825396825395,-233.88888888888889,23.88888888888889,-202.46031746031744,-301.031746031746,17.38095238095238,264.36507936507934,147.2222222222222,54.047619047619044,66.58730158730158,-2.9365079365079363,-2.142857142857143,-321.8253968253968
-36.74603174603175,57.698412698412696,-217.06349206349205,42.77777777777778,-20.238095238095237,-25.317460317460316,-31.03174603174603,-28.174603174603174,-147.69841269841268,-15.476190476190474,-38.17460317460317,-29.920634920634917,-231.19047619047618,23.730158730158728,-199.9206349206349,-325.0,17.22222222222222,219.76190476190476,145.3174603174603,53.41269841269841,65.63492063492063,-0.23809523809523808,-6.26984126984127,-321.8253968253968
-36.74603174603175,57.698412698412696,-217.06349206349205,42.77777777777778,-20.238095238095237,-25.317460317460316,-31.03174603174603,-28.174603174603174,-147.69841269841268,-15.476190476190474,-38.17460317460317,-29.920634920634917,-231.19047619047618,23.730158730158728,-199.9206349206349,-325.0,17.22222222222222,219.76190476190476,145.3174603174603,53.41269841269841,65.63492063492063,-0.23809523809523808,-6.26984126984127,-321.8253968253968
-35.95238095238095,56.42857142857142,-212.3015873015873,41.82539682539682,-19.76190476190476,-24.84126984126984,-30.555555555555554,-27.38095238095238,-144.84126984126982,72.77777777777777,-151.03174603174602,-29.444444444444443,-225.95238095238093,23.095238095238095,-195.79365079365078,-305.1587301587301,16.746031746031743,266.74603174603175,142.3015873015873,52.3015873015873,64.2063492063492,-3.4126984126984126,-1.507936507936508,-321.8253968253968
-35.95238095238095,56.42857142857142,-212.3015873015873,41.82539682539682,-19.76190476190476,-24.84126984126984,-30.555555555555554,-27.38095238095238,-144.84126984126982,72.77777777777777,-151.03174603174602,-29.444444444444443,-225.95238095238093,23.095238095238095,-195.79365079365078,-305.1587301587301,16.746031746031743,266.74603174603175,142.3015873015873,52.3015873015873,64.2063492063492,-3.4126984126984126,-1.507936507936508,-321.8253968253968
-35.63492063492063,55.476190476190474,-208.8095238095238,40.714285714285715,-19.444444444444443,-24.523809523809522,-30.07936507936508,-26.9047619047619,-142.3015873015873,-57.53968253968254,-144.04761904761904,-28.96825396825397,-222.46031746031744,22.619047619047617,-192.77777777777777,-325.0,16.428571428571427,185.3174603174603,139.9206349206349,51.34920634920635,63.095238095238095,2.3015873015873014,0.873015873015873,-321.8253968253968
-35.63492063492063,55.476190476190474,-208.8095238095238,40.714285714285715,-19.444444444444443,-24.523809523809522,-30.07936507936508,-26.9047619047619,-142.3015873015873,-57.53968253968254,-144.04761904761904,-28.96825396825397,-222.46031746031744,22.619047619047617,-192.77777777777777,-325.0,16.428571428571427,185.3174603174603,139.9206349206349,51.34920634920635,63.095238095238095,2.3015873015873014,0.873015873015873,-321.8253968253968
-34.84126984126984,54.52380952380952,-205.95238095238093,40.55555555555555,-19.126984126984127,-23.88888888888889,-29.6031746031746,-26.587301587301585,-140.55555555555554,18.80952380952381,-141.5079365079365,-28.65079365079365,-219.28571428571428,22.3015873015873,-190.23809523809524,-325.0,16.26984126984127,193.4126984126984,138.17460317460316,50.87301587301587,62.3015873015873,0.23809523809523808,5.317460317460317,-321.8253968253968
-34.84126984126984,54.52380952380952,-205.95238095238093,40.55555555555555,-19.126984126984127,-23.88888888888889,-29.6031746031746,-26.587301587301585,-140.55555555555554,18.80952380952381,-141.5079365079365,-28.65079365079365,-219.28571428571428,22.3015873015873,-190.23809523809524,-325.0,16.26984126984127,193.4126984126984,138.17460317460316,50.87301587301587,62.3015873015873,0.23809523809523808,5.317460317460317,-321.8253968253968
-34.52380952380952,53.888888888888886,-203.4126984126984,39.92063492063492,-18.96825396825397,-23.730158730158728,-29.285714285714285,-26.26984126984127,-138.96825396825395,-47.38095238095238,-139.6031746031746,-28.174603174603174,-216.58730158730157,21.984126984126984,-188.015873015873,-325.0,16.11111111111111,177.85714285714286,136.42857142857142,50.238095238095234,61.34920634920635,3.253968253968254,6.428571428571428,-166.26984126984127
-34.52380952380952,53.888888888888886,-203.4126984126984,39.92063492063492,-18.96825396825397,-23.730158730158728,-29.285714285714285,-26.26984126984127,-138.96825396825395,-47.38095238095238,-139.6031746031746,-28.174603174603174,-216.58730158730157,21.984126984126984,-188.015873015873,-325.0,16.11111111111111,177.85714285714286,136.42857142857142,50.238095238095234,61.34920634920635,3.253968253968254,6.428571428571428,-166.26984126984127
-33.888888888888886,53.095238095238095,-199.44444444444443,39.12698412698413,-18.65079365079365,-23.095238095238095,-28.65079365079365,-25.952380952380953,-135.95238095238093,0.07936507936507936,-136.26984126984127,-27.38095238095238,-212.14285714285714,21.666666666666664,-184.2063492063492,-325.0,15.95238095238095,258.3333333333333,133.57142857142856,49.12698412698413,60.079365079365076,0.23809523809523808,4.365079365079365,-166.26984126984127
-33.888888888888886,53.095238095238095,-199.44444444444443,39.12698412698413,-18.65079365079365,-23.095238095238095,-28.65079365079365,-25.952380952380953,-135.95238095238093,0.07936507936507936,-136.26984126984127,-27.38095238095238,-212.14285714285714,21.666666666666664,-184.2063492063492,-325.0,15.95238095238095,258.3333333333333,133.57142857142856,49.12698412698413,60.079365079365076,0.23809523809523808,4.365079365079365,-166.26984126984127
-32.93650793650794,51.34920634920635,-193.4126984126984,38.01587301587301,-18.174603174603174,-22.777777777777775,-28.015873015873016,-25.158730158730158,-131.984126984127,-144.04761904761904,-131.8253968253968,-26.746031746031743,-205.95238095238093,21.03174603174603,-179.12698412698413,-325.0,10.873015873015872,147.06349206349205,129.6031746031746,47.698412698412696,58.33333333333333,2.46031746031746,5.317460317460317,-166.26984126984127
-32.93650793650794,51.34920634920635,-193.4126984126984,38.01587301587301,-18.174603174603174,-22.777777777777775,-28.015873015873016,-25.158730158730158,-131.984126984127,-144.04761904761904,-131.8253968253968,-26.746031746031743,-205.95238095238093,21.03174603174603,-179.12698412698413,-325.0,10.873015873015872,147.06349206349205,129.6031746031746,47.698412698412696,58.33333333333333,2.46031746031746,5.317460317460317,-166.26984126984127
-32.3015873015873,50.55555555555555,-190.23809523809524,37.22222222222222,-18.015873015873016,-22.3015873015873,-27.698412698412696,-24.84126984126984,-129.9206349206349,-70.87301587301587,-129.44444444444443,-26.587301587301585,-202.61904761904762,20.555555555555554,-176.42857142857142,-325.0,13.253968253968253,266.74603174603175,127.53968253968253,46.74603174603175,57.06349206349206,-3.4126984126984126,-7.5396825396825395,-166.26984126984127
-32.3015873015873,50.55555555555555,-190.23809523809524,37.22222222222222,-18.015873015873016,-22.3015873015873,-27.698412698412696,-24.84126984126984,-129.9206349206349,-70.87301587301587,-129.44444444444443,-26.587301587301585,-202.61904761904762,20.555555555555554,-176.42857142857142,-325.0,13.253968253968253,266.74603174603175,127.53968253968253,46.74603174603175,57.06349206349206,-3.4126984126984126,-7.5396825396825395,-166.26984126984127
-31.825396825396822,9.920634920634921,-186.9047619047619,36.74603174603175,-17.698412698412696,-21.984126984126984,-27.063492063492063,-24.365079365079364,-127.53968253968253,-213.09523809523807,-126.9047619047619,-25.79365079365079,-199.28571428571428,20.238095238095237,-173.25396825396825,-325.0,-44.2063492063492,117.22222222222221,125.31746031746032,45.95238095238095,56.269841269841265,2.619047619047619,5.317460317460317,-166.26984126984127
-31.825396825396822,9.920634920634921,-186.9047619047619,36.74603174603175,-17.698412698412696,-21.984126984126984,-27.063492063492063,-24.365079365079364,-127.53968253968253,-213.09523809523807,-126.9047619047619,-25.79365079365079,-199.28571428571428,20.238095238095237,-173.25396825396825,-325.0,-44.2063492063492,117.22222222222221,125.31746031746032,45.95238095238095,56.269841269841265,2.619047619047619,5.317460317460317,-166.26984126984127
-31.349206349206348,37.857142857142854,-184.68253968253967,36.42857142857142,-16.11111111111111,-21.825396825396822,-26.746031746031743,-24.206349206349206,-125.95238095238095,-146.42857142857142,-125.15873015873015,-25.634920634920633,-196.74603174603175,20.07936507936508,-171.03174603174602,-325.0,-62.93650793650793,218.015873015873,123.88888888888889,45.476190476190474,55.476190476190474,-0.7142857142857142,-1.1904761904761905,-321.8253968253968
-31.349206349206348,37.857142857142854,-184.68253968253967,36.42857142857142,-16.11111111111111,-21.825396825396822,-26.746031746031743,-24.206349206349206,-125.95238095238095,-146.42857142857142,-125.15873015873015,-25.634920634920633,-196.74603174603175,20.07936507936508,-171.03174603174602,-325.0,-62.93650793650793,218.015873015873,123.88888888888889,45.476190476190474,55.476190476190474,-0.7142857142857142,-1.1904761904761905,-321.8253968253968
-30.71428571428571,21.666666666666664,-180.87301587301587,35.317460317460316,-17.22222222222222,-21.349206349206348,-26.26984126984127,-23.57142857142857,-123.73015873015872,-184.04761904761904,-122.14285714285714,-25.158730158730158,-192.3015873015873,19.6031746031746,-167.69841269841268,-325.0,8.492063492063492,168.8095238095238,121.03174603174602,44.52380952380952,54.2063492063492,2.142857142857143,6.26984126984127,-321.8253968253968
-30.71428571428571,21.666666666666664,-180.87301587301587,35.317460317460316,-17.22222222222222,-21.349206349206348,-26.26984126984127,-23.57142857142857,-123.73015873015872,-184.04761904761904,-122.14285714285714,-25.158730158730158,-192.3015873015873,19.6031746031746,-167.69841269841268,-325.0,8.492063492063492,168.8095238095238,121.03174603174602,44.52380952380952,54.2063492063492,2.142857142857143,6.26984126984127,-321.8253968253968
-30.396825396825395,27.539682539682538,-178.65079365079364,35.0,-16.746031746031743,-21.03174603174603,-25.952380952380953,-23.41269841269841,-122.14285714285714,-155.63492063492063,-120.39682539682539,-25.0,-189.9206349206349,19.285714285714285,-165.63492063492063,-325.0,18.333333333333332,210.7142857142857,119.44444444444444,44.047619047619044,53.57142857142857,-0.23809523809523808,-0.23809523809523808,-321.8253968253968
-30.396825396825395,27.539682539682538,-178.65079365079364,35.0,-16.746031746031743,-21.03174603174603,-25.952380952380953,-23.41269841269841,-122.14285714285714,-155.63492063492063,-120.39682539682539,-25.0,-189.9206349206349,19.285714285714285,-165.63492063492063,-325.0,18.333333333333332,210.7142857142857,119.44444444444444,44.047619047619044,53.57142857142857,-0.23809523809523808,-0.23809523809523808,-321.8253968253968
-29.76190476190476,-28.809523809523807,-175.63492063492063,34.52380952380952,-16.746031746031743,-20.873015873015873,-25.476190476190474,-23.095238095238095,-119.76190476190476,-307.22222222222223,-105.47619047619047,-24.206349206349206,-186.9047619047619,18.96825396825397,-162.77777777777777,-325.0,17.698412698412696,44.84126984126984,117.6984126984127,43.25396825396825,52.460317460317455,6.587301587301587,8.492063492063492,-321.8253968253968
-29.76190476190476,-28.809523809523807,-175.63492063492063,34.52380952380952,-16.746031746031743,-20.873015873015873,-25.476190476190474,-23.095238095238095,-119.76190476190476,-307.22222222222223,-105.47619047619047,-24.206349206349206,-186.9047619047619,18.96825396825397,-162.77777777777777,-325.0,17.698412698412696,44.84126984126984,117.6984126984127,43.25396825396825,52.460317460317455,6.587301587301587,8.492063492063492,-321.8253968253968
-29.6031746031746,-6.111111111111111,-173.57142857142856,34.047619047619044,60.39682539682539,-20.555555555555554,-25.158730158730158,-22.936507936507937,-118.49206349206348,-255.47619047619045,-110.39682539682539,-24.047619047619047,-184.84126984126982,18.65079365079365,-161.03174603174602,-325.0,17.38095238095238,129.9206349206349,116.26984126984127,42.61904761904761,51.82539682539682,3.73015873015873,1.349206349206349,-321.8253968253968
-29.6031746031746,-6.111111111111111,-173.57142857142856,34.047619047619044,60.39682539682539,-20.555555555555554,-25.158730158730158,-22.936507936507937,-118.49206349206348,-255.47619047619045,-110.39682539682539,-24.047619047619047,-184.84126984126982,18.65079365079365,-161.03174603174602,-325.0,17.38095238095238,129.9206349206349,116.26984126984127,42.61904761904761,51.82539682539682,3.73015873015873,1.349206349206349,-321.8253968253968
-28.96825396825397,8.65079365079365,-169.9206349206349,33.25396825396825,98.33333333333333,-20.238095238095237,-24.68253968253968,-22.46031746031746,-116.1111111111111,-184.84126984126982,-113.57142857142857,-23.730158730158728,-180.87301587301587,18.333333333333332,-157.69841269841268,-325.0,16.904761904761905,211.66666666666666,113.73015873015872,41.666666666666664,50.71428571428571,-0.5555555555555556,-1.507936507936508,-166.26984126984127
-28.96825396825397,8.65079365079365,-169.9206349206349,33.25396825396825,98.33333333333333,-20.238095238095237,-24.68253968253968,-22.46031746031746,-116.1111111111111,-184.84126984126982,-113.57142857142857,-23.730158730158728,-180.87301587301587,18.333333333333332,-157.69841269841268,-325.0,16.904761904761905,211.66666666666666,113.73015873015872,41.666666666666664,50.71428571428571,-0.5555555555555556,-1.507936507936508,-166.26984126984127
-28.49206349206349,8.015873015873016,-166.26984126984127,32.3015873015873,169.9206349206349,-19.76190476190476,-24.365079365079364,-21.825396825396822,-113.73015873015872,-129.6031746031746,-110.87301587301587,-23.253968253968253,-176.9047619047619,18.015873015873016,-154.68253968253967,-306.58730158730157,16.587301587301585,267.06349206349205,111.19047619047619,40.714285714285715,49.92063492063492,-3.095238095238095,-7.3809523809523805,-166.26984126984127
-28.49206349206349,8.015873015873016,-166.26984126984127,32.3015873015873,169.9206349206349,-19.76190476190476,-24.365079365079364,-21.825396825396822,-113.73015873015872,-129.6031746031746,-110.87301587301587,-23.253968253968253,-176.9047619047619,18.015873015873016,-154.68253968253967,-306.58730158730157,16.587301587301585,267.06349206349205,111.19047619047619,40.714285714285715,49.92063492063492,-3.095238095238095,-7.3809523809523805,-166.26984126984127
-28.174603174603174,-40.079365079365076,-164.04761904761904,31.825396825396822,113.88888888888889,-19.285714285714285,-24.047619047619047,-21.507936507936506,-112.30158730158729,-178.4920634920635,-108.49206349206348,-22.936507936507937,-174.68253968253967,17.698412698412696,-152.61904761904762,-325.0,16.26984126984127,199.9206349206349,109.76190476190476,40.39682539682539,49.285714285714285,-0.7142857142857142,-1.0317460317460316,-166.26984126984127
-28.174603174603174,-40.079365079365076,-164.04761904761904,31.825396825396822,113.88888888888889,-19.285714285714285,-24.047619047619047,-21.507936507936506,-112.30158730158729,-178.4920634920635,-108.49206349206348,-22.936507936507937,-174.68253968253967,17.698412698412696,-152.61904761904762,-325.0,16.26984126984127,199.9206349206349,109.76190476190476,40.39682539682539,49.285714285714285,-0.7142857142857142,-1.0317460317460316,-166.26984126984127
-27.539682539682538,-42.93650793650794,-161.19047619047618,31.507936507936506,115.95238095238095,-19.126984126984127,-23.730158730158728,-21.349206349206348,-110.39682539682539,-170.07936507936506,-106.58730158730158,-22.46031746031746,-171.8253968253968,17.539682539682538,-150.07936507936506,-325.0,15.95238095238095,187.38095238095238,108.17460317460316,39.76190476190476,48.33333333333333,-1.507936507936508,-1.349206349206349,-166.26984126984127
-27.539682539682538,-42.93650793650794,-161.19047619047618,31.507936507936506,115.95238095238095,-19.126984126984127,-23.730158730158728,-21.349206349206348,-110.39682539682539,-170.07936507936506,-106.58730158730158,-22.46031746031746,-171.8253968253968,17.539682539682538,-150.07936507936506,-325.0,15.95238095238095,187.38095238095238,108.17460317460316,39.76190476190476,48.33333333333333,-1.507936507936508,-1.349206349206349,-166.26984126984127
-26.9047619047619,-191.19047619047618,-158.015873015873,30.87301587301587,45.476190476190474,-18.80952380952381,-23.095238095238095,-20.873015873015873,-108.01587301587301,-244.36507936507934,-92.46031746031746,-21.984126984126984,-168.17460317460316,17.063492063492063,-147.06349206349205,-325.0,15.793650793650793,58.17460317460317,105.63492063492063,38.80952380952381,47.22222222222222,1.8253968253968254,5.476190476190476,-166.26984126984127
-26.9047619047619,-191.19047619047618,-158.015873015873,30.87301587301587,45.476190476190474,-18.80952380952381,-23.095238095238095,-20.873015873015873,-108.01587301587301,-244.36507936507934,-92.46031746031746,-21.984126984126984,-168.17460317460316,17.063492063492063,-147.06349206349205,-325.0,15.793650793650793,58.17460317460317,105.63492063492063,38.80952380952381,47.22222222222222,1.8253968253968254,5.476190476190476,-166.26984126984127
-26.587301587301585,-15.95238095238095,-155.3174603174603,30.396825396825395,157.53968253968253,-18.80952380952381,-22.936507936507937,-20.71428571428571,-106.42857142857142,-126.1111111111111,-58.49206349206349,-21.825396825396822,-165.3174603174603,16.746031746031743,-144.68253968253967,-314.5238095238095,15.317460317460316,201.98412698412696,104.04761904761904,38.17460317460317,46.269841269841265,-4.0476190476190474,-7.222222222222221,-321.8253968253968
-26.587301587301585,-15.95238095238095,-155.3174603174603,30.396825396825395,157.53968253968253,-18.80952380952381,-22.936507936507937,-20.71428571428571,-106.42857142857142,-126.1111111111111,-58.49206349206349,-21.825396825396822,-165.3174603174603,16.746031746031743,-144.68253968253967,-314.5238095238095,15.317460317460316,201.98412698412696,104.04761904761904,38.17460317460317,46.269841269841265,-4.0476190476190474,-7.222222222222221,-321.8253968253968
-26.11111111111111,-151.34920634920633,-152.61904761904762,29.76190476190476,47.38095238095238,-18.333333333333332,-22.3015873015873,-20.238095238095237,-104.68253968253968,-216.42857142857142,35.79365079365079,-21.349206349206348,-162.3015873015873,16.428571428571427,-142.3015873015873,-325.0,15.158730158730158,57.698412698412696,102.14285714285714,37.53968253968254,45.63492063492063,2.3015873015873014,5.476190476190476,-321.8253968253968
-26.11111111111111,-151.34920634920633,-152.61904761904762,29.76190476190476,47.38095238095238,-18.333333333333332,-22.3015873015873,-20.238095238095237,-104.68253968253968,-216.42857142857142,35.79365079365079,-21.349206349206348,-162.3015873015873,16.428571428571427,-142.3015873015873,-325.0,15.158730158730158,57.698412698412696,102.14285714285714,37.53968253968254,45.63492063492063,2.3015873015873014,5.476190476190476,-321.8253968253968
-25.634920634920633,-89.6031746031746,-150.23809523809524,29.444444444444443,164.84126984126982,-17.857142857142858,-22.142857142857142,-20.238095238095237,-102.77777777777777,-193.88888888888889,-5.7936507936507935,-21.19047619047619,-159.76190476190476,16.11111111111111,-140.07936507936506,-325.0,14.84126984126984,121.66666666666666,100.39682539682539,36.904761904761905,44.84126984126984,-2.619047619047619,-6.904761904761904,-321.8253968253968
-25.634920634920633,-89.6031746031746,-150.23809523809524,29.444444444444443,164.84126984126982,-17.857142857142858,-22.142857142857142,-20.238095238095237,-102.77777777777777,-193.88888888888889,-5.7936507936507935,-21.19047619047619,-159.76190476190476,16.11111111111111,-140.07936507936506,-325.0,14.84126984126984,121.66666666666666,100.39682539682539,36.904761904761905,44.84126984126984,-2.619047619047619,-6.904761904761904,-321.8253968253968
-25.476190476190474,-175.47619047619045,-149.44444444444443,29.444444444444443,135.79365079365078,-17.698412698412696,-22.142857142857142,-20.07936507936508,-102.46031746031746,-291.5079365079365,8.333333333333332,-21.19047619047619,-158.96825396825395,16.11111111111111,-139.44444444444443,-325.0,14.682539682539682,33.25396825396825,100.07936507936508,36.904761904761905,44.84126984126984,1.8253968253968254,-3.4126984126984126,-321.8253968253968
-25.476190476190474,-175.47619047619045,-149.44444444444443,29.444444444444443,135.79365079365078,-17.698412698412696,-22.142857142857142,-20.07936507936508,-102.46031746031746,-291.5079365079365,8.333333333333332,-21.19047619047619,-158.96825396825395,16.11111111111111,-139.44444444444443,-325.0,14.682539682539682,33.25396825396825,100.07936507936508,36.904761904761905,44.84126984126984,1.8253968253968254,-3.4126984126984126,-321.8253968253968
-25.0,-153.25396825396825,-145.3174603174603,28.174603174603174,148.015873015873,-17.539682539682538,-21.507936507936506,-19.444444444444443,-99.6031746031746,-166.9047619047619,3.73015873015873,-20.396825396825395,-154.36507936507937,15.634920634920634,-135.47619047619048,-325.0,14.365079365079364,131.8253968253968,97.06349206349206,35.63492063492063,43.25396825396825,-3.095238095238095,-7.063492063492063,-321.8253968253968
-25.0,-153.25396825396825,-145.3174603174603,28.174603174603174,148.015873015873,-17.539682539682538,-21.507936507936506,-19.444444444444443,-99.6031746031746,-166.9047619047619,3.73015873015873,-20.396825396825395,-154.36507936507937,15.634920634920634,-135.47619047619048,-325.0,14.365079365079364,131.8253968253968,97.06349206349206,35.63492063492063,43.25396825396825,-3.095238095238095,-7.063492063492063,-321.8253968253968
-24.523809523809522,-281.984126984127,-142.61904761904762,27.857142857142854,30.71428571428571,-16.904761904761905,-21.19047619047619,-19.126984126984127,-97.6984126984127,-232.93650793650792,51.666666666666664,-19.92063492063492,-151.66666666666666,15.317460317460316,-133.0952380952381,-325.0,13.888888888888888,15.0,95.47619047619047,35.15873015873016,42.460317460317455,2.9365079365079363,5.634920634920634,-166.26984126984127
-24.523809523809522,-281.984126984127,-142.61904761904762,27.857142857142854,30.71428571428571,-16.904761904761905,-21.19047619047619,-19.126984126984127,-97.6984126984127,-232.93650793650792,51.666666666666664,-19.92063492063492,-151.66666666666666,15.317460317460316,-133.0952380952381,-325.0,13.888888888888888,15.0,95.47619047619047,35.15873015873016,42.460317460317455,2.9365079365079363,5.634920634920634,-166.26984126984127
-23.88888888888889,-150.07936507936506,-138.015873015873,27.063492063492063,150.07936507936506,-16.746031746031743,-20.555555555555554,-18.65079365079365,-94.84126984126983,-159.12698412698413,64.68253968253968,-19.444444444444443,-146.58730158730157,14.84126984126984,-129.12698412698413,-325.0,13.73015873015873,165.47619047619045,92.14285714285714,34.047619047619044,41.03174603174603,-2.619047619047619,-7.063492063492063,-166.26984126984127
-23.88888888888889,-150.07936507936506,-138.015873015873,27.063492063492063,150.07936507936506,-16.746031746031743,-20.555555555555554,-18.65079365079365,-94.84126984126983,-159.12698412698413,64.68253968253968,-19.444444444444443,-146.58730158730157,14.84126984126984,-129.12698412698413,-325.0,13.73015873015873,165.47619047619045,92.14285714285714,34.047619047619044,41.03174603174603,-2.619047619047619,-7.063492063492063,-166.26984126984127
-23.57142857142857,-111.82539682539682,-136.11111111111111,26.9047619047619,187.2222222222222,-16.428571428571427,-20.238095238095237,-18.49206349206349,-93.4126984126984,-109.76190476190476,79.28571428571428,-19.126984126984127,-144.68253968253967,14.84126984126984,-127.38095238095238,-325.0,13.571428571428571,210.7142857142857,91.19047619047619,33.73015873015873,40.55555555555555,-7.698412698412698,-10.714285714285714,-166.26984126984127
-23.57142857142857,-111.82539682539682,-136.11111111111111,26.9047619047619,187.2222222222222,-16.428571428571427,-20.238095238095237,-18.49206349206349,-93.4126984126984,-109.76190476190476,79.28571428571428,-19.126984126984127,-144.68253968253967,14.84126984126984,-127.38095238095238,-325.0,13.571428571428571,210.7142857142857,91.19047619047619,33.73015873015873,40.55555555555555,-7.698412698412698,-10.714285714285714,-166.26984126984127
-23.57142857142857,-111.82539682539682,-136.11111111111111,26.9047619047619,187.2222222222222,-16.428571428571427,-20.238095238095237,-18.49206349206349,-93.4126984126984,-109.76190476190476,79.28571428571428,-19.126984126984127,-144.68253968253967,14.84126984126984,-127.38095238095238,-325.0,13.571428571428571,210.7142857142857,91.19047619047619,33.73015873015873,40.55555555555555,-7.698412698412698,-10.714285714285714,-166.26984126984127
-23.57142857142857,-111.82539682539682,-136.11111111111111,26.9047619047619,187.2222222222222,-16.428571428571427,-20.238095238095237,-18.49206349206349,-93.4126984126984,-109.76190476190476,79.28571428571428,-19.126984126984127,-144.68253968253967,14.84126984126984,-127.38095238095238,-325.0,13.571428571428571,210.7142857142857,91.19047619047619,33.73015873015873,40.55555555555555,-7.698412698412698,-10.714285714285714,-166.26984126984127
-14.523809523809524,-164.04761904761904,-79.92063492063491,-38.96825396825397,111.5079365079365,-11.984126984126984,-5.476190476190476,-11.666666666666666,-55.317460317460316,-137.22222222222223,145.0,-11.825396825396824,-84.36507936507937,95.0,-75.63492063492063,-99.92063492063491,-135.63492063492063,77.85714285714285,53.41269841269841,-123.09523809523809,-3.888888888888889,-4.0476190476190474,-3.571428571428571,-166.26984126984127
-14.523809523809524,-164.04761904761904,-79.92063492063491,-38.96825396825397,111.5079365079365,-11.984126984126984,-5.476190476190476,-11.666666666666666,-55.317460317460316,-137.22222222222223,145.0,-11.825396825396824,-84.36507936507937,95.0,-75.63492063492063,-99.92063492063491,-135.63492063492063,77.85714285714285,53.41269841269841,-123.09523809523809,-3.888888888888889,-4.0476190476190474,-3.571428571428571,-166.26984126984127
-5.476190476190476,-120.55555555555554,-23.57142857142857,-45.476190476190474,97.06349206349206,-7.698412698412698,10.555555555555555,-4.682539682539682,-16.746031746031743,-173.88888888888889,156.11111111111111,-4.365079365079365,-24.047619047619047,172.14285714285714,-23.57142857142857,143.09523809523807,-184.36507936507937,-22.46031746031746,15.476190476190474,-251.19047619047618,-23.57142857142857,-2.619047619047619,-6.111111111111111,-321.8253968253968
-5.476190476190476,-120.55555555555554,-23.57142857142857,-45.476190476190474,97.06349206349206,-7.698412698412698,10.555555555555555,-4.682539682539682,-16.746031746031743,-173.88888888888889,156.11111111111111,-4.365079365079365,-24.047619047619047,172.14285714285714,-23.57142857142857,143.09523809523807,-184.36507936507937,-22.46031746031746,15.476190476190474,-251.19047619047618,-23.57142857142857,-2.619047619047619,-6.111111111111111,-321.8253968253968
-5.476190476190476,-291.5079365079365,-23.095238095238095,-138.17460317460316,-23.730158730158728,-7.5396825396825395,-0.07936507936507936,-4.682539682539682,-16.587301587301585,-230.3968253968254,170.55555555555554,-4.365079365079365,-23.57142857142857,164.68253968253967,-22.936507936507937,65.31746031746032,-234.84126984126982,-119.12698412698413,15.317460317460316,-185.15873015873015,-12.777777777777777,2.46031746031746,6.111111111111111,-321.8253968253968
-5.476190476190476,-291.5079365079365,-23.095238095238095,-138.17460317460316,-23.730158730158728,-7.5396825396825395,-0.07936507936507936,-4.682539682539682,-16.587301587301585,-230.3968253968254,170.55555555555554,-4.365079365079365,-23.57142857142857,164.68253968253967,-22.936507936507937,65.31746031746032,-234.84126984126982,-119.12698412698413,15.317460317460316,-185.15873015873015,-12.777777777777777,2.46031746031746,6.111111111111111,-321.8253968253968
-5.158730158730158,-146.26984126984127,-22.777777777777775,-39.76190476190476,83.57142857142857,-7.222222222222221,13.095238095238095,-4.523809523809524,-16.428571428571427,-140.3968253968254,111.66666666666666,-4.2063492063492065,-23.095238095238095,165.95238095238093,-22.619047619047617,167.53968253968253,-201.98412698412696,5.634920634920634,15.158730158730158,-254.52380952380952,-27.857142857142854,-3.253968253968254,-6.26984126984127,-321.8253968253968
-5.158730158730158,-146.26984126984127,-22.777777777777775,-39.76190476190476,83.57142857142857,-7.222222222222221,13.095238095238095,-4.523809523809524,-16.428571428571427,-140.3968253968254,111.66666666666666,-4.2063492063492065,-23.095238095238095,165.95238095238093,-22.619047619047617,167.53968253968253,-201.98412698412696,5.634920634920634,15.158730158730158,-254.52380952380952,-27.857142857142854,-3.253968253968254,-6.26984126984127,-321.8253968253968
-5.158730158730158,-324.8412698412698,-22.777777777777775,-100.39682539682539,-61.666666666666664,-7.063492063492063,-9.126984126984127,-4.523809523809524,-16.11111111111111,-278.8095238095238,144.52380952380952,-4.2063492063492065,-22.936507936507937,163.4126984126984,-22.46031746031746,19.285714285714285,-160.87301587301587,-166.42857142857142,15.158730158730158,-94.04761904761904,30.07936507936508,5.634920634920634,9.444444444444445,-321.8253968253968
-5.158730158730158,-324.8412698412698,-22.777777777777775,-100.39682539682539,-61.666666666666664,-7.063492063492063,-9.126984126984127,-4.523809523809524,-16.11111111111111,-278.8095238095238,144.52380952380952,-4.2063492063492065,-22.936507936507937,163.4126984126984,-22.46031746031746,19.285714285714285,-160.87301587301587,-166.42857142857142,15.158730158730158,-94.04761904761904,30.07936507936508,5.634920634920634,9.444444444444445,-321.8253968253968
-5.158730158730158,-65.0,-21.984126984126984,-26.11111111111111,81.5079365079365,-7.222222222222221,10.238095238095237,-4.682539682539682,-15.95238095238095,-131.984126984127,112.77777777777777,-4.2063492063492065,-22.3015873015873,159.28571428571428,-22.142857142857142,157.69841269841268,-170.87301587301587,16.746031746031743,14.682539682539682,-252.14285714285714,-24.365079365079364,-2.142857142857143,-6.111111111111111,-321.8253968253968
-5.158730158730158,-65.0,-21.984126984126984,-26.11111111111111,81.5079365079365,-7.222222222222221,10.238095238095237,-4.682539682539682,-15.95238095238095,-131.984126984127,112.77777777777777,-4.2063492063492065,-22.3015873015873,159.28571428571428,-22.142857142857142,157.69841269841268,-170.87301587301587,16.746031746031743,14.682539682539682,-252.14285714285714,-24.365079365079364,-2.142857142857143,-6.111111111111111,-321.8253968253968
-5.158730158730158,-75.95238095238095,-21.666666666666664,-76.58730158730158,-21.666666666666664,-6.904761904761904,4.2063492063492065,-4.523809523809524,-15.793650793650793,-128.8095238095238,175.63492063492063,-4.2063492063492065,-21.984126984126984,152.14285714285714,-21.825396825396822,125.15873015873015,-216.1111111111111,-27.38095238095238,14.365079365079364,-204.84126984126982,6.746031746031746,1.984126984126984,5.952380952380952,-166.26984126984127
-5.158730158730158,-75.95238095238095,-21.666666666666664,-76.58730158730158,-21.666666666666664,-6.904761904761904,4.2063492063492065,-4.523809523809524,-15.793650793650793,-128.8095238095238,175.63492063492063,-4.2063492063492065,-21.984126984126984,152.14285714285714,-21.825396825396822,125.15873015873015,-216.1111111111111,-27.38095238095238,14.365079365079364,-204.84126984126982,6.746031746031746,1.984126984126984,5.952380952380952,-166.26984126984127
-5.158730158730158,22.3015873015873,-21.666666666666664,-66.26984126984127,12.936507936507935,-6.746031746031746,17.857142857142858,-4.523809523809524,-15.476190476190474,-9.285714285714285,153.09523809523807,-4.0476190476190474,-21.984126984126984,153.57142857142856,-21.666666666666664,220.7142857142857,-303.57142857142856,82.46031746031746,14.365079365079364,-325.0,-17.38095238095238,-1.984126984126984,1.6666666666666665,-166.26984126984127
-5.158730158730158,22.3015873015873,-21.666666666666664,-66.26984126984127,12.936507936507935,-6.746031746031746,17.857142857142858,-4.523809523809524,-15.476190476190474,-9.285714285714285,153.09523809523807,-4.0476190476190474,-21.984126984126984,153.57142857142856,-21.666666666666664,220.7142857142857,-303.57142857142856,82.46031746031746,14.365079365079364,-325.0,-17.38095238095238,-1.984126984126984,1.6666666666666665,-166.26984126984127
-5.158730158730158,-44.047619047619044,-21.19047619047619,-3.888888888888889,-27.38095238095238,-6.904761904761904,26.11111111111111,-4.523809523809524,-15.158730158730158,-54.52380952380952,126.26984126984127,-4.0476190476190474,-21.349206349206348,149.28571428571428,-21.19047619047619,196.42857142857142,-198.8095238095238,41.82539682539682,12.619047619047619,-229.12698412698413,-6.587301587301587,-0.07936507936507936,-0.3968253968253968,-166.26984126984127
-5.158730158730158,-44.047619047619044,-21.19047619047619,-3.888888888888889,-27.38095238095238,-6.904761904761904,26.11111111111111,-4.523809523809524,-15.158730158730158,-54.52380952380952,126.26984126984127,-4.0476190476190474,-21.349206349206348,149.28571428571428,-21.19047619047619,196.42857142857142,-198.8095238095238,41.82539682539682,12.619047619047619,-229.12698412698413,-6.587301587301587,-0.07936507936507936,-0.3968253968253968,-166.26984126984127
-4.841269841269841,58.17460317460317,-15.317460317460316,9.285714285714285,19.285714285714285,159.12698412698413,67.38095238095238,132.61904761904762,-11.349206349206348,165.0,76.42857142857143,136.74603174603175,-15.317460317460316,101.34920634920634,-15.634920634920634,259.6031746031746,-139.76190476190476,203.7301587301587,-6.111111111111111,-325.0,-62.460317460317455,-3.4126984126984126,-3.095238095238095,-166.26984126984127
-4.841269841269841,58.17460317460317,-15.317460317460316,9.285714285714285,19.285714285714285,159.12698412698413,67.38095238095238,132.61904761904762,-11.349206349206348,165.0,76.42857142857143,136.74603174603175,-15.317460317460316,101.34920634920634,-15.634920634920634,259.6031746031746,-139.76190476190476,203.7301587301587,-6.111111111111111,-325.0,-62.460317460317455,-3.4126984126984126,-3.095238095238095,-166.26984126984127
-5.0,115.15873015873015,-10.396825396825395,28.809523809523807,80.55555555555556,325.0,78.96825396825396,268.4920634920635,-8.015873015873016,325.0,21.825396825396822,276.58730158730157,-10.079365079365079,59.285714285714285,-11.031746031746032,299.76190476190476,9.444444444444445,325.0,20.873015873015873,-325.0,-84.04761904761904,-5.952380952380952,-7.063492063492063,-166.26984126984127
-5.0,115.15873015873015,-10.396825396825395,28.809523809523807,80.55555555555556,325.0,78.96825396825396,268.4920634920635,-8.015873015873016,325.0,21.825396825396822,276.58730158730157,-10.079365079365079,59.285714285714285,-11.031746031746032,299.76190476190476,9.444444444444445,325.0,20.873015873015873,-325.0,-84.04761904761904,-5.952380952380952,-7.063492063492063,-166.26984126984127
-11.349206349206348,102.77777777777777,-8.333333333333332,17.539682539682538,72.77777777777777,284.8412698412698,57.857142857142854,233.57142857142856,-6.26984126984127,244.68253968253967,31.98412698412698,235.47619047619045,-7.698412698412698,8.174603174603174,-8.809523809523808,191.19047619047618,-50.238095238095234,249.76190476190476,15.317460317460316,-286.90476190476187,-78.17460317460316,-2.46031746031746,-0.7142857142857142,-321.8253968253968
-11.349206349206348,102.77777777777777,-8.333333333333332,17.539682539682538,72.77777777777777,284.8412698412698,57.857142857142854,233.57142857142856,-6.26984126984127,244.68253968253967,31.98412698412698,235.47619047619045,-7.698412698412698,8.174603174603174,-8.809523809523808,191.19047619047618,-50.238095238095234,249.76190476190476,15.317460317460316,-286.90476190476187,-78.17460317460316,-2.46031746031746,-0.7142857142857142,-321.8253968253968
31.507936507936506,198.33333333333331,-6.111111111111111,11.349206349206348,195.79365079365078,325.0,158.8095238095238,325.0,-4.523809523809524,257.38095238095235,-6.904761904761904,325.0,-5.158730158730158,24.206349206349206,-6.904761904761904,186.58730158730157,-91.5079365079365,303.88888888888886,9.761904761904761,-325.0,-105.79365079365078,-9.285714285714285,-10.396825396825395,-321.8253968253968
31.507936507936506,198.33333333333331,-6.111111111111111,11.349206349206348,195.79365079365078,325.0,158.8095238095238,325.0,-4.523809523809524,257.38095238095235,-6.904761904761904,325.0,-5.158730158730158,24.206349206349206,-6.904761904761904,186.58730158730157,-91.5079365079365,303.88888888888886,9.761904761904761,-325.0,-105.79365079365078,-9.285714285714285,-10.396825396825395,-321.8253968253968
24.68253968253968,77.06349206349206,-6.428571428571428,12.619047619047619,-0.07936507936507936,298.3333333333333,-83.09523809523809,107.6984126984127,-4.523809523809524,45.95238095238095,63.888888888888886,43.41269841269841,-5.634920634920634,-45.79365079365079,-6.587301587301587,-9.126984126984127,53.888888888888886,90.71428571428571,9.761904761904761,-48.80952380952381,64.52380952380952,4.841269841269841,8.968253968253968,-321.8253968253968
24.68253968253968,77.06349206349206,-6.428571428571428,12.619047619047619,-0.07936507936507936,298.3333333333333,-83.09523809523809,107.6984126984127,-4.523809523809524,45.95238095238095,63.888888888888886,43.41269841269841,-5.634920634920634,-45.79365079365079,-6.587301587301587,-9.126984126984127,53.888888888888886,90.71428571428571,9.761904761904761,-48.80952380952381,64.52380952380952,4.841269841269841,8.968253968253968,-321.8253968253968
24.68253968253968,77.06349206349206,-6.428571428571428,12.619047619047619,-0.07936507936507936,298.3333333333333,-83.09523809523809,107.6984126984127,-4.523809523809524,45.95238095238095,63.888888888888886,43.41269841269841,-5.634920634920634,-45.79365079365079,-6.587301587301587,-9.126984126984127,53.888888888888886,90.71428571428571,9.761904761904761,-48.80952380952381,64.52380952380952,4.841269841269841,8.968253968253968,-321.8253968253968
24.68253968253968,77.06349206349206,-6.428571428571428,12.619047619047619,-0.07936507936507936,298.3333333333333,-83.09523809523809,107.6984126984127,-4.523809523809524,45.95238095238095,63.888888888888886,43.41269841269841,-5.634920634920634,-45.79365079365079,-6.587301587301587,-9.126984126984127,53.888888888888886,90.71428571428571,9.761904761904761,-48.80952380952381,64.52380952380952,4.841269841269841,8.968253968253968,-321.8253968253968
24.68253968253968,77.06349206349206,-6.428571428571428,12.619047619047619,-0.07936507936507936,298.3333333333333,-83.09523809523809,107.6984126984127,-4.523809523809524,45.95238095238095,63.888888888888886,43.41269841269841,-5.634920634920634,-45.79365079365079,-6.587301587301587,-9.126984126984127,53.888888888888886,90.71428571428571,9.761904761904761,-48.80952380952381,64.52380952380952,4.841269841269841,8.968253968253968,-321.8253968253968
24.68253968253968,77.06349206349206,-6.428571428571428,12.619047619047619,-0.07936507936507936,298.3333333333333,-83.09523809523809,107.6984126984127,-4.523809523809524,45.95238095238095,63.888888888888886,43.41269841269841,-5.634920634920634,-45.79365079365079,-6.587301587301587,-9.126984126984127,53.888888888888886,90.71428571428571,9.761904761904761,-48.80952380952381,64.52380952380952,4.841269841269841,8.968253968253968,-321.8253968253968
32.3015873015873,47.22222222222222,-1.6666666666666665,0.23809523809523808,169.44444444444443,251.5079365079365,156.11111111111111,253.09523809523807,9.444444444444445,171.03174603174602,11.349206349206348,270.23809523809524,-0.873015873015873,-14.365079365079364,-5.317460317460317,99.44444444444444,-99.28571428571428,195.15873015873015,7.3809523809523805,-256.90476190476187,-132.77777777777777,-5.158730158730158,-5.634920634920634,-166.26984126984127
32.3015873015873,47.22222222222222,-1.6666666666666665,0.23809523809523808,169.44444444444443,251.5079365079365,156.11111111111111,253.09523809523807,9.444444444444445,171.03174603174602,11.349206349206348,270.23809523809524,-0.873015873015873,-14.365079365079364,-5.317460317460317,99.44444444444444,-99.28571428571428,195.15873015873015,7.3809523809523805,-256.90476190476187,-132.77777777777777,-5.158730158730158,-5.634920634920634,-166.26984126984127
62.3015873015873,-13.412698412698411,-2.3015873015873014,-7.698412698412698,120.39682539682539,246.74603174603172,64.2063492063492,169.60317460317458,2.7777777777777777,81.19047619047619,25.317460317460316,157.69841269841268,-1.8253968253968254,-48.17460317460317,-5.476190476190476,24.68253968253968,-22.3015873015873,111.34920634920634,7.3809523809523805,-129.76190476190476,-35.0,-0.5555555555555556,-0.7142857142857142,-166.26984126984127
62.3015873015873,-13.412698412698411,-2.3015873015873014,-7.698412698412698,120.39682539682539,246.74603174603172,64.2063492063492,169.60317460317458,2.7777777777777777,81.19047619047619,25.317460317460316,157.69841269841268,-1.8253968253968254,-48.17460317460317,-5.476190476190476,24.68253968253968,-22.3015873015873,111.34920634920634,7.3809523809523805,-129.76190476190476,-35.0,-0.5555555555555556,-0.7142857142857142,-166.26984126984127
99.12698412698413,167.06349206349205,5.7936507936507935,6.26984126984127,227.06349206349205,325.0,199.44444444444443,285.1587301587301,16.904761904761905,181.03174603174602,-19.76190476190476,309.1269841269841,5.317460317460317,6.904761904761904,-4.523809523809524,122.14285714285714,-63.25396825396825,221.66666666666666,7.222222222222221,-278.17460317460313,-119.92063492063491,-8.492063492063492,-11.507936507936508,-166.26984126984127
99.12698412698413,167.06349206349205,5.7936507936507935,6.26984126984127,227.06349206349205,325.0,199.44444444444443,285.1587301587301,16.904761904761905,181.03174603174602,-19.76190476190476,309.1269841269841,5.317460317460317,6.904761904761904,-4.523809523809524,122.14285714285714,-63.25396825396825,221.66666666666666,7.222222222222221,-278.17460317460313,-119.92063492063491,-8.492063492063492,-11.507936507936508,-166.26984126984127
94.2063492063492,169.28571428571428,5.7936507936507935,6.428571428571428,223.7301587301587,325.0,209.44444444444443,276.4285714285714,16.746031746031743,171.8253968253968,-98.80952380952381,304.36507936507934,5.952380952380952,16.428571428571427,-4.841269841269841,106.1111111111111,-123.73015873015872,217.53968253968253,7.063492063492063,-275.95238095238096,-120.07936507936508,-8.174603174603174,-11.507936507936508,-166.26984126984127
94.2063492063492,169.28571428571428,5.7936507936507935,6.428571428571428,223.7301587301587,325.0,209.44444444444443,276.4285714285714,16.746031746031743,171.8253968253968,-98.80952380952381,304.36507936507934,5.952380952380952,16.428571428571427,-4.841269841269841,106.1111111111111,-123.73015873015872,217.53968253968253,7.063492063492063,-275.95238095238096,-120.07936507936508,-8.174603174603174,-11.507936507936508,-166.26984126984127
66.58730158730158,78.96825396825396,-0.5555555555555556,-5.952380952380952,120.87301587301586,284.68253968253964,87.06349206349206,154.52380952380952,4.682539682539682,62.93650793650793,-116.58730158730158,143.88888888888889,1.507936507936508,-31.507936507936506,-5.317460317460317,-4.0476190476190474,-139.9206349206349,94.52380952380952,6.587301587301587,-126.9047619047619,-38.17460317460317,-0.7142857142857142,0.07936507936507936,-166.26984126984127
66.58730158730158,78.96825396825396,-0.5555555555555556,-5.952380952380952,120.87301587301586,284.68253968253964,87.06349206349206,154.52380952380952,4.682539682539682,62.93650793650793,-116.58730158730158,143.88888888888889,1.507936507936508,-31.507936507936506,-5.317460317460317,-4.0476190476190474,-139.9206349206349,94.52380952380952,6.587301587301587,-126.9047619047619,-38.17460317460317,-0.7142857142857142,0.07936507936507936,-166.26984126984127
93.09523809523809,186.42857142857142,5.0,7.857142857142857,220.7142857142857,325.0,215.79365079365078,269.76190476190476,16.26984126984127,157.69841269841268,-160.3968253968254,293.57142857142856,7.5396825396825395,27.063492063492063,-5.317460317460317,89.6031746031746,-183.57142857142856,203.7301587301587,6.587301587301587,-276.58730158730157,-130.07936507936506,-8.015873015873016,-11.349206349206348,-321.8253968253968
93.09523809523809,186.42857142857142,5.0,7.857142857142857,220.7142857142857,325.0,215.79365079365078,269.76190476190476,16.26984126984127,157.69841269841268,-160.3968253968254,293.57142857142856,7.5396825396825395,27.063492063492063,-5.317460317460317,89.6031746031746,-183.57142857142856,203.7301587301587,6.587301587301587,-276.58730158730157,-130.07936507936506,-8.015873015873016,-11.349206349206348,-321.8253968253968
60.873015873015866,4.2063492063492065,-2.142857142857143,-20.555555555555554,103.73015873015872,139.9206349206349,90.39682539682539,139.12698412698413,1.984126984126984,40.87301587301587,-87.22222222222221,135.3174603174603,-0.7142857142857142,-53.57142857142857,-4.841269841269841,-8.968253968253968,-128.33333333333331,61.34920634920635,5.7936507936507935,-124.68253968253967,-55.476190476190474,-1.0317460317460316,-0.7142857142857142,-321.8253968253968
60.873015873015866,4.2063492063492065,-2.142857142857143,-20.555555555555554,103.73015873015872,139.9206349206349,90.39682539682539,139.12698412698413,1.984126984126984,40.87301587301587,-87.22222222222221,135.3174603174603,-0.7142857142857142,-53.57142857142857,-4.841269841269841,-8.968253968253968,-128.33333333333331,61.34920634920635,5.7936507936507935,-124.68253968253967,-55.476190476190474,-1.0317460317460316,-0.7142857142857142,-321.8253968253968
23.253968253968253,-41.19047619047619,37.857142857142854,-30.07936507936508,131.03174603174602,275.0,190.07936507936506,202.3015873015873,65.0,109.6031746031746,-58.49206349206349,230.7142857142857,41.98412698412698,-41.666666666666664,1.0317460317460316,60.238095238095234,-187.85714285714283,106.1111111111111,5.0,-221.03174603174602,-206.74603174603175,-4.523809523809524,-3.253968253968254,-321.8253968253968
23.253968253968253,-41.19047619047619,37.857142857142854,-30.07936507936508,131.03174603174602,275.0,190.07936507936506,202.3015873015873,65.0,109.6031746031746,-58.49206349206349,230.7142857142857,41.98412698412698,-41.666666666666664,1.0317460317460316,60.238095238095234,-187.85714285714283,106.1111111111111,5.0,-221.03174603174602,-206.74603174603175,-4.523809523809524,-3.253968253968254,-321.8253968253968
23.253968253968253,-41.19047619047619,37.857142857142854,-30.07936507936508,131.03174603174602,275.0,190.07936507936506,202.3015873015873,65.0,109.6031746031746,-58.49206349206349,230.7142857142857,41.98412698412698,-41.666666666666664,1.0317460317460316,60.238095238095234,-187.85714285714283,106.1111111111111,5.0,-221.03174603174602,-206.74603174603175,-4.523809523809524,-3.253968253968254,-321.8253968253968
23.253968253968253,-41.19047619047619,37.857142857142854,-30.07936507936508,131.03174603174602,275.0,190.07936507936506,202.3015873015873,65.0,109.6031746031746,-58.49206349206349,230.7142857142857,41.98412698412698,-41.666666666666664,1.0317460317460316,60.238095238095234,-187.85714285714283,106.1111111111111,5.0,-221.03174603174602,-206.74603174603175,-4.523809523809524,-3.253968253968254,-321.8253968253968
18.015873015873016,-27.063492063492063,33.095238095238095,-18.49206349206349,130.3968253968254,95.63492063492063,187.85714285714283,226.58730158730157,64.36507936507937,131.66666666666666,-62.3015873015873,253.57142857142856,39.285714285714285,-27.857142857142854,1.984126984126984,79.28571428571428,-188.015873015873,138.96825396825395,5.0,-228.015873015873,-202.61904761904762,-5.317460317460317,-2.9365079365079363,-321.8253968253968
18.015873015873016,-27.063492063492063,33.095238095238095,-18.49206349206349,130.3968253968254,95.63492063492063,187.85714285714283,226.58730158730157,64.36507936507937,131.66666666666666,-62.3015873015873,253.57142857142856,39.285714285714285,-27.857142857142854,1.984126984126984,79.28571428571428,-188.015873015873,138.96825396825395,5.0,-228.015873015873,-202.61904761904762,-5.317460317460317,-2.9365079365079363,-321.8253968253968
18.015873015873016,-27.063492063492063,33.095238095238095,-18.49206349206349,130.3968253968254,95.63492063492063,187.85714285714283,226.58730158730157,64.36507936507937,131.66666666666666,-62.3015873015873,253.57142857142856,39.285714285714285,-27.857142857142854,1.984126984126984,79.28571428571428,-188.015873015873,138.96825396825395,5.0,-228.015873015873,-202.61904761904762,-5.317460317460317,-2.9365079365079363,-166.26984126984127
18.015873015873016,-27.063492063492063,33.095238095238095,-18.49206349206349,130.3968253968254,95.63492063492063,187.85714285714283,226.58730158730157,64.36507936507937,131.66666666666666,-62.3015873015873,253.57142857142856,39.285714285714285,-27.857142857142854,1.984126984126984,79.28571428571428,-188.015873015873,138.96825396825395,5.0,-228.015873015873,-202.61904761904762,-5.317460317460317,-2.9365079365079363,-166.26984126984127
18.015873015873016,-27.063492063492063,33.095238095238095,-18.49206349206349,130.3968253968254,95.63492063492063,187.85714285714283,226.58730158730157,64.36507936507937,131.66666666666666,-62.3015873015873,253.57142857142856,39.285714285714285,-27.857142857142854,1.984126984126984,79.28571428571428,-188.015873015873,138.96825396825395,5.0,-228.015873015873,-202.61904761904762,-5.317460317460317,-2.9365079365079363,-166.26984126984127
18.015873015873016,-27.063492063492063,33.095238095238095,-18.49206349206349,130.3968253968254,95.63492063492063,187.85714285714283,226.58730158730157,64.36507936507937,131.66666666666666,-62.3015873015873,253.57142857142856,39.285714285714285,-27.857142857142854,1.984126984126984,79.28571428571428,-188.015873015873,138.96825396825395,5.0,-228.015873015873,-202.61904761904762,-5.317460317460317,-2.9365079365079363,-166.26984126984127
18.015873015873016,-27.063492063492063,33.095238095238095,-18.49206349206349,130.3968253968254,95.63492063492063,187.85714285714283,226.58730158730157,64.36507936507937,131.66666666666666,-62.3015873015873,253.57142857142856,39.285714285714285,-27.857142857142854,1.984126984126984,79.28571428571428,-188.015873015873,138.96825396825395,5.0,-228.015873015873,-202.61904761904762,-5.317460317460317,-2.9365079365079363,-166.26984126984127
18.015873015873016,-27.063492063492063,33.095238095238095,-18.49206349206349,130.3968253968254,95.63492063492063,187.85714285714283,226.58730158730157,64.36507936507937,131.66666666666666,-62.3015873015873,253.57142857142856,39.285714285714285,-27.857142857142854,1.984126984126984,79.28571428571428,-188.015873015873,138.96825396825395,5.0,-228.015873015873,-202.61904761904762,-5.317460317460317,-2.9365079365079363,-166.26984126984127
-3.4126984126984126,-47.698412698412696,14.84126984126984,-44.047619047619044,66.9047619047619,-12.777777777777777,121.5079365079365,148.65079365079364,41.666666666666664,83.4126984126984,-1.507936507936508,162.3015873015873,18.49206349206349,-71.82539682539682,-1.507936507936508,26.26984126984127,-160.55555555555554,61.82539682539682,3.73015873015873,-146.11111111111111,-154.52380952380952,-0.873015873015873,1.0317460317460316,-166.26984126984127
-3.4126984126984126,-47.698412698412696,14.84126984126984,-44.047619047619044,66.9047619047619,-12.777777777777777,121.5079365079365,148.65079365079364,41.666666666666664,83.4126984126984,-1.507936507936508,162.3015873015873,18.49206349206349,-71.82539682539682,-1.507936507936508,26.26984126984127,-160.55555555555554,61.82539682539682,3.73015873015873,-146.11111111111111,-154.52380952380952,-0.873015873015873,1.0317460317460316,-166.26984126984127
46.269841269841265,-33.888888888888886,4.682539682539682,-25.317460317460316,45.15873015873016,-74.68253968253968,61.34920634920635,77.6984126984127,18.333333333333332,11.507936507936508,47.06349206349206,68.33333333333333,5.7936507936507935,-95.31746031746032,-7.222222222222221,-28.174603174603174,-60.71428571428571,-2.619047619047619,2.46031746031746,-38.96825396825397,-49.44444444444444,0.873015873015873,-0.5555555555555556,-166.26984126984127
46.269841269841265,-33.888888888888886,4.682539682539682,-25.317460317460316,45.15873015873016,-74.68253968253968,61.34920634920635,77.6984126984127,18.333333333333332,11.507936507936508,47.06349206349206,68.33333333333333,5.7936507936507935,-95.31746031746032,-7.222222222222221,-28.174603174603174,-60.71428571428571,-2.619047619047619,2.46031746031746,-38.96825396825397,-49.44444444444444,0.873015873015873,-0.5555555555555556,-166.26984126984127
49.44444444444444,-60.873015873015866,8.809523809523808,-52.61904761904761,52.61904761904761,-30.07936507936508,70.55555555555556,54.047619047619044,23.253968253968253,-15.158730158730158,48.49206349206349,42.93650793650794,8.809523809523808,-114.2063492063492,-1.507936507936508,-48.96825396825397,-51.98412698412698,-26.746031746031743,2.3015873015873014,-20.873015873015873,-62.93650793650793,-0.07936507936507936,-0.5555555555555556,-321.8253968253968
49.44444444444444,-60.873015873015866,8.809523809523808,-52.61904761904761,52.61904761904761,-30.07936507936508,70.55555555555556,54.047619047619044,23.253968253968253,-15.158730158730158,48.49206349206349,42.93650793650794,8.809523809523808,-114.2063492063492,-1.507936507936508,-48.96825396825397,-51.98412698412698,-26.746031746031743,2.3015873015873014,-20.873015873015873,-62.93650793650793,-0.07936507936507936,-0.5555555555555556,-321.8253968253968
62.14285714285714,-56.269841269841265,14.047619047619047,-56.269841269841265,55.63492063492063,45.317460317460316,68.65079365079364,43.73015873015873,24.206349206349206,-26.9047619047619,55.317460317460316,37.53968253968254,11.031746031746032,-117.6984126984127,-1.349206349206349,-54.2063492063492,-32.61904761904762,-38.01587301587301,2.3015873015873014,-6.746031746031746,-62.61904761904761,-0.23809523809523808,-0.23809523809523808,-321.8253968253968
62.14285714285714,-56.269841269841265,14.047619047619047,-56.269841269841265,55.63492063492063,45.317460317460316,68.65079365079364,43.73015873015873,24.206349206349206,-26.9047619047619,55.317460317460316,37.53968253968254,11.031746031746032,-117.6984126984127,-1.349206349206349,-54.2063492063492,-32.61904761904762,-38.01587301587301,2.3015873015873014,-6.746031746031746,-62.61904761904761,-0.23809523809523808,-0.23809523809523808,-321.8253968253968
24.523809523809522,-49.76190476190476,-11.507936507936508,-34.84126984126984,-15.476190476190474,46.11111111111111,-10.079365079365079,24.84126984126984,-7.3809523809523805,-17.857142857142858,76.42857142857143,4.523809523809524,-10.396825396825395,-118.17460317460316,-11.507936507936508,-60.238095238095234,-33.888888888888886,-55.95238095238095,2.46031746031746,35.15873015873016,18.96825396825397,4.0476190476190474,7.3809523809523805,-321.8253968253968
24.523809523809522,-49.76190476190476,-11.507936507936508,-34.84126984126984,-15.476190476190474,46.11111111111111,-10.079365079365079,24.84126984126984,-7.3809523809523805,-17.857142857142858,76.42857142857143,4.523809523809524,-10.396825396825395,-118.17460317460316,-11.507936507936508,-60.238095238095234,-33.888888888888886,-55.95238095238095,2.46031746031746,35.15873015873016,18.96825396825397,4.0476190476190474,7.3809523809523805,-321.8253968253968
-20.07936507936508,12.619047619047619,5.952380952380952,-47.857142857142854,13.571428571428571,111.66666666666666,68.01587301587301,98.65079365079364,34.52380952380952,67.38095238095238,57.857142857142854,104.52380952380952,8.492063492063492,-90.87301587301587,-9.761904761904761,5.476190476190476,-117.53968253968253,12.777777777777777,2.46031746031746,-80.07936507936508,-90.07936507936508,1.6666666666666665,4.682539682539682,-321.8253968253968
-20.07936507936508,12.619047619047619,5.952380952380952,-47.857142857142854,13.571428571428571,111.66666666666666,68.01587301587301,98.65079365079364,34.52380952380952,67.38095238095238,57.857142857142854,104.52380952380952,8.492063492063492,-90.87301587301587,-9.761904761904761,5.476190476190476,-117.53968253968253,12.777777777777777,2.46031746031746,-80.07936507936508,-90.07936507936508,1.6666666666666665,4.682539682539682,-321.8253968253968
-20.07936507936508,12.619047619047619,5.952380952380952,-47.857142857142854,13.571428571428571,111.66666666666666,68.01587301587301,98.65079365079364,34.52380952380952,67.38095238095238,57.857142857142854,104.52380952380952,8.492063492063492,-90.87301587301587,-9.761904761904761,5.476190476190476,-117.53968253968253,12.777777777777777,2.46031746031746,-80.07936507936508,-90.07936507936508,1.6666666666666665,4.682539682539682,-321.8253968253968
-20.07936507936508,12.619047619047619,5.952380952380952,-47.857142857142854,13.571428571428571,111.66666666666666,68.01587301587301,98.65079365079364,34.52380952380952,67.38095238095238,57.857142857142854,104.52380952380952,8.492063492063492,-90.87301587301587,-9.761904761904761,5.476190476190476,-117.53968253968253,12.777777777777777,2.46031746031746,-80.07936507936508,-90.07936507936508,1.6666666666666665,4.682539682539682,-321.8253968253968
-20.07936507936508,12.619047619047619,5.952380952380952,-47.857142857142854,13.571428571428571,111.66666666666666,68.01587301587301,98.65079365079364,34.52380952380952,67.38095238095238,57.857142857142854,104.52380952380952,8.492063492063492,-90.87301587301587,-9.761904761904761,5.476190476190476,-117.53968253968253,12.777777777777777,2.46031746031746,-80.07936507936508,-90.07936507936508,1.6666666666666665,4.682539682539682,-166.26984126984127
-20.07936507936508,12.619047619047619,5.952380952380952,-47.857142857142854,13.571428571428571,111.66666666666666,68.01587301587301,98.65079365079364,34.52380952380952,67.38095238095238,57.857142857142854,104.52380952380952,8.492063492063492,-90.87301587301587,-9.761904761904761,5.476190476190476,-117.53968253968253,12.777777777777777,2.46031746031746,-80.07936507936508,-90.07936507936508,1.6666666666666665,4.682539682539682,-166.26984126984127
-20.07936507936508,12.619047619047619,5.952380952380952,-47.857142857142854,13.571428571428571,111.66666666666666,68.01587301587301,98.65079365079364,34.52380952380952,67.38095238095238,57.857142857142854,104.52380952380952,8.492063492063492,-90.87301587301587,-9.761904761904761,5.476190476190476,-117.53968253968253,12.777777777777777,2.46031746031746,-80.07936507936508,-90.07936507936508,1.6666666666666665,4.682539682539682,-166.26984126984127
-20.07936507936508,12.619047619047619,5.952380952380952,-47.857142857142854,13.571428571428571,111.66666666666666,68.01587301587301,98.65079365079364,34.52380952380952,67.38095238095238,57.857142857142854,104.52380952380952,8.492063492063492,-90.87301587301587,-9.761904761904761,5.476190476190476,-117.53968253968253,12.777777777777777,2.46031746031746,-80.07936507936508,-90.07936507936508,1.6666666666666665,4.682539682539682,-166.26984126984127
-20.07936507936508,12.619047619047619,5.952380952380952,-47.857142857142854,13.571428571428571,111.66666666666666,68.01587301587301,98.65079365079364,34.52380952380952,67.38095238095238,57.857142857142854,104.52380952380952,8.492063492063492,-90.87301587301587,-9.761904761904761,5.476190476190476,-117.53968253968253,12.777777777777777,2.46031746031746,-80.07936507936508,-90.07936507936508,1.6666666666666665,4.682539682539682,-166.26984126984127
-20.07936507936508,12.619047619047619,5.952380952380952,-47.857142857142854,13.571428571428571,111.66666666666666,68.01587301587301,98.65079365079364,34.52380952380952,67.38095238095238,57.857142857142854,104.52380952380952,8.492063492063492,-90.87301587301587,-9.761904761904761,5.476190476190476,-117.53968253968253,12.777777777777777,2.46031746031746,-80.07936507936508,-90.07936507936508,1.6666666666666665,4.682539682539682,-166.26984126984127
-20.07936507936508,12.619047619047619,5.952380952380952,-47.857142857142854,13.571428571428571,111.66666666666666,68.01587301587301,98.65079365079364,34.52380952380952,67.38095238095238,57.857142857142854,104.52380952380952,8.492063492063492,-90.87301587301587,-9.761904761904761,5.476190476190476,-117.53968253968253,12.777777777777777,2.46031746031746,-80.07936507936508,-90.07936507936508,1.6666666666666665,4.682539682539682,-166.26984126984127
-20.07936507936508,12.619047619047619,5.952380952380952,-47.857142857142854,13.571428571428571,111.66666666666666,68.01587301587301,98.65079365079364,34.52380952380952,67.38095238095238,57.857142857142854,104.52380952380952,8.492063492063492,-90.87301587301587,-9.761904761904761,5.476190476190476,-117.53968253968253,12.777777777777777,2.46031746031746,-80.07936507936508,-90.07936507936508,1.6666666666666665,4.682539682539682,-166.26984126984127
-20.07936507936508,12.619047619047619,5.952380952380952,-47.857142857142854,13.571428571428571,111.66666666666666,68.01587301587301,98.65079365079364,34.52380952380952,67.38095238095238,57.857142857142854,104.52380952380952,8.492063492063492,-90.87301587301587,-9.761904761904761,5.476190476190476,-117.53968253968253,12.777777777777777,2.46031746031746,-80.07936507936508,-90.07936507936508,1.6666666666666665,4.682539682539682,-166.26984126984127
-20.07936507936508,12.619047619047619,5.952380952380952,-47.857142857142854,13.571428571428571,111.66666666666666,68.01587301587301,98.65079365079364,34.52380952380952,67.38095238095238,57.857142857142854,104.52380952380952,8.492063492063492,-90.87301587301587,-9.761904761904761,5.476190476190476,-117.53968253968253,12.777777777777777,2.46031746031746,-80.07936507936508,-90.07936507936508,1.6666666666666665,4.682539682539682,-166.26984126984127
-20.07936507936508,12.619047619047619,5.952380952380952,-47.857142857142854,13.571428571428571,111.66666666666666,68.01587301587301,98.65079365079364,34.52380952380952,67.38095238095238,57.857142857142854,104.52380952380952,8.492063492063492,-90.87301587301587,-9.761904761904761,5.476190476190476,-117.53968253968253,12.777777777777777,2.46031746031746,-80.07936507936508,-90.07936507936508,1.6666666666666665,4.682539682539682,-321.8253968253968
-20.07936507936508,12.619047619047619,5.952380952380952,-47.857142857142854,13.571428571428571,111.66666666666666,68.01587301587301,98.65079365079364,34.52380952380952,67.38095238095238,57.857142857142854,104.52380952380952,8.492063492063492,-90.87301587301587,-9.761904761904761,5.476190476190476,-117.53968253968253,12.777777777777777,2.46031746031746,-80.07936507936508,-90.07936507936508,1.6666666666666665,4.682539682539682,-321.8253968253968
-20.07936507936508,12.619047619047619,5.952380952380952,-47.857142857142854,13.571428571428571,111.66666666666666,68.01587301587301,98.65079365079364,34.52380952380952,67.38095238095238,57.857142857142854,104.52380952380952,8.492063492063492,-90.87301587301587,-9.761904761904761,5.476190476190476,-117.53968253968253,12.777777777777777,2.46031746031746,-80.07936507936508,-90.07936507936508,1.6666666666666665,4.682539682539682,-321.8253968253968
-20.07936507936508,12.619047619047619,5.952380952380952,-47.857142857142854,13.571428571428571,111.66666666666666,68.01587301587301,98.65079365079364,34.52380952380952,67.38095238095238,57.857142857142854,104.52380952380952,8.492063492063492,-90.87301587301587,-9.761904761904761,5.476190476190476,-117.53968253968253,12.777777777777777,2.46031746031746,-80.07936507936508,-90.07936507936508,1.6666666666666665,4.682539682539682,-321.8253968253968
-20.07936507936508,20.396825396825395,20.07936507936508,-74.52380952380952,15.95238095238095,-49.76190476190476,75.47619047619047,79.6031746031746,46.74603174603175,54.52380952380952,51.82539682539682,95.31746031746032,18.96825396825397,-99.76190476190476,10.079365079365079,-5.158730158730158,-117.38095238095238,-1.984126984126984,2.3015873015873014,-77.6984126984127,-125.47619047619047,1.1904761904761905,3.888888888888889,-321.8253968253968
-20.07936507936508,20.396825396825395,20.07936507936508,-74.52380952380952,15.95238095238095,-49.76190476190476,75.47619047619047,79.6031746031746,46.74603174603175,54.52380952380952,51.82539682539682,95.31746031746032,18.96825396825397,-99.76190476190476,10.079365079365079,-5.158730158730158,-117.38095238095238,-1.984126984126984,2.3015873015873014,-77.6984126984127,-125.47619047619047,1.1904761904761905,3.888888888888889,-321.8253968253968
-19.92063492063492,28.174603174603174,34.36507936507936,-101.19047619047619,18.49206349206349,-211.03174603174602,82.93650793650794,60.71428571428571,59.12698412698413,41.82539682539682,45.95238095238095,86.26984126984127,29.6031746031746,-108.65079365079364,30.07936507936508,-15.793650793650793,-117.22222222222221,-16.746031746031743,2.142857142857143,-75.31746031746032,-160.7142857142857,0.7142857142857142,3.095238095238095,-321.8253968253968
-19.92063492063492,28.174603174603174,34.36507936507936,-101.19047619047619,18.49206349206349,-211.03174603174602,82.93650793650794,60.71428571428571,59.12698412698413,41.82539682539682,45.95238095238095,86.26984126984127,29.6031746031746,-108.65079365079364,30.07936507936508,-15.793650793650793,-117.22222222222221,-16.746031746031743,2.142857142857143,-75.31746031746032,-160.7142857142857,0.7142857142857142,3.095238095238095,-321.8253968253968
-19.92063492063492,28.174603174603174,34.36507936507936,-101.19047619047619,18.49206349206349,-211.03174603174602,82.93650793650794,60.71428571428571,59.12698412698413,41.82539682539682,45.95238095238095,86.26984126984127,29.6031746031746,-108.65079365079364,30.07936507936508,-15.793650793650793,-117.22222222222221,-16.746031746031743,2.142857142857143,-75.31746031746032,-160.7142857142857,0.7142857142857142,3.095238095238095,-321.8253968253968
-19.92063492063492,28.174603174603174,34.36507936507936,-101.19047619047619,18.49206349206349,-211.03174603174602,82.93650793650794,60.71428571428571,59.12698412698413,41.82539682539682,45.95238095238095,86.26984126984127,29.6031746031746,-108.65079365079364,30.07936507936508,-15.793650793650793,-117.22222222222221,-16.746031746031743,2.142857142857143,-75.31746031746032,-160.7142857142857,0.7142857142857142,3.095238095238095,-321.8253968253968
51.03174603174603,105.31746031746032,91.19047619047619,-38.96825396825397,128.4920634920635,-3.73015873015873,179.44444444444443,160.87301587301587,123.73015873015872,101.5079365079365,-16.11111111111111,212.61904761904762,94.2063492063492,-24.047619047619047,19.6031746031746,65.79365079365078,-93.88888888888889,86.74603174603175,1.984126984126984,-178.33333333333331,-198.17460317460316,-10.873015873015872,-12.46031746031746,-166.26984126984127
51.03174603174603,105.31746031746032,91.19047619047619,-38.96825396825397,128.4920634920635,-3.73015873015873,179.44444444444443,160.87301587301587,123.73015873015872,101.5079365079365,-16.11111111111111,212.61904761904762,94.2063492063492,-24.047619047619047,19.6031746031746,65.79365079365078,-93.88888888888889,86.74603174603175,1.984126984126984,-178.33333333333331,-198.17460317460316,-10.873015873015872,-12.46031746031746,-166.26984126984127
51.03174603174603,105.31746031746032,91.19047619047619,-38.96825396825397,128.4920634920635,-3.73015873015873,179.44444444444443,160.87301587301587,123.73015873015872,101.5079365079365,-16.11111111111111,212.61904761904762,94.2063492063492,-24.047619047619047,19.6031746031746,65.79365079365078,-93.88888888888889,86.74603174603175,1.984126984126984,-178.33333333333331,-198.17460317460316,-10.873015873015872,-12.46031746031746,-166.26984126984127
51.03174603174603,105.31746031746032,91.19047619047619,-38.96825396825397,128.4920634920635,-3.73015873015873,179.44444444444443,160.87301587301587,123.73015873015872,101.5079365079365,-16.11111111111111,212.61904761904762,94.2063492063492,-24.047619047619047,19.6031746031746,65.79365079365078,-93.88888888888889,86.74603174603175,1.984126984126984,-178.33333333333331,-198.17460317460316,-10.873015873015872,-12.46031746031746,-166.26984126984127
99.6031746031746,1.6666666666666665,49.12698412698413,-22.936507936507937,95.15873015873015,-70.87301587301587,101.5079365079365,86.26984126984127,61.03174603174603,17.698412698412696,18.65079365079365,111.5079365079365,48.17460317460317,-52.61904761904761,5.476190476190476,-1.1904761904761905,3.253968253968254,12.936507936507935,1.984126984126984,-55.0,-74.04761904761904,-5.476190476190476,-8.492063492063492,-166.26984126984127
99.6031746031746,1.6666666666666665,49.12698412698413,-22.936507936507937,95.15873015873015,-70.87301587301587,101.5079365079365,86.26984126984127,61.03174603174603,17.698412698412696,18.65079365079365,111.5079365079365,48.17460317460317,-52.61904761904761,5.476190476190476,-1.1904761904761905,3.253968253968254,12.936507936507935,1.984126984126984,-55.0,-74.04761904761904,-5.476190476190476,-8.492063492063492,-166.26984126984127
60.71428571428571,-124.36507936507935,24.68253968253968,-45.95238095238095,43.57142857142857,-56.42857142857142,60.238095238095234,52.3015873015873,39.285714285714285,3.888888888888889,40.39682539682539,64.36507936507937,21.349206349206348,-79.44444444444444,19.92063492063492,-25.158730158730158,-2.619047619047619,-23.41269841269841,1.984126984126984,-15.476190476190474,-58.33333333333333,-0.3968253968253968,-1.349206349206349,-166.26984126984127
60.71428571428571,-124.36507936507935,24.68253968253968,-45.95238095238095,43.57142857142857,-56.42857142857142,60.238095238095234,52.3015873015873,39.285714285714285,3.888888888888889,40.39682539682539,64.36507936507937,21.349206349206348,-79.44444444444444,19.92063492063492,-25.158730158730158,-2.619047619047619,-23.41269841269841,1.984126984126984,-15.476190476190474,-58.33333333333333,-0.3968253968253968,-1.349206349206349,-166.26984126984127
101.98412698412697,-25.634920634920633,57.22222222222222,16.11111111111111,90.71428571428571,74.68253968253968,97.6984126984127,129.76190476190476,76.26984126984127,63.25396825396825,18.49206349206349,141.34920634920636,54.52380952380952,-22.46031746031746,9.285714285714285,37.38095238095238,14.682539682539682,51.507936507936506,1.8253968253968254,-74.52380952380952,-54.36507936507936,-5.0,-9.126984126984127,-166.26984126984127
101.98412698412697,-25.634920634920633,57.22222222222222,16.11111111111111,90.71428571428571,74.68253968253968,97.6984126984127,129.76190476190476,76.26984126984127,63.25396825396825,18.49206349206349,141.34920634920636,54.52380952380952,-22.46031746031746,9.285714285714285,37.38095238095238,14.682539682539682,51.507936507936506,1.8253968253968254,-74.52380952380952,-54.36507936507936,-5.0,-9.126984126984127,-166.26984126984127
51.03174603174603,-195.0,-41.98412698412698,-58.96825396825397,-61.03174603174603,-230.55555555555554,-94.2063492063492,-59.76190476190476,-62.14285714285714,-93.73015873015872,88.65079365079364,-91.66666666666666,-40.87301587301587,-129.9206349206349,-12.619047619047619,-118.33333333333333,58.8095238095238,-141.8253968253968,1.984126984126984,143.57142857142856,105.79365079365078,7.222222222222221,9.285714285714285,-321.8253968253968
51.03174603174603,-195.0,-41.98412698412698,-58.96825396825397,-61.03174603174603,-230.55555555555554,-94.2063492063492,-59.76190476190476,-62.14285714285714,-93.73015873015872,88.65079365079364,-91.66666666666666,-40.87301587301587,-129.9206349206349,-12.619047619047619,-118.33333333333333,58.8095238095238,-141.8253968253968,1.984126984126984,143.57142857142856,105.79365079365078,7.222222222222221,9.285714285714285,-321.8253968253968
89.28571428571428,-129.28571428571428,-20.396825396825395,-29.126984126984127,-4.0476190476190474,-186.42857142857142,-45.317460317460316,-17.539682539682538,-33.41269841269841,-74.52380952380952,67.06349206349206,-42.93650793650794,-21.349206349206348,-101.19047619047619,-11.19047619047619,-87.6984126984127,78.80952380952381,-97.06349206349206,1.984126984126984,109.92063492063491,89.6031746031746,4.365079365079365,3.253968253968254,-321.8253968253968
89.28571428571428,-129.28571428571428,-20.396825396825395,-29.126984126984127,-4.0476190476190474,-186.42857142857142,-45.317460317460316,-17.539682539682538,-33.41269841269841,-74.52380952380952,67.06349206349206,-42.93650793650794,-21.349206349206348,-101.19047619047619,-11.19047619047619,-87.6984126984127,78.80952380952381,-97.06349206349206,1.984126984126984,109.92063492063491,89.6031746031746,4.365079365079365,3.253968253968254,-321.8253968253968
32.3015873015873,-242.77777777777777,-44.047619047619044,-84.68253968253968,-51.34920634920635,-281.031746031746,-81.5079365079365,-74.52380952380952,-62.460317460317455,-111.66666666666666,85.47619047619047,-116.42857142857142,-42.61904761904761,-145.63492063492063,-14.523809523809524,-132.93650793650792,59.6031746031746,-149.6031746031746,1.8253968253968254,153.73015873015873,88.4920634920635,8.333333333333332,11.349206349206348,-321.8253968253968
32.3015873015873,-242.77777777777777,-44.047619047619044,-84.68253968253968,-51.34920634920635,-281.031746031746,-81.5079365079365,-74.52380952380952,-62.460317460317455,-111.66666666666666,85.47619047619047,-116.42857142857142,-42.61904761904761,-145.63492063492063,-14.523809523809524,-132.93650793650792,59.6031746031746,-149.6031746031746,1.8253968253968254,153.73015873015873,88.4920634920635,8.333333333333332,11.349206349206348,-321.8253968253968
81.03174603174602,-208.015873015873,-21.666666666666664,-45.95238095238095,0.3968253968253968,-215.15873015873015,-37.06349206349206,-32.460317460317455,-31.349206349206348,-88.65079365079364,71.5079365079365,-63.57142857142857,-21.507936507936506,-112.93650793650794,-12.46031746031746,-96.74603174603175,89.44444444444444,-104.68253968253968,1.8253968253968254,125.15873015873015,78.01587301587301,5.0,4.523809523809524,-321.8253968253968
81.03174603174602,-208.015873015873,-21.666666666666664,-45.95238095238095,0.3968253968253968,-215.15873015873015,-37.06349206349206,-32.460317460317455,-31.349206349206348,-88.65079365079364,71.5079365079365,-63.57142857142857,-21.507936507936506,-112.93650793650794,-12.46031746031746,-96.74603174603175,89.44444444444444,-104.68253968253968,1.8253968253968254,125.15873015873015,78.01587301587301,5.0,4.523809523809524,-321.8253968253968
6.746031746031746,-246.74603174603172,8.333333333333332,-101.82539682539682,-1.507936507936508,-117.22222222222221,20.71428571428571,-4.682539682539682,19.92063492063492,-32.3015873015873,70.87301587301587,-4.841269841269841,10.396825396825395,-116.42857142857142,8.492063492063492,-60.39682539682539,-8.015873015873016,-76.42857142857143,1.8253968253968254,45.476190476190474,-47.857142857142854,3.095238095238095,5.476190476190476,-321.8253968253968
6.746031746031746,-246.74603174603172,8.333333333333332,-101.82539682539682,-1.507936507936508,-117.22222222222221,20.71428571428571,-4.682539682539682,19.92063492063492,-32.3015873015873,70.87301587301587,-4.841269841269841,10.396825396825395,-116.42857142857142,8.492063492063492,-60.39682539682539,-8.015873015873016,-76.42857142857143,1.8253968253968254,45.476190476190474,-47.857142857142854,3.095238095238095,5.476190476190476,-321.8253968253968
46.269841269841265,-142.14285714285714,29.920634920634917,-62.93650793650793,46.269841269841265,-91.03174603174602,58.49206349206349,41.34920634920635,48.650793650793645,-8.174603174603174,49.285714285714285,50.55555555555555,31.825396825396822,-80.87301587301587,9.761904761904761,-25.476190476190474,12.777777777777777,-31.507936507936506,1.8253968253968254,2.3015873015873014,-53.57142857142857,-0.3968253968253968,-0.7142857142857142,-166.26984126984127
46.269841269841265,-142.14285714285714,29.920634920634917,-62.93650793650793,46.269841269841265,-91.03174603174602,58.49206349206349,41.34920634920635,48.650793650793645,-8.174603174603174,49.285714285714285,50.55555555555555,31.825396825396822,-80.87301587301587,9.761904761904761,-25.476190476190474,12.777777777777777,-31.507936507936506,1.8253968253968254,2.3015873015873014,-53.57142857142857,-0.3968253968253968,-0.7142857142857142,-166.26984126984127
-9.603174603174603,-164.84126984126982,7.063492063492063,-105.31746031746032,-11.349206349206348,-193.25396825396825,11.984126984126984,2.619047619047619,20.71428571428571,-31.19047619047619,59.92063492063492,2.7777777777777777,11.507936507936508,-114.2063492063492,-4.0476190476190474,-53.888888888888886,-20.555555555555554,-81.66666666666666,1.6666666666666665,24.68253968253968,-49.92063492063492,3.4126984126984126,5.634920634920634,-166.26984126984127
-9.603174603174603,-164.84126984126982,7.063492063492063,-105.31746031746032,-11.349206349206348,-193.25396825396825,11.984126984126984,2.619047619047619,20.71428571428571,-31.19047619047619,59.92063492063492,2.7777777777777777,11.507936507936508,-114.2063492063492,-4.0476190476190474,-53.888888888888886,-20.555555555555554,-81.66666666666666,1.6666666666666665,24.68253968253968,-49.92063492063492,3.4126984126984126,5.634920634920634,-166.26984126984127
98.01587301587301,-111.03174603174602,59.44444444444444,-26.428571428571427,91.82539682539682,-55.0,90.23809523809523,84.2063492063492,79.92063492063491,4.0476190476190474,31.19047619047619,90.07936507936508,62.14285714285714,-56.11111111111111,-5.476190476190476,9.126984126984127,51.507936507936506,0.5555555555555556,1.6666666666666665,-34.047619047619044,-53.57142857142857,-4.0476190476190474,-7.063492063492063,-166.26984126984127
98.01587301587301,-111.03174603174602,59.44444444444444,-26.428571428571427,91.82539682539682,-55.0,90.23809523809523,84.2063492063492,79.92063492063491,4.0476190476190474,31.19047619047619,90.07936507936508,62.14285714285714,-56.11111111111111,-5.476190476190476,9.126984126984127,51.507936507936506,0.5555555555555556,1.6666666666666665,-34.047619047619044,-53.57142857142857,-4.0476190476190474,-7.063492063492063,-166.26984126984127
25.79365079365079,-223.7301587301587,103.57142857142857,-132.93650793650792,98.49206349206348,85.31746031746032,124.84126984126983,115.47619047619047,149.76190476190476,47.38095238095238,246.26984126984127,141.66666666666666,105.95238095238095,-80.23809523809523,64.2063492063492,69.6031746031746,27.38095238095238,27.857142857142854,-38.96825396825397,-111.66666666666666,-216.42857142857142,-5.634920634920634,-5.952380952380952,-166.26984126984127
25.79365079365079,-223.7301587301587,103.57142857142857,-132.93650793650792,98.49206349206348,85.31746031746032,124.84126984126983,115.47619047619047,149.76190476190476,47.38095238095238,246.26984126984127,141.66666666666666,105.95238095238095,-80.23809523809523,64.2063492063492,69.6031746031746,27.38095238095238,27.857142857142854,-38.96825396825397,-111.66666666666666,-216.42857142857142,-5.634920634920634,-5.952380952380952,-166.26984126984127
81.03174603174602,-205.95238095238093,133.4126984126984,-139.28571428571428,143.88888888888889,209.76190476190476,146.11111111111111,136.42857142857142,184.36507936507937,46.58730158730158,325.0,168.015873015873,138.8095238095238,-53.888888888888886,85.95238095238095,95.0,74.68253968253968,54.52380952380952,-76.74603174603175,-122.6190476190476,-223.4126984126984,-9.603174603174603,-12.936507936507935,-166.26984126984127
81.03174603174602,-205.95238095238093,133.4126984126984,-139.28571428571428,143.88888888888889,209.76190476190476,146.11111111111111,136.42857142857142,184.36507936507937,46.58730158730158,325.0,168.015873015873,138.8095238095238,-53.888888888888886,85.95238095238095,95.0,74.68253968253968,54.52380952380952,-76.74603174603175,-122.6190476190476,-223.4126984126984,-9.603174603174603,-12.936507936507935,-166.26984126984127
95.31746031746032,-117.06349206349206,142.77777777777777,-133.88888888888889,152.14285714285714,199.44444444444443,139.44444444444443,149.6031746031746,187.06349206349205,47.698412698412696,325.0,187.85714285714283,151.8253968253968,-28.174603174603174,91.19047619047619,97.85714285714285,50.71428571428571,73.4126984126984,-42.14285714285714,-123.88888888888889,-200.7142857142857,-9.761904761904761,-13.095238095238095,-321.8253968253968
95.31746031746032,-117.06349206349206,142.77777777777777,-133.88888888888889,152.14285714285714,199.44444444444443,139.44444444444443,149.6031746031746,187.06349206349205,47.698412698412696,325.0,187.85714285714283,151.8253968253968,-28.174603174603174,91.19047619047619,97.85714285714285,50.71428571428571,73.4126984126984,-42.14285714285714,-123.88888888888889,-200.7142857142857,-9.761904761904761,-13.095238095238095,-321.8253968253968
109.6031746031746,-28.174603174603174,152.14285714285714,-128.4920634920635,160.3968253968254,189.12698412698413,132.93650793650792,162.77777777777777,189.76190476190476,48.96825396825397,325.0,207.69841269841268,165.0,-2.3015873015873014,96.42857142857142,100.87301587301587,26.746031746031743,92.30158730158729,-7.5396825396825395,-125.0,-177.85714285714286,-9.920634920634921,-13.253968253968253,-321.8253968253968
109.6031746031746,-28.174603174603174,152.14285714285714,-128.4920634920635,160.3968253968254,189.12698412698413,132.93650793650792,162.77777777777777,189.76190476190476,48.96825396825397,325.0,207.69841269841268,165.0,-2.3015873015873014,96.42857142857142,100.87301587301587,26.746031746031743,92.30158730158729,-7.5396825396825395,-125.0,-177.85714285714286,-9.920634920634921,-13.253968253968253,-321.8253968253968
109.6031746031746,-28.174603174603174,152.14285714285714,-128.4920634920635,160.3968253968254,189.12698412698413,132.93650793650792,162.77777777777777,189.76190476190476,48.96825396825397,325.0,207.69841269841268,165.0,-2.3015873015873014,96.42857142857142,100.87301587301587,26.746031746031743,92.30158730158729,-7.5396825396825395,-125.0,-177.85714285714286,-9.920634920634921,-13.253968253968253,-321.8253968253968
109.6031746031746,-28.174603174603174,152.14285714285714,-128.4920634920635,160.3968253968254,189.12698412698413,132.93650793650792,162.77777777777777,189.76190476190476,48.96825396825397,325.0,207.69841269841268,165.0,-2.3015873015873014,96.42857142857142,100.87301587301587,26.746031746031743,92.30158730158729,-7.5396825396825395,-125.0,-177.85714285714286,-9.920634920634921,-13.253968253968253,-321.8253968253968
109.6031746031746,-28.174603174603174,152.14285714285714,-128.4920634920635,160.3968253968254,189.12698412698413,132.93650793650792,162.77777777777777,189.76190476190476,48.96825396825397,325.0,207.69841269841268,165.0,-2.3015873015873014,96.42857142857142,100.87301587301587,26.746031746031743,92.30158730158729,-7.5396825396825395,-125.0,-177.85714285714286,-9.920634920634921,-13.253968253968253,-321.8253968253968
109.6031746031746,-28.174603174603174,152.14285714285714,-128.4920634920635,160.3968253968254,189.12698412698413,132.93650793650792,162.77777777777777,189.76190476190476,48.96825396825397,325.0,207.69841269841268,165.0,-2.3015873015873014,96.42857142857142,100.87301587301587,26.746031746031743,92.30158730158729,-7.5396825396825395,-125.0,-177.85714285714286,-9.920634920634921,-13.253968253968253,-321.8253968253968
109.6031746031746,-28.174603174603174,152.14285714285714,-128.4920634920635,160.3968253968254,189.12698412698413,132.93650793650792,162.77777777777777,189.76190476190476,48.96825396825397,325.0,207.69841269841268,165.0,-2.3015873015873014,96.42857142857142,100.87301587301587,26.746031746031743,92.30158730158729,-7.5396825396825395,-125.0,-177.85714285714286,-9.920634920634921,-13.253968253968253,-321.8253968253968
109.6031746031746,-28.174603174603174,152.14285714285714,-128.4920634920635,160.3968253968254,189.12698412698413,132.93650793650792,162.77777777777777,189.76190476190476,48.96825396825397,325.0,207.69841269841268,165.0,-2.3015873015873014,96.42857142857142,100.87301587301587,26.746031746031743,92.30158730158729,-7.5396825396825395,-125.0,-177.85714285714286,-9.920634920634921,-13.253968253968253,-321.8253968253968
109.6031746031746,-28.174603174603174,152.14285714285714,-128.4920634920635,160.3968253968254,189.12698412698413,132.93650793650792,162.77777777777777,189.76190476190476,48.96825396825397,325.0,207.69841269841268,165.0,-2.3015873015873014,96.42857142857142,100.87301587301587,26.746031746031743,92.30158730158729,-7.5396825396825395,-125.0,-177.85714285714286,-9.920634920634921,-13.253968253968253,-166.26984126984127
109.6031746031746,-28.174603174603174,152.14285714285714,-128.4920634920635,160.3968253968254,189.12698412698413,132.93650793650792,162.77777777777777,189.76190476190476,48.96825396825397,325.0,207.69841269841268,165.0,-2.3015873015873014,96.42857142857142,100.87301587301587,26.746031746031743,92.30158730158729,-7.5396825396825395,-125.0,-177.85714285714286,-9.920634920634921,-13.253968253968253,-166.26984126984127
109.6031746031746,-28.174603174603174,152.14285714285714,-128.4920634920635,160.3968253968254,189.12698412698413,132.93650793650792,162.77777777777777,189.76190476190476,48.96825396825397,325.0,207.69841269841268,165.0,-2.3015873015873014,96.42857142857142,100.87301587301587,26.746031746031743,92.30158730158729,-7.5396825396825395,-125.0,-177.85714285714286,-9.920634920634921,-13.253968253968253,-166.26984126984127
109.6031746031746,-28.174603174603174,152.14285714285714,-128.4920634920635,160.3968253968254,189.12698412698413,132.93650793650792,162.77777777777777,189.76190476190476,48.96825396825397,325.0,207.69841269841268,165.0,-2.3015873015873014,96.42857142857142,100.87301587301587,26.746031746031743,92.30158730158729,-7.5396825396825395,-125.0,-177.85714285714286,-9.920634920634921,-13.253968253968253,-166.26984126984127
109.6031746031746,-28.174603174603174,152.14285714285714,-128.4920634920635,160.3968253968254,189.12698412698413,132.93650793650792,162.77777777777777,189.76190476190476,48.96825396825397,325.0,207.69841269841268,165.0,-2.3015873015873014,96.42857142857142,100.87301587301587,26.746031746031743,92.30158730158729,-7.5396825396825395,-125.0,-177.85714285714286,-9.920634920634921,-13.253968253968253,-166.26984126984127
109.6031746031746,-28.174603174603174,152.14285714285714,-128.4920634920635,160.3968253968254,189.12698412698413,132.93650793650792,162.77777777777777,189.76190476190476,48.96825396825397,325.0,207.69841269841268,165.0,-2.3015873015873014,96.42857142857142,100.87301587301587,26.746031746031743,92.30158730158729,-7.5396825396825395,-125.0,-177.85714285714286,-9.920634920634921,-13.253968253968253,-166.26984126984127
169.44444444444443,-262.1428571428571,-40.87301587301587,-212.93650793650792,-80.87301587301587,-121.82539682539682,-123.57142857142857,-127.85714285714285,-38.17460317460317,-186.42857142857142,325.0,-99.92063492063491,-43.25396825396825,-123.88888888888889,-2.7777777777777777,-112.93650793650794,317.38095238095235,-156.9047619047619,6.587301587301587,136.42857142857142,75.79365079365078,7.3809523809523805,7.063492063492063,-166.26984126984127
169.44444444444443,-262.1428571428571,-40.87301587301587,-212.93650793650792,-80.87301587301587,-121.82539682539682,-123.57142857142857,-127.85714285714285,-38.17460317460317,-186.42857142857142,325.0,-99.92063492063491,-43.25396825396825,-123.88888888888889,-2.7777777777777777,-112.93650793650794,317.38095238095235,-156.9047619047619,6.587301587301587,136.42857142857142,75.79365079365078,7.3809523809523805,7.063492063492063,-166.26984126984127
