Fp1[1],Fp2[2],F3[3],F4[4],C3[5],C4[6],P3[7],P4[8],O1[9],O2[10],F7[11],F8[12],T3[13],T4[14],T5[15],T6[16],Fz[17],Pz[18],Cz[19],Pg1[20],Pg2[21],EOGR[22],EOOGL[23],EMG[24]
-325.0,325.0,260.87301587301585,-260.87301587301585,-325.0,325.0,-325.0,325.0,-325.0,325.0,232.6190476190476,325.0,260.7142857142857,-325.0,-325.0,-325.0,16.11111111111111,325.0,121.34920634920634,-325.0,-325.0,-2.7777777777777777,-6.904761904761904,-166.26984126984127
-325.0,325.0,260.87301587301585,-260.87301587301585,-325.0,325.0,-325.0,325.0,-325.0,325.0,232.6190476190476,325.0,260.7142857142857,-325.0,-325.0,-325.0,16.11111111111111,325.0,121.34920634920634,-325.0,-325.0,-2.7777777777777777,-6.904761904761904,-166.26984126984127
-325.0,325.0,257.53968253968253,-257.53968253968253,-325.0,325.0,-325.0,325.0,-325.0,325.0,227.06349206349205,325.0,257.38095238095235,-325.0,-325.0,-325.0,11.666666666666666,325.0,113.57142857142857,-325.0,-325.0,-0.5555555555555556,-0.5555555555555556,-166.26984126984127
-325.0,325.0,257.53968253968253,-257.53968253968253,-325.0,325.0,-325.0,325.0,-325.0,325.0,227.06349206349205,325.0,257.38095238095235,-325.0,-325.0,-325.0,11.666666666666666,325.0,113.57142857142857,-325.0,-325.0,-0.5555555555555556,-0.5555555555555556,-166.26984126984127
-325.0,325.0,255.47619047619045,-255.15873015873015,-325.0,325.0,-325.0,325.0,-325.0,325.0,222.93650793650792,325.0,255.15873015873015,-325.0,-325.0,-325.0,8.968253968253968,325.0,108.80952380952381,-325.0,-325.0,-1.0317460317460316,3.4126984126984126,-166.26984126984127
-325.0,325.0,255.47619047619045,-255.15873015873015,-325.0,325.0,-325.0,325.0,-325.0,325.0,222.93650793650792,325.0,255.15873015873015,-325.0,-325.0,-325.0,8.968253968253968,325.0,108.80952380952381,-325.0,-325.0,-1.0317460317460316,3.4126984126984126,-166.26984126984127
-325.0,-325.0,199.12698412698413,-198.96825396825395,-325.0,325.0,-325.0,325.0,-325.0,261.1904761904762,-325.0,325.0,199.76190476190476,-319.76190476190476,-163.25396825396825,-325.0,62.14285714285714,325.0,81.98412698412697,-325.0,-325.0,-2.9365079365079363,-3.253968253968254,-166.26984126984127
-325.0,-325.0,199.12698412698413,-198.96825396825395,-325.0,325.0,-325.0,325.0,-325.0,261.1904761904762,-325.0,325.0,199.76190476190476,-319.76190476190476,-163.25396825396825,-325.0,62.14285714285714,325.0,81.98412698412697,-325.0,-325.0,-2.9365079365079363,-3.253968253968254,-166.26984126984127
-325.0,-325.0,-211.5079365079365,-164.2063492063492,-325.0,312.46031746031747,-325.0,316.4285714285714,-325.0,-325.0,-325.0,291.66666666666663,-186.26984126984127,-269.2857142857143,-325.0,-325.0,61.666666666666664,325.0,-325.0,-319.4444444444444,-315.6349206349206,0.873015873015873,-0.7142857142857142,-166.26984126984127
-325.0,-325.0,-211.5079365079365,-164.2063492063492,-325.0,312.46031746031747,-325.0,316.4285714285714,-325.0,-325.0,-325.0,291.66666666666663,-186.26984126984127,-269.2857142857143,-325.0,-325.0,61.666666666666664,325.0,-325.0,-319.4444444444444,-315.6349206349206,0.873015873015873,-0.7142857142857142,-166.26984126984127
-325.0,-325.0,-325.0,-154.04761904761904,-325.0,294.8412698412698,-325.0,303.0952380952381,-325.0,-325.0,-325.0,274.8412698412698,-325.0,-252.77777777777777,-325.0,-325.0,61.507936507936506,325.0,-325.0,-308.3333333333333,-301.19047619047615,-0.7142857142857142,-0.7142857142857142,-321.8253968253968
-325.0,-325.0,-325.0,-154.04761904761904,-325.0,294.8412698412698,-325.0,303.0952380952381,-325.0,-325.0,-325.0,274.8412698412698,-325.0,-252.77777777777777,-325.0,-325.0,61.507936507936506,325.0,-325.0,-308.3333333333333,-301.19047619047615,-0.7142857142857142,-0.7142857142857142,-321.8253968253968
-325.0,-325.0,-325.0,-147.06349206349205,-325.0,282.1428571428571,-325.0,290.07936507936506,-325.0,-325.0,-325.0,262.3015873015873,-325.0,-240.87301587301587,-325.0,-325.0,59.285714285714285,318.8095238095238,-325.0,-294.5238095238095,-287.06349206349205,1.0317460317460316,2.7777777777777777,-321.8253968253968
-325.0,-325.0,-325.0,-147.06349206349205,-325.0,282.1428571428571,-325.0,290.07936507936506,-325.0,-325.0,-325.0,262.3015873015873,-325.0,-240.87301587301587,-325.0,-325.0,59.285714285714285,318.8095238095238,-325.0,-294.5238095238095,-287.06349206349205,1.0317460317460316,2.7777777777777777,-321.8253968253968
-325.0,-325.0,-287.85714285714283,-137.38095238095238,-325.0,263.57142857142856,-325.0,271.5079365079365,-325.0,-325.0,-322.3015873015873,244.68253968253967,-269.76190476190476,-224.2063492063492,-227.2222222222222,-325.0,40.87301587301587,101.98412698412697,-325.0,-274.8412698412698,-267.22222222222223,1.6666666666666665,3.73015873015873,-321.8253968253968
-325.0,-325.0,-287.85714285714283,-137.38095238095238,-325.0,263.57142857142856,-325.0,271.5079365079365,-325.0,-325.0,-322.3015873015873,244.68253968253967,-269.76190476190476,-224.2063492063492,-227.2222222222222,-325.0,40.87301587301587,101.98412698412697,-325.0,-274.8412698412698,-267.22222222222223,1.6666666666666665,3.73015873015873,-321.8253968253968
-325.0,-325.0,-226.1111111111111,-134.52380952380952,-325.0,257.85714285714283,-325.0,265.95238095238096,-325.0,-325.0,-315.7936507936508,239.9206349206349,-132.93650793650792,-219.28571428571428,-325.0,-321.8253968253968,33.41269841269841,-137.69841269841268,-325.0,-269.1269841269841,-261.8253968253968,-4.0476190476190474,-9.920634920634921,-321.8253968253968
-325.0,-325.0,-226.1111111111111,-134.52380952380952,-325.0,257.85714285714283,-325.0,265.95238095238096,-325.0,-325.0,-315.7936507936508,239.9206349206349,-132.93650793650792,-219.28571428571428,-325.0,-321.8253968253968,33.41269841269841,-137.69841269841268,-325.0,-269.1269841269841,-261.8253968253968,-4.0476190476190474,-9.920634920634921,-321.8253968253968
-325.0,-325.0,-275.6349206349206,-132.46031746031744,-325.0,254.68253968253967,-325.0,262.6190476190476,-325.0,-325.0,-311.66666666666663,236.74603174603175,-228.96825396825395,-216.26984126984127,-325.0,-317.69841269841265,39.12698412698413,-231.34920634920633,-325.0,-265.7936507936508,-258.17460317460313,-3.888888888888889,-5.317460317460317,-321.8253968253968
-325.0,-325.0,-275.6349206349206,-132.46031746031744,-325.0,254.68253968253967,-325.0,262.6190476190476,-325.0,-325.0,-311.66666666666663,236.74603174603175,-228.96825396825395,-216.26984126984127,-325.0,-317.69841269841265,39.12698412698413,-231.34920634920633,-325.0,-265.7936507936508,-258.17460317460313,-3.888888888888889,-5.317460317460317,-321.8253968253968
-325.0,-325.0,-325.0,-129.44444444444443,-325.0,249.60317460317458,-325.0,257.22222222222223,-325.0,-325.0,-304.8412698412698,231.66666666666666,-325.0,-211.34920634920633,-325.0,-311.031746031746,43.73015873015873,-325.0,-325.0,-260.07936507936506,-252.3015873015873,-1.507936507936508,-0.873015873015873,-166.26984126984127
-325.0,-325.0,-325.0,-129.44444444444443,-325.0,249.60317460317458,-325.0,257.22222222222223,-325.0,-325.0,-304.8412698412698,231.66666666666666,-325.0,-211.34920634920633,-325.0,-311.031746031746,43.73015873015873,-325.0,-325.0,-260.07936507936506,-252.3015873015873,-1.507936507936508,-0.873015873015873,-166.26984126984127
-325.0,-325.0,-325.0,-126.26984126984127,-325.0,243.4126984126984,-325.0,251.19047619047618,-325.0,-325.0,-297.38095238095235,225.63492063492063,-325.0,-205.79365079365078,-325.0,-303.25396825396825,44.2063492063492,-325.0,-325.0,-253.57142857142856,-245.63492063492063,-0.873015873015873,-1.1904761904761905,-166.26984126984127
-325.0,-325.0,-325.0,-126.26984126984127,-325.0,243.4126984126984,-325.0,251.19047619047618,-325.0,-325.0,-297.38095238095235,225.63492063492063,-325.0,-205.79365079365078,-325.0,-303.25396825396825,44.2063492063492,-325.0,-325.0,-253.57142857142856,-245.63492063492063,-0.873015873015873,-1.1904761904761905,-166.26984126984127
-325.0,-317.06349206349205,-325.0,-119.76190476190476,-325.0,231.66666666666666,-325.0,238.96825396825395,-325.0,-325.0,-282.46031746031747,214.36507936507937,-325.0,-195.0,-325.0,-288.3333333333333,41.82539682539682,-325.0,-325.0,-240.55555555555554,-232.77777777777777,1.8253968253968254,-0.5555555555555556,-166.26984126984127
-325.0,-317.06349206349205,-325.0,-119.76190476190476,-325.0,231.66666666666666,-325.0,238.96825396825395,-325.0,-325.0,-282.46031746031747,214.36507936507937,-325.0,-195.0,-325.0,-288.3333333333333,41.82539682539682,-325.0,-325.0,-240.55555555555554,-232.77777777777777,1.8253968253968254,-0.5555555555555556,-166.26984126984127
27.698412698412696,-181.03174603174602,-0.07936507936507936,-67.85714285714285,-89.12698412698413,132.14285714285714,17.698412698412696,137.53968253968253,12.619047619047619,-225.15873015873015,45.317460317460316,121.03174603174602,-0.07936507936507936,82.46031746031746,3.095238095238095,42.61904761904761,-0.07936507936507936,-277.38095238095235,-207.53968253968253,-137.06349206349205,-130.23809523809524,-5.158730158730158,-4.682539682539682,-166.26984126984127
27.698412698412696,-181.03174603174602,-0.07936507936507936,-67.85714285714285,-89.12698412698413,132.14285714285714,17.698412698412696,137.53968253968253,12.619047619047619,-225.15873015873015,45.317460317460316,121.03174603174602,-0.07936507936507936,82.46031746031746,3.095238095238095,42.61904761904761,-0.07936507936507936,-277.38095238095235,-207.53968253968253,-137.06349206349205,-130.23809523809524,-5.158730158730158,-4.682539682539682,-166.26984126984127
325.0,-98.49206349206348,325.0,-37.06349206349206,110.71428571428571,71.82539682539682,325.0,75.79365079365078,325.0,-125.31746031746032,325.0,64.84126984126983,325.0,325.0,325.0,325.0,325.0,-229.76190476190476,-112.14285714285714,-74.68253968253968,-68.96825396825396,-5.317460317460317,-7.5396825396825395,-166.26984126984127
325.0,-98.49206349206348,325.0,-37.06349206349206,110.71428571428571,71.82539682539682,325.0,75.79365079365078,325.0,-125.31746031746032,325.0,64.84126984126983,325.0,325.0,325.0,325.0,325.0,-229.76190476190476,-112.14285714285714,-74.68253968253968,-68.96825396825396,-5.317460317460317,-7.5396825396825395,-166.26984126984127
75.31746031746032,113.25396825396825,325.0,143.88888888888889,-107.22222222222221,-126.58730158730158,-0.07936507936507936,-124.68253968253967,325.0,-97.38095238095238,-0.07936507936507936,-130.07936507936506,325.0,325.0,325.0,325.0,-0.07936507936507936,-181.5079365079365,-87.38095238095238,-58.33333333333333,-53.41269841269841,-1.0317460317460316,0.5555555555555556,-321.8253968253968
75.31746031746032,113.25396825396825,325.0,143.88888888888889,-107.22222222222221,-126.58730158730158,-0.07936507936507936,-124.68253968253967,325.0,-97.38095238095238,-0.07936507936507936,-130.07936507936506,325.0,325.0,325.0,325.0,-0.07936507936507936,-181.5079365079365,-87.38095238095238,-58.33333333333333,-53.41269841269841,-1.0317460317460316,0.5555555555555556,-321.8253968253968
1.507936507936508,325.0,325.0,325.0,-166.26984126984127,-325.0,-196.9047619047619,-325.0,325.0,-68.33333333333333,-275.0,-325.0,325.0,325.0,325.0,325.0,-325.0,-131.5079365079365,-61.666666666666664,-41.03174603174603,-37.22222222222222,-5.158730158730158,-4.841269841269841,-321.8253968253968
1.507936507936508,325.0,325.0,325.0,-166.26984126984127,-325.0,-196.9047619047619,-325.0,325.0,-68.33333333333333,-275.0,-325.0,325.0,325.0,325.0,325.0,-325.0,-131.5079365079365,-61.666666666666664,-41.03174603174603,-37.22222222222222,-5.158730158730158,-4.841269841269841,-321.8253968253968
325.0,325.0,325.0,325.0,284.36507936507934,-325.0,211.8253968253968,-325.0,325.0,-67.38095238095238,115.0,-325.0,325.0,325.0,325.0,325.0,-325.0,-129.44444444444443,-61.03174603174603,-40.714285714285715,-36.904761904761905,0.3968253968253968,2.619047619047619,-321.8253968253968
325.0,325.0,325.0,325.0,284.36507936507934,-325.0,211.8253968253968,-325.0,325.0,-67.38095238095238,115.0,-325.0,325.0,325.0,325.0,325.0,-325.0,-129.44444444444443,-61.03174603174603,-40.714285714285715,-36.904761904761905,0.3968253968253968,2.619047619047619,-321.8253968253968
325.0,325.0,325.0,325.0,325.0,-325.0,325.0,-325.0,325.0,-66.11111111111111,325.0,-325.0,325.0,325.0,325.0,325.0,-325.0,-126.74603174603173,-59.6031746031746,-39.92063492063492,-36.269841269841265,-1.1904761904761905,-6.111111111111111,-321.8253968253968
325.0,325.0,325.0,325.0,325.0,-325.0,325.0,-325.0,325.0,-66.11111111111111,325.0,-325.0,325.0,325.0,325.0,325.0,-325.0,-126.74603174603173,-59.6031746031746,-39.92063492063492,-36.269841269841265,-1.1904761904761905,-6.111111111111111,-321.8253968253968
325.0,325.0,325.0,325.0,325.0,-325.0,325.0,-325.0,325.0,-51.19047619047619,167.69841269841268,-325.0,325.0,325.0,325.0,325.0,-325.0,-123.57142857142857,-58.17460317460317,-38.96825396825397,-35.317460317460316,-2.142857142857143,-3.571428571428571,-321.8253968253968
325.0,325.0,325.0,325.0,325.0,-325.0,325.0,-325.0,325.0,-51.19047619047619,167.69841269841268,-325.0,325.0,325.0,325.0,325.0,-325.0,-123.57142857142857,-58.17460317460317,-38.96825396825397,-35.317460317460316,-2.142857142857143,-3.571428571428571,-321.8253968253968
266.90476190476187,325.0,325.0,325.0,79.12698412698413,-325.0,-102.30158730158729,-325.0,325.0,-62.3015873015873,-291.3492063492063,-325.0,325.0,325.0,325.0,325.0,-325.0,-121.34920634920634,-56.74603174603174,-38.01587301587301,-34.36507936507936,4.365079365079365,4.841269841269841,-166.26984126984127
266.90476190476187,325.0,325.0,325.0,79.12698412698413,-325.0,-102.30158730158729,-325.0,325.0,-62.3015873015873,-291.3492063492063,-325.0,325.0,325.0,325.0,325.0,-325.0,-121.34920634920634,-56.74603174603174,-38.01587301587301,-34.36507936507936,4.365079365079365,4.841269841269841,-166.26984126984127
-323.25396825396825,325.0,325.0,325.0,-325.0,-325.0,-325.0,-325.0,118.8095238095238,-48.650793650793645,-325.0,-325.0,325.0,325.0,306.26984126984127,325.0,-325.0,-118.49206349206348,-55.15873015873016,-36.904761904761905,-33.41269841269841,1.6666666666666665,0.5555555555555556,-166.26984126984127
-323.25396825396825,325.0,325.0,325.0,-325.0,-325.0,-325.0,-325.0,118.8095238095238,-48.650793650793645,-325.0,-325.0,325.0,325.0,306.26984126984127,325.0,-325.0,-118.49206349206348,-55.15873015873016,-36.904761904761905,-33.41269841269841,1.6666666666666665,0.5555555555555556,-166.26984126984127
-15.158730158730158,325.0,325.0,325.0,-301.66666666666663,-325.0,-325.0,-325.0,325.0,40.39682539682539,-325.0,-325.0,325.0,325.0,325.0,325.0,-325.0,-111.82539682539682,-52.14285714285714,-35.317460317460316,-31.349206349206348,-4.365079365079365,0.07936507936507936,-166.26984126984127
-15.158730158730158,325.0,325.0,325.0,-301.66666666666663,-325.0,-325.0,-325.0,325.0,40.39682539682539,-325.0,-325.0,325.0,325.0,325.0,325.0,-325.0,-111.82539682539682,-52.14285714285714,-35.317460317460316,-31.349206349206348,-4.365079365079365,0.07936507936507936,-166.26984126984127
107.06349206349206,290.55555555555554,-325.0,292.6190476190476,80.71428571428571,-185.79365079365078,-132.93650793650792,-175.3174603174603,-325.0,325.0,-243.7301587301587,-214.2063492063492,-325.0,144.68253968253967,-325.0,212.93650793650792,-135.95238095238093,-41.19047619047619,-18.80952380952381,325.0,325.0,-2.3015873015873014,-7.222222222222221,-166.26984126984127
107.06349206349206,290.55555555555554,-325.0,292.6190476190476,80.71428571428571,-185.79365079365078,-132.93650793650792,-175.3174603174603,-325.0,325.0,-243.7301587301587,-214.2063492063492,-325.0,144.68253968253967,-325.0,212.93650793650792,-135.95238095238093,-41.19047619047619,-18.80952380952381,325.0,325.0,-2.3015873015873014,-7.222222222222221,-166.26984126984127
107.06349206349206,290.55555555555554,-325.0,292.6190476190476,80.71428571428571,-185.79365079365078,-132.93650793650792,-175.3174603174603,-325.0,325.0,-243.7301587301587,-214.2063492063492,-325.0,144.68253968253967,-325.0,212.93650793650792,-135.95238095238093,-41.19047619047619,-18.80952380952381,325.0,325.0,-2.3015873015873014,-7.222222222222221,-166.26984126984127
107.06349206349206,290.55555555555554,-325.0,292.6190476190476,80.71428571428571,-185.79365079365078,-132.93650793650792,-175.3174603174603,-325.0,325.0,-243.7301587301587,-214.2063492063492,-325.0,144.68253968253967,-325.0,212.93650793650792,-135.95238095238093,-41.19047619047619,-18.80952380952381,325.0,325.0,-2.3015873015873014,-7.222222222222221,-166.26984126984127
325.0,148.17460317460316,325.0,146.58730158730157,325.0,-95.47619047619047,325.0,-91.5079365079365,325.0,252.77777777777777,325.0,-108.49206349206348,325.0,70.71428571428571,325.0,75.31746031746032,325.0,224.2063492063492,325.0,275.7936507936508,-325.0,2.9365079365079363,3.095238095238095,-321.8253968253968
325.0,148.17460317460316,325.0,146.58730158730157,325.0,-95.47619047619047,325.0,-91.5079365079365,325.0,252.77777777777777,325.0,-108.49206349206348,325.0,70.71428571428571,325.0,75.31746031746032,325.0,224.2063492063492,325.0,275.7936507936508,-325.0,2.9365079365079363,3.095238095238095,-321.8253968253968
325.0,145.63492063492063,325.0,144.36507936507937,325.0,-94.04761904761904,325.0,-90.07936507936508,325.0,325.0,325.0,-106.74603174603175,325.0,69.44444444444444,325.0,104.2063492063492,325.0,325.0,325.0,271.3492063492063,-325.0,-2.7777777777777777,-4.2063492063492065,-321.8253968253968
325.0,145.63492063492063,325.0,144.36507936507937,325.0,-94.04761904761904,325.0,-90.07936507936508,325.0,325.0,325.0,-106.74603174603175,325.0,69.44444444444444,325.0,104.2063492063492,325.0,325.0,325.0,271.3492063492063,-325.0,-2.7777777777777777,-4.2063492063492065,-321.8253968253968
325.0,142.61904761904762,325.0,141.03174603174602,325.0,-91.98412698412697,325.0,-88.17460317460316,325.0,298.015873015873,325.0,-104.52380952380952,325.0,68.01587301587301,325.0,85.79365079365078,325.0,304.36507936507934,325.0,265.6349206349206,-325.0,-0.07936507936507936,-0.873015873015873,-321.8253968253968
325.0,142.61904761904762,325.0,141.03174603174602,325.0,-91.98412698412697,325.0,-88.17460317460316,325.0,298.015873015873,325.0,-104.52380952380952,325.0,68.01587301587301,325.0,85.79365079365078,325.0,304.36507936507934,325.0,265.6349206349206,-325.0,-0.07936507936507936,-0.873015873015873,-321.8253968253968
325.0,139.6031746031746,325.0,138.015873015873,325.0,-90.07936507936508,325.0,-86.42857142857143,325.0,308.3333333333333,325.0,-102.30158730158729,325.0,66.42857142857143,325.0,91.34920634920634,325.0,325.0,325.0,260.23809523809524,-325.0,-1.8253968253968254,-6.587301587301587,-321.8253968253968
325.0,139.6031746031746,325.0,138.015873015873,325.0,-90.07936507936508,325.0,-86.42857142857143,325.0,308.3333333333333,325.0,-102.30158730158729,325.0,66.42857142857143,325.0,91.34920634920634,325.0,325.0,325.0,260.23809523809524,-325.0,-1.8253968253968254,-6.587301587301587,-321.8253968253968
325.0,137.38095238095238,325.0,135.79365079365078,325.0,-88.80952380952381,325.0,-84.84126984126983,325.0,279.76190476190476,325.0,-100.39682539682539,325.0,65.15873015873015,325.0,74.68253968253968,325.0,288.17460317460313,325.0,256.1111111111111,-325.0,1.507936507936508,5.634920634920634,-321.8253968253968
325.0,137.38095238095238,325.0,135.79365079365078,325.0,-88.80952380952381,325.0,-84.84126984126983,325.0,279.76190476190476,325.0,-100.39682539682539,325.0,65.15873015873015,325.0,74.68253968253968,325.0,288.17460317460313,325.0,256.1111111111111,-325.0,1.507936507936508,5.634920634920634,-321.8253968253968
325.0,135.0,325.0,133.25396825396825,325.0,-87.22222222222221,325.0,-83.4126984126984,325.0,289.4444444444444,325.0,-98.80952380952381,325.0,64.04761904761905,325.0,80.39682539682539,325.0,321.66666666666663,325.0,251.66666666666666,-325.0,-1.8253968253968254,-6.111111111111111,-166.26984126984127
325.0,135.0,325.0,133.25396825396825,325.0,-87.22222222222221,325.0,-83.4126984126984,325.0,289.4444444444444,325.0,-98.80952380952381,325.0,64.04761904761905,325.0,80.39682539682539,325.0,321.66666666666663,325.0,251.66666666666666,-325.0,-1.8253968253968254,-6.111111111111111,-166.26984126984127
325.0,133.25396825396825,325.0,131.66666666666666,325.0,-86.1111111111111,325.0,-82.46031746031746,325.0,200.7142857142857,325.0,-97.38095238095238,325.0,63.25396825396825,325.0,30.396825396825395,325.0,229.44444444444443,325.0,248.33333333333331,-325.0,5.317460317460317,9.444444444444445,-166.26984126984127
325.0,133.25396825396825,325.0,131.66666666666666,325.0,-86.1111111111111,325.0,-82.46031746031746,325.0,200.7142857142857,325.0,-97.38095238095238,325.0,63.25396825396825,325.0,30.396825396825395,325.0,229.44444444444443,325.0,248.33333333333331,-325.0,5.317460317460317,9.444444444444445,-166.26984126984127
325.0,115.95238095238095,325.0,114.2063492063492,325.0,-75.0,325.0,-72.14285714285714,325.0,311.031746031746,325.0,-84.68253968253968,325.0,54.841269841269835,325.0,76.9047619047619,325.0,325.0,325.0,216.42857142857142,-325.0,-2.142857142857143,0.07936507936507936,-166.26984126984127
325.0,115.95238095238095,325.0,114.2063492063492,325.0,-75.0,325.0,-72.14285714285714,325.0,311.031746031746,325.0,-84.68253968253968,325.0,54.841269841269835,325.0,76.9047619047619,325.0,325.0,325.0,216.42857142857142,-325.0,-2.142857142857143,0.07936507936507936,-166.26984126984127
325.0,104.2063492063492,325.0,102.30158730158729,325.0,-67.38095238095238,325.0,-65.0,325.0,297.06349206349205,325.0,-75.95238095238095,325.0,49.12698412698413,325.0,68.65079365079364,325.0,325.0,325.0,194.68253968253967,-325.0,-2.7777777777777777,-0.7142857142857142,-166.26984126984127
325.0,104.2063492063492,325.0,102.30158730158729,325.0,-67.38095238095238,325.0,-65.0,325.0,297.06349206349205,325.0,-75.95238095238095,325.0,49.12698412698413,325.0,68.65079365079364,325.0,325.0,325.0,194.68253968253967,-325.0,-2.7777777777777777,-0.7142857142857142,-166.26984126984127
325.0,104.2063492063492,325.0,102.30158730158729,325.0,-67.38095238095238,325.0,-65.0,325.0,297.06349206349205,325.0,-75.95238095238095,325.0,49.12698412698413,325.0,68.65079365079364,325.0,325.0,325.0,194.68253968253967,-325.0,-2.7777777777777777,-0.7142857142857142,-166.26984126984127
325.0,104.2063492063492,325.0,102.30158730158729,325.0,-67.38095238095238,325.0,-65.0,325.0,297.06349206349205,325.0,-75.95238095238095,325.0,49.12698412698413,325.0,68.65079365079364,325.0,325.0,325.0,194.68253968253967,-325.0,-2.7777777777777777,-0.7142857142857142,-166.26984126984127
325.0,104.2063492063492,325.0,102.30158730158729,325.0,-67.38095238095238,325.0,-65.0,325.0,297.06349206349205,325.0,-75.95238095238095,325.0,49.12698412698413,325.0,68.65079365079364,325.0,325.0,325.0,194.68253968253967,-325.0,-2.7777777777777777,-0.7142857142857142,-321.8253968253968
325.0,104.2063492063492,325.0,102.30158730158729,325.0,-67.38095238095238,325.0,-65.0,325.0,297.06349206349205,325.0,-75.95238095238095,325.0,49.12698412698413,325.0,68.65079365079364,325.0,325.0,325.0,194.68253968253967,-325.0,-2.7777777777777777,-0.7142857142857142,-321.8253968253968
56.11111111111111,65.0,60.873015873015866,63.25396825396825,52.3015873015873,-42.460317460317455,57.53968253968254,-41.19047619047619,56.904761904761905,179.44444444444443,62.93650793650793,-47.53968253968254,61.34920634920635,30.238095238095237,56.42857142857142,11.19047619047619,71.98412698412697,280.55555555555554,221.03174603174602,-27.38095238095238,-77.22222222222221,-1.507936507936508,2.3015873015873014,-321.8253968253968
56.11111111111111,65.0,60.873015873015866,63.25396825396825,52.3015873015873,-42.460317460317455,57.53968253968254,-41.19047619047619,56.904761904761905,179.44444444444443,62.93650793650793,-47.53968253968254,61.34920634920635,30.238095238095237,56.42857142857142,11.19047619047619,71.98412698412697,280.55555555555554,221.03174603174602,-27.38095238095238,-77.22222222222221,-1.507936507936508,2.3015873015873014,-321.8253968253968
-212.61904761904762,25.79365079365079,-203.09523809523807,24.206349206349206,-220.2380952380952,-17.38095238095238,-209.76190476190476,-17.38095238095238,-211.03174603174602,61.82539682539682,-199.12698412698413,-18.96825396825397,-202.3015873015873,11.507936507936508,-212.14285714285714,-46.11111111111111,-180.87301587301587,236.26984126984127,117.22222222222221,-249.28571428571428,170.7142857142857,-0.07936507936507936,5.317460317460317,-321.8253968253968
-212.61904761904762,25.79365079365079,-203.09523809523807,24.206349206349206,-220.2380952380952,-17.38095238095238,-209.76190476190476,-17.38095238095238,-211.03174603174602,61.82539682539682,-199.12698412698413,-18.96825396825397,-202.3015873015873,11.507936507936508,-212.14285714285714,-46.11111111111111,-180.87301587301587,236.26984126984127,117.22222222222221,-249.28571428571428,170.7142857142857,-0.07936507936507936,5.317460317460317,-321.8253968253968
-189.9206349206349,23.41269841269841,-181.984126984127,21.984126984126984,-198.015873015873,-16.11111111111111,-187.69841269841268,-16.11111111111111,-188.96825396825395,109.44444444444444,-178.8095238095238,-17.22222222222222,-181.34920634920633,10.396825396825395,-190.3968253968254,8.333333333333332,-161.5079365079365,318.4920634920635,105.0,-223.4126984126984,152.14285714285714,-6.904761904761904,-10.396825396825395,-321.8253968253968
-189.9206349206349,23.41269841269841,-181.984126984127,21.984126984126984,-198.015873015873,-16.11111111111111,-187.69841269841268,-16.11111111111111,-188.96825396825395,109.44444444444444,-178.8095238095238,-17.22222222222222,-181.34920634920633,10.396825396825395,-190.3968253968254,8.333333333333332,-161.5079365079365,318.4920634920635,105.0,-223.4126984126984,152.14285714285714,-6.904761904761904,-10.396825396825395,-321.8253968253968
-189.9206349206349,23.41269841269841,-181.984126984127,21.984126984126984,-198.015873015873,-16.11111111111111,-187.69841269841268,-16.11111111111111,-188.96825396825395,109.44444444444444,-178.8095238095238,-17.22222222222222,-181.34920634920633,10.396825396825395,-190.3968253968254,8.333333333333332,-161.5079365079365,318.4920634920635,105.0,-223.4126984126984,152.14285714285714,-6.904761904761904,-10.396825396825395,-321.8253968253968
-189.9206349206349,23.41269841269841,-181.984126984127,21.984126984126984,-198.015873015873,-16.11111111111111,-187.69841269841268,-16.11111111111111,-188.96825396825395,109.44444444444444,-178.8095238095238,-17.22222222222222,-181.34920634920633,10.396825396825395,-190.3968253968254,8.333333333333332,-161.5079365079365,318.4920634920635,105.0,-223.4126984126984,152.14285714285714,-6.904761904761904,-10.396825396825395,-321.8253968253968
-182.77777777777777,22.46031746031746,-175.15873015873015,20.71428571428571,-190.87301587301587,-15.476190476190474,-181.03174603174602,-15.634920634920634,-181.984126984127,77.38095238095238,-172.14285714285714,-16.587301587301585,-174.52380952380952,10.079365079365079,-183.7301587301587,-21.19047619047619,-155.15873015873015,283.4126984126984,101.03174603174602,-215.47619047619045,146.11111111111111,-2.619047619047619,-7.063492063492063,-166.26984126984127
-182.77777777777777,22.46031746031746,-175.15873015873015,20.71428571428571,-190.87301587301587,-15.476190476190474,-181.03174603174602,-15.634920634920634,-181.984126984127,77.38095238095238,-172.14285714285714,-16.587301587301585,-174.52380952380952,10.079365079365079,-183.7301587301587,-21.19047619047619,-155.15873015873015,283.4126984126984,101.03174603174602,-215.47619047619045,146.11111111111111,-2.619047619047619,-7.063492063492063,-166.26984126984127
-180.07936507936506,17.857142857142858,-172.77777777777777,20.873015873015873,-188.33333333333331,-15.158730158730158,-178.4920634920635,-15.476190476190474,-179.76190476190476,-77.06349206349206,-169.76190476190476,-16.587301587301585,-172.14285714285714,9.920634920634921,-181.66666666666666,-172.46031746031744,-153.25396825396825,126.58730158730158,99.92063492063491,-212.93650793650792,144.36507936507937,6.746031746031746,9.285714285714285,-166.26984126984127
-180.07936507936506,17.857142857142858,-172.77777777777777,20.873015873015873,-188.33333333333331,-15.158730158730158,-178.4920634920635,-15.476190476190474,-179.76190476190476,-77.06349206349206,-169.76190476190476,-16.587301587301585,-172.14285714285714,9.920634920634921,-181.66666666666666,-172.46031746031744,-153.25396825396825,126.58730158730158,99.92063492063491,-212.93650793650792,144.36507936507937,6.746031746031746,9.285714285714285,-166.26984126984127
-180.07936507936506,17.857142857142858,-172.77777777777777,20.873015873015873,-188.33333333333331,-15.158730158730158,-178.4920634920635,-15.476190476190474,-179.76190476190476,-77.06349206349206,-169.76190476190476,-16.587301587301585,-172.14285714285714,9.920634920634921,-181.66666666666666,-172.46031746031744,-153.25396825396825,126.58730158730158,99.92063492063491,-212.93650793650792,144.36507936507937,6.746031746031746,9.285714285714285,-166.26984126984127
-180.07936507936506,17.857142857142858,-172.77777777777777,20.873015873015873,-188.33333333333331,-15.158730158730158,-178.4920634920635,-15.476190476190474,-179.76190476190476,-77.06349206349206,-169.76190476190476,-16.587301587301585,-172.14285714285714,9.920634920634921,-181.66666666666666,-172.46031746031744,-153.25396825396825,126.58730158730158,99.92063492063491,-212.93650793650792,144.36507936507937,6.746031746031746,9.285714285714285,-166.26984126984127
-151.34920634920633,-21.984126984126984,-145.63492063492063,17.539682539682538,-159.6031746031746,-12.936507936507935,-150.3968253968254,-13.253968253968253,-151.8253968253968,-73.88888888888889,-143.57142857142856,-14.365079365079364,-145.0,8.333333333333332,-153.57142857142856,-171.984126984127,-128.65079365079364,115.63492063492063,84.04761904761904,-179.76190476190476,121.19047619047619,5.317460317460317,9.603174603174603,-166.26984126984127
-151.34920634920633,-21.984126984126984,-145.63492063492063,17.539682539682538,-159.6031746031746,-12.936507936507935,-150.3968253968254,-13.253968253968253,-151.8253968253968,-73.88888888888889,-143.57142857142856,-14.365079365079364,-145.0,8.333333333333332,-153.57142857142856,-171.984126984127,-128.65079365079364,115.63492063492063,84.04761904761904,-179.76190476190476,121.19047619047619,5.317460317460317,9.603174603174603,-166.26984126984127
86.74603174603175,4.0476190476190474,89.6031746031746,11.349206349206348,82.61904761904762,61.03174603174603,87.22222222222221,32.93650793650794,86.58730158730158,-73.57142857142857,90.71428571428571,17.22222222222222,89.92063492063491,-4.841269841269841,85.63492063492063,-124.36507936507935,98.17460317460316,89.76190476190476,52.93650793650794,40.87301587301587,-67.85714285714285,1.507936507936508,1.0317460317460316,-166.26984126984127
86.74603174603175,4.0476190476190474,89.6031746031746,11.349206349206348,82.61904761904762,61.03174603174603,87.22222222222221,32.93650793650794,86.58730158730158,-73.57142857142857,90.71428571428571,17.22222222222222,89.92063492063491,-4.841269841269841,85.63492063492063,-124.36507936507935,98.17460317460316,89.76190476190476,52.93650793650794,40.87301587301587,-67.85714285714285,1.507936507936508,1.0317460317460316,-166.26984126984127
325.0,-91.19047619047619,325.0,4.841269841269841,114.68253968253967,-28.174603174603174,267.22222222222223,-33.095238095238095,325.0,-186.26984126984127,92.61904761904762,-36.11111111111111,325.0,-98.33333333333333,325.0,-191.19047619047618,-88.17460317460316,-71.82539682539682,21.507936507936506,259.76190476190476,-254.36507936507934,10.714285714285714,10.396825396825395,-321.8253968253968
325.0,-91.19047619047619,325.0,4.841269841269841,114.68253968253967,-28.174603174603174,267.22222222222223,-33.095238095238095,325.0,-186.26984126984127,92.61904761904762,-36.11111111111111,325.0,-98.33333333333333,325.0,-191.19047619047618,-88.17460317460316,-71.82539682539682,21.507936507936506,259.76190476190476,-254.36507936507934,10.714285714285714,10.396825396825395,-321.8253968253968
325.0,-17.38095238095238,290.7142857142857,3.888888888888889,325.0,34.047619047619044,325.0,47.06349206349206,301.8253968253968,-114.36507936507935,325.0,35.79365079365079,291.8253968253968,-113.4126984126984,301.5079365079365,-132.14285714285714,325.0,-38.80952380952381,16.587301587301585,197.2222222222222,-191.5079365079365,5.0,7.857142857142857,-321.8253968253968
325.0,-17.38095238095238,290.7142857142857,3.888888888888889,325.0,34.047619047619044,325.0,47.06349206349206,301.8253968253968,-114.36507936507935,325.0,35.79365079365079,291.8253968253968,-113.4126984126984,301.5079365079365,-132.14285714285714,325.0,-38.80952380952381,16.587301587301585,197.2222222222222,-191.5079365079365,5.0,7.857142857142857,-321.8253968253968
322.77777777777777,55.15873015873016,287.22222222222223,3.888888888888889,325.0,320.7142857142857,325.0,248.015873015873,298.015873015873,47.53968253968254,325.0,271.5079365079365,288.17460317460313,-5.317460317460317,297.6984126984127,18.96825396825397,325.0,137.06349206349205,16.428571428571427,194.84126984126982,-189.28571428571428,-8.809523809523808,-10.238095238095237,-321.8253968253968
322.77777777777777,55.15873015873016,287.22222222222223,3.888888888888889,325.0,320.7142857142857,325.0,248.015873015873,298.015873015873,47.53968253968254,325.0,271.5079365079365,288.17460317460313,-5.317460317460317,297.6984126984127,18.96825396825397,325.0,137.06349206349205,16.428571428571427,194.84126984126982,-189.28571428571428,-8.809523809523808,-10.238095238095237,-321.8253968253968
318.8095238095238,10.079365079365079,283.4126984126984,3.888888888888889,325.0,222.93650793650792,325.0,188.33333333333331,294.36507936507934,0.3968253968253968,325.0,205.15873015873015,284.5238095238095,-48.17460317460317,294.04761904761904,-27.22222222222222,325.0,80.39682539682539,16.11111111111111,192.3015873015873,-186.74603174603175,-4.0476190476190474,-2.46031746031746,-321.8253968253968
318.8095238095238,10.079365079365079,283.4126984126984,3.888888888888889,325.0,222.93650793650792,325.0,188.33333333333331,294.36507936507934,0.3968253968253968,325.0,205.15873015873015,284.5238095238095,-48.17460317460317,294.04761904761904,-27.22222222222222,325.0,80.39682539682539,16.11111111111111,192.3015873015873,-186.74603174603175,-4.0476190476190474,-2.46031746031746,-321.8253968253968
312.1428571428571,-30.555555555555554,277.38095238095235,3.888888888888889,325.0,114.36507936507935,325.0,121.19047619047619,288.3333333333333,-74.52380952380952,325.0,118.17460317460316,278.6507936507936,-77.22222222222221,288.015873015873,-85.95238095238095,325.0,19.6031746031746,15.793650793650793,188.33333333333331,-182.77777777777777,0.23809523809523808,-0.7142857142857142,-321.8253968253968
312.1428571428571,-30.555555555555554,277.38095238095235,3.888888888888889,325.0,114.36507936507935,325.0,121.19047619047619,288.3333333333333,-74.52380952380952,325.0,118.17460317460316,278.6507936507936,-77.22222222222221,288.015873015873,-85.95238095238095,325.0,19.6031746031746,15.793650793650793,188.33333333333331,-182.77777777777777,0.23809523809523808,-0.7142857142857142,-321.8253968253968
305.4761904761905,-113.09523809523809,271.8253968253968,3.73015873015873,325.0,4.523809523809524,321.3492063492063,58.650793650793645,282.46031746031747,-109.76190476190476,325.0,41.19047619047619,272.6190476190476,-103.09523809523809,282.3015873015873,-119.76190476190476,325.0,-30.238095238095237,15.476190476190474,184.36507936507937,-178.8095238095238,4.682539682539682,6.904761904761904,-166.26984126984127
305.4761904761905,-113.09523809523809,271.8253968253968,3.73015873015873,325.0,4.523809523809524,321.3492063492063,58.650793650793645,282.46031746031747,-109.76190476190476,325.0,41.19047619047619,272.6190476190476,-103.09523809523809,282.3015873015873,-119.76190476190476,325.0,-30.238095238095237,15.476190476190474,184.36507936507937,-178.8095238095238,4.682539682539682,6.904761904761904,-166.26984126984127
298.8095238095238,-62.93650793650793,265.7936507936508,3.73015873015873,325.0,52.61904761904761,314.68253968253964,110.07936507936508,276.58730158730157,-61.666666666666664,325.0,95.0,266.90476190476187,-50.39682539682539,276.4285714285714,-66.58730158730158,325.0,21.507936507936506,15.317460317460316,180.3968253968254,-175.0,0.07936507936507936,-1.1904761904761905,-166.26984126984127
298.8095238095238,-62.93650793650793,265.7936507936508,3.73015873015873,325.0,52.61904761904761,314.68253968253964,110.07936507936508,276.58730158730157,-61.666666666666664,325.0,95.0,266.90476190476187,-50.39682539682539,276.4285714285714,-66.58730158730158,325.0,21.507936507936506,15.317460317460316,180.3968253968254,-175.0,0.07936507936507936,-1.1904761904761905,-166.26984126984127
288.6507936507936,-1.6666666666666665,256.74603174603175,3.73015873015873,325.0,98.01587301587301,304.36507936507934,120.55555555555554,267.38095238095235,-78.4920634920635,325.0,104.84126984126983,258.17460317460313,-35.63492063492063,267.22222222222223,-75.47619047619047,325.0,33.73015873015873,14.84126984126984,174.52380952380952,-168.96825396825395,-0.7142857142857142,-5.476190476190476,-166.26984126984127
288.6507936507936,-1.6666666666666665,256.74603174603175,3.73015873015873,325.0,98.01587301587301,304.36507936507934,120.55555555555554,267.38095238095235,-78.4920634920635,325.0,104.84126984126983,258.17460317460313,-35.63492063492063,267.22222222222223,-75.47619047619047,325.0,33.73015873015873,14.84126984126984,174.52380952380952,-168.96825396825395,-0.7142857142857142,-5.476190476190476,-166.26984126984127
288.6507936507936,-1.6666666666666665,256.74603174603175,3.73015873015873,325.0,98.01587301587301,304.36507936507934,120.55555555555554,267.38095238095235,-78.4920634920635,325.0,104.84126984126983,258.17460317460313,-35.63492063492063,267.22222222222223,-75.47619047619047,325.0,33.73015873015873,14.84126984126984,174.52380952380952,-168.96825396825395,-0.7142857142857142,-5.476190476190476,-166.26984126984127
288.6507936507936,-1.6666666666666665,256.74603174603175,3.73015873015873,325.0,98.01587301587301,304.36507936507934,120.55555555555554,267.38095238095235,-78.4920634920635,325.0,104.84126984126983,258.17460317460313,-35.63492063492063,267.22222222222223,-75.47619047619047,325.0,33.73015873015873,14.84126984126984,174.52380952380952,-168.96825396825395,-0.7142857142857142,-5.476190476190476,-166.26984126984127
288.6507936507936,-1.6666666666666665,256.74603174603175,3.73015873015873,325.0,98.01587301587301,304.36507936507934,120.55555555555554,267.38095238095235,-78.4920634920635,325.0,104.84126984126983,258.17460317460313,-35.63492063492063,267.22222222222223,-75.47619047619047,325.0,33.73015873015873,14.84126984126984,174.52380952380952,-168.96825396825395,-0.7142857142857142,-5.476190476190476,-166.26984126984127
288.6507936507936,-1.6666666666666665,256.74603174603175,3.73015873015873,325.0,98.01587301587301,304.36507936507934,120.55555555555554,267.38095238095235,-78.4920634920635,325.0,104.84126984126983,258.17460317460313,-35.63492063492063,267.22222222222223,-75.47619047619047,325.0,33.73015873015873,14.84126984126984,174.52380952380952,-168.96825396825395,-0.7142857142857142,-5.476190476190476,-166.26984126984127
288.6507936507936,-1.6666666666666665,256.74603174603175,3.73015873015873,325.0,98.01587301587301,304.36507936507934,120.55555555555554,267.38095238095235,-78.4920634920635,325.0,104.84126984126983,258.17460317460313,-35.63492063492063,267.22222222222223,-75.47619047619047,325.0,33.73015873015873,14.84126984126984,174.52380952380952,-168.96825396825395,-0.7142857142857142,-5.476190476190476,-321.8253968253968
288.6507936507936,-1.6666666666666665,256.74603174603175,3.73015873015873,325.0,98.01587301587301,304.36507936507934,120.55555555555554,267.38095238095235,-78.4920634920635,325.0,104.84126984126983,258.17460317460313,-35.63492063492063,267.22222222222223,-75.47619047619047,325.0,33.73015873015873,14.84126984126984,174.52380952380952,-168.96825396825395,-0.7142857142857142,-5.476190476190476,-321.8253968253968
288.6507936507936,-1.6666666666666665,256.74603174603175,3.73015873015873,325.0,98.01587301587301,304.36507936507934,120.55555555555554,267.38095238095235,-78.4920634920635,325.0,104.84126984126983,258.17460317460313,-35.63492063492063,267.22222222222223,-75.47619047619047,325.0,33.73015873015873,14.84126984126984,174.52380952380952,-168.96825396825395,-0.7142857142857142,-5.476190476190476,-321.8253968253968
288.6507936507936,-1.6666666666666665,256.74603174603175,3.73015873015873,325.0,98.01587301587301,304.36507936507934,120.55555555555554,267.38095238095235,-78.4920634920635,325.0,104.84126984126983,258.17460317460313,-35.63492063492063,267.22222222222223,-75.47619047619047,325.0,33.73015873015873,14.84126984126984,174.52380952380952,-168.96825396825395,-0.7142857142857142,-5.476190476190476,-321.8253968253968
288.6507936507936,-1.6666666666666665,256.74603174603175,3.73015873015873,325.0,98.01587301587301,304.36507936507934,120.55555555555554,267.38095238095235,-78.4920634920635,325.0,104.84126984126983,258.17460317460313,-35.63492063492063,267.22222222222223,-75.47619047619047,325.0,33.73015873015873,14.84126984126984,174.52380952380952,-168.96825396825395,-0.7142857142857142,-5.476190476190476,-321.8253968253968
288.6507936507936,-1.6666666666666665,256.74603174603175,3.73015873015873,325.0,98.01587301587301,304.36507936507934,120.55555555555554,267.38095238095235,-78.4920634920635,325.0,104.84126984126983,258.17460317460313,-35.63492063492063,267.22222222222223,-75.47619047619047,325.0,33.73015873015873,14.84126984126984,174.52380952380952,-168.96825396825395,-0.7142857142857142,-5.476190476190476,-321.8253968253968
-325.0,43.25396825396825,-325.0,2.9365079365079363,-325.0,41.19047619047619,-325.0,124.2063492063492,-325.0,-3.73015873015873,-325.0,130.87301587301587,-325.0,-52.77777777777777,-325.0,-16.587301587301585,-325.0,49.44444444444444,11.666666666666666,38.01587301587301,9.761904761904761,8.174603174603174,6.26984126984127,-321.8253968253968
-325.0,43.25396825396825,-325.0,2.9365079365079363,-325.0,41.19047619047619,-325.0,124.2063492063492,-325.0,-3.73015873015873,-325.0,130.87301587301587,-325.0,-52.77777777777777,-325.0,-16.587301587301585,-325.0,49.44444444444444,11.666666666666666,38.01587301587301,9.761904761904761,8.174603174603174,6.26984126984127,-321.8253968253968
-325.0,43.25396825396825,-325.0,2.9365079365079363,-325.0,41.19047619047619,-325.0,124.2063492063492,-325.0,-3.73015873015873,-325.0,130.87301587301587,-325.0,-52.77777777777777,-325.0,-16.587301587301585,-325.0,49.44444444444444,11.666666666666666,38.01587301587301,9.761904761904761,8.174603174603174,6.26984126984127,-321.8253968253968
-325.0,43.25396825396825,-325.0,2.9365079365079363,-325.0,41.19047619047619,-325.0,124.2063492063492,-325.0,-3.73015873015873,-325.0,130.87301587301587,-325.0,-52.77777777777777,-325.0,-16.587301587301585,-325.0,49.44444444444444,11.666666666666666,38.01587301587301,9.761904761904761,8.174603174603174,6.26984126984127,-321.8253968253968
-0.07936507936507936,-17.698412698412696,-0.07936507936507936,2.46031746031746,-0.07936507936507936,146.26984126984127,-0.07936507936507936,149.9206349206349,-0.07936507936507936,-9.285714285714285,-0.07936507936507936,170.55555555555554,-0.07936507936507936,-63.888888888888886,-0.07936507936507936,-24.047619047619047,-0.07936507936507936,56.74603174603174,10.238095238095237,139.9206349206349,-135.0,2.3015873015873014,2.142857142857143,-166.26984126984127
-0.07936507936507936,-17.698412698412696,-0.07936507936507936,2.46031746031746,-0.07936507936507936,146.26984126984127,-0.07936507936507936,149.9206349206349,-0.07936507936507936,-9.285714285714285,-0.07936507936507936,170.55555555555554,-0.07936507936507936,-63.888888888888886,-0.07936507936507936,-24.047619047619047,-0.07936507936507936,56.74603174603174,10.238095238095237,139.9206349206349,-135.0,2.3015873015873014,2.142857142857143,-166.26984126984127
325.0,-130.3968253968254,325.0,2.142857142857143,325.0,147.38095238095238,325.0,109.44444444444444,325.0,-77.6984126984127,325.0,118.65079365079364,325.0,-128.015873015873,325.0,-91.19047619047619,325.0,-5.952380952380952,8.65079365079365,238.8095238095238,-275.95238095238096,2.46031746031746,5.317460317460317,-166.26984126984127
325.0,-130.3968253968254,325.0,2.142857142857143,325.0,147.38095238095238,325.0,109.44444444444444,325.0,-77.6984126984127,325.0,118.65079365079364,325.0,-128.015873015873,325.0,-91.19047619047619,325.0,-5.952380952380952,8.65079365079365,238.8095238095238,-275.95238095238096,2.46031746031746,5.317460317460317,-166.26984126984127
325.0,-29.76190476190476,325.0,2.3015873015873014,325.0,313.0952380952381,325.0,233.88888888888889,325.0,5.317460317460317,325.0,267.6984126984127,325.0,-69.44444444444444,325.0,-2.619047619047619,325.0,85.0,8.492063492063492,232.3015873015873,-268.3333333333333,-5.952380952380952,-7.222222222222221,-166.26984126984127
325.0,-29.76190476190476,325.0,2.3015873015873014,325.0,313.0952380952381,325.0,233.88888888888889,325.0,5.317460317460317,325.0,267.6984126984127,325.0,-69.44444444444444,325.0,-2.619047619047619,325.0,85.0,8.492063492063492,232.3015873015873,-268.3333333333333,-5.952380952380952,-7.222222222222221,-166.26984126984127
325.0,-155.63492063492063,325.0,2.3015873015873014,325.0,99.44444444444444,325.0,65.15873015873015,325.0,-172.14285714285714,325.0,52.77777777777777,325.0,-153.88888888888889,325.0,-151.34920634920633,325.0,-69.6031746031746,8.492063492063492,229.12698412698413,-265.0,3.253968253968254,0.7142857142857142,-166.26984126984127
325.0,-155.63492063492063,325.0,2.3015873015873014,325.0,99.44444444444444,325.0,65.15873015873015,325.0,-172.14285714285714,325.0,52.77777777777777,325.0,-153.88888888888889,325.0,-151.34920634920633,325.0,-69.6031746031746,8.492063492063492,229.12698412698413,-265.0,3.253968253968254,0.7142857142857142,-166.26984126984127
325.0,17.063492063492063,325.0,2.3015873015873014,325.0,325.0,325.0,277.53968253968253,325.0,29.920634920634917,325.0,321.19047619047615,325.0,-69.92063492063491,325.0,13.412698412698411,325.0,113.25396825396825,6.111111111111111,223.7301587301587,-258.4920634920635,-6.26984126984127,-7.222222222222221,-166.26984126984127
325.0,17.063492063492063,325.0,2.3015873015873014,325.0,325.0,325.0,277.53968253968253,325.0,29.920634920634917,325.0,321.19047619047615,325.0,-69.92063492063491,325.0,13.412698412698411,325.0,113.25396825396825,6.111111111111111,223.7301587301587,-258.4920634920635,-6.26984126984127,-7.222222222222221,-166.26984126984127
325.0,-75.47619047619047,325.0,1.984126984126984,325.0,-1.1904761904761905,325.0,82.3015873015873,325.0,-155.15873015873015,325.0,93.88888888888889,325.0,-181.66666666666666,325.0,-152.3015873015873,325.0,-61.507936507936506,6.904761904761904,219.60317460317458,-253.88888888888889,5.952380952380952,6.746031746031746,-321.8253968253968
325.0,-75.47619047619047,325.0,1.984126984126984,325.0,-1.1904761904761905,325.0,82.3015873015873,325.0,-155.15873015873015,325.0,93.88888888888889,325.0,-181.66666666666666,325.0,-152.3015873015873,325.0,-61.507936507936506,6.904761904761904,219.60317460317458,-253.88888888888889,5.952380952380952,6.746031746031746,-321.8253968253968
325.0,50.238095238095234,325.0,1.984126984126984,325.0,198.17460317460316,325.0,236.1111111111111,325.0,-5.158730158730158,325.0,289.2857142857143,325.0,-88.80952380952381,325.0,-10.396825396825395,325.0,82.61904761904762,8.333333333333332,215.47619047619045,-248.96825396825395,-5.476190476190476,-6.428571428571428,-321.8253968253968
325.0,50.238095238095234,325.0,1.984126984126984,325.0,198.17460317460316,325.0,236.1111111111111,325.0,-5.158730158730158,325.0,289.2857142857143,325.0,-88.80952380952381,325.0,-10.396825396825395,325.0,82.61904761904762,8.333333333333332,215.47619047619045,-248.96825396825395,-5.476190476190476,-6.428571428571428,-321.8253968253968
325.0,-60.39682539682539,325.0,2.142857142857143,325.0,-30.07936507936508,325.0,35.63492063492063,325.0,-186.74603174603175,325.0,44.36507936507936,325.0,-203.88888888888889,325.0,-174.2063492063492,325.0,-99.6031746031746,8.015873015873016,211.8253968253968,-244.36507936507934,6.111111111111111,6.587301587301587,-321.8253968253968
325.0,-60.39682539682539,325.0,2.142857142857143,325.0,-30.07936507936508,325.0,35.63492063492063,325.0,-186.74603174603175,325.0,44.36507936507936,325.0,-203.88888888888889,325.0,-174.2063492063492,325.0,-99.6031746031746,8.015873015873016,211.8253968253968,-244.36507936507934,6.111111111111111,6.587301587301587,-321.8253968253968
325.0,48.49206349206349,323.0952380952381,2.142857142857143,325.0,232.3015873015873,325.0,229.76190476190476,325.0,-6.428571428571428,325.0,284.8412698412698,322.46031746031747,-88.17460317460316,325.0,-6.904761904761904,325.0,77.85714285714285,7.857142857142857,207.85714285714283,-239.76190476190476,-6.587301587301587,-8.333333333333332,-321.8253968253968
325.0,48.49206349206349,323.0952380952381,2.142857142857143,325.0,232.3015873015873,325.0,229.76190476190476,325.0,-6.428571428571428,325.0,284.8412698412698,322.46031746031747,-88.17460317460316,325.0,-6.904761904761904,325.0,77.85714285714285,7.857142857142857,207.85714285714283,-239.76190476190476,-6.587301587301587,-8.333333333333332,-321.8253968253968
325.0,-45.15873015873016,318.8095238095238,2.142857142857143,325.0,-15.95238095238095,325.0,53.73015873015873,325.0,-178.65079365079364,325.0,53.73015873015873,318.015873015873,-173.09523809523807,323.0952380952381,-157.85714285714286,325.0,-79.12698412698413,7.857142857142857,205.0,-236.58730158730157,3.73015873015873,2.46031746031746,-321.8253968253968
325.0,-45.15873015873016,318.8095238095238,2.142857142857143,325.0,-15.95238095238095,325.0,53.73015873015873,325.0,-178.65079365079364,325.0,53.73015873015873,318.015873015873,-173.09523809523807,323.0952380952381,-157.85714285714286,325.0,-79.12698412698413,7.857142857142857,205.0,-236.58730158730157,3.73015873015873,2.46031746031746,-321.8253968253968
325.0,18.015873015873016,314.5238095238095,2.142857142857143,325.0,127.22222222222221,325.0,145.95238095238093,325.0,-92.46031746031746,325.0,167.69841269841268,313.88888888888886,-112.93650793650794,318.8095238095238,-79.12698412698413,325.0,2.7777777777777777,7.698412698412698,202.3015873015873,-233.25396825396825,-2.619047619047619,-5.0,-166.26984126984127
325.0,18.015873015873016,314.5238095238095,2.142857142857143,325.0,127.22222222222221,325.0,145.95238095238093,325.0,-92.46031746031746,325.0,167.69841269841268,313.88888888888886,-112.93650793650794,318.8095238095238,-79.12698412698413,325.0,2.7777777777777777,7.698412698412698,202.3015873015873,-233.25396825396825,-2.619047619047619,-5.0,-166.26984126984127
325.0,31.03174603174603,306.1111111111111,1.984126984126984,325.0,-16.11111111111111,325.0,42.77777777777778,321.19047619047615,-166.74603174603175,325.0,42.3015873015873,305.6349206349206,-170.55555555555554,310.55555555555554,-157.2222222222222,325.0,-95.15873015873015,7.5396825396825395,196.9047619047619,-226.74603174603175,5.317460317460317,7.222222222222221,-166.26984126984127
325.0,31.03174603174603,306.1111111111111,1.984126984126984,325.0,-16.11111111111111,325.0,42.77777777777778,321.19047619047615,-166.74603174603175,325.0,42.3015873015873,305.6349206349206,-170.55555555555554,310.55555555555554,-157.2222222222222,325.0,-95.15873015873015,7.5396825396825395,196.9047619047619,-226.74603174603175,5.317460317460317,7.222222222222221,-166.26984126984127
325.0,71.34920634920634,299.1269841269841,2.142857142857143,325.0,142.14285714285714,325.0,138.8095238095238,314.36507936507934,-76.42857142857143,325.0,169.76190476190476,298.8095238095238,-109.6031746031746,303.88888888888886,-73.09523809523809,325.0,-8.65079365079365,7.5396825396825395,192.3015873015873,-221.5079365079365,-0.5555555555555556,-0.23809523809523808,-166.26984126984127
325.0,71.34920634920634,299.1269841269841,2.142857142857143,325.0,142.14285714285714,325.0,138.8095238095238,314.36507936507934,-76.42857142857143,325.0,169.76190476190476,298.8095238095238,-109.6031746031746,303.88888888888886,-73.09523809523809,325.0,-8.65079365079365,7.5396825396825395,192.3015873015873,-221.5079365079365,-0.5555555555555556,-0.23809523809523808,-166.26984126984127
325.0,73.88888888888889,293.88888888888886,1.984126984126984,325.0,167.2222222222222,323.25396825396825,151.03174603174602,308.968253968254,-60.71428571428571,325.0,183.7301587301587,293.4126984126984,-99.6031746031746,298.8095238095238,-60.55555555555555,325.0,3.253968253968254,7.3809523809523805,188.8095238095238,-217.38095238095238,-0.3968253968253968,-0.7142857142857142,-166.26984126984127
325.0,73.88888888888889,293.88888888888886,1.984126984126984,325.0,167.2222222222222,323.25396825396825,151.03174603174602,308.968253968254,-60.71428571428571,325.0,183.7301587301587,293.4126984126984,-99.6031746031746,298.8095238095238,-60.55555555555555,325.0,3.253968253968254,7.3809523809523805,188.8095238095238,-217.38095238095238,-0.3968253968253968,-0.7142857142857142,-166.26984126984127
322.9365079365079,71.82539682539682,288.8095238095238,1.8253968253968254,325.0,156.42857142857142,318.6507936507936,153.88888888888889,303.57142857142856,-59.92063492063492,325.0,182.77777777777777,288.3333333333333,-106.26984126984127,293.73015873015873,-60.71428571428571,325.0,0.873015873015873,7.222222222222221,185.47619047619045,-213.4126984126984,0.07936507936507936,-0.7142857142857142,-166.26984126984127
322.9365079365079,71.82539682539682,288.8095238095238,1.8253968253968254,325.0,156.42857142857142,318.6507936507936,153.88888888888889,303.57142857142856,-59.92063492063492,325.0,182.77777777777777,288.3333333333333,-106.26984126984127,293.73015873015873,-60.71428571428571,325.0,0.873015873015873,7.222222222222221,185.47619047619045,-213.4126984126984,0.07936507936507936,-0.7142857142857142,-166.26984126984127
318.17460317460313,70.39682539682539,283.4126984126984,2.142857142857143,325.0,22.619047619047617,313.25396825396825,50.87301587301587,298.3333333333333,-140.7142857142857,325.0,64.36507936507937,283.0952380952381,-174.68253968253967,288.4920634920635,-141.19047619047618,325.0,-96.1111111111111,7.222222222222221,182.14285714285714,-209.28571428571428,7.5396825396825395,11.666666666666666,-321.8253968253968
318.17460317460313,70.39682539682539,283.4126984126984,2.142857142857143,325.0,22.619047619047617,313.25396825396825,50.87301587301587,298.3333333333333,-140.7142857142857,325.0,64.36507936507937,283.0952380952381,-174.68253968253967,288.4920634920635,-141.19047619047618,325.0,-96.1111111111111,7.222222222222221,182.14285714285714,-209.28571428571428,7.5396825396825395,11.666666666666666,-321.8253968253968
311.031746031746,68.65079365079364,277.38095238095235,2.142857142857143,321.984126984127,125.95238095238095,306.4285714285714,135.47619047619048,291.8253968253968,-93.25396825396825,325.0,158.96825396825395,277.06349206349205,-93.09523809523809,282.46031746031747,-77.38095238095238,325.0,-11.984126984126984,7.063492063492063,178.17460317460316,-204.84126984126982,-1.507936507936508,-5.0,-321.8253968253968
311.031746031746,68.65079365079364,277.38095238095235,2.142857142857143,321.984126984127,125.95238095238095,306.4285714285714,135.47619047619048,291.8253968253968,-93.25396825396825,325.0,158.96825396825395,277.06349206349205,-93.09523809523809,282.46031746031747,-77.38095238095238,325.0,-11.984126984126984,7.063492063492063,178.17460317460316,-204.84126984126982,-1.507936507936508,-5.0,-321.8253968253968
306.90476190476187,67.53968253968253,273.57142857142856,1.984126984126984,318.015873015873,-26.746031746031743,302.46031746031747,59.44444444444444,287.6984126984127,-127.22222222222221,325.0,69.76190476190476,273.57142857142856,-155.47619047619048,278.6507936507936,-125.47619047619047,325.0,-81.19047619047619,6.904761904761904,175.79365079365078,-201.66666666666666,6.587301587301587,10.873015873015872,-321.8253968253968
306.90476190476187,67.53968253968253,273.57142857142856,1.984126984126984,318.015873015873,-26.746031746031743,302.46031746031747,59.44444444444444,287.6984126984127,-127.22222222222221,325.0,69.76190476190476,273.57142857142856,-155.47619047619048,278.6507936507936,-125.47619047619047,325.0,-81.19047619047619,6.904761904761904,175.79365079365078,-201.66666666666666,6.587301587301587,10.873015873015872,-321.8253968253968
299.76190476190476,65.79365079365078,267.38095238095235,1.8253968253968254,311.5079365079365,95.0,295.6349206349206,125.79365079365078,281.8253968253968,-109.28571428571428,320.23809523809524,141.03174603174602,267.22222222222223,-92.77777777777777,272.77777777777777,-84.84126984126983,325.0,-29.285714285714285,6.746031746031746,171.8253968253968,-197.2222222222222,-0.7142857142857142,-4.523809523809524,-321.8253968253968
299.76190476190476,65.79365079365078,267.38095238095235,1.8253968253968254,311.5079365079365,95.0,295.6349206349206,125.79365079365078,281.8253968253968,-109.28571428571428,320.23809523809524,141.03174603174602,267.22222222222223,-92.77777777777777,272.77777777777777,-84.84126984126983,325.0,-29.285714285714285,6.746031746031746,171.8253968253968,-197.2222222222222,-0.7142857142857142,-4.523809523809524,-321.8253968253968
295.95238095238096,64.84126984126983,264.04761904761904,1.8253968253968254,307.22222222222223,24.68253968253968,291.66666666666663,55.317460317460316,278.17460317460313,-134.52380952380952,316.26984126984127,61.82539682539682,263.73015873015873,-150.55555555555554,269.1269841269841,-125.15873015873015,322.9365079365079,-95.15873015873015,6.904761904761904,169.28571428571428,-194.2063492063492,6.904761904761904,9.920634920634921,-321.8253968253968
295.95238095238096,64.84126984126983,264.04761904761904,1.8253968253968254,307.22222222222223,24.68253968253968,291.66666666666663,55.317460317460316,278.17460317460313,-134.52380952380952,316.26984126984127,61.82539682539682,263.73015873015873,-150.55555555555554,269.1269841269841,-125.15873015873015,322.9365079365079,-95.15873015873015,6.904761904761904,169.28571428571428,-194.2063492063492,6.904761904761904,9.920634920634921,-321.8253968253968
289.1269841269841,63.095238095238095,258.015873015873,1.8253968253968254,301.031746031746,210.07936507936506,285.4761904761905,146.42857142857142,271.984126984127,-79.28571428571428,309.6031746031746,152.61904761904762,257.85714285714283,-75.63492063492063,263.25396825396825,-60.238095238095234,315.7936507936508,-3.4126984126984126,6.587301587301587,165.3174603174603,-189.9206349206349,-1.1904761904761905,-4.523809523809524,-166.26984126984127
289.1269841269841,63.095238095238095,258.015873015873,1.8253968253968254,301.031746031746,210.07936507936506,285.4761904761905,146.42857142857142,271.984126984127,-79.28571428571428,309.6031746031746,152.61904761904762,257.85714285714283,-75.63492063492063,263.25396825396825,-60.238095238095234,315.7936507936508,-3.4126984126984126,6.587301587301587,165.3174603174603,-189.9206349206349,-1.1904761904761905,-4.523809523809524,-166.26984126984127
284.04761904761904,61.98412698412698,253.25396825396825,1.984126984126984,295.7936507936508,221.98412698412696,280.39682539682536,164.04761904761904,267.38095238095235,-24.68253968253968,304.36507936507934,185.3174603174603,253.4126984126984,-78.80952380952381,258.6507936507936,-30.71428571428571,310.55555555555554,22.777777777777775,6.587301587301587,162.61904761904762,-186.58730158730157,0.3968253968253968,2.46031746031746,-166.26984126984127
284.04761904761904,61.98412698412698,253.25396825396825,1.984126984126984,295.7936507936508,221.98412698412696,280.39682539682536,164.04761904761904,267.38095238095235,-24.68253968253968,304.36507936507934,185.3174603174603,253.4126984126984,-78.80952380952381,258.6507936507936,-30.71428571428571,310.55555555555554,22.777777777777775,6.587301587301587,162.61904761904762,-186.58730158730157,0.3968253968253968,2.46031746031746,-166.26984126984127
278.968253968254,60.71428571428571,248.65079365079364,1.8253968253968254,291.031746031746,223.09523809523807,275.7936507936508,131.984126984127,262.6190476190476,-81.66666666666666,299.2857142857143,140.07936507936506,248.8095238095238,-70.87301587301587,254.2063492063492,-67.6984126984127,305.3174603174603,-3.4126984126984126,6.428571428571428,159.76190476190476,-183.25396825396825,-0.3968253968253968,-4.0476190476190474,-166.26984126984127
278.968253968254,60.71428571428571,248.65079365079364,1.8253968253968254,291.031746031746,223.09523809523807,275.7936507936508,131.984126984127,262.6190476190476,-81.66666666666666,299.2857142857143,140.07936507936506,248.8095238095238,-70.87301587301587,254.2063492063492,-67.6984126984127,305.3174603174603,-3.4126984126984126,6.428571428571428,159.76190476190476,-183.25396825396825,-0.3968253968253968,-4.0476190476190474,-166.26984126984127
271.5079365079365,58.96825396825397,242.14285714285714,1.8253968253968254,284.04761904761904,325.0,268.4920634920635,208.4920634920635,255.79365079365078,-2.9365079365079363,291.8253968253968,247.53968253968253,242.46031746031744,-48.17460317460317,247.69841269841268,5.0,297.53968253968253,51.34920634920635,6.428571428571428,155.63492063492063,-178.015873015873,-5.952380952380952,-8.492063492063492,-166.26984126984127
271.5079365079365,58.96825396825397,242.14285714285714,1.8253968253968254,284.04761904761904,325.0,268.4920634920635,208.4920634920635,255.79365079365078,-2.9365079365079363,291.8253968253968,247.53968253968253,242.46031746031744,-48.17460317460317,247.69841269841268,5.0,297.53968253968253,51.34920634920635,6.428571428571428,155.63492063492063,-178.015873015873,-5.952380952380952,-8.492063492063492,-166.26984126984127
267.6984126984127,33.888888888888886,238.96825396825395,1.507936507936508,280.7142857142857,124.04761904761904,265.0,10.238095238095237,252.46031746031744,-192.93650793650792,288.3333333333333,-13.73015873015873,239.12698412698413,-155.15873015873015,244.52380952380952,-164.52380952380952,293.73015873015873,-130.87301587301587,6.111111111111111,153.4126984126984,-175.63492063492063,5.158730158730158,4.2063492063492065,-166.26984126984127
267.6984126984127,33.888888888888886,238.96825396825395,1.507936507936508,280.7142857142857,124.04761904761904,265.0,10.238095238095237,252.46031746031744,-192.93650793650792,288.3333333333333,-13.73015873015873,239.12698412698413,-155.15873015873015,244.52380952380952,-164.52380952380952,293.73015873015873,-130.87301587301587,6.111111111111111,153.4126984126984,-175.63492063492063,5.158730158730158,4.2063492063492065,-166.26984126984127
261.8253968253968,45.79365079365079,234.84126984126982,1.6666666666666665,269.1269841269841,224.52380952380952,260.55555555555554,96.74603174603175,235.47619047619045,-115.63492063492063,246.1111111111111,94.36507936507935,235.95238095238093,-101.66666666666666,238.65079365079364,-89.44444444444444,240.55555555555554,-51.98412698412698,6.111111111111111,151.34920634920633,-173.25396825396825,0.3968253968253968,-2.9365079365079363,-321.8253968253968
261.8253968253968,45.79365079365079,234.84126984126982,1.6666666666666665,269.1269841269841,224.52380952380952,260.55555555555554,96.74603174603175,235.47619047619045,-115.63492063492063,246.1111111111111,94.36507936507935,235.95238095238093,-101.66666666666666,238.65079365079364,-89.44444444444444,240.55555555555554,-51.98412698412698,6.111111111111111,151.34920634920633,-173.25396825396825,0.3968253968253968,-2.9365079365079363,-321.8253968253968
256.90476190476187,3.571428571428571,229.28571428571428,1.507936507936508,268.8095238095238,114.84126984126983,254.68253968253967,3.253968253968254,241.19047619047618,-175.79365079365078,271.8253968253968,-3.253968253968254,229.76190476190476,-155.79365079365078,234.84126984126982,-149.9206349206349,277.06349206349205,-131.8253968253968,6.111111111111111,147.06349206349205,-168.33333333333331,4.682539682539682,6.111111111111111,-321.8253968253968
256.90476190476187,3.571428571428571,229.28571428571428,1.507936507936508,268.8095238095238,114.84126984126983,254.68253968253967,3.253968253968254,241.19047619047618,-175.79365079365078,271.8253968253968,-3.253968253968254,229.76190476190476,-155.79365079365078,234.84126984126982,-149.9206349206349,277.06349206349205,-131.8253968253968,6.111111111111111,147.06349206349205,-168.33333333333331,4.682539682539682,6.111111111111111,-321.8253968253968
253.88888888888889,29.920634920634917,226.42857142857142,1.507936507936508,267.53968253968253,226.74603174603175,251.5079365079365,90.39682539682539,240.7142857142857,-104.04761904761904,277.38095238095235,109.12698412698413,226.58730158730157,-113.88888888888889,232.46031746031744,-84.52380952380952,283.57142857142856,-49.76190476190476,5.952380952380952,145.3174603174603,-166.11111111111111,-0.7142857142857142,-0.23809523809523808,-321.8253968253968
253.88888888888889,29.920634920634917,226.42857142857142,1.507936507936508,267.53968253968253,226.74603174603175,251.5079365079365,90.39682539682539,240.7142857142857,-104.04761904761904,277.38095238095235,109.12698412698413,226.58730158730157,-113.88888888888889,232.46031746031744,-84.52380952380952,283.57142857142856,-49.76190476190476,5.952380952380952,145.3174603174603,-166.11111111111111,-0.7142857142857142,-0.23809523809523808,-321.8253968253968
248.33333333333331,14.84126984126984,221.66666666666666,1.6666666666666665,261.5079365079365,120.23809523809523,246.26984126984127,-6.904761904761904,235.3174603174603,-189.9206349206349,270.55555555555554,-18.96825396825397,221.8253968253968,-195.63492063492063,227.38095238095238,-169.28571428571428,275.6349206349206,-134.52380952380952,5.7936507936507935,142.14285714285714,-162.14285714285714,5.952380952380952,7.5396825396825395,-321.8253968253968
248.33333333333331,14.84126984126984,221.66666666666666,1.6666666666666665,261.5079365079365,120.23809523809523,246.26984126984127,-6.904761904761904,235.3174603174603,-189.9206349206349,270.55555555555554,-18.96825396825397,221.8253968253968,-195.63492063492063,227.38095238095238,-169.28571428571428,275.6349206349206,-134.52380952380952,5.7936507936507935,142.14285714285714,-162.14285714285714,5.952380952380952,7.5396825396825395,-321.8253968253968
245.15873015873015,37.698412698412696,218.65079365079364,1.6666666666666665,258.3333333333333,235.63492063492063,243.25396825396825,103.4126984126984,232.14285714285714,-96.9047619047619,267.38095238095235,108.01587301587301,218.8095238095238,-126.74603174603173,224.36507936507934,-75.15873015873015,271.984126984127,-40.079365079365076,5.7936507936507935,140.3968253968254,-159.9206349206349,0.07936507936507936,-0.3968253968253968,-321.8253968253968
245.15873015873015,37.698412698412696,218.65079365079364,1.6666666666666665,258.3333333333333,235.63492063492063,243.25396825396825,103.4126984126984,232.14285714285714,-96.9047619047619,267.38095238095235,108.01587301587301,218.8095238095238,-126.74603174603173,224.36507936507934,-75.15873015873015,271.984126984127,-40.079365079365076,5.7936507936507935,140.3968253968254,-159.9206349206349,0.07936507936507936,-0.3968253968253968,-321.8253968253968
239.76190476190476,4.0476190476190474,213.88888888888889,1.6666666666666665,253.25396825396825,153.88888888888889,238.015873015873,41.19047619047619,227.2222222222222,-147.53968253968253,261.66666666666663,21.507936507936506,214.2063492063492,-155.95238095238093,219.9206349206349,-119.28571428571428,266.26984126984127,-98.01587301587301,5.7936507936507935,137.53968253968253,-156.26984126984127,5.317460317460317,6.587301587301587,-166.26984126984127
239.76190476190476,4.0476190476190474,213.88888888888889,1.6666666666666665,253.25396825396825,153.88888888888889,238.015873015873,41.19047619047619,227.2222222222222,-147.53968253968253,261.66666666666663,21.507936507936506,214.2063492063492,-155.95238095238093,219.9206349206349,-119.28571428571428,266.26984126984127,-98.01587301587301,5.7936507936507935,137.53968253968253,-156.26984126984127,5.317460317460317,6.587301587301587,-166.26984126984127
-191.98412698412696,46.904761904761905,-190.07936507936506,1.6666666666666665,-184.04761904761904,306.26984126984127,-187.53968253968253,178.65079365079364,-215.79365079365078,-19.126984126984127,-204.84126984126982,197.53968253968253,-193.57142857142856,-58.01587301587301,-214.84126984126982,4.682539682539682,-221.98412698412696,39.285714285714285,5.7936507936507935,-220.3968253968254,177.2222222222222,6.746031746031746,-2.619047619047619,-166.26984126984127
-191.98412698412696,46.904761904761905,-190.07936507936506,1.6666666666666665,-184.04761904761904,306.26984126984127,-187.53968253968253,178.65079365079364,-215.79365079365078,-19.126984126984127,-204.84126984126982,197.53968253968253,-193.57142857142856,-58.01587301587301,-214.84126984126982,4.682539682539682,-221.98412698412696,39.285714285714285,5.7936507936507935,-220.3968253968254,177.2222222222222,6.746031746031746,-2.619047619047619,-166.26984126984127
-325.0,-16.904761904761905,-325.0,1.6666666666666665,-325.0,50.71428571428571,-325.0,-29.920634920634917,-325.0,-170.7142857142857,-325.0,-63.095238095238095,-325.0,-146.26984126984127,-325.0,-131.5079365079365,-325.0,-133.25396825396825,5.476190476190476,-325.0,325.0,8.492063492063492,8.333333333333332,-166.26984126984127
-325.0,-16.904761904761905,-325.0,1.6666666666666665,-325.0,50.71428571428571,-325.0,-29.920634920634917,-325.0,-170.7142857142857,-325.0,-63.095238095238095,-325.0,-146.26984126984127,-325.0,-131.5079365079365,-325.0,-133.25396825396825,5.476190476190476,-325.0,325.0,8.492063492063492,8.333333333333332,-166.26984126984127
-325.0,45.317460317460316,-325.0,1.507936507936508,-325.0,163.09523809523807,-325.0,66.26984126984127,-325.0,-74.36507936507937,-325.0,50.71428571428571,-325.0,-76.26984126984127,-325.0,-36.269841269841265,-325.0,-44.047619047619044,5.476190476190476,-325.0,325.0,-2.142857142857143,-1.349206349206349,-166.26984126984127
-325.0,45.317460317460316,-325.0,1.507936507936508,-325.0,163.09523809523807,-325.0,66.26984126984127,-325.0,-74.36507936507937,-325.0,50.71428571428571,-325.0,-76.26984126984127,-325.0,-36.269841269841265,-325.0,-44.047619047619044,5.476190476190476,-325.0,325.0,-2.142857142857143,-1.349206349206349,-166.26984126984127
-325.0,39.6031746031746,-325.0,1.6666666666666665,-325.0,9.285714285714285,-325.0,-25.79365079365079,-325.0,-134.52380952380952,-325.0,-54.2063492063492,-325.0,-144.68253968253967,-325.0,-99.76190476190476,-325.0,-125.63492063492063,5.634920634920634,-325.0,325.0,3.095238095238095,8.333333333333332,-166.26984126984127
-325.0,39.6031746031746,-325.0,1.6666666666666665,-325.0,9.285714285714285,-325.0,-25.79365079365079,-325.0,-134.52380952380952,-325.0,-54.2063492063492,-325.0,-144.68253968253967,-325.0,-99.76190476190476,-325.0,-125.63492063492063,5.634920634920634,-325.0,325.0,3.095238095238095,8.333333333333332,-166.26984126984127
-325.0,19.444444444444443,-325.0,1.507936507936508,-325.0,-46.904761904761905,-325.0,-60.55555555555555,-325.0,-173.73015873015873,-325.0,-95.0,-325.0,-131.8253968253968,-325.0,-126.42857142857142,-325.0,-154.04761904761904,5.476190476190476,-325.0,325.0,4.523809523809524,7.063492063492063,-321.8253968253968
-325.0,19.444444444444443,-325.0,1.507936507936508,-325.0,-46.904761904761905,-325.0,-60.55555555555555,-325.0,-173.73015873015873,-325.0,-95.0,-325.0,-131.8253968253968,-325.0,-126.42857142857142,-325.0,-154.04761904761904,5.476190476190476,-325.0,325.0,4.523809523809524,7.063492063492063,-321.8253968253968
-325.0,28.174603174603174,-325.0,1.507936507936508,-325.0,83.09523809523809,-325.0,44.047619047619044,-325.0,-62.460317460317455,-325.0,40.079365079365076,-325.0,-57.698412698412696,-325.0,-24.206349206349206,-325.0,-63.57142857142857,5.158730158730158,-325.0,325.0,-2.142857142857143,1.0317460317460316,-321.8253968253968
-325.0,28.174603174603174,-325.0,1.507936507936508,-325.0,83.09523809523809,-325.0,44.047619047619044,-325.0,-62.460317460317455,-325.0,40.079365079365076,-325.0,-57.698412698412696,-325.0,-24.206349206349206,-325.0,-63.57142857142857,5.158730158730158,-325.0,325.0,-2.142857142857143,1.0317460317460316,-321.8253968253968
-325.0,19.92063492063492,-325.0,1.507936507936508,-325.0,30.87301587301587,-325.0,3.4126984126984126,-325.0,-111.82539682539682,-325.0,-13.095238095238095,-325.0,-71.03174603174602,-325.0,-61.82539682539682,-325.0,-104.2063492063492,5.158730158730158,-325.0,325.0,-1.1904761904761905,-1.1904761904761905,-321.8253968253968
-325.0,19.92063492063492,-325.0,1.507936507936508,-325.0,30.87301587301587,-325.0,3.4126984126984126,-325.0,-111.82539682539682,-325.0,-13.095238095238095,-325.0,-71.03174603174602,-325.0,-61.82539682539682,-325.0,-104.2063492063492,5.158730158730158,-325.0,325.0,-1.1904761904761905,-1.1904761904761905,-321.8253968253968
-325.0,21.984126984126984,-325.0,1.6666666666666665,-325.0,41.34920634920635,-325.0,27.857142857142854,-325.0,-69.44444444444444,-325.0,10.714285714285714,-325.0,-62.14285714285714,-325.0,-34.52380952380952,-325.0,-83.25396825396825,5.0,-325.0,325.0,-2.9365079365079363,-0.07936507936507936,-321.8253968253968
-325.0,21.984126984126984,-325.0,1.6666666666666665,-325.0,41.34920634920635,-325.0,27.857142857142854,-325.0,-69.44444444444444,-325.0,10.714285714285714,-325.0,-62.14285714285714,-325.0,-34.52380952380952,-325.0,-83.25396825396825,5.0,-325.0,325.0,-2.9365079365079363,-0.07936507936507936,-321.8253968253968
-325.0,45.476190476190474,-325.0,1.507936507936508,-325.0,-31.349206349206348,-325.0,3.73015873015873,-325.0,-117.6984126984127,-325.0,-34.52380952380952,-325.0,-67.38095238095238,-325.0,-75.63492063492063,-325.0,-97.6984126984127,5.0,-325.0,325.0,-2.619047619047619,-3.73015873015873,-321.8253968253968
-325.0,45.476190476190474,-325.0,1.507936507936508,-325.0,-31.349206349206348,-325.0,3.73015873015873,-325.0,-117.6984126984127,-325.0,-34.52380952380952,-325.0,-67.38095238095238,-325.0,-75.63492063492063,-325.0,-97.6984126984127,5.0,-325.0,325.0,-2.619047619047619,-3.73015873015873,-321.8253968253968
-325.0,40.39682539682539,-325.0,1.507936507936508,-325.0,-146.42857142857142,-325.0,-75.63492063492063,-325.0,-183.7301587301587,-325.0,-126.58730158730158,-325.0,-120.23809523809523,-325.0,-142.46031746031744,-325.0,-169.12698412698413,5.158730158730158,-325.0,325.0,3.4126984126984126,4.2063492063492065,-166.26984126984127
-325.0,40.39682539682539,-325.0,1.507936507936508,-325.0,-146.42857142857142,-325.0,-75.63492063492063,-325.0,-183.7301587301587,-325.0,-126.58730158730158,-325.0,-120.23809523809523,-325.0,-142.46031746031744,-325.0,-169.12698412698413,5.158730158730158,-325.0,325.0,3.4126984126984126,4.2063492063492065,-166.26984126984127
246.42857142857142,37.38095238095238,151.984126984127,1.507936507936508,235.79365079365078,-70.55555555555556,280.87301587301585,14.047619047619047,5.158730158730158,-139.12698412698413,94.36507936507935,-24.365079365079364,166.74603174603175,-91.34920634920634,254.52380952380952,-96.9047619047619,26.26984126984127,-102.61904761904762,4.841269841269841,325.0,-22.619047619047617,-1.1904761904761905,-3.571428571428571,-166.26984126984127
246.42857142857142,37.38095238095238,151.984126984127,1.507936507936508,235.79365079365078,-70.55555555555556,280.87301587301585,14.047619047619047,5.158730158730158,-139.12698412698413,94.36507936507935,-24.365079365079364,166.74603174603175,-91.34920634920634,254.52380952380952,-96.9047619047619,26.26984126984127,-102.61904761904762,4.841269841269841,325.0,-22.619047619047617,-1.1904761904761905,-3.571428571428571,-166.26984126984127
-78.65079365079364,36.42857142857142,-166.42857142857142,1.6666666666666665,-89.28571428571428,70.07936507936508,-44.2063492063492,45.0,-255.79365079365078,-98.17460317460316,-178.4920634920635,20.07936507936508,-158.33333333333331,-80.55555555555556,-70.55555555555556,-60.55555555555555,-231.03174603174602,-82.46031746031746,4.841269841269841,99.6031746031746,151.03174603174602,3.4126984126984126,1.0317460317460316,-166.26984126984127
-78.65079365079364,36.42857142857142,-166.42857142857142,1.6666666666666665,-89.28571428571428,70.07936507936508,-44.2063492063492,45.0,-255.79365079365078,-98.17460317460316,-178.4920634920635,20.07936507936508,-158.33333333333331,-80.55555555555556,-70.55555555555556,-60.55555555555555,-231.03174603174602,-82.46031746031746,4.841269841269841,99.6031746031746,151.03174603174602,3.4126984126984126,1.0317460317460316,-166.26984126984127
-147.85714285714286,41.666666666666664,-307.53968253968253,1.507936507936508,-170.23809523809524,124.68253968253967,-48.96825396825397,9.920634920634921,-325.0,-144.84126984126982,-325.0,-28.65079365079365,-243.4126984126984,-100.39682539682539,-188.015873015873,-98.80952380952381,-325.0,-113.88888888888889,4.682539682539682,277.6984126984127,121.03174603174602,-3.095238095238095,-4.365079365079365,-166.26984126984127
-147.85714285714286,41.666666666666664,-307.53968253968253,1.507936507936508,-170.23809523809524,124.68253968253967,-48.96825396825397,9.920634920634921,-325.0,-144.84126984126982,-325.0,-28.65079365079365,-243.4126984126984,-100.39682539682539,-188.015873015873,-98.80952380952381,-325.0,-113.88888888888889,4.682539682539682,277.6984126984127,121.03174603174602,-3.095238095238095,-4.365079365079365,-166.26984126984127
45.15873015873016,43.888888888888886,16.11111111111111,1.507936507936508,108.17460317460316,197.53968253968253,261.1904761904762,122.6190476190476,-183.88888888888889,-35.79365079365079,-242.3015873015873,114.84126984126983,136.74603174603175,-48.17460317460317,84.36507936507937,-5.476190476190476,-264.5238095238095,-6.26984126984127,4.682539682539682,287.85714285714283,-85.31746031746032,-10.079365079365079,-10.873015873015872,-166.26984126984127
45.15873015873016,43.888888888888886,16.11111111111111,1.507936507936508,108.17460317460316,197.53968253968253,261.1904761904762,122.6190476190476,-183.88888888888889,-35.79365079365079,-242.3015873015873,114.84126984126983,136.74603174603175,-48.17460317460317,84.36507936507937,-5.476190476190476,-264.5238095238095,-6.26984126984127,4.682539682539682,287.85714285714283,-85.31746031746032,-10.079365079365079,-10.873015873015872,-166.26984126984127
299.4444444444444,28.49206349206349,131.34920634920636,1.349206349206349,283.57142857142856,-108.65079365079364,321.19047619047615,-53.57142857142857,12.777777777777777,-183.25396825396825,173.4126984126984,-95.0,178.96825396825395,-161.8253968253968,278.6507936507936,-146.9047619047619,77.06349206349206,-171.03174603174602,4.523809523809524,325.0,-85.95238095238095,3.4126984126984126,6.428571428571428,-321.8253968253968
299.4444444444444,28.49206349206349,131.34920634920636,1.349206349206349,283.57142857142856,-108.65079365079364,321.19047619047615,-53.57142857142857,12.777777777777777,-183.25396825396825,173.4126984126984,-95.0,178.96825396825395,-161.8253968253968,278.6507936507936,-146.9047619047619,77.06349206349206,-171.03174603174602,4.523809523809524,325.0,-85.95238095238095,3.4126984126984126,6.428571428571428,-321.8253968253968
325.0,38.80952380952381,258.4920634920635,1.349206349206349,325.0,46.58730158730158,325.0,40.39682539682539,151.8253968253968,-108.33333333333333,200.3968253968254,16.11111111111111,291.031746031746,-99.92063492063491,292.6190476190476,-74.04761904761904,94.52380952380952,-86.58730158730158,4.365079365079365,325.0,-194.84126984126982,0.23809523809523808,0.3968253968253968,-321.8253968253968
325.0,38.80952380952381,258.4920634920635,1.349206349206349,325.0,46.58730158730158,325.0,40.39682539682539,151.8253968253968,-108.33333333333333,200.3968253968254,16.11111111111111,291.031746031746,-99.92063492063491,292.6190476190476,-74.04761904761904,94.52380952380952,-86.58730158730158,4.365079365079365,325.0,-194.84126984126982,0.23809523809523808,0.3968253968253968,-321.8253968253968
306.1111111111111,26.587301587301585,257.06349206349205,1.349206349206349,302.77777777777777,-53.41269841269841,311.19047619047615,-15.0,239.76190476190476,-150.7142857142857,265.4761904761905,-53.095238095238095,271.19047619047615,-138.65079365079364,283.73015873015873,-123.4126984126984,275.6349206349206,-136.9047619047619,4.365079365079365,325.0,-251.98412698412696,4.2063492063492065,7.3809523809523805,-321.8253968253968
306.1111111111111,26.587301587301585,257.06349206349205,1.349206349206349,302.77777777777777,-53.41269841269841,311.19047619047615,-15.0,239.76190476190476,-150.7142857142857,265.4761904761905,-53.095238095238095,271.19047619047615,-138.65079365079364,283.73015873015873,-123.4126984126984,275.6349206349206,-136.9047619047619,4.365079365079365,325.0,-251.98412698412696,4.2063492063492065,7.3809523809523805,-321.8253968253968
325.0,40.87301587301587,325.0,1.349206349206349,325.0,111.5079365079365,325.0,170.3968253968254,325.0,-12.3015873015873,325.0,168.4920634920635,325.0,-40.714285714285715,325.0,8.492063492063492,325.0,18.015873015873016,4.523809523809524,325.0,-325.0,-6.904761904761904,-9.444444444444445,-321.8253968253968
325.0,40.87301587301587,325.0,1.349206349206349,325.0,111.5079365079365,325.0,170.3968253968254,325.0,-12.3015873015873,325.0,168.4920634920635,325.0,-40.714285714285715,325.0,8.492063492063492,325.0,18.015873015873016,4.523809523809524,325.0,-325.0,-6.904761904761904,-9.444444444444445,-321.8253968253968
325.0,-4.365079365079365,325.0,1.1904761904761905,325.0,-173.57142857142856,325.0,-36.269841269841265,325.0,-196.11111111111111,325.0,-90.23809523809523,325.0,-169.28571428571428,325.0,-168.33333333333331,325.0,-164.68253968253967,4.2063492063492065,325.0,-325.0,7.857142857142857,8.333333333333332,-321.8253968253968
325.0,-4.365079365079365,325.0,1.1904761904761905,325.0,-173.57142857142856,325.0,-36.269841269841265,325.0,-196.11111111111111,325.0,-90.23809523809523,325.0,-169.28571428571428,325.0,-168.33333333333331,325.0,-164.68253968253967,4.2063492063492065,325.0,-325.0,7.857142857142857,8.333333333333332,-321.8253968253968
325.0,16.587301587301585,325.0,1.349206349206349,325.0,-42.61904761904761,325.0,39.92063492063492,325.0,-133.25396825396825,325.0,4.523809523809524,325.0,-124.52380952380952,325.0,-107.22222222222221,325.0,-90.07936507936508,4.2063492063492065,325.0,-325.0,2.3015873015873014,0.23809523809523808,-166.26984126984127
325.0,16.587301587301585,325.0,1.349206349206349,325.0,-42.61904761904761,325.0,39.92063492063492,325.0,-133.25396825396825,325.0,4.523809523809524,325.0,-124.52380952380952,325.0,-107.22222222222221,325.0,-90.07936507936508,4.2063492063492065,325.0,-325.0,2.3015873015873014,0.23809523809523808,-166.26984126984127
325.0,-7.698412698412698,325.0,1.0317460317460316,325.0,-126.1111111111111,325.0,-7.222222222222221,325.0,-145.0,325.0,-41.507936507936506,325.0,-168.015873015873,325.0,-132.14285714285714,325.0,-125.31746031746032,4.2063492063492065,325.0,-325.0,5.634920634920634,7.698412698412698,-166.26984126984127
325.0,-7.698412698412698,325.0,1.0317460317460316,325.0,-126.1111111111111,325.0,-7.222222222222221,325.0,-145.0,325.0,-41.507936507936506,325.0,-168.015873015873,325.0,-132.14285714285714,325.0,-125.31746031746032,4.2063492063492065,325.0,-325.0,5.634920634920634,7.698412698412698,-166.26984126984127
325.0,11.507936507936508,325.0,1.1904761904761905,325.0,-51.507936507936506,325.0,67.38095238095238,325.0,-92.46031746031746,325.0,50.87301587301587,325.0,-132.93650793650792,325.0,-78.65079365079364,325.0,-69.44444444444444,4.0476190476190474,325.0,-325.0,0.873015873015873,-0.7142857142857142,-166.26984126984127
325.0,11.507936507936508,325.0,1.1904761904761905,325.0,-51.507936507936506,325.0,67.38095238095238,325.0,-92.46031746031746,325.0,50.87301587301587,325.0,-132.93650793650792,325.0,-78.65079365079364,325.0,-69.44444444444444,4.0476190476190474,325.0,-325.0,0.873015873015873,-0.7142857142857142,-166.26984126984127
325.0,16.587301587301585,325.0,1.507936507936508,325.0,-22.777777777777775,325.0,95.47619047619047,325.0,-93.25396825396825,325.0,78.96825396825396,325.0,-109.12698412698413,325.0,-67.53968253968253,325.0,-51.19047619047619,4.2063492063492065,325.0,-325.0,-2.142857142857143,-8.968253968253968,-166.26984126984127
325.0,16.587301587301585,325.0,1.507936507936508,325.0,-22.777777777777775,325.0,95.47619047619047,325.0,-93.25396825396825,325.0,78.96825396825396,325.0,-109.12698412698413,325.0,-67.53968253968253,325.0,-51.19047619047619,4.2063492063492065,325.0,-325.0,-2.142857142857143,-8.968253968253968,-166.26984126984127
325.0,-27.22222222222222,325.0,1.1904761904761905,325.0,10.079365079365079,325.0,102.77777777777777,325.0,-48.17460317460317,325.0,72.3015873015873,325.0,-105.0,325.0,-45.63492063492063,325.0,-36.74603174603175,4.0476190476190474,325.0,-325.0,-0.3968253968253968,-1.0317460317460316,-166.26984126984127
325.0,-27.22222222222222,325.0,1.1904761904761905,325.0,10.079365079365079,325.0,102.77777777777777,325.0,-48.17460317460317,325.0,72.3015873015873,325.0,-105.0,325.0,-45.63492063492063,325.0,-36.74603174603175,4.0476190476190474,325.0,-325.0,-0.3968253968253968,-1.0317460317460316,-166.26984126984127
325.0,-86.9047619047619,325.0,1.1904761904761905,325.0,-160.3968253968254,325.0,-23.41269841269841,325.0,-165.79365079365078,325.0,-91.82539682539682,325.0,-178.65079365079364,325.0,-154.04761904761904,325.0,-148.8095238095238,4.2063492063492065,325.0,-325.0,8.015873015873016,7.698412698412698,-321.8253968253968
325.0,-86.9047619047619,325.0,1.1904761904761905,325.0,-160.3968253968254,325.0,-23.41269841269841,325.0,-165.79365079365078,325.0,-91.82539682539682,325.0,-178.65079365079364,325.0,-154.04761904761904,325.0,-148.8095238095238,4.2063492063492065,325.0,-325.0,8.015873015873016,7.698412698412698,-321.8253968253968
325.0,-86.9047619047619,325.0,1.1904761904761905,325.0,-160.3968253968254,325.0,-23.41269841269841,325.0,-165.79365079365078,325.0,-91.82539682539682,325.0,-178.65079365079364,325.0,-154.04761904761904,325.0,-148.8095238095238,4.2063492063492065,325.0,-325.0,8.015873015873016,7.698412698412698,-321.8253968253968
325.0,-86.9047619047619,325.0,1.1904761904761905,325.0,-160.3968253968254,325.0,-23.41269841269841,325.0,-165.79365079365078,325.0,-91.82539682539682,325.0,-178.65079365079364,325.0,-154.04761904761904,325.0,-148.8095238095238,4.2063492063492065,325.0,-325.0,8.015873015873016,7.698412698412698,-321.8253968253968
325.0,-31.98412698412698,325.0,1.1904761904761905,325.0,44.84126984126984,325.0,95.31746031746032,325.0,-62.460317460317455,325.0,65.15873015873015,325.0,-117.06349206349206,325.0,-58.01587301587301,325.0,-46.269841269841265,4.0476190476190474,322.6190476190476,-325.0,0.07936507936507936,-1.507936507936508,-321.8253968253968
325.0,-31.98412698412698,325.0,1.1904761904761905,325.0,44.84126984126984,325.0,95.31746031746032,325.0,-62.460317460317455,325.0,65.15873015873015,325.0,-117.06349206349206,325.0,-58.01587301587301,325.0,-46.269841269841265,4.0476190476190474,322.6190476190476,-325.0,0.07936507936507936,-1.507936507936508,-321.8253968253968
325.0,20.555555555555554,325.0,1.349206349206349,325.0,-7.5396825396825395,325.0,61.19047619047619,325.0,-107.06349206349206,325.0,14.365079365079364,325.0,-126.58730158730158,325.0,-95.0,325.0,-75.15873015873015,3.888888888888889,315.95238095238096,-325.0,3.888888888888889,0.3968253968253968,-321.8253968253968
325.0,20.555555555555554,325.0,1.349206349206349,325.0,-7.5396825396825395,325.0,61.19047619047619,325.0,-107.06349206349206,325.0,14.365079365079364,325.0,-126.58730158730158,325.0,-95.0,325.0,-75.15873015873015,3.888888888888889,315.95238095238096,-325.0,3.888888888888889,0.3968253968253968,-321.8253968253968
325.0,25.158730158730158,325.0,1.349206349206349,325.0,106.9047619047619,325.0,186.58730158730157,325.0,32.77777777777778,325.0,171.5079365079365,325.0,-70.55555555555556,325.0,13.73015873015873,325.0,37.53968253968254,3.888888888888889,310.39682539682536,-323.88888888888886,-2.3015873015873014,-1.984126984126984,-321.8253968253968
325.0,25.158730158730158,325.0,1.349206349206349,325.0,106.9047619047619,325.0,186.58730158730157,325.0,32.77777777777778,325.0,171.5079365079365,325.0,-70.55555555555556,325.0,13.73015873015873,325.0,37.53968253968254,3.888888888888889,310.39682539682536,-323.88888888888886,-2.3015873015873014,-1.984126984126984,-321.8253968253968
325.0,-40.39682539682539,325.0,1.1904761904761905,325.0,-85.0,325.0,61.507936507936506,325.0,-109.6031746031746,325.0,12.142857142857142,325.0,-129.6031746031746,325.0,-103.57142857142857,325.0,-81.5079365079365,3.888888888888889,304.8412698412698,-318.4920634920635,3.4126984126984126,0.7142857142857142,-166.26984126984127
325.0,-40.39682539682539,325.0,1.1904761904761905,325.0,-85.0,325.0,61.507936507936506,325.0,-109.6031746031746,325.0,12.142857142857142,325.0,-129.6031746031746,325.0,-103.57142857142857,325.0,-81.5079365079365,3.888888888888889,304.8412698412698,-318.4920634920635,3.4126984126984126,0.7142857142857142,-166.26984126984127
325.0,7.3809523809523805,325.0,1.0317460317460316,325.0,92.77777777777777,325.0,175.95238095238093,325.0,18.333333333333332,325.0,165.47619047619045,325.0,-82.14285714285714,325.0,-0.5555555555555556,325.0,14.206349206349206,3.571428571428571,299.6031746031746,-312.6190476190476,-3.571428571428571,-2.9365079365079363,-166.26984126984127
325.0,7.3809523809523805,325.0,1.0317460317460316,325.0,92.77777777777777,325.0,175.95238095238093,325.0,18.333333333333332,325.0,165.47619047619045,325.0,-82.14285714285714,325.0,-0.5555555555555556,325.0,14.206349206349206,3.571428571428571,299.6031746031746,-312.6190476190476,-3.571428571428571,-2.9365079365079363,-166.26984126984127
325.0,-38.65079365079365,325.0,-1.6666666666666665,325.0,-51.98412698412698,325.0,64.04761904761905,325.0,-103.88888888888889,325.0,13.412698412698411,325.0,-131.984126984127,325.0,-106.42857142857142,325.0,-79.92063492063491,3.571428571428571,294.5238095238095,-307.06349206349205,2.3015873015873014,1.1904761904761905,-166.26984126984127
325.0,-38.65079365079365,325.0,-1.6666666666666665,325.0,-51.98412698412698,325.0,64.04761904761905,325.0,-103.88888888888889,325.0,13.412698412698411,325.0,-131.984126984127,325.0,-106.42857142857142,325.0,-79.92063492063491,3.571428571428571,294.5238095238095,-307.06349206349205,2.3015873015873014,1.1904761904761905,-166.26984126984127
325.0,-108.65079365079364,325.0,-322.77777777777777,325.0,90.23809523809523,324.8412698412698,168.4920634920635,325.0,13.253968253968253,325.0,160.23809523809524,325.0,-65.79365079365078,325.0,-8.492063492063492,325.0,9.761904761904761,-2.9365079365079363,289.1269841269841,-301.3492063492063,-2.3015873015873014,-2.142857142857143,-166.26984126984127
325.0,-108.65079365079364,325.0,-322.77777777777777,325.0,90.23809523809523,324.8412698412698,168.4920634920635,325.0,13.253968253968253,325.0,160.23809523809524,325.0,-65.79365079365078,325.0,-8.492063492063492,325.0,9.761904761904761,-2.9365079365079363,289.1269841269841,-301.3492063492063,-2.3015873015873014,-2.142857142857143,-166.26984126984127
324.5238095238095,-254.36507936507934,325.0,-325.0,325.0,-75.95238095238095,320.07936507936506,42.460317460317455,325.0,-129.12698412698413,325.0,-1.507936507936508,325.0,-103.73015873015872,325.0,-120.55555555555554,325.0,-111.03174603174602,-31.98412698412698,284.04761904761904,-295.7936507936508,4.0476190476190474,1.8253968253968254,-166.26984126984127
324.5238095238095,-254.36507936507934,325.0,-325.0,325.0,-75.95238095238095,320.07936507936506,42.460317460317455,325.0,-129.12698412698413,325.0,-1.507936507936508,325.0,-103.73015873015872,325.0,-120.55555555555554,325.0,-111.03174603174602,-31.98412698412698,284.04761904761904,-295.7936507936508,4.0476190476190474,1.8253968253968254,-166.26984126984127
319.76190476190476,-285.0,322.46031746031747,-325.0,322.3015873015873,-98.33333333333333,314.5238095238095,29.6031746031746,325.0,-138.65079365079364,325.0,-12.777777777777777,320.7142857142857,-109.12698412698413,320.7142857142857,-127.85714285714285,325.0,-122.77777777777777,-33.41269841269841,278.968253968254,-290.55555555555554,3.571428571428571,2.46031746031746,-321.8253968253968
319.76190476190476,-285.0,322.46031746031747,-325.0,322.3015873015873,-98.33333333333333,314.5238095238095,29.6031746031746,325.0,-138.65079365079364,325.0,-12.777777777777777,320.7142857142857,-109.12698412698413,320.7142857142857,-127.85714285714285,325.0,-122.77777777777777,-33.41269841269841,278.968253968254,-290.55555555555554,3.571428571428571,2.46031746031746,-321.8253968253968
110.07936507936508,-313.73015873015873,54.047619047619044,-325.0,120.87301587301586,-76.26984126984127,126.9047619047619,12.3015873015873,36.74603174603175,-109.28571428571428,76.42857142857143,-32.14285714285714,62.93650793650793,-109.28571428571428,69.28571428571428,-114.84126984126983,64.2063492063492,-122.77777777777777,-4.682539682539682,41.507936507936506,-101.98412698412697,11.825396825396824,10.555555555555555,-321.8253968253968
110.07936507936508,-313.73015873015873,54.047619047619044,-325.0,120.87301587301586,-76.26984126984127,126.9047619047619,12.3015873015873,36.74603174603175,-109.28571428571428,76.42857142857143,-32.14285714285714,62.93650793650793,-109.28571428571428,69.28571428571428,-114.84126984126983,64.2063492063492,-122.77777777777777,-4.682539682539682,41.507936507936506,-101.98412698412697,11.825396825396824,10.555555555555555,-321.8253968253968
-325.0,-174.84126984126982,-325.0,-325.0,-325.0,124.36507936507935,-325.0,125.63492063492063,-325.0,-11.19047619047619,-325.0,100.07936507936508,-325.0,3.4126984126984126,-325.0,-4.0476190476190474,-325.0,-7.5396825396825395,6.26984126984127,-325.0,325.0,2.9365079365079363,-5.317460317460317,-321.8253968253968
-325.0,-174.84126984126982,-325.0,-325.0,-325.0,124.36507936507935,-325.0,125.63492063492063,-325.0,-11.19047619047619,-325.0,100.07936507936508,-325.0,3.4126984126984126,-325.0,-4.0476190476190474,-325.0,-7.5396825396825395,6.26984126984127,-325.0,325.0,2.9365079365079363,-5.317460317460317,-321.8253968253968
-325.0,-322.9365079365079,-325.0,-325.0,-325.0,-123.88888888888889,-325.0,-27.22222222222222,-325.0,-108.01587301587301,-325.0,-81.5079365079365,-325.0,-83.09523809523809,-325.0,-101.5079365079365,-325.0,-142.93650793650792,5.158730158730158,-325.0,325.0,3.73015873015873,7.063492063492063,-321.8253968253968
-325.0,-322.9365079365079,-325.0,-325.0,-325.0,-123.88888888888889,-325.0,-27.22222222222222,-325.0,-108.01587301587301,-325.0,-81.5079365079365,-325.0,-83.09523809523809,-325.0,-101.5079365079365,-325.0,-142.93650793650792,5.158730158730158,-325.0,325.0,3.73015873015873,7.063492063492063,-321.8253968253968
-325.0,-265.6349206349206,-325.0,-325.0,-325.0,-64.04761904761905,-325.0,25.317460317460316,-325.0,-65.0,-325.0,-16.746031746031743,-325.0,-39.12698412698413,-325.0,-55.317460317460316,-325.0,-94.36507936507935,5.317460317460317,-325.0,325.0,-0.3968253968253968,-0.7142857142857142,-321.8253968253968
-325.0,-265.6349206349206,-325.0,-325.0,-325.0,-64.04761904761905,-325.0,25.317460317460316,-325.0,-65.0,-325.0,-16.746031746031743,-325.0,-39.12698412698413,-325.0,-55.317460317460316,-325.0,-94.36507936507935,5.317460317460317,-325.0,325.0,-0.3968253968253968,-0.7142857142857142,-321.8253968253968
-325.0,-210.3968253968254,-325.0,-325.0,-325.0,-73.57142857142857,-325.0,18.333333333333332,-325.0,-87.38095238095238,-325.0,-31.825396825396822,-325.0,-21.507936507936506,-325.0,-64.68253968253968,-325.0,-96.58730158730158,5.317460317460317,-325.0,325.0,-0.23809523809523808,-5.317460317460317,-166.26984126984127
-325.0,-210.3968253968254,-325.0,-325.0,-325.0,-73.57142857142857,-325.0,18.333333333333332,-325.0,-87.38095238095238,-325.0,-31.825396825396822,-325.0,-21.507936507936506,-325.0,-64.68253968253968,-325.0,-96.58730158730158,5.317460317460317,-325.0,325.0,-0.23809523809523808,-5.317460317460317,-166.26984126984127
-325.0,-210.3968253968254,-325.0,-325.0,-325.0,-73.57142857142857,-325.0,18.333333333333332,-325.0,-87.38095238095238,-325.0,-31.825396825396822,-325.0,-21.507936507936506,-325.0,-64.68253968253968,-325.0,-96.58730158730158,5.317460317460317,-325.0,325.0,-0.23809523809523808,-5.317460317460317,-166.26984126984127
-325.0,-210.3968253968254,-325.0,-325.0,-325.0,-73.57142857142857,-325.0,18.333333333333332,-325.0,-87.38095238095238,-325.0,-31.825396825396822,-325.0,-21.507936507936506,-325.0,-64.68253968253968,-325.0,-96.58730158730158,5.317460317460317,-325.0,325.0,-0.23809523809523808,-5.317460317460317,-166.26984126984127
-325.0,-259.9206349206349,-325.0,-325.0,-325.0,-155.0,-325.0,-52.14285714285714,-325.0,-134.52380952380952,-325.0,-101.66666666666666,-325.0,-98.33333333333333,-325.0,-128.015873015873,-325.0,-163.57142857142856,5.0,-325.0,325.0,5.317460317460317,2.9365079365079363,-166.26984126984127
-325.0,-259.9206349206349,-325.0,-325.0,-325.0,-155.0,-325.0,-52.14285714285714,-325.0,-134.52380952380952,-325.0,-101.66666666666666,-325.0,-98.33333333333333,-325.0,-128.015873015873,-325.0,-163.57142857142856,5.0,-325.0,325.0,5.317460317460317,2.9365079365079363,-166.26984126984127
-316.74603174603175,-101.66666666666666,-325.0,-325.0,-309.6031746031746,-2.9365079365079363,-283.88888888888886,86.9047619047619,-325.0,9.920634920634921,-325.0,89.6031746031746,-325.0,-60.238095238095234,-325.0,-18.80952380952381,-325.0,-42.61904761904761,4.523809523809524,-253.57142857142856,285.7936507936508,-5.7936507936507935,-4.841269841269841,-166.26984126984127
-316.74603174603175,-101.66666666666666,-325.0,-325.0,-309.6031746031746,-2.9365079365079363,-283.88888888888886,86.9047619047619,-325.0,9.920634920634921,-325.0,89.6031746031746,-325.0,-60.238095238095234,-325.0,-18.80952380952381,-325.0,-42.61904761904761,4.523809523809524,-253.57142857142856,285.7936507936508,-5.7936507936507935,-4.841269841269841,-166.26984126984127
-316.74603174603175,-124.04761904761904,-325.0,-325.0,-309.6031746031746,-72.61904761904762,-283.88888888888886,33.41269841269841,-325.0,-47.22222222222222,-325.0,10.079365079365079,-325.0,-79.92063492063491,-325.0,-67.85714285714285,-325.0,-86.9047619047619,4.523809523809524,-95.47619047619047,285.7936507936508,-1.1904761904761905,-0.5555555555555556,-166.26984126984127
-316.74603174603175,-124.04761904761904,-325.0,-325.0,-309.6031746031746,-72.61904761904762,-283.88888888888886,33.41269841269841,-325.0,-47.22222222222222,-325.0,10.079365079365079,-325.0,-79.92063492063491,-325.0,-67.85714285714285,-325.0,-86.9047619047619,4.523809523809524,-95.47619047619047,285.7936507936508,-1.1904761904761905,-0.5555555555555556,-166.26984126984127
-325.0,-76.9047619047619,-325.0,-325.0,-325.0,-14.523809523809524,-325.0,114.52380952380952,-325.0,35.79365079365079,-325.0,108.49206349206348,-325.0,-27.539682539682538,-325.0,4.0476190476190474,-325.0,-18.333333333333332,4.365079365079365,-282.46031746031747,325.0,-4.2063492063492065,-3.095238095238095,-321.8253968253968
-325.0,-76.9047619047619,-325.0,-325.0,-325.0,-14.523809523809524,-325.0,114.52380952380952,-325.0,35.79365079365079,-325.0,108.49206349206348,-325.0,-27.539682539682538,-325.0,4.0476190476190474,-325.0,-18.333333333333332,4.365079365079365,-282.46031746031747,325.0,-4.2063492063492065,-3.095238095238095,-321.8253968253968
-325.0,-169.44444444444443,-325.0,-325.0,-325.0,-169.44444444444443,-325.0,-29.285714285714285,-325.0,-106.1111111111111,-325.0,-78.65079365079364,-325.0,-85.47619047619047,-325.0,-119.76190476190476,-325.0,-142.93650793650792,4.523809523809524,-309.2857142857143,325.0,3.888888888888889,3.095238095238095,-321.8253968253968
-325.0,-169.44444444444443,-325.0,-325.0,-325.0,-169.44444444444443,-325.0,-29.285714285714285,-325.0,-106.1111111111111,-325.0,-78.65079365079364,-325.0,-85.47619047619047,-325.0,-119.76190476190476,-325.0,-142.93650793650792,4.523809523809524,-309.2857142857143,325.0,3.888888888888889,3.095238095238095,-321.8253968253968
-325.0,-100.87301587301587,-325.0,-325.0,-325.0,-68.01587301587301,-325.0,64.2063492063492,-325.0,10.714285714285714,-325.0,58.17460317460317,-325.0,-55.317460317460316,-325.0,-29.285714285714285,-325.0,-60.079365079365076,4.2063492063492065,-325.0,325.0,-0.5555555555555556,2.619047619047619,-321.8253968253968
-325.0,-100.87301587301587,-325.0,-325.0,-325.0,-68.01587301587301,-325.0,64.2063492063492,-325.0,10.714285714285714,-325.0,58.17460317460317,-325.0,-55.317460317460316,-325.0,-29.285714285714285,-325.0,-60.079365079365076,4.2063492063492065,-325.0,325.0,-0.5555555555555556,2.619047619047619,-321.8253968253968
-325.0,-111.66666666666666,-325.0,-325.0,-325.0,-195.63492063492063,-325.0,-52.61904761904761,-325.0,-118.8095238095238,-325.0,-80.23809523809523,-325.0,-79.44444444444444,-325.0,-124.84126984126983,-325.0,-155.63492063492063,4.365079365079365,-325.0,325.0,5.7936507936507935,3.73015873015873,-321.8253968253968
-325.0,-111.66666666666666,-325.0,-325.0,-325.0,-195.63492063492063,-325.0,-52.61904761904761,-325.0,-118.8095238095238,-325.0,-80.23809523809523,-325.0,-79.44444444444444,-325.0,-124.84126984126983,-325.0,-155.63492063492063,4.365079365079365,-325.0,325.0,5.7936507936507935,3.73015873015873,-321.8253968253968
-325.0,-128.015873015873,-325.0,-325.0,-325.0,-130.55555555555554,-325.0,28.96825396825397,-325.0,-15.793650793650793,-325.0,36.74603174603175,-325.0,-56.74603174603174,-325.0,-40.55555555555555,-325.0,-86.58730158730158,4.365079365079365,-325.0,325.0,-1.507936507936508,3.253968253968254,-321.8253968253968
-325.0,-128.015873015873,-325.0,-325.0,-325.0,-130.55555555555554,-325.0,28.96825396825397,-325.0,-15.793650793650793,-325.0,36.74603174603175,-325.0,-56.74603174603174,-325.0,-40.55555555555555,-325.0,-86.58730158730158,4.365079365079365,-325.0,325.0,-1.507936507936508,3.253968253968254,-321.8253968253968
-325.0,-56.904761904761905,-325.0,-325.0,-325.0,-142.14285714285714,-325.0,5.7936507936507935,-325.0,-77.6984126984127,-325.0,-29.126984126984127,-325.0,-37.698412698412696,-325.0,-79.12698412698413,-325.0,-104.36507936507935,4.2063492063492065,-325.0,325.0,0.5555555555555556,-3.571428571428571,-166.26984126984127
-325.0,-56.904761904761905,-325.0,-325.0,-325.0,-142.14285714285714,-325.0,5.7936507936507935,-325.0,-77.6984126984127,-325.0,-29.126984126984127,-325.0,-37.698412698412696,-325.0,-79.12698412698413,-325.0,-104.36507936507935,4.2063492063492065,-325.0,325.0,0.5555555555555556,-3.571428571428571,-166.26984126984127
-325.0,-75.47619047619047,-325.0,-325.0,-325.0,-33.095238095238095,-325.0,78.65079365079364,-325.0,29.920634920634917,-325.0,78.01587301587301,-325.0,-35.0,-325.0,-6.904761904761904,-325.0,-52.14285714285714,4.2063492063492065,-325.0,325.0,-1.8253968253968254,2.3015873015873014,-166.26984126984127
-325.0,-75.47619047619047,-325.0,-325.0,-325.0,-33.095238095238095,-325.0,78.65079365079364,-325.0,29.920634920634917,-325.0,78.01587301587301,-325.0,-35.0,-325.0,-6.904761904761904,-325.0,-52.14285714285714,4.2063492063492065,-325.0,325.0,-1.8253968253968254,2.3015873015873014,-166.26984126984127
-325.0,-120.07936507936508,-325.0,-325.0,-325.0,-140.3968253968254,-325.0,-21.349206349206348,-325.0,-86.1111111111111,-325.0,-53.57142857142857,-325.0,-69.28571428571428,-325.0,-98.17460317460316,-325.0,-134.2063492063492,4.0476190476190474,-186.11111111111111,325.0,4.365079365079365,3.888888888888889,-166.26984126984127
-325.0,-120.07936507936508,-325.0,-325.0,-325.0,-140.3968253968254,-325.0,-21.349206349206348,-325.0,-86.1111111111111,-325.0,-53.57142857142857,-325.0,-69.28571428571428,-325.0,-98.17460317460316,-325.0,-134.2063492063492,4.0476190476190474,-186.11111111111111,325.0,4.365079365079365,3.888888888888889,-166.26984126984127
-325.0,-156.42857142857142,-325.0,-325.0,-325.0,-165.0,-325.0,-60.238095238095234,-325.0,-108.17460317460316,-325.0,-104.52380952380952,-325.0,-68.01587301587301,-325.0,-111.98412698412697,-325.0,-152.14285714285714,3.888888888888889,-325.0,325.0,7.222222222222221,5.476190476190476,-166.26984126984127
-325.0,-156.42857142857142,-325.0,-325.0,-325.0,-165.0,-325.0,-60.238095238095234,-325.0,-108.17460317460316,-325.0,-104.52380952380952,-325.0,-68.01587301587301,-325.0,-111.98412698412697,-325.0,-152.14285714285714,3.888888888888889,-325.0,325.0,7.222222222222221,5.476190476190476,-166.26984126984127
-325.0,-26.11111111111111,-325.0,-325.0,-325.0,125.63492063492063,-325.0,117.38095238095238,-325.0,74.04761904761904,-325.0,116.42857142857142,-325.0,16.428571428571427,-325.0,45.476190476190474,-325.0,5.476190476190476,3.888888888888889,-325.0,325.0,-8.809523809523808,-5.634920634920634,-166.26984126984127
-325.0,-26.11111111111111,-325.0,-325.0,-325.0,125.63492063492063,-325.0,117.38095238095238,-325.0,74.04761904761904,-325.0,116.42857142857142,-325.0,16.428571428571427,-325.0,45.476190476190474,-325.0,5.476190476190476,3.888888888888889,-325.0,325.0,-8.809523809523808,-5.634920634920634,-166.26984126984127
-325.0,-108.80952380952381,-325.0,-325.0,-325.0,-53.25396825396825,-325.0,-28.333333333333332,-325.0,-85.47619047619047,-325.0,-70.71428571428571,-325.0,-74.52380952380952,-325.0,-98.17460317460316,-325.0,-137.69841269841268,3.73015873015873,-299.2857142857143,325.0,6.26984126984127,5.476190476190476,-321.8253968253968
-325.0,-108.80952380952381,-325.0,-325.0,-325.0,-53.25396825396825,-325.0,-28.333333333333332,-325.0,-85.47619047619047,-325.0,-70.71428571428571,-325.0,-74.52380952380952,-325.0,-98.17460317460316,-325.0,-137.69841269841268,3.73015873015873,-299.2857142857143,325.0,6.26984126984127,5.476190476190476,-321.8253968253968
2.46031746031746,4.841269841269841,-26.11111111111111,-325.0,5.634920634920634,84.2063492063492,28.015873015873016,115.47619047619047,-36.11111111111111,36.58730158730159,-19.76190476190476,123.73015873015872,-33.25396825396825,-16.428571428571427,-53.73015873015873,13.73015873015873,-11.825396825396824,-22.777777777777775,3.73015873015873,-3.571428571428571,31.349206349206348,-9.920634920634921,-7.222222222222221,-321.8253968253968
2.46031746031746,4.841269841269841,-26.11111111111111,-325.0,5.634920634920634,84.2063492063492,28.015873015873016,115.47619047619047,-36.11111111111111,36.58730158730159,-19.76190476190476,123.73015873015872,-33.25396825396825,-16.428571428571427,-53.73015873015873,13.73015873015873,-11.825396825396824,-22.777777777777775,3.73015873015873,-3.571428571428571,31.349206349206348,-9.920634920634921,-7.222222222222221,-321.8253968253968
-325.0,-114.68253968253967,-325.0,-325.0,-325.0,-92.93650793650794,-325.0,-28.96825396825397,-325.0,-98.49206349206348,-325.0,-71.19047619047619,-325.0,-70.87301587301587,-325.0,-100.87301587301587,-325.0,-142.93650793650792,3.73015873015873,-325.0,325.0,6.428571428571428,4.841269841269841,-321.8253968253968
-325.0,-114.68253968253967,-325.0,-325.0,-325.0,-92.93650793650794,-325.0,-28.96825396825397,-325.0,-98.49206349206348,-325.0,-71.19047619047619,-325.0,-70.87301587301587,-325.0,-100.87301587301587,-325.0,-142.93650793650792,3.73015873015873,-325.0,325.0,6.428571428571428,4.841269841269841,-321.8253968253968
-325.0,31.03174603174603,-325.0,-320.39682539682536,-325.0,197.85714285714283,-325.0,146.58730158730157,-325.0,72.46031746031746,-325.0,157.38095238095238,-325.0,17.22222222222222,-325.0,46.269841269841265,-325.0,12.3015873015873,3.571428571428571,-315.95238095238096,325.0,-5.7936507936507935,-5.158730158730158,-321.8253968253968
-325.0,31.03174603174603,-325.0,-320.39682539682536,-325.0,197.85714285714283,-325.0,146.58730158730157,-325.0,72.46031746031746,-325.0,157.38095238095238,-325.0,17.22222222222222,-325.0,46.269841269841265,-325.0,12.3015873015873,3.571428571428571,-315.95238095238096,325.0,-5.7936507936507935,-5.158730158730158,-321.8253968253968
-297.22222222222223,-72.77777777777777,-325.0,-325.0,-289.1269841269841,-61.19047619047619,-291.031746031746,-24.206349206349206,-325.0,-98.65079365079364,-304.5238095238095,-56.58730158730158,-325.0,-76.26984126984127,-325.0,-104.2063492063492,-271.66666666666663,-138.17460317460316,3.571428571428571,-155.47619047619048,325.0,5.0,5.158730158730158,-321.8253968253968
-297.22222222222223,-72.77777777777777,-325.0,-325.0,-289.1269841269841,-61.19047619047619,-291.031746031746,-24.206349206349206,-325.0,-98.65079365079364,-304.5238095238095,-56.58730158730158,-325.0,-76.26984126984127,-325.0,-104.2063492063492,-271.66666666666663,-138.17460317460316,3.571428571428571,-155.47619047619048,325.0,5.0,5.158730158730158,-321.8253968253968
-277.22222222222223,43.888888888888886,-303.25396825396825,-308.015873015873,-250.2380952380952,196.58730158730157,-220.55555555555554,138.4920634920635,-305.0,54.841269841269835,-274.68253968253964,153.57142857142856,-305.4761904761905,-8.968253968253968,-308.8095238095238,34.84126984126984,-281.19047619047615,3.4126984126984126,3.571428571428571,-244.2063492063492,210.7142857142857,-7.063492063492063,-6.904761904761904,-166.26984126984127
-277.22222222222223,43.888888888888886,-303.25396825396825,-308.015873015873,-250.2380952380952,196.58730158730157,-220.55555555555554,138.4920634920635,-305.0,54.841269841269835,-274.68253968253964,153.57142857142856,-305.4761904761905,-8.968253968253968,-308.8095238095238,34.84126984126984,-281.19047619047615,3.4126984126984126,3.571428571428571,-244.2063492063492,210.7142857142857,-7.063492063492063,-6.904761904761904,-166.26984126984127
-325.0,-131.5079365079365,-325.0,-315.4761904761905,-325.0,17.857142857142858,-325.0,-38.01587301587301,-325.0,-109.76190476190476,-325.0,-79.6031746031746,-325.0,-98.01587301587301,-325.0,-106.58730158730158,-325.0,-151.66666666666666,3.253968253968254,-325.0,325.0,8.015873015873016,6.587301587301587,-166.26984126984127
-325.0,-131.5079365079365,-325.0,-315.4761904761905,-325.0,17.857142857142858,-325.0,-38.01587301587301,-325.0,-109.76190476190476,-325.0,-79.6031746031746,-325.0,-98.01587301587301,-325.0,-106.58730158730158,-325.0,-151.66666666666666,3.253968253968254,-325.0,325.0,8.015873015873016,6.587301587301587,-166.26984126984127
-325.0,-86.42857142857143,-325.0,-301.8253968253968,-325.0,116.42857142857142,-325.0,38.96825396825397,-325.0,-34.52380952380952,-325.0,17.22222222222222,-325.0,-51.19047619047619,-325.0,-35.476190476190474,-325.0,-87.22222222222221,3.4126984126984126,-325.0,325.0,1.0317460317460316,-0.5555555555555556,-166.26984126984127
-325.0,-86.42857142857143,-325.0,-301.8253968253968,-325.0,116.42857142857142,-325.0,38.96825396825397,-325.0,-34.52380952380952,-325.0,17.22222222222222,-325.0,-51.19047619047619,-325.0,-35.476190476190474,-325.0,-87.22222222222221,3.4126984126984126,-325.0,325.0,1.0317460317460316,-0.5555555555555556,-166.26984126984127
-325.0,-60.39682539682539,-325.0,-281.031746031746,-325.0,92.14285714285714,-325.0,35.63492063492063,-325.0,-35.15873015873016,-325.0,22.3015873015873,-325.0,-46.11111111111111,-325.0,-36.74603174603175,-325.0,-86.74603174603175,3.253968253968254,-325.0,325.0,-0.23809523809523808,-1.349206349206349,-166.26984126984127
-325.0,-60.39682539682539,-325.0,-281.031746031746,-325.0,92.14285714285714,-325.0,35.63492063492063,-325.0,-35.15873015873016,-325.0,22.3015873015873,-325.0,-46.11111111111111,-325.0,-36.74603174603175,-325.0,-86.74603174603175,3.253968253968254,-325.0,325.0,-0.23809523809523808,-1.349206349206349,-166.26984126984127
-325.0,-4.841269841269841,-325.0,-239.60317460317458,-325.0,152.3015873015873,-325.0,55.476190476190474,-325.0,-24.84126984126984,-325.0,50.55555555555555,-325.0,-17.063492063492063,-325.0,-22.46031746031746,-325.0,-56.11111111111111,3.253968253968254,-325.0,325.0,-3.571428571428571,-6.746031746031746,-166.26984126984127
-325.0,-4.841269841269841,-325.0,-239.60317460317458,-325.0,152.3015873015873,-325.0,55.476190476190474,-325.0,-24.84126984126984,-325.0,50.55555555555555,-325.0,-17.063492063492063,-325.0,-22.46031746031746,-325.0,-56.11111111111111,3.253968253968254,-325.0,325.0,-3.571428571428571,-6.746031746031746,-166.26984126984127
-325.0,-77.22222222222221,-325.0,-268.8095238095238,-325.0,93.73015873015872,-325.0,-0.7142857142857142,-325.0,-38.80952380952381,-325.0,-9.603174603174603,-325.0,-66.58730158730158,-325.0,-51.666666666666664,-325.0,-100.55555555555554,3.095238095238095,-325.0,325.0,2.9365079365079363,4.523809523809524,-321.8253968253968
-325.0,-77.22222222222221,-325.0,-268.8095238095238,-325.0,93.73015873015872,-325.0,-0.7142857142857142,-325.0,-38.80952380952381,-325.0,-9.603174603174603,-325.0,-66.58730158730158,-325.0,-51.666666666666664,-325.0,-100.55555555555554,3.095238095238095,-325.0,325.0,2.9365079365079363,4.523809523809524,-321.8253968253968
-325.0,96.74603174603175,-325.0,-193.25396825396825,-325.0,310.55555555555554,-325.0,146.42857142857142,-325.0,66.26984126984127,-325.0,161.34920634920633,-325.0,34.84126984126984,-325.0,57.53968253968254,-325.0,31.507936507936506,3.253968253968254,-325.0,325.0,-8.492063492063492,-11.984126984126984,-321.8253968253968
-325.0,96.74603174603175,-325.0,-193.25396825396825,-325.0,310.55555555555554,-325.0,146.42857142857142,-325.0,66.26984126984127,-325.0,161.34920634920633,-325.0,34.84126984126984,-325.0,57.53968253968254,-325.0,31.507936507936506,3.253968253968254,-325.0,325.0,-8.492063492063492,-11.984126984126984,-321.8253968253968
-325.0,96.74603174603175,-325.0,-193.25396825396825,-325.0,310.55555555555554,-325.0,146.42857142857142,-325.0,66.26984126984127,-325.0,161.34920634920633,-325.0,34.84126984126984,-325.0,57.53968253968254,-325.0,31.507936507936506,3.253968253968254,-325.0,325.0,-8.492063492063492,-11.984126984126984,-321.8253968253968
-325.0,96.74603174603175,-325.0,-193.25396825396825,-325.0,310.55555555555554,-325.0,146.42857142857142,-325.0,66.26984126984127,-325.0,161.34920634920633,-325.0,34.84126984126984,-325.0,57.53968253968254,-325.0,31.507936507936506,3.253968253968254,-325.0,325.0,-8.492063492063492,-11.984126984126984,-321.8253968253968
-325.0,-2.9365079365079363,-325.0,-169.28571428571428,-325.0,195.79365079365078,-325.0,80.07936507936508,-325.0,2.142857142857143,-325.0,69.92063492063491,-325.0,-18.96825396825397,-325.0,-7.063492063492063,-325.0,-19.92063492063492,3.095238095238095,-325.0,325.0,-3.4126984126984126,-5.952380952380952,-321.8253968253968
-325.0,-2.9365079365079363,-325.0,-169.28571428571428,-325.0,195.79365079365078,-325.0,80.07936507936508,-325.0,2.142857142857143,-325.0,69.92063492063491,-325.0,-18.96825396825397,-325.0,-7.063492063492063,-325.0,-19.92063492063492,3.095238095238095,-325.0,325.0,-3.4126984126984126,-5.952380952380952,-321.8253968253968
-325.0,-47.22222222222222,-325.0,-194.52380952380952,-325.0,132.3015873015873,-325.0,39.12698412698413,-325.0,-17.38095238095238,-325.0,30.07936507936508,-325.0,-50.55555555555555,-325.0,-28.96825396825397,-325.0,-56.11111111111111,3.095238095238095,-325.0,325.0,0.873015873015873,0.873015873015873,-321.8253968253968
-325.0,-47.22222222222222,-325.0,-194.52380952380952,-325.0,132.3015873015873,-325.0,39.12698412698413,-325.0,-17.38095238095238,-325.0,30.07936507936508,-325.0,-50.55555555555555,-325.0,-28.96825396825397,-325.0,-56.11111111111111,3.095238095238095,-325.0,325.0,0.873015873015873,0.873015873015873,-321.8253968253968
-325.0,-9.126984126984127,-325.0,-150.55555555555554,-325.0,188.96825396825395,-325.0,58.650793650793645,-325.0,-20.07936507936508,-325.0,54.047619047619044,-325.0,-27.063492063492063,-325.0,-20.396825396825395,-325.0,-36.904761904761905,3.095238095238095,-325.0,325.0,-5.158730158730158,-6.746031746031746,-166.26984126984127
-325.0,-9.126984126984127,-325.0,-150.55555555555554,-325.0,188.96825396825395,-325.0,58.650793650793645,-325.0,-20.07936507936508,-325.0,54.047619047619044,-325.0,-27.063492063492063,-325.0,-20.396825396825395,-325.0,-36.904761904761905,3.095238095238095,-325.0,325.0,-5.158730158730158,-6.746031746031746,-166.26984126984127
-325.0,-213.88888888888889,-325.0,-199.28571428571428,-325.0,-21.349206349206348,-325.0,-68.80952380952381,-325.0,-108.17460317460316,-325.0,-99.6031746031746,-325.0,-120.39682539682539,-325.0,-117.6984126984127,-325.0,-152.14285714285714,3.095238095238095,-257.6984126984127,325.0,7.063492063492063,10.555555555555555,-166.26984126984127
-325.0,-213.88888888888889,-325.0,-199.28571428571428,-325.0,-21.349206349206348,-325.0,-68.80952380952381,-325.0,-108.17460317460316,-325.0,-99.6031746031746,-325.0,-120.39682539682539,-325.0,-117.6984126984127,-325.0,-152.14285714285714,3.095238095238095,-257.6984126984127,325.0,7.063492063492063,10.555555555555555,-166.26984126984127
-320.87301587301585,-52.460317460317455,-321.031746031746,-49.44444444444444,-325.0,180.55555555555554,-325.0,53.095238095238095,-318.6507936507936,-17.063492063492063,-322.9365079365079,43.41269841269841,-320.55555555555554,-63.73015873015873,-325.0,-27.22222222222222,-316.1111111111111,-55.0,2.7777777777777777,-325.0,316.90476190476187,0.7142857142857142,-0.07936507936507936,-166.26984126984127
-320.87301587301585,-52.460317460317455,-321.031746031746,-49.44444444444444,-325.0,180.55555555555554,-325.0,53.095238095238095,-318.6507936507936,-17.063492063492063,-322.9365079365079,43.41269841269841,-320.55555555555554,-63.73015873015873,-325.0,-27.22222222222222,-316.1111111111111,-55.0,2.7777777777777777,-325.0,316.90476190476187,0.7142857142857142,-0.07936507936507936,-166.26984126984127
-325.0,24.365079365079364,-325.0,151.03174603174602,-325.0,281.031746031746,-325.0,146.9047619047619,-325.0,70.55555555555556,-325.0,161.19047619047618,-325.0,-37.857142857142854,-325.0,51.34920634920635,-325.0,30.87301587301587,2.9365079365079363,-325.0,325.0,-5.476190476190476,-6.428571428571428,-166.26984126984127
-325.0,24.365079365079364,-325.0,151.03174603174602,-325.0,281.031746031746,-325.0,146.9047619047619,-325.0,70.55555555555556,-325.0,161.19047619047618,-325.0,-37.857142857142854,-325.0,51.34920634920635,-325.0,30.87301587301587,2.9365079365079363,-325.0,325.0,-5.476190476190476,-6.428571428571428,-166.26984126984127
-296.26984126984127,-90.87301587301587,-290.55555555555554,110.39682539682539,-294.68253968253964,-42.460317460317455,-287.53968253968253,-39.285714285714285,-282.9365079365079,-100.55555555555554,-283.57142857142856,-72.3015873015873,-286.4285714285714,-122.77777777777777,-287.53968253968253,-101.19047619047619,-275.4761904761905,-129.6031746031746,2.7777777777777777,-290.55555555555554,279.6031746031746,7.857142857142857,8.015873015873016,-166.26984126984127
-296.26984126984127,-90.87301587301587,-290.55555555555554,110.39682539682539,-294.68253968253964,-42.460317460317455,-287.53968253968253,-39.285714285714285,-282.9365079365079,-100.55555555555554,-283.57142857142856,-72.3015873015873,-286.4285714285714,-122.77777777777777,-287.53968253968253,-101.19047619047619,-275.4761904761905,-129.6031746031746,2.7777777777777777,-290.55555555555554,279.6031746031746,7.857142857142857,8.015873015873016,-166.26984126984127
-267.53968253968253,-101.82539682539682,-255.95238095238093,91.5079365079365,-264.36507936507934,-78.65079365079364,-250.07936507936506,-54.047619047619044,-240.7142857142857,-96.58730158730158,-242.14285714285714,-84.36507936507937,-247.85714285714283,-138.65079365079364,-249.9206349206349,-105.31746031746032,-225.95238095238093,-143.73015873015873,2.7777777777777777,-256.1111111111111,234.36507936507934,12.142857142857142,15.476190476190474,-321.8253968253968
-267.53968253968253,-101.82539682539682,-255.95238095238093,91.5079365079365,-264.36507936507934,-78.65079365079364,-250.07936507936506,-54.047619047619044,-240.7142857142857,-96.58730158730158,-242.14285714285714,-84.36507936507937,-247.85714285714283,-138.65079365079364,-249.9206349206349,-105.31746031746032,-225.95238095238093,-143.73015873015873,2.7777777777777777,-256.1111111111111,234.36507936507934,12.142857142857142,15.476190476190474,-321.8253968253968
-296.26984126984127,-92.30158730158729,-290.55555555555554,69.44444444444444,-294.68253968253964,-117.6984126984127,-287.53968253968253,-55.95238095238095,-282.9365079365079,-95.47619047619047,-283.57142857142856,-86.1111111111111,-286.4285714285714,-149.76190476190476,-287.53968253968253,-105.15873015873015,-275.4761904761905,-141.19047619047618,2.7777777777777777,-290.55555555555554,279.6031746031746,10.555555555555555,13.095238095238095,-321.8253968253968
