Fp1[1],Fp2[2],F3[3],F4[4],C3[5],C4[6],P3[7],P4[8],O1[9],O2[10],F7[11],F8[12],T3[13],T4[14],T5[15],T6[16],Fz[17],Pz[18],Cz[19],Pg1[20],Pg2[21],EOGR[22],EOOGL[23],EMG[24]
325.0,-325.0,325.0,-294.5238095238095,-325.0,325.0,325.0,325.0,325.0,325.0,-325.0,325.0,325.0,-267.22222222222223,325.0,325.0,-77.06349206349206,325.0,45.476190476190474,-325.0,-325.0,-1.984126984126984,-5.7936507936507935,-166.26984126984127
325.0,-325.0,325.0,-294.5238095238095,-325.0,325.0,325.0,325.0,325.0,325.0,-325.0,325.0,325.0,-267.22222222222223,325.0,325.0,-77.06349206349206,325.0,45.476190476190474,-325.0,-325.0,-1.984126984126984,-5.7936507936507935,-166.26984126984127
325.0,-325.0,325.0,-290.07936507936506,-325.0,325.0,325.0,325.0,325.0,325.0,-325.0,325.0,325.0,-263.25396825396825,325.0,325.0,-76.1111111111111,325.0,46.904761904761905,-325.0,-325.0,4.2063492063492065,1.6666666666666665,-166.26984126984127
325.0,-325.0,325.0,-290.07936507936506,-325.0,325.0,325.0,325.0,325.0,325.0,-325.0,325.0,325.0,-263.25396825396825,325.0,325.0,-76.1111111111111,325.0,46.904761904761905,-325.0,-325.0,4.2063492063492065,1.6666666666666665,-166.26984126984127
325.0,-324.68253968253964,325.0,-286.1111111111111,-325.0,325.0,325.0,325.0,325.0,325.0,-325.0,325.0,325.0,-259.6031746031746,325.0,325.0,-75.15873015873015,325.0,49.285714285714285,-325.0,-325.0,0.7142857142857142,-4.0476190476190474,-166.26984126984127
325.0,-324.68253968253964,325.0,-286.1111111111111,-325.0,325.0,325.0,325.0,325.0,325.0,-325.0,325.0,325.0,-259.6031746031746,325.0,325.0,-75.15873015873015,325.0,49.285714285714285,-325.0,-325.0,0.7142857142857142,-4.0476190476190474,-166.26984126984127
325.0,-324.36507936507934,325.0,-282.1428571428571,-325.0,325.0,325.0,325.0,325.0,325.0,-325.0,325.0,325.0,-255.79365079365078,325.0,325.0,-74.04761904761904,325.0,51.666666666666664,-325.0,-325.0,-2.619047619047619,-9.761904761904761,-166.26984126984127
325.0,-324.36507936507934,325.0,-282.1428571428571,-325.0,325.0,325.0,325.0,325.0,325.0,-325.0,325.0,325.0,-255.79365079365078,325.0,325.0,-74.04761904761904,325.0,51.666666666666664,-325.0,-325.0,-2.619047619047619,-9.761904761904761,-166.26984126984127
325.0,-324.36507936507934,325.0,-282.1428571428571,-325.0,325.0,325.0,325.0,325.0,325.0,-325.0,325.0,325.0,-255.79365079365078,325.0,325.0,-74.04761904761904,325.0,51.666666666666664,-325.0,-325.0,-2.619047619047619,-9.761904761904761,-166.26984126984127
325.0,-324.36507936507934,325.0,-282.1428571428571,-325.0,325.0,325.0,325.0,325.0,325.0,-325.0,325.0,325.0,-255.79365079365078,325.0,325.0,-74.04761904761904,325.0,51.666666666666664,-325.0,-325.0,-2.619047619047619,-9.761904761904761,-166.26984126984127
325.0,-260.23809523809524,325.0,-223.4126984126984,-325.0,263.4126984126984,325.0,277.22222222222223,325.0,325.0,-325.0,275.4761904761905,325.0,-201.8253968253968,325.0,325.0,-59.6031746031746,325.0,99.28571428571428,-325.0,-325.0,3.095238095238095,3.73015873015873,-321.8253968253968
325.0,-260.23809523809524,325.0,-223.4126984126984,-325.0,263.4126984126984,325.0,277.22222222222223,325.0,325.0,-325.0,275.4761904761905,325.0,-201.8253968253968,325.0,325.0,-59.6031746031746,325.0,99.28571428571428,-325.0,-325.0,3.095238095238095,3.73015873015873,-321.8253968253968
325.0,-254.68253968253967,325.0,-218.33333333333331,-325.0,257.6984126984127,325.0,271.19047619047615,325.0,325.0,-325.0,269.44444444444446,325.0,-196.9047619047619,325.0,325.0,-58.49206349206349,325.0,112.77777777777777,-325.0,-325.0,-3.4126984126984126,-8.492063492063492,-321.8253968253968
325.0,-254.68253968253967,325.0,-218.33333333333331,-325.0,257.6984126984127,325.0,271.19047619047615,325.0,325.0,-325.0,269.44444444444446,325.0,-196.9047619047619,325.0,325.0,-58.49206349206349,325.0,112.77777777777777,-325.0,-325.0,-3.4126984126984126,-8.492063492063492,-321.8253968253968
325.0,-253.57142857142856,325.0,-217.2222222222222,-325.0,256.58730158730157,325.0,269.9206349206349,325.0,325.0,-325.0,268.3333333333333,325.0,-195.95238095238093,325.0,325.0,-58.17460317460317,325.0,113.09523809523809,-325.0,-325.0,-2.3015873015873014,-10.873015873015872,-321.8253968253968
325.0,-253.57142857142856,325.0,-217.2222222222222,-325.0,256.58730158730157,325.0,269.9206349206349,325.0,325.0,-325.0,268.3333333333333,325.0,-195.95238095238093,325.0,325.0,-58.17460317460317,325.0,113.09523809523809,-325.0,-325.0,-2.3015873015873014,-10.873015873015872,-321.8253968253968
325.0,-248.17460317460316,324.68253968253964,-212.46031746031744,-325.0,251.03174603174602,325.0,264.04761904761904,325.0,325.0,-325.0,262.1428571428571,324.68253968253964,-191.5079365079365,325.0,325.0,-57.06349206349206,325.0,108.17460317460316,-325.0,-325.0,0.7142857142857142,-3.4126984126984126,-321.8253968253968
325.0,-248.17460317460316,324.68253968253964,-212.46031746031744,-325.0,251.03174603174602,325.0,264.04761904761904,325.0,325.0,-325.0,262.1428571428571,324.68253968253964,-191.5079365079365,325.0,325.0,-57.06349206349206,325.0,108.17460317460316,-325.0,-325.0,0.7142857142857142,-3.4126984126984126,-321.8253968253968
325.0,-240.7142857142857,321.66666666666663,-205.63492063492063,-325.0,243.09523809523807,325.0,256.1111111111111,325.0,325.0,-325.0,253.7301587301587,321.8253968253968,-185.15873015873015,325.0,325.0,-55.317460317460316,325.0,105.47619047619047,-324.8412698412698,-324.36507936507934,-0.23809523809523808,-1.349206349206349,-321.8253968253968
325.0,-240.7142857142857,321.66666666666663,-205.63492063492063,-325.0,243.09523809523807,325.0,256.1111111111111,325.0,325.0,-325.0,253.7301587301587,321.8253968253968,-185.15873015873015,325.0,325.0,-55.317460317460316,325.0,105.47619047619047,-324.8412698412698,-324.36507936507934,-0.23809523809523808,-1.349206349206349,-321.8253968253968
325.0,-236.58730158730157,316.4285714285714,-201.8253968253968,-325.0,238.96825396825395,325.0,251.66666666666666,325.0,325.0,-325.0,249.12698412698413,316.26984126984127,-181.5079365079365,325.0,325.0,-54.52380952380952,325.0,112.46031746031746,-322.3015873015873,-320.55555555555554,-2.46031746031746,-9.603174603174603,-166.26984126984127
325.0,-236.58730158730157,316.4285714285714,-201.8253968253968,-325.0,238.96825396825395,325.0,251.66666666666666,325.0,325.0,-325.0,249.12698412698413,316.26984126984127,-181.5079365079365,325.0,325.0,-54.52380952380952,325.0,112.46031746031746,-322.3015873015873,-320.55555555555554,-2.46031746031746,-9.603174603174603,-166.26984126984127
325.0,-232.46031746031744,310.55555555555554,-198.17460317460316,-325.0,234.52380952380952,325.0,247.2222222222222,325.0,196.11111111111111,-325.0,244.68253968253967,310.55555555555554,-178.33333333333331,325.0,325.0,-53.73015873015873,323.88888888888886,114.04761904761904,-316.58730158730157,-315.0,0.7142857142857142,7.698412698412698,-166.26984126984127
325.0,-232.46031746031744,310.55555555555554,-198.17460317460316,-325.0,234.52380952380952,325.0,247.2222222222222,325.0,196.11111111111111,-325.0,244.68253968253967,310.55555555555554,-178.33333333333331,325.0,325.0,-53.73015873015873,323.88888888888886,114.04761904761904,-316.58730158730157,-315.0,0.7142857142857142,7.698412698412698,-166.26984126984127
318.3333333333333,-222.77777777777777,297.53968253968253,-189.28571428571428,-325.0,224.36507936507934,321.984126984127,236.74603174603175,311.984126984127,-64.52380952380952,-313.88888888888886,233.88888888888889,297.6984126984127,-170.3968253968254,312.9365079365079,323.73015873015873,-51.507936507936506,310.87301587301585,103.25396825396825,-303.25396825396825,-301.3492063492063,-0.873015873015873,-0.873015873015873,-166.26984126984127
318.3333333333333,-222.77777777777777,297.53968253968253,-189.28571428571428,-325.0,224.36507936507934,321.984126984127,236.74603174603175,311.984126984127,-64.52380952380952,-313.88888888888886,233.88888888888889,297.6984126984127,-170.3968253968254,312.9365079365079,323.73015873015873,-51.507936507936506,310.87301587301585,103.25396825396825,-303.25396825396825,-301.3492063492063,-0.873015873015873,-0.873015873015873,-166.26984126984127
306.26984126984127,-209.28571428571428,279.44444444444446,-177.2222222222222,-325.0,210.55555555555554,313.73015873015873,222.46031746031744,294.04761904761904,-325.0,-297.53968253968253,219.44444444444443,279.9206349206349,-159.12698412698413,295.95238095238096,316.74603174603175,-48.33333333333333,292.77777777777777,87.6984126984127,-284.8412698412698,-282.77777777777777,1.1904761904761905,5.476190476190476,-166.26984126984127
306.26984126984127,-209.28571428571428,279.44444444444446,-177.2222222222222,-325.0,210.55555555555554,313.73015873015873,222.46031746031744,294.04761904761904,-325.0,-297.53968253968253,219.44444444444443,279.9206349206349,-159.12698412698413,295.95238095238096,316.74603174603175,-48.33333333333333,292.77777777777777,87.6984126984127,-284.8412698412698,-282.77777777777777,1.1904761904761905,5.476190476190476,-166.26984126984127
281.5079365079365,-192.61904761904762,256.90476190476187,-162.3015873015873,-306.58730158730157,193.25396825396825,288.968253968254,204.36507936507937,270.87301587301585,-325.0,-274.8412698412698,200.87301587301587,257.53968253968253,-145.47619047619048,272.77777777777777,291.984126984127,-44.68253968253968,269.76190476190476,78.65079365079364,-262.1428571428571,-259.2857142857143,1.0317460317460316,5.317460317460317,-166.26984126984127
281.5079365079365,-192.61904761904762,256.90476190476187,-162.3015873015873,-306.58730158730157,193.25396825396825,288.968253968254,204.36507936507937,270.87301587301585,-325.0,-274.8412698412698,200.87301587301587,257.53968253968253,-145.47619047619048,272.77777777777777,291.984126984127,-44.68253968253968,269.76190476190476,78.65079365079364,-262.1428571428571,-259.2857142857143,1.0317460317460316,5.317460317460317,-166.26984126984127
256.90476190476187,-175.95238095238093,234.52380952380952,-147.2222222222222,-288.015873015873,175.95238095238093,264.2063492063492,186.42857142857142,247.85714285714283,-325.0,-251.98412698412696,182.46031746031744,235.3174603174603,-131.8253968253968,249.76190476190476,267.38095238095235,-41.03174603174603,246.9047619047619,69.76190476190476,-239.28571428571428,-235.79365079365078,0.873015873015873,5.317460317460317,-321.8253968253968
256.90476190476187,-175.95238095238093,234.52380952380952,-147.2222222222222,-288.015873015873,175.95238095238093,264.2063492063492,186.42857142857142,247.85714285714283,-325.0,-251.98412698412696,182.46031746031744,235.3174603174603,-131.8253968253968,249.76190476190476,267.38095238095235,-41.03174603174603,246.9047619047619,69.76190476190476,-239.28571428571428,-235.79365079365078,0.873015873015873,5.317460317460317,-321.8253968253968
168.33333333333331,-201.66666666666666,228.8095238095238,-50.87301587301587,-97.85714285714285,63.095238095238095,10.079365079365079,-60.079365079365076,101.82539682539682,-314.8412698412698,-87.38095238095238,45.95238095238095,236.26984126984127,-62.460317460317455,125.79365079365078,108.17460317460316,-180.7142857142857,124.2063492063492,-108.17460317460316,-231.03174603174602,-227.38095238095238,10.555555555555555,-157.06349206349205,-321.8253968253968
168.33333333333331,-201.66666666666666,228.8095238095238,-50.87301587301587,-97.85714285714285,63.095238095238095,10.079365079365079,-60.079365079365076,101.82539682539682,-314.8412698412698,-87.38095238095238,45.95238095238095,236.26984126984127,-62.460317460317455,125.79365079365078,108.17460317460316,-180.7142857142857,124.2063492063492,-108.17460317460316,-231.03174603174602,-227.38095238095238,10.555555555555555,-157.06349206349205,-321.8253968253968
-118.01587301587301,-146.58730158730157,155.15873015873015,-3.253968253968254,-16.26984126984127,7.5396825396825395,-280.07936507936506,-118.8095238095238,25.317460317460316,-256.4285714285714,-11.19047619047619,-12.3015873015873,163.09523809523807,-19.6031746031746,48.96825396825397,-171.19047619047618,-168.4920634920635,-157.69841269841268,-260.23809523809524,-156.42857142857142,-152.46031746031744,11.825396825396824,-158.015873015873,-321.8253968253968
-118.01587301587301,-146.58730158730157,155.15873015873015,-3.253968253968254,-16.26984126984127,7.5396825396825395,-280.07936507936506,-118.8095238095238,25.317460317460316,-256.4285714285714,-11.19047619047619,-12.3015873015873,163.09523809523807,-19.6031746031746,48.96825396825397,-171.19047619047618,-168.4920634920635,-157.69841269841268,-260.23809523809524,-156.42857142857142,-152.46031746031744,11.825396825396824,-158.015873015873,-321.8253968253968
-325.0,-58.01587301587301,76.74603174603175,-45.79365079365079,-108.65079365079364,56.42857142857142,-325.0,61.19047619047619,84.04761904761904,-201.98412698412696,-89.12698412698413,57.53968253968254,78.4920634920635,-40.714285714285715,85.15873015873015,-304.2063492063492,-14.84126984126984,-325.0,-242.46031746031744,-79.28571428571428,-75.15873015873015,0.873015873015873,-3.4126984126984126,-321.8253968253968
-325.0,-58.01587301587301,76.74603174603175,-45.79365079365079,-108.65079365079364,56.42857142857142,-325.0,61.19047619047619,84.04761904761904,-201.98412698412696,-89.12698412698413,57.53968253968254,78.4920634920635,-40.714285714285715,85.15873015873015,-304.2063492063492,-14.84126984126984,-325.0,-242.46031746031744,-79.28571428571428,-75.15873015873015,0.873015873015873,-3.4126984126984126,-321.8253968253968
25.476190476190474,142.77777777777777,-124.36507936507935,87.22222222222221,-298.6507936507936,-293.88888888888886,-247.53968253968253,253.09523809523807,41.98412698412698,84.68253968253968,-100.23809523809523,307.69841269841265,-45.63492063492063,82.46031746031746,102.93650793650794,-315.6349206349206,310.7142857142857,-304.68253968253964,89.92063492063491,-56.42857142857142,-72.77777777777777,-21.507936507936506,-10.238095238095237,-321.8253968253968
25.476190476190474,142.77777777777777,-124.36507936507935,87.22222222222221,-298.6507936507936,-293.88888888888886,-247.53968253968253,253.09523809523807,41.98412698412698,84.68253968253968,-100.23809523809523,307.69841269841265,-45.63492063492063,82.46031746031746,102.93650793650794,-315.6349206349206,310.7142857142857,-304.68253968253964,89.92063492063491,-56.42857142857142,-72.77777777777777,-21.507936507936506,-10.238095238095237,-321.8253968253968
-325.0,-54.36507936507936,71.82539682539682,-42.93650793650794,78.4920634920635,52.77777777777777,-325.0,42.460317460317455,78.80952380952381,-189.12698412698413,-83.57142857142857,53.25396825396825,73.73015873015872,-38.01587301587301,79.92063492063491,-285.4761904761905,-14.206349206349206,-325.0,-227.2222222222222,-74.2063492063492,-69.92063492063491,-1.6666666666666665,-9.126984126984127,-166.26984126984127
-325.0,-54.36507936507936,71.82539682539682,-42.93650793650794,78.4920634920635,52.77777777777777,-325.0,42.460317460317455,78.80952380952381,-189.12698412698413,-83.57142857142857,53.25396825396825,73.73015873015872,-38.01587301587301,79.92063492063491,-285.4761904761905,-14.206349206349206,-325.0,-227.2222222222222,-74.2063492063492,-69.92063492063491,-1.6666666666666665,-9.126984126984127,-166.26984126984127
-325.0,-54.36507936507936,71.82539682539682,-42.93650793650794,78.4920634920635,52.77777777777777,-325.0,42.460317460317455,78.80952380952381,-189.12698412698413,-83.57142857142857,53.25396825396825,73.73015873015872,-38.01587301587301,79.92063492063491,-285.4761904761905,-14.206349206349206,-325.0,-227.2222222222222,-74.2063492063492,-69.92063492063491,-1.6666666666666665,-9.126984126984127,-166.26984126984127
-325.0,-54.36507936507936,71.82539682539682,-42.93650793650794,78.4920634920635,52.77777777777777,-325.0,42.460317460317455,78.80952380952381,-189.12698412698413,-83.57142857142857,53.25396825396825,73.73015873015872,-38.01587301587301,79.92063492063491,-285.4761904761905,-14.206349206349206,-325.0,-227.2222222222222,-74.2063492063492,-69.92063492063491,-1.6666666666666665,-9.126984126984127,-166.26984126984127
-325.0,-40.714285714285715,68.01587301587301,-40.39682539682539,325.0,49.92063492063492,-325.0,-325.0,75.0,-179.76190476190476,-44.68253968253968,-38.33333333333333,69.76190476190476,-35.79365079365079,75.95238095238095,-272.3015873015873,-13.253968253968253,-325.0,-215.63492063492063,-70.39682539682539,-66.58730158730158,3.095238095238095,8.174603174603174,-166.26984126984127
-325.0,-40.714285714285715,68.01587301587301,-40.39682539682539,325.0,49.92063492063492,-325.0,-325.0,75.0,-179.76190476190476,-44.68253968253968,-38.33333333333333,69.76190476190476,-35.79365079365079,75.95238095238095,-272.3015873015873,-13.253968253968253,-325.0,-215.63492063492063,-70.39682539682539,-66.58730158730158,3.095238095238095,8.174603174603174,-166.26984126984127
-325.0,57.857142857142854,66.74603174603175,-39.44444444444444,309.76190476190476,48.80952380952381,-325.0,-325.0,73.25396825396825,-175.79365079365078,41.03174603174603,-236.9047619047619,68.4920634920635,-35.0,74.2063492063492,-266.26984126984127,-12.936507936507935,-325.0,-210.87301587301587,-68.80952380952381,-64.68253968253968,1.349206349206349,-2.3015873015873014,-166.26984126984127
-325.0,57.857142857142854,66.74603174603175,-39.44444444444444,309.76190476190476,48.80952380952381,-325.0,-325.0,73.25396825396825,-175.79365079365078,41.03174603174603,-236.9047619047619,68.4920634920635,-35.0,74.2063492063492,-266.26984126984127,-12.936507936507935,-325.0,-210.87301587301587,-68.80952380952381,-64.68253968253968,1.349206349206349,-2.3015873015873014,-166.26984126984127
-325.0,4.523809523809524,65.95238095238095,-38.80952380952381,256.90476190476187,48.01587301587301,-325.0,-325.0,72.14285714285714,-173.4126984126984,12.777777777777777,-325.0,67.6984126984127,-34.36507936507936,73.25396825396825,-262.9365079365079,-12.777777777777777,-325.0,-208.17460317460316,-67.6984126984127,-63.73015873015873,2.619047619047619,8.65079365079365,-166.26984126984127
-325.0,4.523809523809524,65.95238095238095,-38.80952380952381,256.90476190476187,48.01587301587301,-325.0,-325.0,72.14285714285714,-173.4126984126984,12.777777777777777,-325.0,67.6984126984127,-34.36507936507936,73.25396825396825,-262.9365079365079,-12.777777777777777,-325.0,-208.17460317460316,-67.6984126984127,-63.73015873015873,2.619047619047619,8.65079365079365,-166.26984126984127
-325.0,268.4920634920635,64.2063492063492,-38.17460317460317,229.9206349206349,-91.03174603174602,-325.0,-325.0,70.71428571428571,-169.9206349206349,18.174603174603174,-325.0,66.11111111111111,-33.73015873015873,71.66666666666666,-257.53968253968253,-12.777777777777777,-325.0,-203.88888888888889,-66.26984126984127,-62.3015873015873,2.142857142857143,-2.619047619047619,-321.8253968253968
-325.0,268.4920634920635,64.2063492063492,-38.17460317460317,229.9206349206349,-91.03174603174602,-325.0,-325.0,70.71428571428571,-169.9206349206349,18.174603174603174,-325.0,66.11111111111111,-33.73015873015873,71.66666666666666,-257.53968253968253,-12.777777777777777,-325.0,-203.88888888888889,-66.26984126984127,-62.3015873015873,2.142857142857143,-2.619047619047619,-321.8253968253968
-325.0,268.6507936507936,63.888888888888886,-37.857142857142854,134.84126984126982,-189.60317460317458,-325.0,-325.0,70.39682539682539,-169.12698412698413,-62.93650793650793,-325.0,65.79365079365078,-33.57142857142857,71.5079365079365,-256.4285714285714,-12.46031746031746,-325.0,-202.93650793650792,-65.79365079365078,-62.14285714285714,5.158730158730158,4.682539682539682,-321.8253968253968
-325.0,268.6507936507936,63.888888888888886,-37.857142857142854,134.84126984126982,-189.60317460317458,-325.0,-325.0,70.39682539682539,-169.12698412698413,-62.93650793650793,-325.0,65.79365079365078,-33.57142857142857,71.5079365079365,-256.4285714285714,-12.46031746031746,-325.0,-202.93650793650792,-65.79365079365078,-62.14285714285714,5.158730158730158,4.682539682539682,-321.8253968253968
-325.0,268.6507936507936,63.888888888888886,-37.857142857142854,134.84126984126982,-189.60317460317458,-325.0,-325.0,70.39682539682539,-169.12698412698413,-62.93650793650793,-325.0,65.79365079365078,-33.57142857142857,71.5079365079365,-256.4285714285714,-12.46031746031746,-325.0,-202.93650793650792,-65.79365079365078,-62.14285714285714,5.158730158730158,4.682539682539682,-321.8253968253968
-325.0,268.6507936507936,63.888888888888886,-37.857142857142854,134.84126984126982,-189.60317460317458,-325.0,-325.0,70.39682539682539,-169.12698412698413,-62.93650793650793,-325.0,65.79365079365078,-33.57142857142857,71.5079365079365,-256.4285714285714,-12.46031746031746,-325.0,-202.93650793650792,-65.79365079365078,-62.14285714285714,5.158730158730158,4.682539682539682,-321.8253968253968
-325.0,216.9047619047619,61.34920634920635,-36.11111111111111,-130.87301587301587,-325.0,-325.0,-325.0,67.6984126984127,-161.984126984127,-82.14285714285714,-325.0,62.93650793650793,-31.825396825396822,68.65079365079364,-245.95238095238093,-11.984126984126984,-325.0,-194.2063492063492,-62.93650793650793,-59.12698412698413,2.7777777777777777,7.698412698412698,-321.8253968253968
-325.0,216.9047619047619,61.34920634920635,-36.11111111111111,-130.87301587301587,-325.0,-325.0,-325.0,67.6984126984127,-161.984126984127,-82.14285714285714,-325.0,62.93650793650793,-31.825396825396822,68.65079365079364,-245.95238095238093,-11.984126984126984,-325.0,-194.2063492063492,-62.93650793650793,-59.12698412698413,2.7777777777777777,7.698412698412698,-321.8253968253968
-325.0,270.87301587301585,60.55555555555555,-35.476190476190474,-133.25396825396825,-325.0,-325.0,-325.0,66.74603174603175,-160.07936507936506,-81.03174603174602,-325.0,61.98412698412698,-31.507936507936506,67.53968253968253,-242.93650793650792,-11.984126984126984,-325.0,-191.8253968253968,-62.14285714285714,-58.33333333333333,3.4126984126984126,6.904761904761904,-321.8253968253968
-325.0,270.87301587301585,60.55555555555555,-35.476190476190474,-133.25396825396825,-325.0,-325.0,-325.0,66.74603174603175,-160.07936507936506,-81.03174603174602,-325.0,61.98412698412698,-31.507936507936506,67.53968253968253,-242.93650793650792,-11.984126984126984,-325.0,-191.8253968253968,-62.14285714285714,-58.33333333333333,3.4126984126984126,6.904761904761904,-321.8253968253968
-325.0,325.0,58.8095238095238,-34.682539682539684,-134.52380952380952,-325.0,-325.0,-325.0,65.0,-155.79365079365078,-78.65079365079364,-325.0,60.55555555555555,-30.71428571428571,65.79365079365078,-236.9047619047619,-11.507936507936508,-325.0,-186.74603174603175,-60.71428571428571,-56.904761904761905,-1.349206349206349,0.7142857142857142,-166.26984126984127
-325.0,325.0,58.8095238095238,-34.682539682539684,-134.52380952380952,-325.0,-325.0,-325.0,65.0,-155.79365079365078,-78.65079365079364,-325.0,60.55555555555555,-30.71428571428571,65.79365079365078,-236.9047619047619,-11.507936507936508,-325.0,-186.74603174603175,-60.71428571428571,-56.904761904761905,-1.349206349206349,0.7142857142857142,-166.26984126984127
-325.0,325.0,58.01587301587301,-34.2063492063492,-119.92063492063491,-325.0,-325.0,-325.0,64.04761904761905,-153.73015873015873,-74.68253968253968,-325.0,59.92063492063492,-30.396825396825395,65.0,-234.04761904761904,-11.349206349206348,-325.0,-184.36507936507937,-59.76190476190476,-56.11111111111111,-0.7142857142857142,-0.5555555555555556,-166.26984126984127
-325.0,325.0,58.01587301587301,-34.2063492063492,-119.92063492063491,-325.0,-325.0,-325.0,64.04761904761905,-153.73015873015873,-74.68253968253968,-325.0,59.92063492063492,-30.396825396825395,65.0,-234.04761904761904,-11.349206349206348,-325.0,-184.36507936507937,-59.76190476190476,-56.11111111111111,-0.7142857142857142,-0.5555555555555556,-166.26984126984127
-325.0,325.0,56.904761904761905,-33.41269841269841,-118.65079365079364,-325.0,-325.0,-325.0,62.77777777777777,-150.7142857142857,-73.57142857142857,-325.0,58.650793650793645,-29.6031746031746,63.57142857142857,-229.28571428571428,-11.349206349206348,-325.0,-180.55555555555554,-58.49206349206349,-54.841269841269835,-1.6666666666666665,0.7142857142857142,-166.26984126984127
-325.0,325.0,56.904761904761905,-33.41269841269841,-118.65079365079364,-325.0,-325.0,-325.0,62.77777777777777,-150.7142857142857,-73.57142857142857,-325.0,58.650793650793645,-29.6031746031746,63.57142857142857,-229.28571428571428,-11.349206349206348,-325.0,-180.55555555555554,-58.49206349206349,-54.841269841269835,-1.6666666666666665,0.7142857142857142,-166.26984126984127
-325.0,325.0,55.63492063492063,-32.77777777777778,-127.22222222222221,-325.0,-325.0,-325.0,61.666666666666664,-148.015873015873,-74.84126984126983,-325.0,57.38095238095238,-28.96825396825397,62.460317460317455,-225.3174603174603,-11.349206349206348,-325.0,-177.38095238095238,-57.38095238095238,-53.73015873015873,1.507936507936508,-0.7142857142857142,-166.26984126984127
-325.0,325.0,55.63492063492063,-32.77777777777778,-127.22222222222221,-325.0,-325.0,-325.0,61.666666666666664,-148.015873015873,-74.84126984126983,-325.0,57.38095238095238,-28.96825396825397,62.460317460317455,-225.3174603174603,-11.349206349206348,-325.0,-177.38095238095238,-57.38095238095238,-53.73015873015873,1.507936507936508,-0.7142857142857142,-166.26984126984127
-325.0,325.0,55.63492063492063,-32.460317460317455,-125.63492063492063,-325.0,-325.0,-325.0,61.507936507936506,-147.38095238095238,-74.36507936507937,-325.0,57.22222222222222,-28.809523809523807,62.3015873015873,-224.36507936507934,-11.349206349206348,-325.0,-176.58730158730157,-57.06349206349206,-53.41269841269841,4.0476190476190474,6.428571428571428,-166.26984126984127
-325.0,325.0,55.63492063492063,-32.460317460317455,-125.63492063492063,-325.0,-325.0,-325.0,61.507936507936506,-147.38095238095238,-74.36507936507937,-325.0,57.22222222222222,-28.809523809523807,62.3015873015873,-224.36507936507934,-11.349206349206348,-325.0,-176.58730158730157,-57.06349206349206,-53.41269841269841,4.0476190476190474,6.428571428571428,-166.26984126984127
-322.1428571428571,325.0,54.52380952380952,-31.825396825396822,-122.93650793650794,-325.0,-325.0,-325.0,60.39682539682539,-144.84126984126982,-73.25396825396825,-325.0,56.11111111111111,-28.333333333333332,61.19047619047619,-220.7142857142857,-11.19047619047619,-325.0,-173.57142857142856,-56.269841269841265,-52.460317460317455,3.571428571428571,6.428571428571428,-321.8253968253968
-322.1428571428571,325.0,54.52380952380952,-31.825396825396822,-122.93650793650794,-325.0,-325.0,-325.0,60.39682539682539,-144.84126984126982,-73.25396825396825,-325.0,56.11111111111111,-28.333333333333332,61.19047619047619,-220.7142857142857,-11.19047619047619,-325.0,-173.57142857142856,-56.269841269841265,-52.460317460317455,3.571428571428571,6.428571428571428,-321.8253968253968
-315.3174603174603,325.0,52.93650793650794,-31.19047619047619,-92.61904761904762,-325.0,-325.0,-325.0,58.650793650793645,-140.55555555555554,-51.98412698412698,-325.0,54.68253968253968,-27.539682539682538,59.6031746031746,-214.36507936507937,-10.714285714285714,-325.0,-168.4920634920635,-54.36507936507936,-50.87301587301587,-1.984126984126984,-0.23809523809523808,-321.8253968253968
-315.3174603174603,325.0,52.93650793650794,-31.19047619047619,-92.61904761904762,-325.0,-325.0,-325.0,58.650793650793645,-140.55555555555554,-51.98412698412698,-325.0,54.68253968253968,-27.539682539682538,59.6031746031746,-214.36507936507937,-10.714285714285714,-325.0,-168.4920634920635,-54.36507936507936,-50.87301587301587,-1.984126984126984,-0.23809523809523808,-321.8253968253968
-311.031746031746,325.0,52.3015873015873,-30.71428571428571,-66.11111111111111,-325.0,-325.0,-325.0,57.857142857142854,-138.65079365079364,-38.33333333333333,-325.0,53.888888888888886,-27.063492063492063,58.49206349206349,-211.8253968253968,-10.555555555555555,-325.0,-166.26984126984127,-54.047619047619044,-50.079365079365076,-0.3968253968253968,-7.063492063492063,-321.8253968253968
-311.031746031746,325.0,52.3015873015873,-30.71428571428571,-66.11111111111111,-325.0,-325.0,-325.0,57.857142857142854,-138.65079365079364,-38.33333333333333,-325.0,53.888888888888886,-27.063492063492063,58.49206349206349,-211.8253968253968,-10.555555555555555,-325.0,-166.26984126984127,-54.047619047619044,-50.079365079365076,-0.3968253968253968,-7.063492063492063,-321.8253968253968
-305.7936507936508,325.0,51.34920634920635,-30.07936507936508,17.539682539682538,-325.0,-325.0,-325.0,57.06349206349206,-136.42857142857142,100.87301587301587,-325.0,52.93650793650794,-26.587301587301585,57.698412698412696,-208.17460317460316,-10.555555555555555,-325.0,-163.25396825396825,-52.93650793650794,-49.285714285714285,-0.23809523809523808,6.111111111111111,-321.8253968253968
-305.7936507936508,325.0,51.34920634920635,-30.07936507936508,17.539682539682538,-325.0,-325.0,-325.0,57.06349206349206,-136.42857142857142,100.87301587301587,-325.0,52.93650793650794,-26.587301587301585,57.698412698412696,-208.17460317460316,-10.555555555555555,-325.0,-163.25396825396825,-52.93650793650794,-49.285714285714285,-0.23809523809523808,6.111111111111111,-321.8253968253968
-305.7936507936508,325.0,51.34920634920635,-30.07936507936508,17.539682539682538,-325.0,-325.0,-325.0,57.06349206349206,-136.42857142857142,100.87301587301587,-325.0,52.93650793650794,-26.587301587301585,57.698412698412696,-208.17460317460316,-10.555555555555555,-325.0,-163.25396825396825,-52.93650793650794,-49.285714285714285,-0.23809523809523808,6.111111111111111,-321.8253968253968
-305.7936507936508,325.0,51.34920634920635,-30.07936507936508,17.539682539682538,-325.0,-325.0,-325.0,57.06349206349206,-136.42857142857142,100.87301587301587,-325.0,52.93650793650794,-26.587301587301585,57.698412698412696,-208.17460317460316,-10.555555555555555,-325.0,-163.25396825396825,-52.93650793650794,-49.285714285714285,-0.23809523809523808,6.111111111111111,-321.8253968253968
-299.4444444444444,325.0,50.238095238095234,-29.444444444444443,144.52380952380952,-325.0,-325.0,-325.0,55.79365079365079,-133.73015873015873,212.93650793650792,-325.0,51.82539682539682,-25.952380952380953,56.42857142857142,-204.04761904761904,-10.396825396825395,-325.0,-159.76190476190476,-51.98412698412698,-48.17460317460317,-1.8253968253968254,-0.873015873015873,-166.26984126984127
-299.4444444444444,325.0,50.238095238095234,-29.444444444444443,144.52380952380952,-325.0,-325.0,-325.0,55.79365079365079,-133.73015873015873,212.93650793650792,-325.0,51.82539682539682,-25.952380952380953,56.42857142857142,-204.04761904761904,-10.396825396825395,-325.0,-159.76190476190476,-51.98412698412698,-48.17460317460317,-1.8253968253968254,-0.873015873015873,-166.26984126984127
-290.55555555555554,325.0,48.650793650793645,-28.65079365079365,3.095238095238095,-325.0,-325.0,-325.0,53.888888888888886,-129.44444444444443,94.2063492063492,-325.0,50.39682539682539,-25.317460317460316,54.841269841269835,-198.17460317460316,-9.920634920634921,-325.0,-155.15873015873015,-50.238095238095234,-46.74603174603175,0.07936507936507936,-6.111111111111111,-166.26984126984127
-290.55555555555554,325.0,48.650793650793645,-28.65079365079365,3.095238095238095,-325.0,-325.0,-325.0,53.888888888888886,-129.44444444444443,94.2063492063492,-325.0,50.39682539682539,-25.317460317460316,54.841269841269835,-198.17460317460316,-9.920634920634921,-325.0,-155.15873015873015,-50.238095238095234,-46.74603174603175,0.07936507936507936,-6.111111111111111,-166.26984126984127
-290.55555555555554,325.0,48.650793650793645,-28.65079365079365,3.095238095238095,-325.0,-325.0,-325.0,53.888888888888886,-129.44444444444443,94.2063492063492,-325.0,50.39682539682539,-25.317460317460316,54.841269841269835,-198.17460317460316,-9.920634920634921,-325.0,-155.15873015873015,-50.238095238095234,-46.74603174603175,0.07936507936507936,-6.111111111111111,-166.26984126984127
-290.55555555555554,325.0,48.650793650793645,-28.65079365079365,3.095238095238095,-325.0,-325.0,-325.0,53.888888888888886,-129.44444444444443,94.2063492063492,-325.0,50.39682539682539,-25.317460317460316,54.841269841269835,-198.17460317460316,-9.920634920634921,-325.0,-155.15873015873015,-50.238095238095234,-46.74603174603175,0.07936507936507936,-6.111111111111111,-166.26984126984127
-284.5238095238095,325.0,47.53968253968254,-28.015873015873016,6.111111111111111,-325.0,-325.0,-325.0,52.77777777777777,-126.58730158730158,125.31746031746032,-325.0,49.44444444444444,-25.0,53.57142857142857,-194.2063492063492,-9.761904761904761,-325.0,-151.8253968253968,-49.12698412698413,-45.79365079365079,1.984126984126984,0.7142857142857142,-166.26984126984127
-284.5238095238095,325.0,47.53968253968254,-28.015873015873016,6.111111111111111,-325.0,-325.0,-325.0,52.77777777777777,-126.58730158730158,125.31746031746032,-325.0,49.44444444444444,-25.0,53.57142857142857,-194.2063492063492,-9.761904761904761,-325.0,-151.8253968253968,-49.12698412698413,-45.79365079365079,1.984126984126984,0.7142857142857142,-166.26984126984127
-275.95238095238096,325.0,46.269841269841265,-27.063492063492063,-66.26984126984127,-325.0,-325.0,-325.0,51.19047619047619,-122.93650793650794,25.79365079365079,-325.0,48.01587301587301,-24.206349206349206,51.98412698412698,-188.4920634920635,-9.603174603174603,-325.0,-147.2222222222222,-47.698412698412696,-44.36507936507936,-0.07936507936507936,-0.5555555555555556,-166.26984126984127
-275.95238095238096,325.0,46.269841269841265,-27.063492063492063,-66.26984126984127,-325.0,-325.0,-325.0,51.19047619047619,-122.93650793650794,25.79365079365079,-325.0,48.01587301587301,-24.206349206349206,51.98412698412698,-188.4920634920635,-9.603174603174603,-325.0,-147.2222222222222,-47.698412698412696,-44.36507936507936,-0.07936507936507936,-0.5555555555555556,-166.26984126984127
-271.19047619047615,325.0,45.317460317460316,-26.428571428571427,-138.17460317460316,-325.0,-325.0,-325.0,50.39682539682539,-120.71428571428571,-106.26984126984127,-325.0,47.22222222222222,-23.41269841269841,51.19047619047619,-185.63492063492063,-9.126984126984127,-325.0,-144.68253968253967,-46.74603174603175,-43.57142857142857,-0.23809523809523808,-6.904761904761904,-321.8253968253968
-271.19047619047615,325.0,45.317460317460316,-26.428571428571427,-138.17460317460316,-325.0,-325.0,-325.0,50.39682539682539,-120.71428571428571,-106.26984126984127,-325.0,47.22222222222222,-23.41269841269841,51.19047619047619,-185.63492063492063,-9.126984126984127,-325.0,-144.68253968253967,-46.74603174603175,-43.57142857142857,-0.23809523809523808,-6.904761904761904,-321.8253968253968
-265.6349206349206,325.0,44.36507936507936,-25.79365079365079,-77.85714285714285,-325.0,-325.0,-325.0,49.44444444444444,-118.33333333333333,27.857142857142854,-325.0,46.269841269841265,-22.936507936507937,50.079365079365076,-181.5079365079365,-9.285714285714285,-324.04761904761904,-141.66666666666666,-45.79365079365079,-42.460317460317455,-3.253968253968254,-1.0317460317460316,-321.8253968253968
-265.6349206349206,325.0,44.36507936507936,-25.79365079365079,-77.85714285714285,-325.0,-325.0,-325.0,49.44444444444444,-118.33333333333333,27.857142857142854,-325.0,46.269841269841265,-22.936507936507937,50.079365079365076,-181.5079365079365,-9.285714285714285,-324.04761904761904,-141.66666666666666,-45.79365079365079,-42.460317460317455,-3.253968253968254,-1.0317460317460316,-321.8253968253968
-262.1428571428571,325.0,43.57142857142857,-25.476190476190474,-23.41269841269841,-325.0,-325.0,-325.0,48.80952380952381,-116.9047619047619,157.53968253968253,-325.0,45.63492063492063,-22.619047619047617,49.285714285714285,-179.28571428571428,-9.285714285714285,-320.55555555555554,-139.76190476190476,-45.317460317460316,-41.98412698412698,-0.3968253968253968,0.07936507936507936,-321.8253968253968
-262.1428571428571,325.0,43.57142857142857,-25.476190476190474,-23.41269841269841,-325.0,-325.0,-325.0,48.80952380952381,-116.9047619047619,157.53968253968253,-325.0,45.63492063492063,-22.619047619047617,49.285714285714285,-179.28571428571428,-9.285714285714285,-320.55555555555554,-139.76190476190476,-45.317460317460316,-41.98412698412698,-0.3968253968253968,0.07936507936507936,-321.8253968253968
-256.58730158730157,325.0,42.77777777777778,-25.0,-108.01587301587301,-325.0,-325.0,-325.0,47.698412698412696,-114.36507936507935,-28.96825396825397,-325.0,44.52380952380952,-22.142857142857142,48.49206349206349,-175.63492063492063,-9.285714285714285,-314.2063492063492,-136.74603174603175,-44.2063492063492,-41.03174603174603,-2.3015873015873014,-1.349206349206349,-321.8253968253968
-256.58730158730157,325.0,42.77777777777778,-25.0,-108.01587301587301,-325.0,-325.0,-325.0,47.698412698412696,-114.36507936507935,-28.96825396825397,-325.0,44.52380952380952,-22.142857142857142,48.49206349206349,-175.63492063492063,-9.285714285714285,-314.2063492063492,-136.74603174603175,-44.2063492063492,-41.03174603174603,-2.3015873015873014,-1.349206349206349,-321.8253968253968
-253.25396825396825,325.0,42.14285714285714,-24.84126984126984,-127.53968253968253,-325.0,-325.0,-325.0,47.22222222222222,-112.77777777777777,-96.26984126984127,-325.0,43.888888888888886,-21.825396825396822,47.857142857142854,-173.57142857142856,-8.968253968253968,-310.55555555555554,-135.0,-43.73015873015873,-40.55555555555555,-0.3968253968253968,0.07936507936507936,-321.8253968253968
-253.25396825396825,325.0,42.14285714285714,-24.84126984126984,-127.53968253968253,-325.0,-325.0,-325.0,47.22222222222222,-112.77777777777777,-96.26984126984127,-325.0,43.888888888888886,-21.825396825396822,47.857142857142854,-173.57142857142856,-8.968253968253968,-310.55555555555554,-135.0,-43.73015873015873,-40.55555555555555,-0.3968253968253968,0.07936507936507936,-321.8253968253968
-248.96825396825395,325.0,41.507936507936506,-24.365079365079364,-126.58730158730158,-325.0,-325.0,-325.0,46.42857142857142,-110.87301587301587,-100.87301587301587,-325.0,43.095238095238095,-13.888888888888888,46.904761904761905,-170.7142857142857,-8.968253968253968,-305.6349206349206,-132.77777777777777,-42.93650793650794,-39.6031746031746,-0.07936507936507936,-0.5555555555555556,-166.26984126984127
-248.96825396825395,325.0,41.507936507936506,-24.365079365079364,-126.58730158730158,-325.0,-325.0,-325.0,46.42857142857142,-110.87301587301587,-100.87301587301587,-325.0,43.095238095238095,-13.888888888888888,46.904761904761905,-170.7142857142857,-8.968253968253968,-305.6349206349206,-132.77777777777777,-42.93650793650794,-39.6031746031746,-0.07936507936507936,-0.5555555555555556,-166.26984126984127
-243.57142857142856,325.0,40.714285714285715,-23.730158730158728,-123.4126984126984,-325.0,-325.0,-325.0,45.317460317460316,-108.65079365079364,-43.41269841269841,-325.0,42.3015873015873,-11.984126984126984,46.11111111111111,-167.06349206349205,-8.65079365079365,-299.4444444444444,-129.76190476190476,-41.98412698412698,-38.96825396825397,1.6666666666666665,1.349206349206349,-166.26984126984127
-243.57142857142856,325.0,40.714285714285715,-23.730158730158728,-123.4126984126984,-325.0,-325.0,-325.0,45.317460317460316,-108.65079365079364,-43.41269841269841,-325.0,42.3015873015873,-11.984126984126984,46.11111111111111,-167.06349206349205,-8.65079365079365,-299.4444444444444,-129.76190476190476,-41.98412698412698,-38.96825396825397,1.6666666666666665,1.349206349206349,-166.26984126984127
-240.3968253968254,325.0,40.079365079365076,-23.57142857142857,128.96825396825395,-325.0,-325.0,-325.0,44.84126984126984,-107.06349206349206,325.0,-325.0,41.666666666666664,-21.984126984126984,45.476190476190474,-165.0,-8.492063492063492,-295.7936507936508,-128.33333333333331,-41.34920634920635,-38.33333333333333,-1.0317460317460316,5.317460317460317,-166.26984126984127
-240.3968253968254,325.0,40.079365079365076,-23.57142857142857,128.96825396825395,-325.0,-325.0,-325.0,44.84126984126984,-107.06349206349206,325.0,-325.0,41.666666666666664,-21.984126984126984,45.476190476190474,-165.0,-8.492063492063492,-295.7936507936508,-128.33333333333331,-41.34920634920635,-38.33333333333333,-1.0317460317460316,5.317460317460317,-166.26984126984127
-236.42857142857142,325.0,39.44444444444444,-23.095238095238095,4.0476190476190474,-325.0,-325.0,-325.0,44.047619047619044,-105.31746031746032,295.7936507936508,-325.0,41.19047619047619,-8.968253968253968,44.52380952380952,-161.984126984127,-8.65079365079365,-291.19047619047615,-125.95238095238095,-40.714285714285715,-37.53968253968254,-0.873015873015873,-4.365079365079365,-166.26984126984127
-236.42857142857142,325.0,39.44444444444444,-23.095238095238095,4.0476190476190474,-325.0,-325.0,-325.0,44.047619047619044,-105.31746031746032,295.7936507936508,-325.0,41.19047619047619,-8.968253968253968,44.52380952380952,-161.984126984127,-8.65079365079365,-291.19047619047615,-125.95238095238095,-40.714285714285715,-37.53968253968254,-0.873015873015873,-4.365079365079365,-166.26984126984127
-207.85714285714283,325.0,34.52380952380952,-20.555555555555554,325.0,-325.0,-289.76190476190476,-325.0,38.96825396825397,-92.61904761904762,325.0,-325.0,36.269841269841265,311.8253968253968,39.285714285714285,-143.25396825396825,-7.857142857142857,-258.4920634920635,-111.03174603174602,-35.95238095238095,-33.095238095238095,-5.317460317460317,-10.555555555555555,-166.26984126984127
-207.85714285714283,325.0,34.52380952380952,-20.555555555555554,325.0,-325.0,-289.76190476190476,-325.0,38.96825396825397,-92.61904761904762,325.0,-325.0,36.269841269841265,311.8253968253968,39.285714285714285,-143.25396825396825,-7.857142857142857,-258.4920634920635,-111.03174603174602,-35.95238095238095,-33.095238095238095,-5.317460317460317,-10.555555555555555,-166.26984126984127
-207.85714285714283,325.0,34.52380952380952,-20.555555555555554,325.0,-325.0,-289.76190476190476,-325.0,38.96825396825397,-92.61904761904762,325.0,-325.0,36.269841269841265,311.8253968253968,39.285714285714285,-143.25396825396825,-7.857142857142857,-258.4920634920635,-111.03174603174602,-35.95238095238095,-33.095238095238095,-5.317460317460317,-10.555555555555555,-321.8253968253968
-207.85714285714283,325.0,34.52380952380952,-20.555555555555554,325.0,-325.0,-289.76190476190476,-325.0,38.96825396825397,-92.61904761904762,325.0,-325.0,36.269841269841265,311.8253968253968,39.285714285714285,-143.25396825396825,-7.857142857142857,-258.4920634920635,-111.03174603174602,-35.95238095238095,-33.095238095238095,-5.317460317460317,-10.555555555555555,-321.8253968253968
-133.57142857142856,325.0,22.3015873015873,325.0,325.0,-325.0,-188.8095238095238,-302.46031746031747,-325.0,139.9206349206349,325.0,-301.5079365079365,23.88888888888889,325.0,-325.0,-93.88888888888889,-5.7936507936507935,-171.5079365079365,-71.19047619047619,325.0,-21.19047619047619,-2.9365079365079363,-1.0317460317460316,-321.8253968253968
-133.57142857142856,325.0,22.3015873015873,325.0,325.0,-325.0,-188.8095238095238,-302.46031746031747,-325.0,139.9206349206349,325.0,-301.5079365079365,23.88888888888889,325.0,-325.0,-93.88888888888889,-5.7936507936507935,-171.5079365079365,-71.19047619047619,325.0,-21.19047619047619,-2.9365079365079363,-1.0317460317460316,-321.8253968253968
-133.57142857142856,325.0,22.3015873015873,325.0,325.0,-325.0,-188.8095238095238,-302.46031746031747,-325.0,139.9206349206349,325.0,-301.5079365079365,23.88888888888889,325.0,-325.0,-93.88888888888889,-5.7936507936507935,-171.5079365079365,-71.19047619047619,325.0,-21.19047619047619,-2.9365079365079363,-1.0317460317460316,-321.8253968253968
-133.57142857142856,325.0,22.3015873015873,325.0,325.0,-325.0,-188.8095238095238,-302.46031746031747,-325.0,139.9206349206349,325.0,-301.5079365079365,23.88888888888889,325.0,-325.0,-93.88888888888889,-5.7936507936507935,-171.5079365079365,-71.19047619047619,325.0,-21.19047619047619,-2.9365079365079363,-1.0317460317460316,-321.8253968253968
-133.57142857142856,325.0,22.3015873015873,325.0,325.0,-325.0,-188.8095238095238,-302.46031746031747,-325.0,139.9206349206349,325.0,-301.5079365079365,23.88888888888889,325.0,-325.0,-93.88888888888889,-5.7936507936507935,-171.5079365079365,-71.19047619047619,325.0,-21.19047619047619,-2.9365079365079363,-1.0317460317460316,-321.8253968253968
-133.57142857142856,325.0,22.3015873015873,325.0,325.0,-325.0,-188.8095238095238,-302.46031746031747,-325.0,139.9206349206349,325.0,-301.5079365079365,23.88888888888889,325.0,-325.0,-93.88888888888889,-5.7936507936507935,-171.5079365079365,-71.19047619047619,325.0,-21.19047619047619,-2.9365079365079363,-1.0317460317460316,-321.8253968253968
-126.74603174603173,325.0,21.03174603174603,325.0,325.0,-312.1428571428571,-179.12698412698413,-288.015873015873,-325.0,241.03174603174602,325.0,-286.74603174603175,22.46031746031746,325.0,-325.0,-89.6031746031746,-5.476190476190476,-163.4126984126984,-67.22222222222221,325.0,158.17460317460316,1.984126984126984,1.1904761904761905,-321.8253968253968
-126.74603174603173,325.0,21.03174603174603,325.0,325.0,-312.1428571428571,-179.12698412698413,-288.015873015873,-325.0,241.03174603174602,325.0,-286.74603174603175,22.46031746031746,325.0,-325.0,-89.6031746031746,-5.476190476190476,-163.4126984126984,-67.22222222222221,325.0,158.17460317460316,1.984126984126984,1.1904761904761905,-321.8253968253968
-124.68253968253967,325.0,20.71428571428571,325.0,325.0,-307.22222222222223,-176.42857142857142,-283.57142857142856,-325.0,246.42857142857142,325.0,-282.1428571428571,22.142857142857142,325.0,-325.0,-87.85714285714285,19.126984126984127,-160.87301587301587,-66.26984126984127,325.0,162.77777777777777,2.46031746031746,1.1904761904761905,-166.26984126984127
-124.68253968253967,325.0,20.71428571428571,325.0,325.0,-307.22222222222223,-176.42857142857142,-283.57142857142856,-325.0,246.42857142857142,325.0,-282.1428571428571,22.142857142857142,325.0,-325.0,-87.85714285714285,19.126984126984127,-160.87301587301587,-66.26984126984127,325.0,162.77777777777777,2.46031746031746,1.1904761904761905,-166.26984126984127
-121.5079365079365,325.0,20.238095238095237,325.0,325.0,-299.9206349206349,-171.8253968253968,-276.90476190476187,-325.0,170.55555555555554,325.0,-275.1587301587301,21.666666666666664,325.0,-325.0,-85.79365079365078,-3.4126984126984126,-156.9047619047619,-64.52380952380952,325.0,163.09523809523807,1.984126984126984,10.555555555555555,-166.26984126984127
-121.5079365079365,325.0,20.238095238095237,325.0,325.0,-299.9206349206349,-171.8253968253968,-276.90476190476187,-325.0,170.55555555555554,325.0,-275.1587301587301,21.666666666666664,325.0,-325.0,-85.79365079365078,-3.4126984126984126,-156.9047619047619,-64.52380952380952,325.0,163.09523809523807,1.984126984126984,10.555555555555555,-166.26984126984127
-119.92063492063491,325.0,-8.015873015873016,325.0,325.0,-296.26984126984127,-169.60317460317458,-273.73015873015873,-325.0,220.87301587301587,325.0,-271.8253968253968,20.873015873015873,325.0,-325.0,-84.52380952380952,0.873015873015873,-155.15873015873015,-63.73015873015873,325.0,244.04761904761904,2.142857142857143,5.7936507936507935,-166.26984126984127
-119.92063492063491,325.0,-8.015873015873016,325.0,325.0,-296.26984126984127,-169.60317460317458,-273.73015873015873,-325.0,220.87301587301587,325.0,-271.8253968253968,20.873015873015873,325.0,-325.0,-84.52380952380952,0.873015873015873,-155.15873015873015,-63.73015873015873,325.0,244.04761904761904,2.142857142857143,5.7936507936507935,-166.26984126984127
-117.53968253968253,325.0,-13.888888888888888,325.0,325.0,-290.23809523809524,-166.26984126984127,-268.015873015873,-325.0,181.03174603174602,325.0,-266.58730158730157,21.19047619047619,325.0,-325.0,-82.3015873015873,-5.476190476190476,-151.8253968253968,-62.3015873015873,325.0,325.0,1.507936507936508,9.444444444444445,-166.26984126984127
-117.53968253968253,325.0,-13.888888888888888,325.0,325.0,-290.23809523809524,-166.26984126984127,-268.015873015873,-325.0,181.03174603174602,325.0,-266.58730158730157,21.19047619047619,325.0,-325.0,-82.3015873015873,-5.476190476190476,-151.8253968253968,-62.3015873015873,325.0,325.0,1.507936507936508,9.444444444444445,-166.26984126984127
-114.84126984126983,325.0,4.682539682539682,325.0,325.0,-284.36507936507934,-162.61904761904762,-262.77777777777777,-325.0,307.53968253968253,325.0,-260.7142857142857,20.71428571428571,325.0,-325.0,-80.87301587301587,325.0,-148.96825396825395,-61.03174603174603,325.0,325.0,-0.07936507936507936,-4.682539682539682,-166.26984126984127
-114.84126984126983,325.0,4.682539682539682,325.0,325.0,-284.36507936507934,-162.61904761904762,-262.77777777777777,-325.0,307.53968253968253,325.0,-260.7142857142857,20.71428571428571,325.0,-325.0,-80.87301587301587,325.0,-148.96825396825395,-61.03174603174603,325.0,325.0,-0.07936507936507936,-4.682539682539682,-166.26984126984127
-113.4126984126984,325.0,13.888888888888888,325.0,325.0,-280.87301587301585,-160.3968253968254,-259.76190476190476,-325.0,208.015873015873,325.0,-257.53968253968253,20.238095238095237,325.0,-325.0,-79.76190476190476,264.36507936507934,-147.38095238095238,-60.238095238095234,325.0,325.0,1.984126984126984,7.857142857142857,-321.8253968253968
-113.4126984126984,325.0,13.888888888888888,325.0,325.0,-280.87301587301585,-160.3968253968254,-259.76190476190476,-325.0,208.015873015873,325.0,-257.53968253968253,20.238095238095237,325.0,-325.0,-79.76190476190476,264.36507936507934,-147.38095238095238,-60.238095238095234,325.0,325.0,1.984126984126984,7.857142857142857,-321.8253968253968
-110.87301587301587,323.73015873015873,-325.0,325.0,325.0,-275.1587301587301,-157.06349206349205,-254.36507936507934,-325.0,318.17460317460313,325.0,-251.98412698412696,-225.63492063492063,325.0,-325.0,-78.01587301587301,-18.333333333333332,-144.04761904761904,-58.650793650793645,325.0,325.0,0.3968253968253968,-3.888888888888889,-321.8253968253968
-110.87301587301587,323.73015873015873,-325.0,325.0,325.0,-275.1587301587301,-157.06349206349205,-254.36507936507934,-325.0,318.17460317460313,325.0,-251.98412698412696,-225.63492063492063,325.0,-325.0,-78.01587301587301,-18.333333333333332,-144.04761904761904,-58.650793650793645,325.0,325.0,0.3968253968253968,-3.888888888888889,-321.8253968253968
-109.44444444444444,319.9206349206349,-325.0,325.0,272.1428571428571,-271.66666666666663,-154.84126984126982,-251.19047619047618,-325.0,227.53968253968253,325.0,-248.65079365079364,-152.14285714285714,325.0,-325.0,-77.06349206349206,-19.76190476190476,-142.14285714285714,-58.01587301587301,325.0,325.0,1.1904761904761905,8.65079365079365,-321.8253968253968
-109.44444444444444,319.9206349206349,-325.0,325.0,272.1428571428571,-271.66666666666663,-154.84126984126982,-251.19047619047618,-325.0,227.53968253968253,325.0,-248.65079365079364,-152.14285714285714,325.0,-325.0,-77.06349206349206,-19.76190476190476,-142.14285714285714,-58.01587301587301,325.0,325.0,1.1904761904761905,8.65079365079365,-321.8253968253968
-108.17460317460316,315.95238095238096,-316.4285714285714,325.0,298.4920634920635,-268.4920634920635,-152.93650793650792,-248.33333333333331,-325.0,275.3174603174603,325.0,-245.63492063492063,-143.25396825396825,325.0,-325.0,-76.1111111111111,121.66666666666666,-140.55555555555554,-57.22222222222222,325.0,325.0,1.507936507936508,5.158730158730158,-321.8253968253968
-108.17460317460316,315.95238095238096,-316.4285714285714,325.0,298.4920634920635,-268.4920634920635,-152.93650793650792,-248.33333333333331,-325.0,275.3174603174603,325.0,-245.63492063492063,-143.25396825396825,325.0,-325.0,-76.1111111111111,121.66666666666666,-140.55555555555554,-57.22222222222222,325.0,325.0,1.507936507936508,5.158730158730158,-321.8253968253968
-105.79365079365078,309.4444444444444,-325.0,325.0,325.0,-262.9365079365079,-149.9206349206349,-243.4126984126984,-325.0,240.55555555555554,325.0,-240.55555555555554,-143.73015873015873,325.0,-325.0,-74.52380952380952,205.0,-137.69841269841268,-55.95238095238095,325.0,325.0,1.0317460317460316,8.65079365079365,-321.8253968253968
-105.79365079365078,309.4444444444444,-325.0,325.0,325.0,-262.9365079365079,-149.9206349206349,-243.4126984126984,-325.0,240.55555555555554,325.0,-240.55555555555554,-143.73015873015873,325.0,-325.0,-74.52380952380952,205.0,-137.69841269841268,-55.95238095238095,325.0,325.0,1.0317460317460316,8.65079365079365,-321.8253968253968
-104.36507936507935,305.4761904761905,-325.0,325.0,325.0,-259.76190476190476,-148.015873015873,-240.55555555555554,-325.0,278.8095238095238,325.0,-237.69841269841268,-165.95238095238093,325.0,-325.0,-73.57142857142857,265.0,-136.11111111111111,-55.317460317460316,325.0,325.0,1.984126984126984,5.476190476190476,-166.26984126984127
-104.36507936507935,305.4761904761905,-325.0,325.0,325.0,-259.76190476190476,-148.015873015873,-240.55555555555554,-325.0,278.8095238095238,325.0,-237.69841269841268,-165.95238095238093,325.0,-325.0,-73.57142857142857,265.0,-136.11111111111111,-55.317460317460316,325.0,325.0,1.984126984126984,5.476190476190476,-166.26984126984127
-101.82539682539682,298.3333333333333,-314.5238095238095,325.0,325.0,-253.57142857142856,-144.36507936507937,-234.68253968253967,-325.0,267.22222222222223,325.0,-231.66666666666666,-136.74603174603175,325.0,-325.0,-71.82539682539682,252.14285714285714,-132.93650793650792,-53.888888888888886,325.0,325.0,-0.7142857142857142,2.7777777777777777,-166.26984126984127
-101.82539682539682,298.3333333333333,-314.5238095238095,325.0,325.0,-253.57142857142856,-144.36507936507937,-234.68253968253967,-325.0,267.22222222222223,325.0,-231.66666666666666,-136.74603174603175,325.0,-325.0,-71.82539682539682,252.14285714285714,-132.93650793650792,-53.888888888888886,325.0,325.0,-0.7142857142857142,2.7777777777777777,-166.26984126984127
-99.76190476190476,293.4126984126984,-325.0,325.0,325.0,-249.28571428571428,-141.66666666666666,-230.87301587301587,-325.0,325.0,325.0,-227.69841269841268,-325.0,325.0,-325.0,-70.39682539682539,280.07936507936506,-130.55555555555554,-52.93650793650794,325.0,325.0,1.1904761904761905,-2.9365079365079363,-166.26984126984127
-99.76190476190476,293.4126984126984,-325.0,325.0,325.0,-249.28571428571428,-141.66666666666666,-230.87301587301587,-325.0,325.0,325.0,-227.69841269841268,-325.0,325.0,-325.0,-70.39682539682539,280.07936507936506,-130.55555555555554,-52.93650793650794,325.0,325.0,1.1904761904761905,-2.9365079365079363,-166.26984126984127
-99.28571428571428,292.1428571428571,-325.0,325.0,325.0,-248.17460317460316,-140.87301587301587,-229.9206349206349,-325.0,325.0,325.0,-226.58730158730157,-325.0,325.0,-325.0,-70.07936507936508,235.15873015873015,-130.07936507936506,-52.61904761904761,325.0,325.0,4.2063492063492065,3.253968253968254,-166.26984126984127
-99.28571428571428,292.1428571428571,-325.0,325.0,325.0,-248.17460317460316,-140.87301587301587,-229.9206349206349,-325.0,325.0,325.0,-226.58730158730157,-325.0,325.0,-325.0,-70.07936507936508,235.15873015873015,-130.07936507936506,-52.61904761904761,325.0,325.0,4.2063492063492065,3.253968253968254,-166.26984126984127
-81.98412698412697,283.73015873015873,-275.0,325.0,325.0,-241.5079365079365,-137.38095238095238,-223.88888888888889,-325.0,325.0,325.0,-220.2380952380952,-132.93650793650792,325.0,-325.0,-68.4920634920635,325.0,-126.58730158730158,-51.19047619047619,325.0,325.0,-1.1904761904761905,-3.888888888888889,-166.26984126984127
-81.98412698412697,283.73015873015873,-275.0,325.0,325.0,-241.5079365079365,-137.38095238095238,-223.88888888888889,-325.0,325.0,325.0,-220.2380952380952,-132.93650793650792,325.0,-325.0,-68.4920634920635,325.0,-126.58730158730158,-51.19047619047619,325.0,325.0,-1.1904761904761905,-3.888888888888889,-166.26984126984127
-80.23809523809523,280.23809523809524,-225.0,325.0,325.0,-238.65079365079364,-135.63492063492063,-221.19047619047618,-325.0,317.53968253968253,325.0,-217.69841269841268,-109.28571428571428,325.0,-325.0,-67.53968253968253,325.0,-125.15873015873015,-50.71428571428571,325.0,325.0,-0.7142857142857142,-0.5555555555555556,-321.8253968253968
-80.23809523809523,280.23809523809524,-225.0,325.0,325.0,-238.65079365079364,-135.63492063492063,-221.19047619047618,-325.0,317.53968253968253,325.0,-217.69841269841268,-109.28571428571428,325.0,-325.0,-67.53968253968253,325.0,-125.15873015873015,-50.71428571428571,325.0,325.0,-0.7142857142857142,-0.5555555555555556,-321.8253968253968
-89.44444444444444,275.7936507936508,-274.36507936507934,325.0,325.0,-234.68253968253967,-133.0952380952381,-217.69841269841268,-325.0,317.53968253968253,325.0,-214.04761904761904,-208.65079365079364,325.0,-325.0,-66.26984126984127,325.0,-122.93650793650794,-49.6031746031746,325.0,325.0,0.873015873015873,0.7142857142857142,-321.8253968253968
-89.44444444444444,275.7936507936508,-274.36507936507934,325.0,325.0,-234.68253968253967,-133.0952380952381,-217.69841269841268,-325.0,317.53968253968253,325.0,-214.04761904761904,-208.65079365079364,325.0,-325.0,-66.26984126984127,325.0,-122.93650793650794,-49.6031746031746,325.0,325.0,0.873015873015873,0.7142857142857142,-321.8253968253968
-91.98412698412697,270.07936507936506,-325.0,325.0,218.4920634920635,-229.60317460317458,-130.23809523809524,-212.93650793650792,-325.0,291.031746031746,325.0,-209.12698412698413,-325.0,325.0,-325.0,-65.0,229.9206349206349,-120.39682539682539,-48.49206349206349,325.0,325.0,-0.873015873015873,2.46031746031746,-321.8253968253968
-91.98412698412697,270.07936507936506,-325.0,325.0,218.4920634920635,-229.60317460317458,-130.23809523809524,-212.93650793650792,-325.0,291.031746031746,325.0,-209.12698412698413,-325.0,325.0,-325.0,-65.0,229.9206349206349,-120.39682539682539,-48.49206349206349,325.0,325.0,-0.873015873015873,2.46031746031746,-321.8253968253968
-89.44444444444444,263.57142857142856,-325.0,325.0,-245.0,-224.04761904761904,-126.58730158730158,-207.85714285714283,-325.0,297.53968253968253,325.0,-204.04761904761904,-325.0,325.0,-325.0,-62.93650793650793,-42.14285714285714,-117.38095238095238,-46.904761904761905,325.0,325.0,1.1904761904761905,5.7936507936507935,-321.8253968253968
-89.44444444444444,263.57142857142856,-325.0,325.0,-245.0,-224.04761904761904,-126.58730158730158,-207.85714285714283,-325.0,297.53968253968253,325.0,-204.04761904761904,-325.0,325.0,-325.0,-62.93650793650793,-42.14285714285714,-117.38095238095238,-46.904761904761905,325.0,325.0,1.1904761904761905,5.7936507936507935,-321.8253968253968
-87.85714285714285,259.1269841269841,-325.0,325.0,292.46031746031747,-220.55555555555554,-124.68253968253967,-204.52380952380952,-325.0,325.0,325.0,-200.55555555555554,-325.0,325.0,-325.0,-62.3015873015873,297.06349206349205,-115.63492063492063,-46.42857142857142,325.0,325.0,-5.476190476190476,-6.904761904761904,-321.8253968253968
-87.85714285714285,259.1269841269841,-325.0,325.0,292.46031746031747,-220.55555555555554,-124.68253968253967,-204.52380952380952,-325.0,325.0,325.0,-200.55555555555554,-325.0,325.0,-325.0,-62.3015873015873,297.06349206349205,-115.63492063492063,-46.42857142857142,325.0,325.0,-5.476190476190476,-6.904761904761904,-321.8253968253968
-50.39682539682539,254.84126984126982,-325.0,325.0,325.0,-217.06349206349205,-122.77777777777777,-201.34920634920633,-325.0,304.04761904761904,325.0,-197.53968253968253,-325.0,325.0,-325.0,-61.19047619047619,325.0,-113.88888888888889,-45.79365079365079,325.0,325.0,1.349206349206349,6.26984126984127,-166.26984126984127
-50.39682539682539,254.84126984126982,-325.0,325.0,325.0,-217.06349206349205,-122.77777777777777,-201.34920634920633,-325.0,304.04761904761904,325.0,-197.53968253968253,-325.0,325.0,-325.0,-61.19047619047619,325.0,-113.88888888888889,-45.79365079365079,325.0,325.0,1.349206349206349,6.26984126984127,-166.26984126984127
-7.857142857142857,251.66666666666666,-325.0,325.0,325.0,-214.68253968253967,-121.34920634920634,-199.12698412698413,-325.0,304.04761904761904,325.0,-195.15873015873015,-315.6349206349206,325.0,-325.0,-60.39682539682539,325.0,-112.6190476190476,-45.15873015873016,325.0,325.0,-0.873015873015873,-0.3968253968253968,-166.26984126984127
-7.857142857142857,251.66666666666666,-325.0,325.0,325.0,-214.68253968253967,-121.34920634920634,-199.12698412698413,-325.0,304.04761904761904,325.0,-195.15873015873015,-315.6349206349206,325.0,-325.0,-60.39682539682539,325.0,-112.6190476190476,-45.15873015873016,325.0,325.0,-0.873015873015873,-0.3968253968253968,-166.26984126984127
9.603174603174603,247.69841269841268,-325.0,325.0,325.0,-210.87301587301587,-119.28571428571428,-195.95238095238093,-325.0,325.0,325.0,-191.66666666666666,-325.0,325.0,-325.0,-59.76190476190476,325.0,-110.87301587301587,-44.36507936507936,325.0,325.0,4.0476190476190474,4.2063492063492065,-166.26984126984127
9.603174603174603,247.69841269841268,-325.0,325.0,325.0,-210.87301587301587,-119.28571428571428,-195.95238095238093,-325.0,325.0,325.0,-191.66666666666666,-325.0,325.0,-325.0,-59.76190476190476,325.0,-110.87301587301587,-44.36507936507936,325.0,325.0,4.0476190476190474,4.2063492063492065,-166.26984126984127
99.76190476190476,244.52380952380952,-321.984126984127,325.0,325.0,-208.4920634920635,-117.85714285714285,-193.88888888888889,-325.0,325.0,325.0,-189.44444444444443,-262.77777777777777,325.0,-325.0,-58.96825396825397,325.0,-109.6031746031746,-43.888888888888886,325.0,325.0,0.5555555555555556,-2.142857142857143,-166.26984126984127
99.76190476190476,244.52380952380952,-321.984126984127,325.0,325.0,-208.4920634920635,-117.85714285714285,-193.88888888888889,-325.0,325.0,325.0,-189.44444444444443,-262.77777777777777,325.0,-325.0,-58.96825396825397,325.0,-109.6031746031746,-43.888888888888886,325.0,325.0,0.5555555555555556,-2.142857142857143,-166.26984126984127
325.0,238.49206349206347,-260.39682539682536,325.0,325.0,-203.7301587301587,-115.15873015873015,-189.12698412698413,-325.0,305.3174603174603,325.0,-184.84126984126982,-195.47619047619045,325.0,-325.0,-57.53968253968254,325.0,-107.06349206349206,-42.77777777777778,325.0,325.0,1.0317460317460316,5.952380952380952,-166.26984126984127
325.0,238.49206349206347,-260.39682539682536,325.0,325.0,-203.7301587301587,-115.15873015873015,-189.12698412698413,-325.0,305.3174603174603,325.0,-184.84126984126982,-195.47619047619045,325.0,-325.0,-57.53968253968254,325.0,-107.06349206349206,-42.77777777777778,325.0,325.0,1.0317460317460316,5.952380952380952,-166.26984126984127
325.0,237.53968253968253,-315.6349206349206,325.0,325.0,-203.09523809523807,-114.36507936507935,-188.33333333333331,-325.0,285.7936507936508,325.0,-184.04761904761904,-241.66666666666666,325.0,-325.0,-57.22222222222222,325.0,-106.58730158730158,-42.61904761904761,325.0,325.0,0.5555555555555556,7.857142857142857,-321.8253968253968
325.0,237.53968253968253,-315.6349206349206,325.0,325.0,-203.09523809523807,-114.36507936507935,-188.33333333333331,-325.0,285.7936507936508,325.0,-184.04761904761904,-241.66666666666666,325.0,-325.0,-57.22222222222222,325.0,-106.58730158730158,-42.61904761904761,325.0,325.0,0.5555555555555556,7.857142857142857,-321.8253968253968
-12.3015873015873,230.55555555555554,-325.0,325.0,325.0,-196.58730158730157,-111.03174603174602,-182.77777777777777,-325.0,306.1111111111111,325.0,-178.65079365079364,-325.0,325.0,-325.0,-55.317460317460316,325.0,-103.57142857142857,-41.19047619047619,325.0,325.0,2.142857142857143,5.7936507936507935,-321.8253968253968
-12.3015873015873,230.55555555555554,-325.0,325.0,325.0,-196.58730158730157,-111.03174603174602,-182.77777777777777,-325.0,306.1111111111111,325.0,-178.65079365079364,-325.0,325.0,-325.0,-55.317460317460316,325.0,-103.57142857142857,-41.19047619047619,325.0,325.0,2.142857142857143,5.7936507936507935,-321.8253968253968
289.6031746031746,226.9047619047619,-325.0,325.0,325.0,-193.57142857142856,-109.12698412698413,-179.9206349206349,-325.0,325.0,325.0,-175.47619047619045,-298.968253968254,325.0,-325.0,-54.68253968253968,325.0,-101.82539682539682,-40.55555555555555,325.0,325.0,-3.4126984126984126,-7.222222222222221,-321.8253968253968
289.6031746031746,226.9047619047619,-325.0,325.0,325.0,-193.57142857142856,-109.12698412698413,-179.9206349206349,-325.0,325.0,325.0,-175.47619047619045,-298.968253968254,325.0,-325.0,-54.68253968253968,325.0,-101.82539682539682,-40.55555555555555,325.0,325.0,-3.4126984126984126,-7.222222222222221,-321.8253968253968
95.63492063492063,223.09523809523807,-325.0,325.0,325.0,-190.55555555555554,-107.06349206349206,-177.06349206349205,-325.0,303.88888888888886,325.0,-172.61904761904762,-325.0,325.0,-325.0,-53.73015873015873,325.0,-100.39682539682539,-40.079365079365076,325.0,325.0,3.4126984126984126,8.015873015873016,-321.8253968253968
95.63492063492063,223.09523809523807,-325.0,325.0,325.0,-190.55555555555554,-107.06349206349206,-177.06349206349205,-325.0,303.88888888888886,325.0,-172.61904761904762,-325.0,325.0,-325.0,-53.73015873015873,325.0,-100.39682539682539,-40.079365079365076,325.0,325.0,3.4126984126984126,8.015873015873016,-321.8253968253968
52.77777777777777,222.14285714285714,-325.0,325.0,325.0,-189.60317460317458,-106.42857142857142,-176.42857142857142,-325.0,282.9365079365079,325.0,-171.66666666666666,-325.0,325.0,-325.0,-53.41269841269841,325.0,-99.92063492063491,-39.6031746031746,325.0,325.0,1.8253968253968254,8.968253968253968,-321.8253968253968
52.77777777777777,222.14285714285714,-325.0,325.0,325.0,-189.60317460317458,-106.42857142857142,-176.42857142857142,-325.0,282.9365079365079,325.0,-171.66666666666666,-325.0,325.0,-325.0,-53.41269841269841,325.0,-99.92063492063491,-39.6031746031746,325.0,325.0,1.8253968253968254,8.968253968253968,-321.8253968253968
-102.14285714285714,215.79365079365078,-325.0,325.0,325.0,-184.36507936507937,-103.73015873015872,-171.34920634920633,-325.0,304.8412698412698,325.0,-166.74603174603175,-325.0,325.0,-325.0,-51.98412698412698,325.0,-96.9047619047619,-38.49206349206349,325.0,325.0,1.507936507936508,7.5396825396825395,-166.26984126984127
-102.14285714285714,215.79365079365078,-325.0,325.0,325.0,-184.36507936507937,-103.73015873015872,-171.34920634920633,-325.0,304.8412698412698,325.0,-166.74603174603175,-325.0,325.0,-325.0,-51.98412698412698,325.0,-96.9047619047619,-38.49206349206349,325.0,325.0,1.507936507936508,7.5396825396825395,-166.26984126984127
-106.1111111111111,212.14285714285714,-325.0,325.0,301.5079365079365,-181.19047619047618,-101.82539682539682,-168.4920634920635,-325.0,325.0,325.0,-164.04761904761904,-325.0,325.0,-325.0,-51.03174603174603,325.0,-95.31746031746032,-37.698412698412696,325.0,325.0,-2.7777777777777777,-6.111111111111111,-166.26984126984127
-106.1111111111111,212.14285714285714,-325.0,325.0,301.5079365079365,-181.19047619047618,-101.82539682539682,-168.4920634920635,-325.0,325.0,325.0,-164.04761904761904,-325.0,325.0,-325.0,-51.03174603174603,325.0,-95.31746031746032,-37.698412698412696,325.0,325.0,-2.7777777777777777,-6.111111111111111,-166.26984126984127
-23.41269841269841,208.65079365079364,-325.0,325.0,325.0,-178.33333333333331,-100.23809523809523,-166.11111111111111,-325.0,304.68253968253964,325.0,-161.19047619047618,-325.0,321.3492063492063,-325.0,-50.079365079365076,325.0,-93.88888888888889,-37.38095238095238,325.0,325.0,1.507936507936508,6.428571428571428,-166.26984126984127
-23.41269841269841,208.65079365079364,-325.0,325.0,325.0,-178.33333333333331,-100.23809523809523,-166.11111111111111,-325.0,304.68253968253964,325.0,-161.19047619047618,-325.0,321.3492063492063,-325.0,-50.079365079365076,325.0,-93.88888888888889,-37.38095238095238,325.0,325.0,1.507936507936508,6.428571428571428,-166.26984126984127
185.63492063492063,205.95238095238093,-325.0,325.0,325.0,-176.26984126984127,-98.96825396825396,-164.04761904761904,-325.0,304.68253968253964,325.0,-159.28571428571428,-325.0,317.38095238095235,-325.0,-49.6031746031746,325.0,-92.93650793650794,-33.73015873015873,325.0,325.0,-0.5555555555555556,-0.873015873015873,-166.26984126984127
185.63492063492063,205.95238095238093,-325.0,325.0,325.0,-176.26984126984127,-98.96825396825396,-164.04761904761904,-325.0,304.68253968253964,325.0,-159.28571428571428,-325.0,317.38095238095235,-325.0,-49.6031746031746,325.0,-92.93650793650794,-33.73015873015873,325.0,325.0,-0.5555555555555556,-0.873015873015873,-166.26984126984127
214.68253968253967,202.46031746031744,-325.0,325.0,325.0,-173.25396825396825,-97.38095238095238,-161.19047619047618,-325.0,325.0,323.0952380952381,-156.58730158730157,-325.0,311.984126984127,-325.0,-48.80952380952381,325.0,-91.19047619047619,-34.52380952380952,325.0,325.0,3.888888888888889,5.952380952380952,-166.26984126984127
214.68253968253967,202.46031746031744,-325.0,325.0,325.0,-173.25396825396825,-97.38095238095238,-161.19047619047618,-325.0,325.0,323.0952380952381,-156.58730158730157,-325.0,311.984126984127,-325.0,-48.80952380952381,325.0,-91.19047619047619,-34.52380952380952,325.0,325.0,3.888888888888889,5.952380952380952,-166.26984126984127
-87.38095238095238,198.33333333333331,-325.0,325.0,325.0,-169.76190476190476,-95.31746031746032,-158.17460317460316,-325.0,325.0,316.4285714285714,-153.57142857142856,-325.0,305.1587301587301,-325.0,-47.53968253968254,325.0,-89.44444444444444,-23.730158730158728,325.0,325.0,-2.9365079365079363,-6.26984126984127,-321.8253968253968
-87.38095238095238,198.33333333333331,-325.0,325.0,325.0,-169.76190476190476,-95.31746031746032,-158.17460317460316,-325.0,325.0,316.4285714285714,-153.57142857142856,-325.0,305.1587301587301,-325.0,-47.53968253968254,325.0,-89.44444444444444,-23.730158730158728,325.0,325.0,-2.9365079365079363,-6.26984126984127,-321.8253968253968
199.76190476190476,195.0,-325.0,325.0,325.0,-167.06349206349205,-93.57142857142857,-155.47619047619048,-325.0,294.2063492063492,311.19047619047615,-150.55555555555554,-325.0,300.07936507936506,-325.0,-47.06349206349206,325.0,-88.01587301587301,-32.14285714285714,325.0,325.0,1.6666666666666665,6.587301587301587,-321.8253968253968
199.76190476190476,195.0,-325.0,325.0,325.0,-167.06349206349205,-93.57142857142857,-155.47619047619048,-325.0,294.2063492063492,311.19047619047615,-150.55555555555554,-325.0,300.07936507936506,-325.0,-47.06349206349206,325.0,-88.01587301587301,-32.14285714285714,325.0,325.0,1.6666666666666665,6.587301587301587,-321.8253968253968
325.0,191.8253968253968,-325.0,325.0,325.0,-164.36507936507937,-91.98412698412697,-153.09523809523807,-325.0,325.0,306.1111111111111,-148.17460317460316,-275.4761904761905,294.8412698412698,-325.0,-46.269841269841265,325.0,-86.74603174603175,-4.0476190476190474,325.0,325.0,-4.2063492063492065,-7.3809523809523805,-321.8253968253968
325.0,191.8253968253968,-325.0,325.0,325.0,-164.36507936507937,-91.98412698412697,-153.09523809523807,-325.0,325.0,306.1111111111111,-148.17460317460316,-275.4761904761905,294.8412698412698,-325.0,-46.269841269841265,325.0,-86.74603174603175,-4.0476190476190474,325.0,325.0,-4.2063492063492065,-7.3809523809523805,-321.8253968253968
325.0,188.8095238095238,-325.0,325.0,325.0,-161.66666666666666,-90.71428571428571,-150.55555555555554,-325.0,302.6190476190476,301.031746031746,-145.95238095238093,-325.0,289.76190476190476,-325.0,-45.317460317460316,325.0,-85.31746031746032,-28.809523809523807,325.0,325.0,3.253968253968254,7.063492063492063,-321.8253968253968
325.0,188.8095238095238,-325.0,325.0,325.0,-161.66666666666666,-90.71428571428571,-150.55555555555554,-325.0,302.6190476190476,301.031746031746,-145.95238095238093,-325.0,289.76190476190476,-325.0,-45.317460317460316,325.0,-85.31746031746032,-28.809523809523807,325.0,325.0,3.253968253968254,7.063492063492063,-321.8253968253968
315.0,185.47619047619045,-325.0,323.57142857142856,325.0,-158.96825396825395,-89.12698412698413,-148.015873015873,-322.9365079365079,325.0,296.26984126984127,-143.25396825396825,-325.0,284.8412698412698,-325.0,-44.68253968253968,325.0,-83.88888888888889,25.0,325.0,325.0,-2.142857142857143,-6.428571428571428,-321.8253968253968
315.0,185.47619047619045,-325.0,323.57142857142856,325.0,-158.96825396825395,-89.12698412698413,-148.015873015873,-322.9365079365079,325.0,296.26984126984127,-143.25396825396825,-325.0,284.8412698412698,-325.0,-44.68253968253968,325.0,-83.88888888888889,25.0,325.0,325.0,-2.142857142857143,-6.428571428571428,-321.8253968253968
244.04761904761904,183.09523809523807,-325.0,319.6031746031746,325.0,-156.9047619047619,-88.01587301587301,-146.26984126984127,-318.968253968254,304.68253968253964,292.77777777777777,-141.5079365079365,-325.0,281.031746031746,-325.0,-44.2063492063492,325.0,-82.93650793650794,12.3015873015873,325.0,325.0,-0.07936507936507936,-0.07936507936507936,-166.26984126984127
244.04761904761904,183.09523809523807,-325.0,319.6031746031746,325.0,-156.9047619047619,-88.01587301587301,-146.26984126984127,-318.968253968254,304.68253968253964,292.77777777777777,-141.5079365079365,-325.0,281.031746031746,-325.0,-44.2063492063492,325.0,-82.93650793650794,12.3015873015873,325.0,325.0,-0.07936507936507936,-0.07936507936507936,-166.26984126984127
202.46031746031744,179.44444444444443,-325.0,313.4126984126984,325.0,-153.88888888888889,-85.95238095238095,-143.4126984126984,-312.3015873015873,325.0,286.74603174603175,-138.4920634920635,-325.0,275.0,-325.0,-43.095238095238095,325.0,-81.19047619047619,59.6031746031746,325.0,325.0,-2.46031746031746,-7.5396825396825395,-166.26984126984127
202.46031746031744,179.44444444444443,-325.0,313.4126984126984,325.0,-153.88888888888889,-85.95238095238095,-143.4126984126984,-312.3015873015873,325.0,286.74603174603175,-138.4920634920635,-325.0,275.0,-325.0,-43.095238095238095,325.0,-81.19047619047619,59.6031746031746,325.0,325.0,-2.46031746031746,-7.5396825396825395,-166.26984126984127
325.0,177.2222222222222,-325.0,309.1269841269841,325.0,-151.984126984127,-84.84126984126983,-141.66666666666666,-308.6507936507936,325.0,283.0952380952381,-136.58730158730157,-325.0,271.5079365079365,-325.0,-42.77777777777778,325.0,-80.07936507936508,22.3015873015873,325.0,325.0,4.2063492063492065,7.063492063492063,-166.26984126984127
325.0,177.2222222222222,-325.0,309.1269841269841,325.0,-151.984126984127,-84.84126984126983,-141.66666666666666,-308.6507936507936,325.0,283.0952380952381,-136.58730158730157,-325.0,271.5079365079365,-325.0,-42.77777777777778,325.0,-80.07936507936508,22.3015873015873,325.0,325.0,4.2063492063492065,7.063492063492063,-166.26984126984127
218.015873015873,173.57142857142856,-325.0,302.6190476190476,325.0,-148.8095238095238,-82.93650793650794,-138.8095238095238,-302.3015873015873,325.0,277.53968253968253,-133.88888888888889,-325.0,265.6349206349206,-325.0,-41.82539682539682,325.0,-78.65079365079364,104.68253968253968,325.0,325.0,-1.349206349206349,-6.587301587301587,-166.26984126984127
218.015873015873,173.57142857142856,-325.0,302.6190476190476,325.0,-148.8095238095238,-82.93650793650794,-138.8095238095238,-302.3015873015873,325.0,277.53968253968253,-133.88888888888889,-325.0,265.6349206349206,-325.0,-41.82539682539682,325.0,-78.65079365079364,104.68253968253968,325.0,325.0,-1.349206349206349,-6.587301587301587,-166.26984126984127
-161.5079365079365,170.55555555555554,-325.0,297.6984126984127,325.0,-146.26984126984127,-81.66666666666666,-136.42857142857142,-297.22222222222223,304.8412698412698,272.9365079365079,-131.5079365079365,-325.0,261.031746031746,-325.0,-41.19047619047619,325.0,-77.22222222222221,52.460317460317455,325.0,325.0,2.3015873015873014,6.428571428571428,-166.26984126984127
-161.5079365079365,170.55555555555554,-325.0,297.6984126984127,325.0,-146.26984126984127,-81.66666666666666,-136.42857142857142,-297.22222222222223,304.8412698412698,272.9365079365079,-131.5079365079365,-325.0,261.031746031746,-325.0,-41.19047619047619,325.0,-77.22222222222221,52.460317460317455,325.0,325.0,2.3015873015873014,6.428571428571428,-166.26984126984127
-11.825396825396824,167.69841269841268,-325.0,292.6190476190476,325.0,-143.73015873015873,-80.39682539682539,-134.36507936507937,-292.46031746031747,325.0,268.4920634920635,-129.28571428571428,-325.0,256.58730158730157,-325.0,-40.55555555555555,325.0,-76.26984126984127,146.74603174603175,325.0,325.0,-2.3015873015873014,-6.904761904761904,-321.8253968253968
-11.825396825396824,167.69841269841268,-325.0,292.6190476190476,325.0,-143.73015873015873,-80.39682539682539,-134.36507936507937,-292.46031746031747,325.0,268.4920634920635,-129.28571428571428,-325.0,256.58730158730157,-325.0,-40.55555555555555,325.0,-76.26984126984127,146.74603174603175,325.0,325.0,-2.3015873015873014,-6.904761904761904,-321.8253968253968
69.12698412698413,165.0,-325.0,287.85714285714283,325.0,-141.5079365079365,-78.96825396825396,-132.3015873015873,-287.6984126984127,306.58730158730157,263.88888888888886,-127.22222222222221,-325.0,252.14285714285714,-325.0,-39.76190476190476,325.0,-74.84126984126983,98.80952380952381,323.88888888888886,325.0,1.0317460317460316,6.26984126984127,-321.8253968253968
69.12698412698413,165.0,-325.0,287.85714285714283,325.0,-141.5079365079365,-78.96825396825396,-132.3015873015873,-287.6984126984127,306.58730158730157,263.88888888888886,-127.22222222222221,-325.0,252.14285714285714,-325.0,-39.76190476190476,325.0,-74.84126984126983,98.80952380952381,323.88888888888886,325.0,1.0317460317460316,6.26984126984127,-321.8253968253968
51.19047619047619,162.14285714285714,-325.0,282.77777777777777,325.0,-139.28571428571428,-77.53968253968253,-130.07936507936506,-283.0952380952381,325.0,259.76190476190476,-125.0,-325.0,247.69841269841268,-325.0,-39.285714285714285,325.0,-73.88888888888889,184.36507936507937,318.8095238095238,325.0,-1.8253968253968254,-6.587301587301587,-321.8253968253968
51.19047619047619,162.14285714285714,-325.0,282.77777777777777,325.0,-139.28571428571428,-77.53968253968253,-130.07936507936506,-283.0952380952381,325.0,259.76190476190476,-125.0,-325.0,247.69841269841268,-325.0,-39.285714285714285,325.0,-73.88888888888889,184.36507936507937,318.8095238095238,325.0,-1.8253968253968254,-6.587301587301587,-321.8253968253968
-134.68253968253967,160.23809523809524,-325.0,279.44444444444446,325.0,-137.69841269841268,-76.58730158730158,-128.4920634920635,-279.44444444444446,300.7142857142857,256.4285714285714,-123.4126984126984,-325.0,244.52380952380952,-325.0,-38.65079365079365,325.0,-72.93650793650794,176.9047619047619,315.1587301587301,325.0,0.3968253968253968,-0.5555555555555556,-321.8253968253968
-134.68253968253967,160.23809523809524,-325.0,279.44444444444446,325.0,-137.69841269841268,-76.58730158730158,-128.4920634920635,-279.44444444444446,300.7142857142857,256.4285714285714,-123.4126984126984,-325.0,244.52380952380952,-325.0,-38.65079365079365,325.0,-72.93650793650794,176.9047619047619,315.1587301587301,325.0,0.3968253968253968,-0.5555555555555556,-321.8253968253968
-203.57142857142856,156.74603174603175,-325.0,273.25396825396825,303.0952380952381,-134.68253968253967,-75.15873015873015,-125.79365079365078,-273.73015873015873,325.0,251.19047619047618,-120.87301587301586,-325.0,239.12698412698413,-322.46031746031747,-37.857142857142854,325.0,-71.34920634920634,238.8095238095238,308.4920634920635,325.0,-2.3015873015873014,-5.7936507936507935,-321.8253968253968
-203.57142857142856,156.74603174603175,-325.0,273.25396825396825,303.0952380952381,-134.68253968253967,-75.15873015873015,-125.79365079365078,-273.73015873015873,325.0,251.19047619047618,-120.87301587301586,-325.0,239.12698412698413,-322.46031746031747,-37.857142857142854,325.0,-71.34920634920634,238.8095238095238,308.4920634920635,325.0,-2.3015873015873014,-5.7936507936507935,-321.8253968253968
-152.61904761904762,154.84126984126982,-325.0,270.07936507936506,261.3492063492063,-132.93650793650792,-74.04761904761904,-124.52380952380952,-270.07936507936506,314.5238095238095,248.33333333333331,-119.12698412698413,-325.0,236.26984126984127,-318.4920634920635,-37.38095238095238,325.0,-70.55555555555556,242.46031746031744,304.68253968253964,325.0,4.2063492063492065,8.492063492063492,-166.26984126984127
-152.61904761904762,154.84126984126982,-325.0,270.07936507936506,261.3492063492063,-132.93650793650792,-74.04761904761904,-124.52380952380952,-270.07936507936506,314.5238095238095,248.33333333333331,-119.12698412698413,-325.0,236.26984126984127,-318.4920634920635,-37.38095238095238,325.0,-70.55555555555556,242.46031746031744,304.68253968253964,325.0,4.2063492063492065,8.492063492063492,-166.26984126984127
-168.4920634920635,151.66666666666666,-325.0,264.36507936507934,302.9365079365079,-130.3968253968254,-72.61904761904762,-121.98412698412697,-264.8412698412698,325.0,242.93650793650792,-116.74603174603173,-325.0,231.03174603174602,-312.1428571428571,-30.555555555555554,325.0,-68.96825396825396,268.6507936507936,298.4920634920635,325.0,-2.3015873015873014,-6.587301587301587,-166.26984126984127
-168.4920634920635,151.66666666666666,-325.0,264.36507936507934,302.9365079365079,-130.3968253968254,-72.61904761904762,-121.98412698412697,-264.8412698412698,325.0,242.93650793650792,-116.74603174603173,-325.0,231.03174603174602,-312.1428571428571,-30.555555555555554,325.0,-68.96825396825396,268.6507936507936,298.4920634920635,325.0,-2.3015873015873014,-6.587301587301587,-166.26984126984127
-193.88888888888889,149.12698412698413,-325.0,259.76190476190476,222.46031746031744,-128.17460317460316,-71.5079365079365,-119.92063492063491,-260.39682539682536,295.6349206349206,238.96825396825395,-114.84126984126983,-325.0,226.9047619047619,-307.06349206349205,-36.269841269841265,325.0,-68.01587301587301,246.9047619047619,293.57142857142856,325.0,1.1904761904761905,6.746031746031746,-166.26984126984127
-193.88888888888889,149.12698412698413,-325.0,259.76190476190476,222.46031746031744,-128.17460317460316,-71.5079365079365,-119.92063492063491,-260.39682539682536,295.6349206349206,238.96825396825395,-114.84126984126983,-325.0,226.9047619047619,-307.06349206349205,-36.269841269841265,325.0,-68.01587301587301,246.9047619047619,293.57142857142856,325.0,1.1904761904761905,6.746031746031746,-166.26984126984127
-188.015873015873,146.58730158730157,-325.0,255.3174603174603,190.07936507936506,-126.1111111111111,-70.39682539682539,-117.85714285714285,-256.1111111111111,325.0,235.15873015873015,-112.77777777777777,-325.0,223.09523809523807,-302.1428571428571,-18.015873015873016,325.0,-66.74603174603175,291.19047619047615,288.6507936507936,325.0,-2.619047619047619,-6.428571428571428,-166.26984126984127
-188.015873015873,146.58730158730157,-325.0,255.3174603174603,190.07936507936506,-126.1111111111111,-70.39682539682539,-117.85714285714285,-256.1111111111111,325.0,235.15873015873015,-112.77777777777777,-325.0,223.09523809523807,-302.1428571428571,-18.015873015873016,325.0,-66.74603174603175,291.19047619047615,288.6507936507936,325.0,-2.619047619047619,-6.428571428571428,-166.26984126984127
-175.79365079365078,144.04761904761904,-325.0,251.03174603174602,207.38095238095238,-123.88888888888889,-69.12698412698413,-115.95238095238095,-251.98412698412696,292.9365079365079,231.34920634920633,-111.03174603174602,-325.0,219.12698412698413,-297.38095238095235,-34.682539682539684,325.0,-65.79365079365078,275.95238095238096,283.88888888888886,325.0,1.1904761904761905,5.7936507936507935,-166.26984126984127
-175.79365079365078,144.04761904761904,-325.0,251.03174603174602,207.38095238095238,-123.88888888888889,-69.12698412698413,-115.95238095238095,-251.98412698412696,292.9365079365079,231.34920634920633,-111.03174603174602,-325.0,219.12698412698413,-297.38095238095235,-34.682539682539684,325.0,-65.79365079365078,275.95238095238096,283.88888888888886,325.0,1.1904761904761905,5.7936507936507935,-166.26984126984127
-163.73015873015873,142.3015873015873,-325.0,248.015873015873,226.42857142857142,-122.30158730158729,-68.17460317460318,-114.84126984126983,-248.8095238095238,325.0,228.49206349206347,-109.6031746031746,-325.0,216.42857142857142,-293.73015873015873,-4.682539682539682,325.0,-64.84126984126983,297.22222222222223,280.39682539682536,325.0,-3.73015873015873,-9.603174603174603,-321.8253968253968
-163.73015873015873,142.3015873015873,-325.0,248.015873015873,226.42857142857142,-122.30158730158729,-68.17460317460318,-114.84126984126983,-248.8095238095238,325.0,228.49206349206347,-109.6031746031746,-325.0,216.42857142857142,-293.73015873015873,-4.682539682539682,325.0,-64.84126984126983,297.22222222222223,280.39682539682536,325.0,-3.73015873015873,-9.603174603174603,-321.8253968253968
-178.33333333333331,139.28571428571428,-325.0,242.77777777777777,-325.0,-119.92063492063491,-66.42857142857143,-112.14285714285714,-243.57142857142856,281.66666666666663,101.5079365079365,-107.06349206349206,-325.0,211.8253968253968,-287.6984126984127,-31.825396825396822,184.04761904761904,-63.41269841269841,296.4285714285714,274.68253968253964,325.0,3.095238095238095,7.063492063492063,-321.8253968253968
-178.33333333333331,139.28571428571428,-325.0,242.77777777777777,-325.0,-119.92063492063491,-66.42857142857143,-112.14285714285714,-243.57142857142856,281.66666666666663,101.5079365079365,-107.06349206349206,-325.0,211.8253968253968,-287.6984126984127,-31.825396825396822,184.04761904761904,-63.41269841269841,296.4285714285714,274.68253968253964,325.0,3.095238095238095,7.063492063492063,-321.8253968253968
-174.2063492063492,136.9047619047619,-325.0,238.49206349206347,-325.0,-117.6984126984127,-65.15873015873015,-110.23809523809523,-239.44444444444443,325.0,131.19047619047618,-105.0,-325.0,207.85714285714283,-282.77777777777777,8.968253968253968,237.85714285714283,-62.460317460317455,325.0,270.07936507936506,325.0,-1.8253968253968254,-6.746031746031746,-321.8253968253968
-174.2063492063492,136.9047619047619,-325.0,238.49206349206347,-325.0,-117.6984126984127,-65.15873015873015,-110.23809523809523,-239.44444444444443,325.0,131.19047619047618,-105.0,-325.0,207.85714285714283,-282.77777777777777,8.968253968253968,237.85714285714283,-62.460317460317455,325.0,270.07936507936506,325.0,-1.8253968253968254,-6.746031746031746,-321.8253968253968
-161.03174603174602,134.68253968253967,-325.0,234.68253968253967,91.66666666666666,-116.1111111111111,-64.52380952380952,-108.65079365079364,-235.79365079365078,260.23809523809524,223.09523809523807,-103.73015873015872,-325.0,204.36507936507937,-278.3333333333333,-30.07936507936508,325.0,-61.507936507936506,306.58730158730157,265.95238095238096,325.0,-0.3968253968253968,5.952380952380952,-321.8253968253968
-161.03174603174602,134.68253968253967,-325.0,234.68253968253967,91.66666666666666,-116.1111111111111,-64.52380952380952,-108.65079365079364,-235.79365079365078,260.23809523809524,223.09523809523807,-103.73015873015872,-325.0,204.36507936507937,-278.3333333333333,-30.07936507936508,325.0,-61.507936507936506,306.58730158730157,265.95238095238096,325.0,-0.3968253968253968,5.952380952380952,-321.8253968253968
-136.26984126984127,132.3015873015873,-325.0,230.7142857142857,325.0,-114.2063492063492,-63.41269841269841,-106.9047619047619,-232.14285714285714,325.0,217.53968253968253,-101.98412698412697,-325.0,200.87301587301587,-274.2063492063492,18.49206349206349,325.0,-60.71428571428571,325.0,261.3492063492063,325.0,-2.7777777777777777,-6.746031746031746,-321.8253968253968
-136.26984126984127,132.3015873015873,-325.0,230.7142857142857,325.0,-114.2063492063492,-63.41269841269841,-106.9047619047619,-232.14285714285714,325.0,217.53968253968253,-101.98412698412697,-325.0,200.87301587301587,-274.2063492063492,18.49206349206349,325.0,-60.71428571428571,325.0,261.3492063492063,325.0,-2.7777777777777777,-6.746031746031746,-321.8253968253968
-137.85714285714286,130.07936507936506,-325.0,226.74603174603175,325.0,-112.30158730158729,-62.460317460317455,-105.31746031746032,-228.33333333333331,263.25396825396825,213.57142857142856,-100.23809523809523,-325.0,197.53968253968253,-269.76190476190476,-25.0,325.0,-59.92063492063492,316.4285714285714,257.06349206349205,325.0,1.0317460317460316,5.317460317460317,-166.26984126984127
-137.85714285714286,130.07936507936506,-325.0,226.74603174603175,325.0,-112.30158730158729,-62.460317460317455,-105.31746031746032,-228.33333333333331,263.25396825396825,213.57142857142856,-100.23809523809523,-325.0,197.53968253968253,-269.76190476190476,-25.0,325.0,-59.92063492063492,316.4285714285714,257.06349206349205,325.0,1.0317460317460316,5.317460317460317,-166.26984126984127
-126.1111111111111,128.015873015873,-325.0,222.93650793650792,267.06349206349205,-110.55555555555554,-61.34920634920635,-103.88888888888889,-224.36507936507934,325.0,209.9206349206349,-98.49206349206348,-325.0,194.04761904761904,-265.3174603174603,45.15873015873016,325.0,-58.8095238095238,325.0,252.77777777777777,325.0,-1.507936507936508,-6.904761904761904,-166.26984126984127
-126.1111111111111,128.015873015873,-325.0,222.93650793650792,267.06349206349205,-110.55555555555554,-61.34920634920635,-103.88888888888889,-224.36507936507934,325.0,209.9206349206349,-98.49206349206348,-325.0,194.04761904761904,-265.3174603174603,45.15873015873016,325.0,-58.8095238095238,325.0,252.77777777777777,325.0,-1.507936507936508,-6.904761904761904,-166.26984126984127
-162.14285714285714,125.95238095238095,-325.0,219.12698412698413,-47.38095238095238,-108.65079365079364,-60.39682539682539,-101.98412698412697,-220.7142857142857,266.58730158730157,206.42857142857142,-96.74603174603175,-325.0,190.55555555555554,-261.031746031746,-13.888888888888888,325.0,-57.857142857142854,325.0,248.65079365079364,322.9365079365079,1.507936507936508,6.26984126984127,-166.26984126984127
-162.14285714285714,125.95238095238095,-325.0,219.12698412698413,-47.38095238095238,-108.65079365079364,-60.39682539682539,-101.98412698412697,-220.7142857142857,266.58730158730157,206.42857142857142,-96.74603174603175,-325.0,190.55555555555554,-261.031746031746,-13.888888888888888,325.0,-57.857142857142854,325.0,248.65079365079364,322.9365079365079,1.507936507936508,6.26984126984127,-166.26984126984127
-158.96825396825395,124.36507936507935,-325.0,216.26984126984127,-188.8095238095238,-107.22222222222221,-59.44444444444444,-100.71428571428571,-217.85714285714283,291.984126984127,203.88888888888889,-95.47619047619047,-325.0,188.015873015873,-257.6984126984127,29.920634920634917,325.0,-57.06349206349206,325.0,245.47619047619045,318.8095238095238,-0.3968253968253968,-0.07936507936507936,-166.26984126984127
-158.96825396825395,124.36507936507935,-325.0,216.26984126984127,-188.8095238095238,-107.22222222222221,-59.44444444444444,-100.71428571428571,-217.85714285714283,291.984126984127,203.88888888888889,-95.47619047619047,-325.0,188.015873015873,-257.6984126984127,29.920634920634917,325.0,-57.06349206349206,325.0,245.47619047619045,318.8095238095238,-0.3968253968253968,-0.07936507936507936,-166.26984126984127
-147.69841269841268,121.66666666666666,-325.0,211.66666666666666,220.2380952380952,-105.0,-58.49206349206349,-98.80952380952381,-213.57142857142856,252.77777777777777,199.60317460317458,-93.88888888888889,-325.0,183.88888888888889,-252.6190476190476,-4.365079365079365,325.0,-56.11111111111111,325.0,240.3968253968254,312.3015873015873,0.5555555555555556,5.952380952380952,-166.26984126984127
-147.69841269841268,121.66666666666666,-325.0,211.66666666666666,220.2380952380952,-105.0,-58.49206349206349,-98.80952380952381,-213.57142857142856,252.77777777777777,199.60317460317458,-93.88888888888889,-325.0,183.88888888888889,-252.6190476190476,-4.365079365079365,325.0,-56.11111111111111,325.0,240.3968253968254,312.3015873015873,0.5555555555555556,5.952380952380952,-166.26984126984127
106.42857142857142,120.23809523809523,-325.0,208.96825396825395,325.0,-104.04761904761904,-57.698412698412696,-97.53968253968253,-210.7142857142857,325.0,197.06349206349205,-92.30158730158729,-325.0,181.5079365079365,-249.44444444444443,86.9047619047619,325.0,-55.476190476190474,325.0,237.53968253968253,308.015873015873,-4.523809523809524,-10.396825396825395,-321.8253968253968
106.42857142857142,120.23809523809523,-325.0,208.96825396825395,325.0,-104.04761904761904,-57.698412698412696,-97.53968253968253,-210.7142857142857,325.0,197.06349206349205,-92.30158730158729,-325.0,181.5079365079365,-249.44444444444443,86.9047619047619,325.0,-55.476190476190474,325.0,237.53968253968253,308.015873015873,-4.523809523809524,-10.396825396825395,-321.8253968253968
-136.26984126984127,118.17460317460316,-325.0,205.47619047619045,325.0,-102.14285714285714,-56.74603174603174,-95.95238095238095,-207.38095238095238,255.79365079365078,193.88888888888889,-90.87301587301587,-325.0,178.33333333333331,-245.63492063492063,2.7777777777777777,325.0,-54.68253968253968,325.0,233.57142857142856,302.9365079365079,3.095238095238095,8.65079365079365,-321.8253968253968
-136.26984126984127,118.17460317460316,-325.0,205.47619047619045,325.0,-102.14285714285714,-56.74603174603174,-95.95238095238095,-207.38095238095238,255.79365079365078,193.88888888888889,-90.87301587301587,-325.0,178.33333333333331,-245.63492063492063,2.7777777777777777,325.0,-54.68253968253968,325.0,233.57142857142856,302.9365079365079,3.095238095238095,8.65079365079365,-321.8253968253968
-37.06349206349206,115.63492063492063,-325.0,201.19047619047618,312.3015873015873,-100.23809523809523,-55.79365079365079,-94.04761904761904,-203.25396825396825,325.0,189.60317460317458,-89.12698412698413,-325.0,174.52380952380952,-240.55555555555554,102.61904761904762,325.0,-53.57142857142857,325.0,228.8095238095238,296.58730158730157,-2.619047619047619,-6.26984126984127,-321.8253968253968
-37.06349206349206,115.63492063492063,-325.0,201.19047619047618,312.3015873015873,-100.23809523809523,-55.79365079365079,-94.04761904761904,-203.25396825396825,325.0,189.60317460317458,-89.12698412698413,-325.0,174.52380952380952,-240.55555555555554,102.61904761904762,325.0,-53.57142857142857,325.0,228.8095238095238,296.58730158730157,-2.619047619047619,-6.26984126984127,-321.8253968253968
77.6984126984127,113.73015873015872,-325.0,197.53968253968253,323.4126984126984,-98.49206349206348,-54.68253968253968,-92.46031746031746,-199.9206349206349,243.09523809523807,186.58730158730157,-87.6984126984127,-325.0,171.5079365079365,-236.9047619047619,29.126984126984127,325.0,-52.77777777777777,325.0,224.84126984126982,291.5079365079365,2.619047619047619,6.428571428571428,-321.8253968253968
77.6984126984127,113.73015873015872,-325.0,197.53968253968253,323.4126984126984,-98.49206349206348,-54.68253968253968,-92.46031746031746,-199.9206349206349,243.09523809523807,186.58730158730157,-87.6984126984127,-325.0,171.5079365079365,-236.9047619047619,29.126984126984127,325.0,-52.77777777777777,325.0,224.84126984126982,291.5079365079365,2.619047619047619,6.428571428571428,-321.8253968253968
56.42857142857142,112.30158730158729,-325.0,195.0,319.6031746031746,-97.22222222222221,-54.047619047619044,-91.34920634920634,-197.38095238095238,281.66666666666663,184.2063492063492,-86.58730158730158,-325.0,169.12698412698413,-233.88888888888889,71.98412698412697,325.0,-51.98412698412698,325.0,221.98412698412696,287.85714285714283,0.23809523809523808,-0.07936507936507936,-321.8253968253968
56.42857142857142,112.30158730158729,-325.0,195.0,319.6031746031746,-97.22222222222221,-54.047619047619044,-91.34920634920634,-197.38095238095238,281.66666666666663,184.2063492063492,-86.58730158730158,-325.0,169.12698412698413,-233.88888888888889,71.98412698412697,325.0,-51.98412698412698,325.0,221.98412698412696,287.85714285714283,0.23809523809523808,-0.07936507936507936,-321.8253968253968
-87.53968253968253,108.17460317460316,-325.0,187.69841269841268,176.42857142857142,-93.73015873015872,-52.14285714285714,-88.17460317460316,-190.23809523809524,325.0,177.53968253968253,-83.4126984126984,-325.0,162.77777777777777,-225.63492063492063,132.77777777777777,325.0,136.74603174603175,325.0,214.04761904761904,276.90476190476187,-1.984126984126984,-6.587301587301587,-166.26984126984127
-87.53968253968253,108.17460317460316,-325.0,187.69841269841268,176.42857142857142,-93.73015873015872,-52.14285714285714,-88.17460317460316,-190.23809523809524,325.0,177.53968253968253,-83.4126984126984,-325.0,162.77777777777777,-225.63492063492063,132.77777777777777,325.0,136.74603174603175,325.0,214.04761904761904,276.90476190476187,-1.984126984126984,-6.587301587301587,-166.26984126984127
-47.38095238095238,104.04761904761904,-325.0,180.7142857142857,147.38095238095238,-90.23809523809523,-50.238095238095234,-85.0,-183.09523809523807,276.26984126984127,170.87301587301587,-80.23809523809523,-325.0,156.26984126984127,-217.38095238095238,110.23809523809523,325.0,240.3968253968254,325.0,205.95238095238093,266.26984126984127,-0.873015873015873,-1.0317460317460316,-166.26984126984127
-47.38095238095238,104.04761904761904,-325.0,180.7142857142857,147.38095238095238,-90.23809523809523,-50.238095238095234,-85.0,-183.09523809523807,276.26984126984127,170.87301587301587,-80.23809523809523,-325.0,156.26984126984127,-217.38095238095238,110.23809523809523,325.0,240.3968253968254,325.0,205.95238095238093,266.26984126984127,-0.873015873015873,-1.0317460317460316,-166.26984126984127
325.0,101.03174603174602,-325.0,175.15873015873015,297.53968253968253,-87.85714285714285,-46.42857142857142,-82.77777777777777,-178.015873015873,320.07936507936506,165.95238095238093,-77.85714285714285,-325.0,151.66666666666666,-211.5079365079365,157.53968253968253,325.0,325.0,325.0,199.9206349206349,258.3333333333333,-1.8253968253968254,-6.428571428571428,-166.26984126984127
325.0,101.03174603174602,-325.0,175.15873015873015,297.53968253968253,-87.85714285714285,-46.42857142857142,-82.77777777777777,-178.015873015873,320.07936507936506,165.95238095238093,-77.85714285714285,-325.0,151.66666666666666,-211.5079365079365,157.53968253968253,325.0,325.0,325.0,199.9206349206349,258.3333333333333,-1.8253968253968254,-6.428571428571428,-166.26984126984127
160.3968253968254,98.96825396825396,-324.5238095238095,171.34920634920633,275.95238095238096,-85.95238095238095,-45.476190476190474,-81.19047619047619,-174.36507936507937,318.8095238095238,162.46031746031744,-76.26984126984127,-325.0,148.33333333333331,-207.2222222222222,151.34920634920633,324.36507936507934,325.0,325.0,195.79365079365078,252.6190476190476,1.6666666666666665,-1.6666666666666665,-166.26984126984127
160.3968253968254,98.96825396825396,-324.5238095238095,171.34920634920633,275.95238095238096,-85.95238095238095,-45.476190476190474,-81.19047619047619,-174.36507936507937,318.8095238095238,162.46031746031744,-76.26984126984127,-325.0,148.33333333333331,-207.2222222222222,151.34920634920633,324.36507936507934,325.0,325.0,195.79365079365078,252.6190476190476,1.6666666666666665,-1.6666666666666665,-166.26984126984127
-140.55555555555554,96.42857142857142,-321.031746031746,167.2222222222222,264.36507936507934,-83.73015873015872,-46.74603174603175,-78.96825396825396,-170.07936507936506,221.5079365079365,158.4920634920635,-74.36507936507937,-325.0,144.36507936507937,-202.14285714285714,85.95238095238095,320.87301587301585,307.85714285714283,325.0,190.7142857142857,246.42857142857142,3.253968253968254,8.809523809523808,-166.26984126984127
-140.55555555555554,96.42857142857142,-321.031746031746,167.2222222222222,264.36507936507934,-83.73015873015872,-46.74603174603175,-78.96825396825396,-170.07936507936506,221.5079365079365,158.4920634920635,-74.36507936507937,-325.0,144.36507936507937,-202.14285714285714,85.95238095238095,320.87301587301585,307.85714285714283,325.0,190.7142857142857,246.42857142857142,3.253968253968254,8.809523809523808,-166.26984126984127
-56.904761904761905,94.52380952380952,-314.36507936507934,163.57142857142856,250.07936507936506,-81.98412698412697,-45.63492063492063,-77.53968253968253,-166.42857142857142,321.5079365079365,155.0,-72.77777777777777,-325.0,141.19047619047618,-197.85714285714283,187.38095238095238,314.04761904761904,238.49206349206347,325.0,187.06349206349205,241.03174603174602,-1.507936507936508,-6.746031746031746,-321.8253968253968
-56.904761904761905,94.52380952380952,-314.36507936507934,163.57142857142856,250.07936507936506,-81.98412698412697,-45.63492063492063,-77.53968253968253,-166.42857142857142,321.5079365079365,155.0,-72.77777777777777,-325.0,141.19047619047618,-197.85714285714283,187.38095238095238,314.04761904761904,238.49206349206347,325.0,187.06349206349205,241.03174603174602,-1.507936507936508,-6.746031746031746,-321.8253968253968
52.93650793650794,94.04761904761904,-312.9365079365079,162.77777777777777,263.25396825396825,-81.5079365079365,-45.63492063492063,-77.06349206349206,-165.79365079365078,318.015873015873,154.36507936507937,-72.46031746031746,-325.0,140.55555555555554,-196.9047619047619,174.2063492063492,312.6190476190476,159.76190476190476,325.0,186.26984126984127,240.07936507936506,1.1904761904761905,-1.8253968253968254,-321.8253968253968
52.93650793650794,94.04761904761904,-312.9365079365079,162.77777777777777,263.25396825396825,-81.5079365079365,-45.63492063492063,-77.06349206349206,-165.79365079365078,318.015873015873,154.36507936507937,-72.46031746031746,-325.0,140.55555555555554,-196.9047619047619,174.2063492063492,312.6190476190476,159.76190476190476,325.0,186.26984126984127,240.07936507936506,1.1904761904761905,-1.8253968253968254,-321.8253968253968
75.79365079365078,92.46031746031746,-308.015873015873,160.07936507936506,264.8412698412698,-80.23809523809523,-42.3015873015873,-75.95238095238095,-163.09523809523807,309.4444444444444,151.8253968253968,-71.34920634920634,-325.0,138.17460317460316,-193.88888888888889,174.04761904761904,307.53968253968253,242.3015873015873,325.0,183.09523809523807,235.95238095238093,1.0317460317460316,-1.1904761904761905,-321.8253968253968
75.79365079365078,92.46031746031746,-308.015873015873,160.07936507936506,264.8412698412698,-80.23809523809523,-42.3015873015873,-75.95238095238095,-163.09523809523807,309.4444444444444,151.8253968253968,-71.34920634920634,-325.0,138.17460317460316,-193.88888888888889,174.04761904761904,307.53968253968253,242.3015873015873,325.0,183.09523809523807,235.95238095238093,1.0317460317460316,-1.1904761904761905,-321.8253968253968
35.0,90.07936507936508,-300.23809523809524,156.11111111111111,264.2063492063492,-78.33333333333333,-43.888888888888886,-74.04761904761904,-159.12698412698413,204.2063492063492,147.85714285714286,-69.76190476190476,-325.0,134.52380952380952,-189.12698412698413,105.31746031746032,299.76190476190476,325.0,325.0,178.8095238095238,229.9206349206349,2.619047619047619,9.920634920634921,-321.8253968253968
35.0,90.07936507936508,-300.23809523809524,156.11111111111111,264.2063492063492,-78.33333333333333,-43.888888888888886,-74.04761904761904,-159.12698412698413,204.2063492063492,147.85714285714286,-69.76190476190476,-325.0,134.52380952380952,-189.12698412698413,105.31746031746032,299.76190476190476,325.0,325.0,178.8095238095238,229.9206349206349,2.619047619047619,9.920634920634921,-321.8253968253968
-52.3015873015873,88.96825396825396,-296.4285714285714,153.88888888888889,259.6031746031746,-77.38095238095238,-43.41269841269841,-73.25396825396825,-157.2222222222222,250.3968253968254,146.11111111111111,-68.65079365079364,-322.6190476190476,132.77777777777777,-186.74603174603175,146.42857142857142,295.95238095238096,325.0,325.0,176.42857142857142,226.9047619047619,2.46031746031746,4.523809523809524,-321.8253968253968
-52.3015873015873,88.96825396825396,-296.4285714285714,153.88888888888889,259.6031746031746,-77.38095238095238,-43.41269841269841,-73.25396825396825,-157.2222222222222,250.3968253968254,146.11111111111111,-68.65079365079364,-322.6190476190476,132.77777777777777,-186.74603174603175,146.42857142857142,295.95238095238096,325.0,325.0,176.42857142857142,226.9047619047619,2.46031746031746,4.523809523809524,-321.8253968253968
-159.76190476190476,86.58730158730158,-289.1269841269841,150.07936507936506,92.30158730158729,-75.47619047619047,-42.14285714285714,-71.5079365079365,-153.09523809523807,204.68253968253967,142.46031746031744,-66.9047619047619,-316.26984126984127,129.28571428571428,-182.14285714285714,133.88888888888889,288.3333333333333,322.46031746031747,325.0,171.66666666666666,221.03174603174602,1.6666666666666665,4.523809523809524,-166.26984126984127
-159.76190476190476,86.58730158730158,-289.1269841269841,150.07936507936506,92.30158730158729,-75.47619047619047,-42.14285714285714,-71.5079365079365,-153.09523809523807,204.68253968253967,142.46031746031744,-66.9047619047619,-316.26984126984127,129.28571428571428,-182.14285714285714,133.88888888888889,288.3333333333333,322.46031746031747,325.0,171.66666666666666,221.03174603174602,1.6666666666666665,4.523809523809524,-166.26984126984127
-175.63492063492063,85.31746031746032,-284.04761904761904,147.38095238095238,-325.0,-74.2063492063492,-41.34920634920635,-70.23809523809524,-150.3968253968254,292.9365079365079,103.09523809523809,-65.47619047619047,-310.7142857142857,127.06349206349206,-179.12698412698413,207.85714285714283,283.73015873015873,325.0,325.0,168.96825396825395,217.06349206349205,0.7142857142857142,-4.682539682539682,-166.26984126984127
-175.63492063492063,85.31746031746032,-284.04761904761904,147.38095238095238,-325.0,-74.2063492063492,-41.34920634920635,-70.23809523809524,-150.3968253968254,292.9365079365079,103.09523809523809,-65.47619047619047,-310.7142857142857,127.06349206349206,-179.12698412698413,207.85714285714283,283.73015873015873,325.0,325.0,168.96825396825395,217.06349206349205,0.7142857142857142,-4.682539682539682,-166.26984126984127
-172.46031746031744,84.2063492063492,-280.39682539682536,145.47619047619048,-325.0,-73.09523809523809,-40.714285714285715,-68.96825396825396,-148.33333333333331,173.57142857142856,78.17460317460316,-64.36507936507937,-306.58730158730157,125.15873015873015,-176.74603174603175,111.19047619047619,279.76190476190476,325.0,325.0,166.9047619047619,214.36507936507937,3.095238095238095,10.238095238095237,-166.26984126984127
-172.46031746031744,84.2063492063492,-280.39682539682536,145.47619047619048,-325.0,-73.09523809523809,-40.714285714285715,-68.96825396825396,-148.33333333333331,173.57142857142856,78.17460317460316,-64.36507936507937,-306.58730158730157,125.15873015873015,-176.74603174603175,111.19047619047619,279.76190476190476,325.0,325.0,166.9047619047619,214.36507936507937,3.095238095238095,10.238095238095237,-166.26984126984127
-99.44444444444444,82.3015873015873,-274.8412698412698,142.61904761904762,59.12698412698413,-71.82539682539682,-40.238095238095234,-68.01587301587301,-145.47619047619048,273.4126984126984,138.015873015873,-63.57142857142857,-300.55555555555554,122.6190476190476,-173.25396825396825,208.96825396825395,273.88888888888886,301.3492063492063,325.0,163.4126984126984,209.76190476190476,-1.8253968253968254,-5.476190476190476,-166.26984126984127
-99.44444444444444,82.3015873015873,-274.8412698412698,142.61904761904762,59.12698412698413,-71.82539682539682,-40.238095238095234,-68.01587301587301,-145.47619047619048,273.4126984126984,138.015873015873,-63.57142857142857,-300.55555555555554,122.6190476190476,-173.25396825396825,208.96825396825395,273.88888888888886,301.3492063492063,325.0,163.4126984126984,209.76190476190476,-1.8253968253968254,-5.476190476190476,-166.26984126984127
-131.8253968253968,81.34920634920634,-271.3492063492063,140.87301587301587,91.03174603174602,-70.87301587301587,-39.6031746031746,-67.22222222222221,-143.73015873015873,165.3174603174603,135.3174603174603,-62.61904761904761,-296.74603174603175,121.19047619047619,-171.34920634920633,122.46031746031746,270.55555555555554,245.3174603174603,325.0,161.34920634920633,207.06349206349205,3.095238095238095,10.079365079365079,-166.26984126984127
-131.8253968253968,81.34920634920634,-271.3492063492063,140.87301587301587,91.03174603174602,-70.87301587301587,-39.6031746031746,-67.22222222222221,-143.73015873015873,165.3174603174603,135.3174603174603,-62.61904761904761,-296.74603174603175,121.19047619047619,-171.34920634920633,122.46031746031746,270.55555555555554,245.3174603174603,325.0,161.34920634920633,207.06349206349205,3.095238095238095,10.079365079365079,-166.26984126984127
-147.85714285714286,80.23809523809523,-267.85714285714283,138.8095238095238,-94.2063492063492,-69.92063492063491,-39.12698412698413,-66.42857142857143,-141.984126984127,208.33333333333331,133.4126984126984,-61.82539682539682,-293.0952380952381,119.44444444444444,-169.12698412698413,157.06349206349205,267.06349206349205,89.76190476190476,325.0,159.12698412698413,204.36507936507937,2.46031746031746,5.476190476190476,-321.8253968253968
-147.85714285714286,80.23809523809523,-267.85714285714283,138.8095238095238,-94.2063492063492,-69.92063492063491,-39.12698412698413,-66.42857142857143,-141.984126984127,208.33333333333331,133.4126984126984,-61.82539682539682,-293.0952380952381,119.44444444444444,-169.12698412698413,157.06349206349205,267.06349206349205,89.76190476190476,325.0,159.12698412698413,204.36507936507937,2.46031746031746,5.476190476190476,-321.8253968253968
-161.66666666666666,78.65079365079364,-262.1428571428571,135.95238095238093,-325.0,-68.4920634920635,-38.17460317460317,-64.84126984126983,-138.8095238095238,160.07936507936506,128.17460317460316,-60.238095238095234,-286.74603174603175,116.74603174603173,-165.47619047619045,125.31746031746032,261.5079365079365,-162.61904761904762,325.0,155.95238095238093,199.9206349206349,3.4126984126984126,9.920634920634921,-321.8253968253968
-161.66666666666666,78.65079365079364,-262.1428571428571,135.95238095238093,-325.0,-68.4920634920635,-38.17460317460317,-64.84126984126983,-138.8095238095238,160.07936507936506,128.17460317460316,-60.238095238095234,-286.74603174603175,116.74603174603173,-165.47619047619045,125.31746031746032,261.5079365079365,-162.61904761904762,325.0,155.95238095238093,199.9206349206349,3.4126984126984126,9.920634920634921,-321.8253968253968
-161.66666666666666,78.65079365079364,-262.1428571428571,135.95238095238093,-325.0,-68.4920634920635,-38.17460317460317,-64.84126984126983,-138.8095238095238,160.07936507936506,128.17460317460316,-60.238095238095234,-286.74603174603175,116.74603174603173,-165.47619047619045,125.31746031746032,261.5079365079365,-162.61904761904762,325.0,155.95238095238093,199.9206349206349,3.4126984126984126,9.920634920634921,-321.8253968253968
-161.66666666666666,78.65079365079364,-262.1428571428571,135.95238095238093,-325.0,-68.4920634920635,-38.17460317460317,-64.84126984126983,-138.8095238095238,160.07936507936506,128.17460317460316,-60.238095238095234,-286.74603174603175,116.74603174603173,-165.47619047619045,125.31746031746032,261.5079365079365,-162.61904761904762,325.0,155.95238095238093,199.9206349206349,3.4126984126984126,9.920634920634921,-321.8253968253968
-161.66666666666666,78.65079365079364,-262.1428571428571,135.95238095238093,-325.0,-68.4920634920635,-38.17460317460317,-64.84126984126983,-138.8095238095238,160.07936507936506,128.17460317460316,-60.238095238095234,-286.74603174603175,116.74603174603173,-165.47619047619045,125.31746031746032,261.5079365079365,-162.61904761904762,325.0,155.95238095238093,199.9206349206349,3.4126984126984126,9.920634920634921,-321.8253968253968
-161.66666666666666,78.65079365079364,-262.1428571428571,135.95238095238093,-325.0,-68.4920634920635,-38.17460317460317,-64.84126984126983,-138.8095238095238,160.07936507936506,128.17460317460316,-60.238095238095234,-286.74603174603175,116.74603174603173,-165.47619047619045,125.31746031746032,261.5079365079365,-162.61904761904762,325.0,155.95238095238093,199.9206349206349,3.4126984126984126,9.920634920634921,-321.8253968253968
-161.66666666666666,78.65079365079364,-262.1428571428571,135.95238095238093,-325.0,-68.4920634920635,-38.17460317460317,-64.84126984126983,-138.8095238095238,160.07936507936506,128.17460317460316,-60.238095238095234,-286.74603174603175,116.74603174603173,-165.47619047619045,125.31746031746032,261.5079365079365,-162.61904761904762,325.0,155.95238095238093,199.9206349206349,3.4126984126984126,9.920634920634921,-321.8253968253968
-161.66666666666666,78.65079365079364,-262.1428571428571,135.95238095238093,-325.0,-68.4920634920635,-38.17460317460317,-64.84126984126983,-138.8095238095238,160.07936507936506,128.17460317460316,-60.238095238095234,-286.74603174603175,116.74603174603173,-165.47619047619045,125.31746031746032,261.5079365079365,-162.61904761904762,325.0,155.95238095238093,199.9206349206349,3.4126984126984126,9.920634920634921,-321.8253968253968
-161.66666666666666,78.65079365079364,-262.1428571428571,135.95238095238093,-325.0,-68.4920634920635,-38.17460317460317,-64.84126984126983,-138.8095238095238,160.07936507936506,128.17460317460316,-60.238095238095234,-286.74603174603175,116.74603174603173,-165.47619047619045,125.31746031746032,261.5079365079365,-162.61904761904762,325.0,155.95238095238093,199.9206349206349,3.4126984126984126,9.920634920634921,-166.26984126984127
-161.66666666666666,78.65079365079364,-262.1428571428571,135.95238095238093,-325.0,-68.4920634920635,-38.17460317460317,-64.84126984126983,-138.8095238095238,160.07936507936506,128.17460317460316,-60.238095238095234,-286.74603174603175,116.74603174603173,-165.47619047619045,125.31746031746032,261.5079365079365,-162.61904761904762,325.0,155.95238095238093,199.9206349206349,3.4126984126984126,9.920634920634921,-166.26984126984127
-161.66666666666666,78.65079365079364,-262.1428571428571,135.95238095238093,-325.0,-68.4920634920635,-38.17460317460317,-64.84126984126983,-138.8095238095238,160.07936507936506,128.17460317460316,-60.238095238095234,-286.74603174603175,116.74603174603173,-165.47619047619045,125.31746031746032,261.5079365079365,-162.61904761904762,325.0,155.95238095238093,199.9206349206349,3.4126984126984126,9.920634920634921,-166.26984126984127
-161.66666666666666,78.65079365079364,-262.1428571428571,135.95238095238093,-325.0,-68.4920634920635,-38.17460317460317,-64.84126984126983,-138.8095238095238,160.07936507936506,128.17460317460316,-60.238095238095234,-286.74603174603175,116.74603174603173,-165.47619047619045,125.31746031746032,261.5079365079365,-162.61904761904762,325.0,155.95238095238093,199.9206349206349,3.4126984126984126,9.920634920634921,-166.26984126984127
-161.66666666666666,78.65079365079364,-262.1428571428571,135.95238095238093,-325.0,-68.4920634920635,-38.17460317460317,-64.84126984126983,-138.8095238095238,160.07936507936506,128.17460317460316,-60.238095238095234,-286.74603174603175,116.74603174603173,-165.47619047619045,125.31746031746032,261.5079365079365,-162.61904761904762,325.0,155.95238095238093,199.9206349206349,3.4126984126984126,9.920634920634921,-166.26984126984127
-161.66666666666666,78.65079365079364,-262.1428571428571,135.95238095238093,-325.0,-68.4920634920635,-38.17460317460317,-64.84126984126983,-138.8095238095238,160.07936507936506,128.17460317460316,-60.238095238095234,-286.74603174603175,116.74603174603173,-165.47619047619045,125.31746031746032,261.5079365079365,-162.61904761904762,325.0,155.95238095238093,199.9206349206349,3.4126984126984126,9.920634920634921,-166.26984126984127
-161.66666666666666,78.65079365079364,-262.1428571428571,135.95238095238093,-325.0,-68.4920634920635,-38.17460317460317,-64.84126984126983,-138.8095238095238,160.07936507936506,128.17460317460316,-60.238095238095234,-286.74603174603175,116.74603174603173,-165.47619047619045,125.31746031746032,261.5079365079365,-162.61904761904762,325.0,155.95238095238093,199.9206349206349,3.4126984126984126,9.920634920634921,-166.26984126984127
-161.66666666666666,78.65079365079364,-262.1428571428571,135.95238095238093,-325.0,-68.4920634920635,-38.17460317460317,-64.84126984126983,-138.8095238095238,160.07936507936506,128.17460317460316,-60.238095238095234,-286.74603174603175,116.74603174603173,-165.47619047619045,125.31746031746032,261.5079365079365,-162.61904761904762,325.0,155.95238095238093,199.9206349206349,3.4126984126984126,9.920634920634921,-166.26984126984127
-161.66666666666666,78.65079365079364,-262.1428571428571,135.95238095238093,-325.0,-68.4920634920635,-38.17460317460317,-64.84126984126983,-138.8095238095238,160.07936507936506,128.17460317460316,-60.238095238095234,-286.74603174603175,116.74603174603173,-165.47619047619045,125.31746031746032,261.5079365079365,-162.61904761904762,325.0,155.95238095238093,199.9206349206349,3.4126984126984126,9.920634920634921,-166.26984126984127
-161.66666666666666,78.65079365079364,-262.1428571428571,135.95238095238093,-325.0,-68.4920634920635,-38.17460317460317,-64.84126984126983,-138.8095238095238,160.07936507936506,128.17460317460316,-60.238095238095234,-286.74603174603175,116.74603174603173,-165.47619047619045,125.31746031746032,261.5079365079365,-162.61904761904762,325.0,155.95238095238093,199.9206349206349,3.4126984126984126,9.920634920634921,-166.26984126984127
-161.66666666666666,78.65079365079364,-262.1428571428571,135.95238095238093,-325.0,-68.4920634920635,-38.17460317460317,-64.84126984126983,-138.8095238095238,160.07936507936506,128.17460317460316,-60.238095238095234,-286.74603174603175,116.74603174603173,-165.47619047619045,125.31746031746032,261.5079365079365,-162.61904761904762,325.0,155.95238095238093,199.9206349206349,3.4126984126984126,9.920634920634921,-321.8253968253968
-161.66666666666666,78.65079365079364,-262.1428571428571,135.95238095238093,-325.0,-68.4920634920635,-38.17460317460317,-64.84126984126983,-138.8095238095238,160.07936507936506,128.17460317460316,-60.238095238095234,-286.74603174603175,116.74603174603173,-165.47619047619045,125.31746031746032,261.5079365079365,-162.61904761904762,325.0,155.95238095238093,199.9206349206349,3.4126984126984126,9.920634920634921,-321.8253968253968
-161.66666666666666,78.65079365079364,-262.1428571428571,135.95238095238093,-325.0,-68.4920634920635,-38.17460317460317,-64.84126984126983,-138.8095238095238,160.07936507936506,128.17460317460316,-60.238095238095234,-286.74603174603175,116.74603174603173,-165.47619047619045,125.31746031746032,261.5079365079365,-162.61904761904762,325.0,155.95238095238093,199.9206349206349,3.4126984126984126,9.920634920634921,-321.8253968253968
-161.66666666666666,78.65079365079364,-262.1428571428571,135.95238095238093,-325.0,-68.4920634920635,-38.17460317460317,-64.84126984126983,-138.8095238095238,160.07936507936506,128.17460317460316,-60.238095238095234,-286.74603174603175,116.74603174603173,-165.47619047619045,125.31746031746032,261.5079365079365,-162.61904761904762,325.0,155.95238095238093,199.9206349206349,3.4126984126984126,9.920634920634921,-321.8253968253968
-161.66666666666666,78.65079365079364,-262.1428571428571,135.95238095238093,-325.0,-68.4920634920635,-38.17460317460317,-64.84126984126983,-138.8095238095238,160.07936507936506,128.17460317460316,-60.238095238095234,-286.74603174603175,116.74603174603173,-165.47619047619045,125.31746031746032,261.5079365079365,-162.61904761904762,325.0,155.95238095238093,199.9206349206349,3.4126984126984126,9.920634920634921,-321.8253968253968
-161.66666666666666,78.65079365079364,-262.1428571428571,135.95238095238093,-325.0,-68.4920634920635,-38.17460317460317,-64.84126984126983,-138.8095238095238,160.07936507936506,128.17460317460316,-60.238095238095234,-286.74603174603175,116.74603174603173,-165.47619047619045,125.31746031746032,261.5079365079365,-162.61904761904762,325.0,155.95238095238093,199.9206349206349,3.4126984126984126,9.920634920634921,-321.8253968253968
-161.66666666666666,78.65079365079364,-262.1428571428571,135.95238095238093,-325.0,-68.4920634920635,-38.17460317460317,-64.84126984126983,-138.8095238095238,160.07936507936506,128.17460317460316,-60.238095238095234,-286.74603174603175,116.74603174603173,-165.47619047619045,125.31746031746032,261.5079365079365,-162.61904761904762,325.0,155.95238095238093,199.9206349206349,3.4126984126984126,9.920634920634921,-321.8253968253968
-161.66666666666666,78.65079365079364,-262.1428571428571,135.95238095238093,-325.0,-68.4920634920635,-38.17460317460317,-64.84126984126983,-138.8095238095238,160.07936507936506,128.17460317460316,-60.238095238095234,-286.74603174603175,116.74603174603173,-165.47619047619045,125.31746031746032,261.5079365079365,-162.61904761904762,325.0,155.95238095238093,199.9206349206349,3.4126984126984126,9.920634920634921,-321.8253968253968
65.47619047619047,62.77777777777777,-209.76190476190476,108.17460317460316,273.25396825396825,-55.317460317460316,-31.825396825396822,-52.77777777777777,-111.34920634920634,218.96825396825395,108.65079365079364,-48.49206349206349,-229.28571428571428,92.30158730158729,-133.4126984126984,232.93650793650792,209.12698412698413,-92.93650793650794,325.0,124.52380952380952,158.65079365079364,1.0317460317460316,-4.682539682539682,-321.8253968253968
