Fp1[1],Fp2[2],F3[3],F4[4],C3[5],C4[6],P3[7],P4[8],O1[9],O2[10],F7[11],F8[12],T3[13],T4[14],T5[15],T6[16],Fz[17],Pz[18],Cz[19],Pg1[20],Pg2[21],EOGR[22],EOOGL[23],EMG[24]
325.0,-308.968253968254,311.031746031746,-218.8095238095238,-325.0,321.3492063492063,325.0,325.0,325.0,325.0,-325.0,325.0,303.73015873015873,-151.8253968253968,325.0,325.0,-325.0,-325.0,123.09523809523809,-325.0,-325.0,1.507936507936508,7.3809523809523805,-166.26984126984127
325.0,-308.968253968254,311.031746031746,-218.8095238095238,-325.0,321.3492063492063,325.0,325.0,325.0,325.0,-325.0,325.0,303.73015873015873,-151.8253968253968,325.0,325.0,-325.0,-325.0,123.09523809523809,-325.0,-325.0,1.507936507936508,7.3809523809523805,-166.26984126984127
309.9206349206349,-271.5079365079365,272.46031746031747,-190.7142857142857,-325.0,282.3015873015873,298.6507936507936,299.1269841269841,301.984126984127,325.0,-325.0,298.6507936507936,266.1111111111111,-132.14285714285714,303.4126984126984,325.0,-325.0,-0.07936507936507936,135.3174603174603,-325.0,-325.0,1.1904761904761905,-0.3968253968253968,-166.26984126984127
309.9206349206349,-271.5079365079365,272.46031746031747,-190.7142857142857,-325.0,282.3015873015873,298.6507936507936,299.1269841269841,301.984126984127,325.0,-325.0,298.6507936507936,266.1111111111111,-132.14285714285714,303.4126984126984,325.0,-325.0,-0.07936507936507936,135.3174603174603,-325.0,-325.0,1.1904761904761905,-0.3968253968253968,-166.26984126984127
283.0952380952381,-241.03174603174602,240.87301587301587,-167.85714285714286,-325.0,249.9206349206349,266.26984126984127,267.38095238095235,272.77777777777777,325.0,-325.0,265.95238095238096,235.47619047619045,-116.1111111111111,275.7936507936508,325.0,-325.0,325.0,126.26984126984127,-325.0,-325.0,1.984126984126984,6.26984126984127,-166.26984126984127
283.0952380952381,-241.03174603174602,240.87301587301587,-167.85714285714286,-325.0,249.9206349206349,266.26984126984127,267.38095238095235,272.77777777777777,325.0,-325.0,265.95238095238096,235.47619047619045,-116.1111111111111,275.7936507936508,325.0,-325.0,325.0,126.26984126984127,-325.0,-325.0,1.984126984126984,6.26984126984127,-166.26984126984127
251.19047619047618,-231.5079365079365,231.19047619047618,-161.03174603174602,-325.0,239.9206349206349,255.79365079365078,257.06349206349205,262.3015873015873,145.0,-325.0,255.3174603174603,226.1111111111111,-111.19047619047619,265.1587301587301,325.0,-325.0,325.0,120.23809523809523,-317.06349206349205,-317.69841269841265,-0.3968253968253968,-0.3968253968253968,-166.26984126984127
251.19047619047618,-231.5079365079365,231.19047619047618,-161.03174603174602,-325.0,239.9206349206349,255.79365079365078,257.06349206349205,262.3015873015873,145.0,-325.0,255.3174603174603,226.1111111111111,-111.19047619047619,265.1587301587301,325.0,-325.0,325.0,120.23809523809523,-317.06349206349205,-317.69841269841265,-0.3968253968253968,-0.3968253968253968,-166.26984126984127
-5.7936507936507935,-223.4126984126984,222.61904761904762,-154.68253968253967,-325.0,231.34920634920633,246.9047619047619,248.015873015873,253.09523809523807,-93.25396825396825,-325.0,245.95238095238093,217.85714285714283,-107.06349206349206,255.47619047619045,325.0,-325.0,325.0,116.58730158730158,-306.4285714285714,-307.22222222222223,-0.873015873015873,-4.0476190476190474,-166.26984126984127
-5.7936507936507935,-223.4126984126984,222.61904761904762,-154.68253968253967,-325.0,231.34920634920633,246.9047619047619,248.015873015873,253.09523809523807,-93.25396825396825,-325.0,245.95238095238093,217.85714285714283,-107.06349206349206,255.47619047619045,325.0,-325.0,325.0,116.58730158730158,-306.4285714285714,-307.22222222222223,-0.873015873015873,-4.0476190476190474,-166.26984126984127
113.25396825396825,-219.28571428571428,218.8095238095238,-151.66666666666666,-325.0,227.2222222222222,242.3015873015873,243.57142857142856,248.8095238095238,-325.0,-325.0,241.5079365079365,214.04761904761904,-104.84126984126983,251.34920634920633,325.0,-324.36507936507934,325.0,107.38095238095238,-301.031746031746,-301.5079365079365,-1.8253968253968254,4.523809523809524,-321.8253968253968
113.25396825396825,-219.28571428571428,218.8095238095238,-151.66666666666666,-325.0,227.2222222222222,242.3015873015873,243.57142857142856,248.8095238095238,-325.0,-325.0,241.5079365079365,214.04761904761904,-104.84126984126983,251.34920634920633,325.0,-324.36507936507934,325.0,107.38095238095238,-301.031746031746,-301.5079365079365,-1.8253968253968254,4.523809523809524,-321.8253968253968
-42.93650793650794,-214.68253968253967,213.57142857142856,-148.33333333333331,-325.0,222.3015873015873,236.9047619047619,238.17460317460316,243.09523809523807,-325.0,-325.0,235.79365079365078,209.28571428571428,-102.46031746031746,245.95238095238093,325.0,-317.53968253968253,325.0,111.03174603174602,-294.36507936507934,-294.68253968253964,1.8253968253968254,2.9365079365079363,-321.8253968253968
-42.93650793650794,-214.68253968253967,213.57142857142856,-148.33333333333331,-325.0,222.3015873015873,236.9047619047619,238.17460317460316,243.09523809523807,-325.0,-325.0,235.79365079365078,209.28571428571428,-102.46031746031746,245.95238095238093,325.0,-317.53968253968253,325.0,111.03174603174602,-294.36507936507934,-294.68253968253964,1.8253968253968254,2.9365079365079363,-321.8253968253968
-325.0,-211.66666666666666,210.87301587301587,-145.95238095238093,-325.0,219.28571428571428,233.88888888888889,235.15873015873015,239.76190476190476,-325.0,-325.0,232.46031746031744,206.58730158730157,-100.87301587301587,242.6190476190476,325.0,-313.4126984126984,325.0,107.06349206349206,-290.39682539682536,-290.55555555555554,-0.23809523809523808,-0.07936507936507936,-321.8253968253968
-325.0,-211.66666666666666,210.87301587301587,-145.95238095238093,-325.0,219.28571428571428,233.88888888888889,235.15873015873015,239.76190476190476,-325.0,-325.0,232.46031746031744,206.58730158730157,-100.87301587301587,242.6190476190476,325.0,-313.4126984126984,325.0,107.06349206349206,-290.39682539682536,-290.55555555555554,-0.23809523809523808,-0.07936507936507936,-321.8253968253968
-325.0,-206.9047619047619,205.95238095238093,-142.77777777777777,-325.0,214.2063492063492,228.65079365079364,229.9206349206349,234.68253968253967,-325.0,-325.0,227.38095238095238,201.66666666666666,-98.49206349206348,237.2222222222222,325.0,-306.58730158730157,325.0,92.46031746031746,-284.04761904761904,-284.04761904761904,1.1904761904761905,1.6666666666666665,-321.8253968253968
-325.0,-206.9047619047619,205.95238095238093,-142.77777777777777,-325.0,214.2063492063492,228.65079365079364,229.9206349206349,234.68253968253967,-325.0,-325.0,227.38095238095238,201.66666666666666,-98.49206349206348,237.2222222222222,325.0,-306.58730158730157,325.0,92.46031746031746,-284.04761904761904,-284.04761904761904,1.1904761904761905,1.6666666666666665,-321.8253968253968
-325.0,-205.95238095238093,205.0,-141.8253968253968,-325.0,213.25396825396825,227.69841269841268,228.65079365079364,233.7301587301587,-325.0,-325.0,226.26984126984127,200.7142857142857,-97.85714285714285,236.26984126984127,325.0,-305.1587301587301,325.0,92.46031746031746,-282.6190476190476,-282.77777777777777,2.7777777777777777,8.65079365079365,-321.8253968253968
-325.0,-205.95238095238093,205.0,-141.8253968253968,-325.0,213.25396825396825,227.69841269841268,228.65079365079364,233.7301587301587,-325.0,-325.0,226.26984126984127,200.7142857142857,-97.85714285714285,236.26984126984127,325.0,-305.1587301587301,325.0,92.46031746031746,-282.6190476190476,-282.77777777777777,2.7777777777777777,8.65079365079365,-321.8253968253968
-325.0,-205.95238095238093,205.0,-141.8253968253968,-325.0,213.25396825396825,227.69841269841268,228.65079365079364,233.7301587301587,-325.0,-325.0,226.26984126984127,200.7142857142857,-97.85714285714285,236.26984126984127,325.0,-305.1587301587301,325.0,92.46031746031746,-282.6190476190476,-282.77777777777777,2.7777777777777777,8.65079365079365,-166.26984126984127
-325.0,-205.95238095238093,205.0,-141.8253968253968,-325.0,213.25396825396825,227.69841269841268,228.65079365079364,233.7301587301587,-325.0,-325.0,226.26984126984127,200.7142857142857,-97.85714285714285,236.26984126984127,325.0,-305.1587301587301,325.0,92.46031746031746,-282.6190476190476,-282.77777777777777,2.7777777777777777,8.65079365079365,-166.26984126984127
77.22222222222221,-194.84126984126982,193.25396825396825,-133.73015873015873,-325.0,201.03174603174602,214.84126984126982,216.1111111111111,220.7142857142857,-325.0,-323.0952380952381,213.25396825396825,189.28571428571428,-92.30158730158729,223.25396825396825,325.0,-288.968253968254,325.0,102.77777777777777,-267.38095238095235,-266.74603174603175,0.7142857142857142,6.587301587301587,-166.26984126984127
77.22222222222221,-194.84126984126982,193.25396825396825,-133.73015873015873,-325.0,201.03174603174602,214.84126984126982,216.1111111111111,220.7142857142857,-325.0,-323.0952380952381,213.25396825396825,189.28571428571428,-92.30158730158729,223.25396825396825,325.0,-288.968253968254,325.0,102.77777777777777,-267.38095238095235,-266.74603174603175,0.7142857142857142,6.587301587301587,-166.26984126984127
-144.36507936507937,-192.3015873015873,190.7142857142857,-131.8253968253968,-325.0,198.4920634920635,212.14285714285714,213.4126984126984,217.85714285714283,-325.0,-321.19047619047615,210.3968253968254,186.74603174603175,-90.87301587301587,220.3968253968254,325.0,-285.1587301587301,325.0,98.33333333333333,-263.57142857142856,-262.9365079365079,2.46031746031746,9.285714285714285,-166.26984126984127
-144.36507936507937,-192.3015873015873,190.7142857142857,-131.8253968253968,-325.0,198.4920634920635,212.14285714285714,213.4126984126984,217.85714285714283,-325.0,-321.19047619047615,210.3968253968254,186.74603174603175,-90.87301587301587,220.3968253968254,325.0,-285.1587301587301,325.0,98.33333333333333,-263.57142857142856,-262.9365079365079,2.46031746031746,9.285714285714285,-166.26984126984127
77.22222222222221,-183.25396825396825,181.5079365079365,-125.47619047619047,-325.0,188.8095238095238,202.46031746031744,203.4126984126984,207.69841269841268,-325.0,-307.38095238095235,200.23809523809524,177.85714285714286,-86.42857142857143,210.2380952380952,317.38095238095235,-272.3015873015873,325.0,-113.4126984126984,-251.66666666666666,-250.7142857142857,0.7142857142857142,3.571428571428571,-166.26984126984127
77.22222222222221,-183.25396825396825,181.5079365079365,-125.47619047619047,-325.0,188.8095238095238,202.46031746031744,203.4126984126984,207.69841269841268,-325.0,-307.38095238095235,200.23809523809524,177.85714285714286,-86.42857142857143,210.2380952380952,317.38095238095235,-272.3015873015873,325.0,-113.4126984126984,-251.66666666666666,-250.7142857142857,0.7142857142857142,3.571428571428571,-166.26984126984127
298.968253968254,-174.2063492063492,172.3015873015873,-118.96825396825396,-325.0,179.28571428571428,192.77777777777777,193.4126984126984,197.69841269841268,-325.0,-293.57142857142856,190.23809523809524,168.96825396825395,-81.98412698412697,200.07936507936506,309.9206349206349,-259.44444444444446,325.0,-325.0,-239.60317460317458,-238.33333333333331,-1.0317460317460316,-1.984126984126984,-166.26984126984127
298.968253968254,-174.2063492063492,172.3015873015873,-118.96825396825396,-325.0,179.28571428571428,192.77777777777777,193.4126984126984,197.69841269841268,-325.0,-293.57142857142856,190.23809523809524,168.96825396825395,-81.98412698412697,200.07936507936506,309.9206349206349,-259.44444444444446,325.0,-325.0,-239.60317460317458,-238.33333333333331,-1.0317460317460316,-1.984126984126984,-166.26984126984127
-28.65079365079365,-168.17460317460316,166.26984126984127,-114.52380952380952,-316.4285714285714,173.09523809523807,186.11111111111111,186.74603174603175,190.7142857142857,-325.0,-283.88888888888886,183.4126984126984,163.09523809523807,-78.80952380952381,193.09523809523807,299.6031746031746,-250.55555555555554,325.0,-325.0,-231.03174603174602,-229.44444444444443,1.8253968253968254,-1.6666666666666665,-321.8253968253968
-28.65079365079365,-168.17460317460316,166.26984126984127,-114.52380952380952,-316.4285714285714,173.09523809523807,186.11111111111111,186.74603174603175,190.7142857142857,-325.0,-283.88888888888886,183.4126984126984,163.09523809523807,-78.80952380952381,193.09523809523807,299.6031746031746,-250.55555555555554,325.0,-325.0,-231.03174603174602,-229.44444444444443,1.8253968253968254,-1.6666666666666665,-321.8253968253968
130.23809523809524,-157.53968253968253,155.47619047619048,-106.9047619047619,-298.17460317460313,162.14285714285714,174.52380952380952,175.0,178.96825396825395,-325.0,-267.38095238095235,171.5079365079365,152.77777777777777,-73.57142857142857,181.19047619047618,-12.777777777777777,-235.3174603174603,325.0,-325.0,-216.74603174603175,-214.84126984126982,-1.6666666666666665,-6.746031746031746,-321.8253968253968
130.23809523809524,-157.53968253968253,155.47619047619048,-106.9047619047619,-298.17460317460313,162.14285714285714,174.52380952380952,175.0,178.96825396825395,-325.0,-267.38095238095235,171.5079365079365,152.77777777777777,-73.57142857142857,181.19047619047618,-12.777777777777777,-235.3174603174603,325.0,-325.0,-216.74603174603175,-214.84126984126982,-1.6666666666666665,-6.746031746031746,-321.8253968253968
-17.857142857142858,-109.76190476190476,107.85714285714285,-73.4126984126984,-213.7301587301587,112.46031746031746,-81.03174603174602,122.14285714285714,125.63492063492063,-273.0952380952381,-190.7142857142857,118.17460317460316,106.58730158730158,-50.39682539682539,127.22222222222221,-325.0,-165.63492063492063,299.9206349206349,-281.8253968253968,-151.8253968253968,-148.65079365079364,-4.841269841269841,-9.285714285714285,-321.8253968253968
-17.857142857142858,-109.76190476190476,107.85714285714285,-73.4126984126984,-213.7301587301587,112.46031746031746,-81.03174603174602,122.14285714285714,125.63492063492063,-273.0952380952381,-190.7142857142857,118.17460317460316,106.58730158730158,-50.39682539682539,127.22222222222221,-325.0,-165.63492063492063,299.9206349206349,-281.8253968253968,-151.8253968253968,-148.65079365079364,-4.841269841269841,-9.285714285714285,-321.8253968253968
-325.0,-67.06349206349206,65.31746031746032,-43.41269841269841,-137.22222222222223,67.6984126984127,-325.0,74.52380952380952,77.38095238095238,-204.36507936507937,-121.03174603174602,70.55555555555556,65.15873015873015,-30.07936507936508,78.4920634920635,-325.0,-102.93650793650794,255.0,-220.55555555555554,-93.25396825396825,-89.28571428571428,-1.1904761904761905,0.23809523809523808,-321.8253968253968
-325.0,-67.06349206349206,65.31746031746032,-43.41269841269841,-137.22222222222223,67.6984126984127,-325.0,74.52380952380952,77.38095238095238,-204.36507936507937,-121.03174603174602,70.55555555555556,65.15873015873015,-30.07936507936508,78.4920634920635,-325.0,-102.93650793650794,255.0,-220.55555555555554,-93.25396825396825,-89.28571428571428,-1.1904761904761905,0.23809523809523808,-321.8253968253968
-325.0,-61.34920634920635,59.76190476190476,-39.44444444444444,-126.74603174603173,61.82539682539682,-325.0,68.17460317460318,71.03174603174602,-187.38095238095238,-111.5079365079365,64.52380952380952,59.76190476190476,-27.38095238095238,71.82539682539682,-325.0,-94.52380952380952,235.15873015873015,-202.46031746031744,-85.31746031746032,-81.5079365079365,2.142857142857143,7.222222222222221,-321.8253968253968
-325.0,-61.34920634920635,59.76190476190476,-39.44444444444444,-126.74603174603173,61.82539682539682,-325.0,68.17460317460318,71.03174603174602,-187.38095238095238,-111.5079365079365,64.52380952380952,59.76190476190476,-27.38095238095238,71.82539682539682,-325.0,-94.52380952380952,235.15873015873015,-202.46031746031744,-85.31746031746032,-81.5079365079365,2.142857142857143,7.222222222222221,-321.8253968253968
-325.0,-61.34920634920635,59.76190476190476,-39.44444444444444,-126.74603174603173,61.82539682539682,-325.0,68.17460317460318,71.03174603174602,-187.38095238095238,-111.5079365079365,64.52380952380952,59.76190476190476,-27.38095238095238,71.82539682539682,-325.0,-94.52380952380952,235.15873015873015,-202.46031746031744,-85.31746031746032,-81.5079365079365,2.142857142857143,7.222222222222221,-166.26984126984127
-325.0,-61.34920634920635,59.76190476190476,-39.44444444444444,-126.74603174603173,61.82539682539682,-325.0,68.17460317460318,71.03174603174602,-187.38095238095238,-111.5079365079365,64.52380952380952,59.76190476190476,-27.38095238095238,71.82539682539682,-325.0,-94.52380952380952,235.15873015873015,-202.46031746031744,-85.31746031746032,-81.5079365079365,2.142857142857143,7.222222222222221,-166.26984126984127
-325.0,-61.34920634920635,59.76190476190476,-39.44444444444444,-126.74603174603173,61.82539682539682,-325.0,68.17460317460318,71.03174603174602,-187.38095238095238,-111.5079365079365,64.52380952380952,59.76190476190476,-27.38095238095238,71.82539682539682,-325.0,-94.52380952380952,235.15873015873015,-202.46031746031744,-85.31746031746032,-81.5079365079365,2.142857142857143,7.222222222222221,-166.26984126984127
-325.0,-61.34920634920635,59.76190476190476,-39.44444444444444,-126.74603174603173,61.82539682539682,-325.0,68.17460317460318,71.03174603174602,-187.38095238095238,-111.5079365079365,64.52380952380952,59.76190476190476,-27.38095238095238,71.82539682539682,-325.0,-94.52380952380952,235.15873015873015,-202.46031746031744,-85.31746031746032,-81.5079365079365,2.142857142857143,7.222222222222221,-166.26984126984127
-197.85714285714283,325.0,27.539682539682538,-17.857142857142858,210.3968253968254,-325.0,-325.0,-325.0,33.41269841269841,-87.06349206349206,325.0,-325.0,28.333333333333332,-12.777777777777777,33.73015873015873,-164.2063492063492,-44.68253968253968,113.73015873015872,-94.52380952380952,-39.44444444444444,-36.58730158730159,1.349206349206349,4.682539682539682,-166.26984126984127
-197.85714285714283,325.0,27.539682539682538,-17.857142857142858,210.3968253968254,-325.0,-325.0,-325.0,33.41269841269841,-87.06349206349206,325.0,-325.0,28.333333333333332,-12.777777777777777,33.73015873015873,-164.2063492063492,-44.68253968253968,113.73015873015872,-94.52380952380952,-39.44444444444444,-36.58730158730159,1.349206349206349,4.682539682539682,-166.26984126984127
-195.15873015873015,325.0,27.063492063492063,-17.539682539682538,-1.0317460317460316,-325.0,-324.36507936507934,-325.0,32.93650793650794,-74.84126984126983,280.55555555555554,-325.0,28.015873015873016,-12.619047619047619,33.25396825396825,-161.8253968253968,-43.888888888888886,112.30158730158729,-93.25396825396825,-38.80952380952381,-36.11111111111111,0.23809523809523808,-0.5555555555555556,-166.26984126984127
-195.15873015873015,325.0,27.063492063492063,-17.539682539682538,-1.0317460317460316,-325.0,-324.36507936507934,-325.0,32.93650793650794,-74.84126984126983,280.55555555555554,-325.0,28.015873015873016,-12.619047619047619,33.25396825396825,-161.8253968253968,-43.888888888888886,112.30158730158729,-93.25396825396825,-38.80952380952381,-36.11111111111111,0.23809523809523808,-0.5555555555555556,-166.26984126984127
-191.8253968253968,325.0,26.587301587301585,-17.22222222222222,79.44444444444444,-325.0,-320.87301587301585,-325.0,32.460317460317455,-83.57142857142857,325.0,-325.0,27.539682539682538,-12.142857142857142,32.77777777777778,-159.6031746031746,-43.095238095238095,110.39682539682539,-91.5079365079365,-38.33333333333333,-35.63492063492063,4.365079365079365,10.714285714285714,-166.26984126984127
-191.8253968253968,325.0,26.587301587301585,-17.22222222222222,79.44444444444444,-325.0,-320.87301587301585,-325.0,32.460317460317455,-83.57142857142857,325.0,-325.0,27.539682539682538,-12.142857142857142,32.77777777777778,-159.6031746031746,-43.095238095238095,110.39682539682539,-91.5079365079365,-38.33333333333333,-35.63492063492063,4.365079365079365,10.714285714285714,-166.26984126984127
21.349206349206348,167.06349206349205,-5.7936507936507935,-5.158730158730158,148.96825396825395,-133.73015873015873,-19.285714285714285,-110.39682539682539,-19.6031746031746,15.317460317460316,198.015873015873,-116.74603174603173,-2.7777777777777777,11.349206349206348,-12.3015873015873,-35.476190476190474,-8.492063492063492,21.825396825396822,-29.126984126984127,-56.42857142857142,-5.476190476190476,-4.841269841269841,-10.396825396825395,-321.8253968253968
21.349206349206348,167.06349206349205,-5.7936507936507935,-5.158730158730158,148.96825396825395,-133.73015873015873,-19.285714285714285,-110.39682539682539,-19.6031746031746,15.317460317460316,198.015873015873,-116.74603174603173,-2.7777777777777777,11.349206349206348,-12.3015873015873,-35.476190476190474,-8.492063492063492,21.825396825396822,-29.126984126984127,-56.42857142857142,-5.476190476190476,-4.841269841269841,-10.396825396825395,-321.8253968253968
231.5079365079365,9.126984126984127,-37.53968253968254,6.428571428571428,220.87301587301587,57.698412698412696,277.06349206349205,104.2063492063492,-71.03174603174602,51.507936507936506,71.19047619047619,91.66666666666666,-32.460317460317455,6.587301587301587,-56.74603174603174,85.79365079365078,25.476190476190474,-64.68253968253968,31.666666666666664,-75.31746031746032,23.88888888888889,-5.0,-8.333333333333332,-321.8253968253968
231.5079365079365,9.126984126984127,-37.53968253968254,6.428571428571428,220.87301587301587,57.698412698412696,277.06349206349205,104.2063492063492,-71.03174603174602,51.507936507936506,71.19047619047619,91.66666666666666,-32.460317460317455,6.587301587301587,-56.74603174603174,85.79365079365078,25.476190476190474,-64.68253968253968,31.666666666666664,-75.31746031746032,23.88888888888889,-5.0,-8.333333333333332,-321.8253968253968
231.5079365079365,9.126984126984127,-37.53968253968254,6.428571428571428,220.87301587301587,57.698412698412696,277.06349206349205,104.2063492063492,-71.03174603174602,51.507936507936506,71.19047619047619,91.66666666666666,-32.460317460317455,6.587301587301587,-56.74603174603174,85.79365079365078,25.476190476190474,-64.68253968253968,31.666666666666664,-75.31746031746032,23.88888888888889,-5.0,-8.333333333333332,-321.8253968253968
231.5079365079365,9.126984126984127,-37.53968253968254,6.428571428571428,220.87301587301587,57.698412698412696,277.06349206349205,104.2063492063492,-71.03174603174602,51.507936507936506,71.19047619047619,91.66666666666666,-32.460317460317455,6.587301587301587,-56.74603174603174,85.79365079365078,25.476190476190474,-64.68253968253968,31.666666666666664,-75.31746031746032,23.88888888888889,-5.0,-8.333333333333332,-321.8253968253968
2.9365079365079363,7.857142857142857,-36.42857142857142,6.111111111111111,-44.52380952380952,83.88888888888889,39.44444444444444,114.52380952380952,-69.92063492063491,-13.73015873015873,17.22222222222222,112.77777777777777,-31.349206349206348,-8.65079365079365,-55.317460317460316,48.80952380952381,21.03174603174603,67.06349206349206,30.87301587301587,-200.23809523809524,21.349206349206348,-2.7777777777777777,-1.984126984126984,-321.8253968253968
2.9365079365079363,7.857142857142857,-36.42857142857142,6.111111111111111,-44.52380952380952,83.88888888888889,39.44444444444444,114.52380952380952,-69.92063492063491,-13.73015873015873,17.22222222222222,112.77777777777777,-31.349206349206348,-8.65079365079365,-55.317460317460316,48.80952380952381,21.03174603174603,67.06349206349206,30.87301587301587,-200.23809523809524,21.349206349206348,-2.7777777777777777,-1.984126984126984,-321.8253968253968
-59.12698412698413,8.333333333333332,-35.0,6.26984126984127,-120.71428571428571,213.57142857142856,16.26984126984127,214.84126984126982,-68.01587301587301,14.682539682539682,21.19047619047619,217.2222222222222,-29.920634920634917,-14.206349206349206,-53.095238095238095,95.95238095238095,19.285714285714285,278.8095238095238,29.76190476190476,-325.0,5.476190476190476,-8.015873015873016,-12.46031746031746,-321.8253968253968
-59.12698412698413,8.333333333333332,-35.0,6.26984126984127,-120.71428571428571,213.57142857142856,16.26984126984127,214.84126984126982,-68.01587301587301,14.682539682539682,21.19047619047619,217.2222222222222,-29.920634920634917,-14.206349206349206,-53.095238095238095,95.95238095238095,19.285714285714285,278.8095238095238,29.76190476190476,-325.0,5.476190476190476,-8.015873015873016,-12.46031746031746,-321.8253968253968
163.09523809523807,-40.079365079365076,-17.38095238095238,5.7936507936507935,109.28571428571428,32.61904761904762,144.04761904761904,58.17460317460317,13.73015873015873,-68.17460317460318,58.8095238095238,68.01587301587301,-18.80952380952381,-11.19047619047619,-19.126984126984127,-8.65079365079365,22.936507936507937,147.53968253968253,29.126984126984127,-53.095238095238095,-44.52380952380952,2.3015873015873014,6.904761904761904,-166.26984126984127
163.09523809523807,-40.079365079365076,-17.38095238095238,5.7936507936507935,109.28571428571428,32.61904761904762,144.04761904761904,58.17460317460317,13.73015873015873,-68.17460317460318,58.8095238095238,68.01587301587301,-18.80952380952381,-11.19047619047619,-19.126984126984127,-8.65079365079365,22.936507936507937,147.53968253968253,29.126984126984127,-53.095238095238095,-44.52380952380952,2.3015873015873014,6.904761904761904,-166.26984126984127
325.0,9.444444444444445,25.476190476190474,5.952380952380952,301.8253968253968,205.3174603174603,325.0,201.98412698412696,157.69841269841268,18.80952380952381,67.6984126984127,212.93650793650792,16.26984126984127,-19.6031746031746,54.841269841269835,77.6984126984127,22.46031746031746,223.57142857142856,28.809523809523807,-144.2063492063492,-111.34920634920634,-6.746031746031746,-11.349206349206348,-166.26984126984127
325.0,9.444444444444445,25.476190476190474,5.952380952380952,301.8253968253968,205.3174603174603,325.0,201.98412698412696,157.69841269841268,18.80952380952381,67.6984126984127,212.93650793650792,16.26984126984127,-19.6031746031746,54.841269841269835,77.6984126984127,22.46031746031746,223.57142857142856,28.809523809523807,-144.2063492063492,-111.34920634920634,-6.746031746031746,-11.349206349206348,-166.26984126984127
325.0,9.444444444444445,25.476190476190474,5.952380952380952,301.8253968253968,205.3174603174603,325.0,201.98412698412696,157.69841269841268,18.80952380952381,67.6984126984127,212.93650793650792,16.26984126984127,-19.6031746031746,54.841269841269835,77.6984126984127,22.46031746031746,223.57142857142856,28.809523809523807,-144.2063492063492,-111.34920634920634,-6.746031746031746,-11.349206349206348,-166.26984126984127
325.0,9.444444444444445,25.476190476190474,5.952380952380952,301.8253968253968,205.3174603174603,325.0,201.98412698412696,157.69841269841268,18.80952380952381,67.6984126984127,212.93650793650792,16.26984126984127,-19.6031746031746,54.841269841269835,77.6984126984127,22.46031746031746,223.57142857142856,28.809523809523807,-144.2063492063492,-111.34920634920634,-6.746031746031746,-11.349206349206348,-166.26984126984127
261.66666666666663,-8.968253968253968,-1.6666666666666665,5.634920634920634,200.3968253968254,174.84126984126982,284.8412698412698,176.9047619047619,68.33333333333333,-26.9047619047619,63.25396825396825,183.88888888888889,-4.841269841269841,-37.06349206349206,8.809523809523808,46.58730158730158,21.349206349206348,81.98412698412697,27.539682539682538,-181.984126984127,-99.6031746031746,-2.9365079365079363,-3.571428571428571,-166.26984126984127
261.66666666666663,-8.968253968253968,-1.6666666666666665,5.634920634920634,200.3968253968254,174.84126984126982,284.8412698412698,176.9047619047619,68.33333333333333,-26.9047619047619,63.25396825396825,183.88888888888889,-4.841269841269841,-37.06349206349206,8.809523809523808,46.58730158730158,21.349206349206348,81.98412698412697,27.539682539682538,-181.984126984127,-99.6031746031746,-2.9365079365079363,-3.571428571428571,-166.26984126984127
198.33333333333331,-27.22222222222222,-28.65079365079365,5.317460317460317,98.96825396825396,144.52380952380952,244.68253968253967,151.984126984127,-20.873015873015873,-72.46031746031746,58.8095238095238,154.84126984126982,-25.79365079365079,-54.52380952380952,-37.06349206349206,15.476190476190474,20.238095238095237,-59.6031746031746,26.428571428571427,-219.76190476190476,-87.85714285714285,1.0317460317460316,4.2063492063492065,-166.26984126984127
198.33333333333331,-27.22222222222222,-28.65079365079365,5.317460317460317,98.96825396825396,144.52380952380952,244.68253968253967,151.984126984127,-20.873015873015873,-72.46031746031746,58.8095238095238,154.84126984126982,-25.79365079365079,-54.52380952380952,-37.06349206349206,15.476190476190474,20.238095238095237,-59.6031746031746,26.428571428571427,-219.76190476190476,-87.85714285714285,1.0317460317460316,4.2063492063492065,-166.26984126984127
325.0,-26.587301587301585,-12.3015873015873,3.73015873015873,325.0,2.619047619047619,325.0,48.17460317460317,74.36507936507937,-105.95238095238095,235.0,26.26984126984127,-19.126984126984127,-26.587301587301585,40.079365079365076,-35.476190476190474,89.92063492063491,195.15873015873015,16.428571428571427,130.23809523809524,-77.85714285714285,5.634920634920634,10.714285714285714,-321.8253968253968
325.0,-26.587301587301585,-12.3015873015873,3.73015873015873,325.0,2.619047619047619,325.0,48.17460317460317,74.36507936507937,-105.95238095238095,235.0,26.26984126984127,-19.126984126984127,-26.587301587301585,40.079365079365076,-35.476190476190474,89.92063492063491,195.15873015873015,16.428571428571427,130.23809523809524,-77.85714285714285,5.634920634920634,10.714285714285714,-321.8253968253968
250.87301587301585,-86.9047619047619,-26.9047619047619,3.571428571428571,237.06349206349205,14.206349206349206,189.44444444444443,51.82539682539682,26.428571428571427,-112.30158730158729,207.06349206349205,34.52380952380952,-28.174603174603174,-43.57142857142857,4.523809523809524,-36.58730158730159,81.19047619047619,60.079365079365076,15.158730158730158,72.46031746031746,-65.95238095238095,5.634920634920634,10.714285714285714,-321.8253968253968
250.87301587301585,-86.9047619047619,-26.9047619047619,3.571428571428571,237.06349206349205,14.206349206349206,189.44444444444443,51.82539682539682,26.428571428571427,-112.30158730158729,207.06349206349205,34.52380952380952,-28.174603174603174,-43.57142857142857,4.523809523809524,-36.58730158730159,81.19047619047619,60.079365079365076,15.158730158730158,72.46031746031746,-65.95238095238095,5.634920634920634,10.714285714285714,-321.8253968253968
244.36507936507934,-47.06349206349206,37.22222222222222,3.095238095238095,251.5079365079365,108.49206349206348,249.76190476190476,118.17460317460316,91.66666666666666,-50.87301587301587,168.8095238095238,111.5079365079365,29.76190476190476,-36.269841269841265,58.17460317460317,15.793650793650793,70.39682539682539,-66.42857142857143,13.571428571428571,-9.603174603174603,-115.31746031746032,-0.5555555555555556,-1.0317460317460316,-321.8253968253968
244.36507936507934,-47.06349206349206,37.22222222222222,3.095238095238095,251.5079365079365,108.49206349206348,249.76190476190476,118.17460317460316,91.66666666666666,-50.87301587301587,168.8095238095238,111.5079365079365,29.76190476190476,-36.269841269841265,58.17460317460317,15.793650793650793,70.39682539682539,-66.42857142857143,13.571428571428571,-9.603174603174603,-115.31746031746032,-0.5555555555555556,-1.0317460317460316,-321.8253968253968
325.0,-60.238095238095234,325.0,2.9365079365079363,325.0,111.03174603174602,325.0,118.17460317460316,325.0,-51.82539682539682,189.28571428571428,111.5079365079365,325.0,-53.73015873015873,325.0,8.015873015873016,69.76190476190476,-64.84126984126983,13.253968253968253,183.57142857142856,-322.46031746031747,0.07936507936507936,-0.7142857142857142,-321.8253968253968
325.0,-60.238095238095234,325.0,2.9365079365079363,325.0,111.03174603174602,325.0,118.17460317460316,325.0,-51.82539682539682,189.28571428571428,111.5079365079365,325.0,-53.73015873015873,325.0,8.015873015873016,69.76190476190476,-64.84126984126983,13.253968253968253,183.57142857142856,-322.46031746031747,0.07936507936507936,-0.7142857142857142,-321.8253968253968
325.0,-120.71428571428571,325.0,2.9365079365079363,325.0,-29.76190476190476,325.0,21.984126984126984,325.0,-55.79365079365079,186.9047619047619,7.3809523809523805,325.0,44.52380952380952,325.0,-13.253968253968253,69.12698412698413,-129.12698412698413,13.253968253968253,325.0,-319.9206349206349,4.2063492063492065,4.365079365079365,-321.8253968253968
325.0,-120.71428571428571,325.0,2.9365079365079363,325.0,-29.76190476190476,325.0,21.984126984126984,325.0,-55.79365079365079,186.9047619047619,7.3809523809523805,325.0,44.52380952380952,325.0,-13.253968253968253,69.12698412698413,-129.12698412698413,13.253968253968253,325.0,-319.9206349206349,4.2063492063492065,4.365079365079365,-321.8253968253968
-0.07936507936507936,-89.76190476190476,78.01587301587301,2.3015873015873014,-0.07936507936507936,63.25396825396825,-0.07936507936507936,71.98412698412697,38.17460317460317,-52.93650793650794,-69.12698412698413,74.68253968253968,83.09523809523809,-59.92063492063492,54.841269841269835,-7.222222222222221,-97.6984126984127,-202.61904761904762,-11.031746031746032,-0.07936507936507936,-168.4920634920635,-0.23809523809523808,-3.253968253968254,-166.26984126984127
-0.07936507936507936,-89.76190476190476,78.01587301587301,2.3015873015873014,-0.07936507936507936,63.25396825396825,-0.07936507936507936,71.98412698412697,38.17460317460317,-52.93650793650794,-69.12698412698413,74.68253968253968,83.09523809523809,-59.92063492063492,54.841269841269835,-7.222222222222221,-97.6984126984127,-202.61904761904762,-11.031746031746032,-0.07936507936507936,-168.4920634920635,-0.23809523809523808,-3.253968253968254,-166.26984126984127
-325.0,-247.69841269841268,-166.74603174603175,1.984126984126984,-325.0,-71.82539682539682,-325.0,-48.96825396825397,-245.79365079365078,-101.66666666666666,-231.34920634920633,-36.58730158730159,-156.9047619047619,42.61904761904761,-212.77777777777777,-66.42857142857143,-48.17460317460317,-325.0,18.333333333333332,-206.9047619047619,202.77777777777777,1.507936507936508,2.9365079365079363,-166.26984126984127
-325.0,-247.69841269841268,-166.74603174603175,1.984126984126984,-325.0,-71.82539682539682,-325.0,-48.96825396825397,-245.79365079365078,-101.66666666666666,-231.34920634920633,-36.58730158730159,-156.9047619047619,42.61904761904761,-212.77777777777777,-66.42857142857143,-48.17460317460317,-325.0,18.333333333333332,-206.9047619047619,202.77777777777777,1.507936507936508,2.9365079365079363,-166.26984126984127
-325.0,-225.15873015873015,-164.04761904761904,1.6666666666666665,-325.0,100.39682539682539,-325.0,77.22222222222221,-241.98412698412696,-123.88888888888889,-325.0,106.1111111111111,-154.2063492063492,-288.015873015873,-209.60317460317458,-54.68253968253968,-325.0,-325.0,-26.587301587301585,-325.0,36.904761904761905,3.253968253968254,4.2063492063492065,-166.26984126984127
-325.0,-225.15873015873015,-164.04761904761904,1.6666666666666665,-325.0,100.39682539682539,-325.0,77.22222222222221,-241.98412698412696,-123.88888888888889,-325.0,106.1111111111111,-154.2063492063492,-288.015873015873,-209.60317460317458,-54.68253968253968,-325.0,-325.0,-26.587301587301585,-325.0,36.904761904761905,3.253968253968254,4.2063492063492065,-166.26984126984127
-325.0,-195.15873015873015,-161.984126984127,1.6666666666666665,-325.0,101.66666666666666,-325.0,115.31746031746032,-238.96825396825395,-21.349206349206348,-325.0,130.23809523809524,-152.14285714285714,-86.1111111111111,-206.9047619047619,38.33333333333333,-325.0,-250.3968253968254,-2.142857142857143,-325.0,141.19047619047618,3.73015873015873,7.698412698412698,-166.26984126984127
-325.0,-195.15873015873015,-161.984126984127,1.6666666666666665,-325.0,101.66666666666666,-325.0,115.31746031746032,-238.96825396825395,-21.349206349206348,-325.0,130.23809523809524,-152.14285714285714,-86.1111111111111,-206.9047619047619,38.33333333333333,-325.0,-250.3968253968254,-2.142857142857143,-325.0,141.19047619047618,3.73015873015873,7.698412698412698,-166.26984126984127
-325.0,-22.3015873015873,-157.2222222222222,1.6666666666666665,-325.0,324.8412698412698,-325.0,317.22222222222223,-232.93650793650792,158.015873015873,-325.0,320.7142857142857,-147.69841269841268,-30.07936507936508,-201.19047619047618,211.98412698412696,-325.0,-83.88888888888889,20.555555555555554,-325.0,205.95238095238093,-3.73015873015873,-5.7936507936507935,-166.26984126984127
-325.0,-22.3015873015873,-157.2222222222222,1.6666666666666665,-325.0,324.8412698412698,-325.0,317.22222222222223,-232.93650793650792,158.015873015873,-325.0,320.7142857142857,-147.69841269841268,-30.07936507936508,-201.19047619047618,211.98412698412696,-325.0,-83.88888888888889,20.555555555555554,-325.0,205.95238095238093,-3.73015873015873,-5.7936507936507935,-166.26984126984127
-182.61904761904762,-153.73015873015873,-135.63492063492063,1.6666666666666665,-187.53968253968253,160.7142857142857,-190.55555555555554,200.55555555555554,-176.9047619047619,155.95238095238093,-78.65079365079364,203.57142857142856,-125.63492063492063,117.38095238095238,-143.88888888888889,179.12698412698413,-17.539682539682538,-318.3333333333333,20.238095238095237,-183.09523809523807,174.68253968253967,0.3968253968253968,3.095238095238095,-321.8253968253968
-182.61904761904762,-153.73015873015873,-135.63492063492063,1.6666666666666665,-187.53968253968253,160.7142857142857,-190.55555555555554,200.55555555555554,-176.9047619047619,155.95238095238093,-78.65079365079364,203.57142857142856,-125.63492063492063,117.38095238095238,-143.88888888888889,179.12698412698413,-17.539682539682538,-318.3333333333333,20.238095238095237,-183.09523809523807,174.68253968253967,0.3968253968253968,3.095238095238095,-321.8253968253968
125.63492063492063,-5.634920634920634,89.92063492063491,1.6666666666666665,73.73015873015872,325.0,188.8095238095238,325.0,96.9047619047619,171.8253968253968,88.96825396825396,325.0,99.28571428571428,-29.444444444444443,82.61904761904762,222.93650793650792,62.61904761904761,-325.0,18.65079365079365,-253.57142857142856,-115.0,-5.158730158730158,-5.476190476190476,-321.8253968253968
125.63492063492063,-5.634920634920634,89.92063492063491,1.6666666666666665,73.73015873015872,325.0,188.8095238095238,325.0,96.9047619047619,171.8253968253968,88.96825396825396,325.0,99.28571428571428,-29.444444444444443,82.61904761904762,222.93650793650792,62.61904761904761,-325.0,18.65079365079365,-253.57142857142856,-115.0,-5.158730158730158,-5.476190476190476,-321.8253968253968
-261.3492063492063,-66.42857142857143,-143.4126984126984,1.507936507936508,-212.14285714285714,160.87301587301587,-262.3015873015873,200.7142857142857,-201.03174603174602,152.93650793650792,-59.12698412698413,203.7301587301587,-132.93650793650792,114.04761904761904,-178.65079365079364,180.7142857142857,62.77777777777777,-325.0,19.444444444444443,-207.06349206349205,171.66666666666666,4.841269841269841,5.634920634920634,-321.8253968253968
-261.3492063492063,-66.42857142857143,-143.4126984126984,1.507936507936508,-212.14285714285714,160.87301587301587,-262.3015873015873,200.7142857142857,-201.03174603174602,152.93650793650792,-59.12698412698413,203.7301587301587,-132.93650793650792,114.04761904761904,-178.65079365079364,180.7142857142857,62.77777777777777,-325.0,19.444444444444443,-207.06349206349205,171.66666666666666,4.841269841269841,5.634920634920634,-321.8253968253968
148.96825396825395,8.65079365079365,80.39682539682539,1.6666666666666665,108.49206349206348,325.0,213.57142857142856,325.0,107.85714285714285,173.73015873015873,131.66666666666666,325.0,94.68253968253968,-28.015873015873016,48.650793650793645,219.28571428571428,57.698412698412696,-304.04761904761904,18.96825396825397,-279.2857142857143,-175.0,-6.111111111111111,-7.857142857142857,-321.8253968253968
148.96825396825395,8.65079365079365,80.39682539682539,1.6666666666666665,108.49206349206348,325.0,213.57142857142856,325.0,107.85714285714285,173.73015873015873,131.66666666666666,325.0,94.68253968253968,-28.015873015873016,48.650793650793645,219.28571428571428,57.698412698412696,-304.04761904761904,18.96825396825397,-279.2857142857143,-175.0,-6.111111111111111,-7.857142857142857,-321.8253968253968
12.46031746031746,-72.93650793650794,-90.55555555555556,1.8253968253968254,96.58730158730158,201.98412698412696,24.523809523809522,234.52380952380952,-112.6190476190476,214.2063492063492,150.7142857142857,227.2222222222222,-93.88888888888889,131.03174603174602,-123.73015873015872,223.25396825396825,79.12698412698413,-325.0,18.96825396825397,-101.34920634920634,134.04761904761904,0.7142857142857142,-2.46031746031746,-321.8253968253968
12.46031746031746,-72.93650793650794,-90.55555555555556,1.8253968253968254,96.58730158730158,201.98412698412696,24.523809523809522,234.52380952380952,-112.6190476190476,214.2063492063492,150.7142857142857,227.2222222222222,-93.88888888888889,131.03174603174602,-123.73015873015872,223.25396825396825,79.12698412698413,-325.0,18.96825396825397,-101.34920634920634,134.04761904761904,0.7142857142857142,-2.46031746031746,-321.8253968253968
-105.31746031746032,85.31746031746032,-84.36507936507937,1.6666666666666665,-143.09523809523807,325.0,-52.3015873015873,325.0,-111.03174603174602,186.74603174603175,-37.38095238095238,325.0,-74.84126984126983,-25.158730158730158,-144.84126984126982,231.5079365079365,-31.349206349206348,-280.23809523809524,18.333333333333332,-325.0,-60.873015873015866,-4.0476190476190474,-5.317460317460317,-166.26984126984127
-105.31746031746032,85.31746031746032,-84.36507936507937,1.6666666666666665,-143.09523809523807,325.0,-52.3015873015873,325.0,-111.03174603174602,186.74603174603175,-37.38095238095238,325.0,-74.84126984126983,-25.158730158730158,-144.84126984126982,231.5079365079365,-31.349206349206348,-280.23809523809524,18.333333333333332,-325.0,-60.873015873015866,-4.0476190476190474,-5.317460317460317,-166.26984126984127
-223.4126984126984,-53.888888888888886,-143.09523809523807,1.507936507936508,-176.42857142857142,177.53968253968253,-222.14285714285714,213.09523809523807,-197.38095238095238,164.68253968253967,-28.96825396825397,210.2380952380952,-135.0,108.49206349206348,-173.88888888888889,184.36507936507937,62.61904761904761,-325.0,17.857142857142858,-178.33333333333331,166.42857142857142,3.095238095238095,5.952380952380952,-166.26984126984127
-223.4126984126984,-53.888888888888886,-143.09523809523807,1.507936507936508,-176.42857142857142,177.53968253968253,-222.14285714285714,213.09523809523807,-197.38095238095238,164.68253968253967,-28.96825396825397,210.2380952380952,-135.0,108.49206349206348,-173.88888888888889,184.36507936507937,62.61904761904761,-325.0,17.857142857142858,-178.33333333333331,166.42857142857142,3.095238095238095,5.952380952380952,-166.26984126984127
-86.58730158730158,8.968253968253968,-66.11111111111111,1.507936507936508,-118.17460317460316,325.0,-19.126984126984127,325.0,-76.9047619047619,185.47619047619045,-47.53968253968254,325.0,-59.12698412698413,-28.015873015873016,-86.9047619047619,231.66666666666666,-49.285714285714285,-248.65079365079364,17.539682539682538,-325.0,-56.904761904761905,-4.523809523809524,-6.26984126984127,-166.26984126984127
-86.58730158730158,8.968253968253968,-66.11111111111111,1.507936507936508,-118.17460317460316,325.0,-19.126984126984127,325.0,-76.9047619047619,185.47619047619045,-47.53968253968254,325.0,-59.12698412698413,-28.015873015873016,-86.9047619047619,231.66666666666666,-49.285714285714285,-248.65079365079364,17.539682539682538,-325.0,-56.904761904761905,-4.523809523809524,-6.26984126984127,-166.26984126984127
-38.65079365079365,-140.3968253968254,-109.28571428571428,1.507936507936508,15.0,172.61904761904762,-19.92063492063492,211.34920634920633,-112.93650793650794,153.25396825396825,60.39682539682539,193.09523809523807,-105.0,103.09523809523809,-91.66666666666666,185.15873015873015,48.96825396825397,-245.79365079365078,17.22222222222222,-73.09523809523809,138.015873015873,2.9365079365079363,5.634920634920634,-166.26984126984127
-38.65079365079365,-140.3968253968254,-109.28571428571428,1.507936507936508,15.0,172.61904761904762,-19.92063492063492,211.34920634920633,-112.93650793650794,153.25396825396825,60.39682539682539,193.09523809523807,-105.0,103.09523809523809,-91.66666666666666,185.15873015873015,48.96825396825397,-245.79365079365078,17.22222222222222,-73.09523809523809,138.015873015873,2.9365079365079363,5.634920634920634,-166.26984126984127
-150.07936507936506,-87.85714285714285,-81.82539682539682,1.507936507936508,-134.52380952380952,238.96825396825395,-105.15873015873015,258.6507936507936,-105.63492063492063,160.7142857142857,-82.3015873015873,251.34920634920633,-76.74603174603175,56.11111111111111,-97.38095238095238,196.58730158730157,-47.06349206349206,-118.49206349206348,16.904761904761905,-187.85714285714283,77.53968253968253,0.5555555555555556,0.7142857142857142,-166.26984126984127
-150.07936507936506,-87.85714285714285,-81.82539682539682,1.507936507936508,-134.52380952380952,238.96825396825395,-105.15873015873015,258.6507936507936,-105.63492063492063,160.7142857142857,-82.3015873015873,251.34920634920633,-76.74603174603175,56.11111111111111,-97.38095238095238,196.58730158730157,-47.06349206349206,-118.49206349206348,16.904761904761905,-187.85714285714283,77.53968253968253,0.5555555555555556,0.7142857142857142,-166.26984126984127
-325.0,-80.71428571428571,-133.25396825396825,1.507936507936508,-325.0,153.73015873015873,-325.0,191.34920634920633,-192.14285714285714,145.95238095238093,-277.85714285714283,177.38095238095238,-123.25396825396825,98.65079365079364,-163.73015873015873,158.4920634920635,-36.74603174603175,-9.444444444444445,16.587301587301585,-270.39682539682536,173.88888888888889,4.841269841269841,6.111111111111111,-321.8253968253968
-325.0,-80.71428571428571,-133.25396825396825,1.507936507936508,-325.0,153.73015873015873,-325.0,191.34920634920633,-192.14285714285714,145.95238095238093,-277.85714285714283,177.38095238095238,-123.25396825396825,98.65079365079364,-163.73015873015873,158.4920634920635,-36.74603174603175,-9.444444444444445,16.587301587301585,-270.39682539682536,173.88888888888889,4.841269841269841,6.111111111111111,-321.8253968253968
225.15873015873015,15.793650793650793,225.47619047619045,1.507936507936508,182.93650793650792,325.0,257.22222222222223,325.0,247.06349206349205,167.06349206349205,132.14285714285714,325.0,248.8095238095238,-38.96825396825397,229.76190476190476,202.93650793650792,58.8095238095238,132.3015873015873,15.634920634920634,-175.3174603174603,-223.25396825396825,-8.492063492063492,-8.492063492063492,-321.8253968253968
225.15873015873015,15.793650793650793,225.47619047619045,1.507936507936508,182.93650793650792,325.0,257.22222222222223,325.0,247.06349206349205,167.06349206349205,132.14285714285714,325.0,248.8095238095238,-38.96825396825397,229.76190476190476,202.93650793650792,58.8095238095238,132.3015873015873,15.634920634920634,-175.3174603174603,-223.25396825396825,-8.492063492063492,-8.492063492063492,-321.8253968253968
-0.07936507936507936,-18.333333333333332,77.53968253968253,-0.873015873015873,-0.07936507936507936,223.7301587301587,-0.07936507936507936,240.87301587301587,47.06349206349206,133.73015873015873,-60.55555555555555,241.19047619047618,83.88888888888889,46.11111111111111,60.079365079365076,169.28571428571428,-56.904761904761905,140.3968253968254,15.634920634920634,-199.28571428571428,-17.539682539682538,-2.3015873015873014,-1.8253968253968254,-321.8253968253968
-0.07936507936507936,-18.333333333333332,77.53968253968253,-0.873015873015873,-0.07936507936507936,223.7301587301587,-0.07936507936507936,240.87301587301587,47.06349206349206,133.73015873015873,-60.55555555555555,241.19047619047618,83.88888888888889,46.11111111111111,60.079365079365076,169.28571428571428,-56.904761904761905,140.3968253968254,15.634920634920634,-199.28571428571428,-17.539682539682538,-2.3015873015873014,-1.8253968253968254,-321.8253968253968
-325.0,21.825396825396822,-155.47619047619048,-0.3968253968253968,-325.0,214.36507936507937,-307.06349206349205,224.52380952380952,-221.19047619047618,112.30158730158729,-307.22222222222223,213.88888888888889,-149.76190476190476,42.14285714285714,-195.63492063492063,151.34920634920633,-175.15873015873015,174.52380952380952,11.19047619047619,-312.9365079365079,130.3968253968254,0.5555555555555556,-0.7142857142857142,-321.8253968253968
-325.0,21.825396825396822,-155.47619047619048,-0.3968253968253968,-325.0,214.36507936507937,-307.06349206349205,224.52380952380952,-221.19047619047618,112.30158730158729,-307.22222222222223,213.88888888888889,-149.76190476190476,42.14285714285714,-195.63492063492063,151.34920634920633,-175.15873015873015,174.52380952380952,11.19047619047619,-312.9365079365079,130.3968253968254,0.5555555555555556,-0.7142857142857142,-321.8253968253968
-51.19047619047619,-191.8253968253968,-139.44444444444443,-42.77777777777778,-65.79365079365078,92.30158730158729,-198.015873015873,112.14285714285714,-139.6031746031746,-1.6666666666666665,62.93650793650793,102.93650793650794,-130.87301587301587,-11.031746031746032,-110.07936507936508,48.33333333333333,82.3015873015873,325.0,13.73015873015873,-62.3015873015873,-6.26984126984127,6.746031746031746,11.507936507936508,-321.8253968253968
-51.19047619047619,-191.8253968253968,-139.44444444444443,-42.77777777777778,-65.79365079365078,92.30158730158729,-198.015873015873,112.14285714285714,-139.6031746031746,-1.6666666666666665,62.93650793650793,102.93650793650794,-130.87301587301587,-11.031746031746032,-110.07936507936508,48.33333333333333,82.3015873015873,325.0,13.73015873015873,-62.3015873015873,-6.26984126984127,6.746031746031746,11.507936507936508,-321.8253968253968
-51.19047619047619,-191.8253968253968,-139.44444444444443,-42.77777777777778,-65.79365079365078,92.30158730158729,-198.015873015873,112.14285714285714,-139.6031746031746,-1.6666666666666665,62.93650793650793,102.93650793650794,-130.87301587301587,-11.031746031746032,-110.07936507936508,48.33333333333333,82.3015873015873,325.0,13.73015873015873,-62.3015873015873,-6.26984126984127,6.746031746031746,11.507936507936508,-166.26984126984127
-51.19047619047619,-191.8253968253968,-139.44444444444443,-42.77777777777778,-65.79365079365078,92.30158730158729,-198.015873015873,112.14285714285714,-139.6031746031746,-1.6666666666666665,62.93650793650793,102.93650793650794,-130.87301587301587,-11.031746031746032,-110.07936507936508,48.33333333333333,82.3015873015873,325.0,13.73015873015873,-62.3015873015873,-6.26984126984127,6.746031746031746,11.507936507936508,-166.26984126984127
-51.19047619047619,-191.8253968253968,-139.44444444444443,-42.77777777777778,-65.79365079365078,92.30158730158729,-198.015873015873,112.14285714285714,-139.6031746031746,-1.6666666666666665,62.93650793650793,102.93650793650794,-130.87301587301587,-11.031746031746032,-110.07936507936508,48.33333333333333,82.3015873015873,325.0,13.73015873015873,-62.3015873015873,-6.26984126984127,6.746031746031746,11.507936507936508,-166.26984126984127
-51.19047619047619,-191.8253968253968,-139.44444444444443,-42.77777777777778,-65.79365079365078,92.30158730158729,-198.015873015873,112.14285714285714,-139.6031746031746,-1.6666666666666665,62.93650793650793,102.93650793650794,-130.87301587301587,-11.031746031746032,-110.07936507936508,48.33333333333333,82.3015873015873,325.0,13.73015873015873,-62.3015873015873,-6.26984126984127,6.746031746031746,11.507936507936508,-166.26984126984127
-188.17460317460316,-190.7142857142857,-138.96825396825395,-41.666666666666664,-195.47619047619045,58.96825396825397,-261.5079365079365,90.23809523809523,-171.03174603174602,26.746031746031743,-131.03174603174602,81.03174603174602,-131.5079365079365,54.841269841269835,-142.93650793650792,61.34920634920635,-121.34920634920634,317.85714285714283,13.412698412698411,-193.7301587301587,105.15873015873015,5.158730158730158,7.698412698412698,-166.26984126984127
-188.17460317460316,-190.7142857142857,-138.96825396825395,-41.666666666666664,-195.47619047619045,58.96825396825397,-261.5079365079365,90.23809523809523,-171.03174603174602,26.746031746031743,-131.03174603174602,81.03174603174602,-131.5079365079365,54.841269841269835,-142.93650793650792,61.34920634920635,-121.34920634920634,317.85714285714283,13.412698412698411,-193.7301587301587,105.15873015873015,5.158730158730158,7.698412698412698,-166.26984126984127
-197.06349206349205,-269.1269841269841,-129.28571428571428,-51.82539682539682,-188.015873015873,46.42857142857142,-269.44444444444446,73.25396825396825,-166.26984126984127,10.079365079365079,-147.06349206349205,71.03174603174602,-128.015873015873,45.79365079365079,-135.3174603174603,40.079365079365076,-95.95238095238095,309.76190476190476,12.936507936507935,-131.8253968253968,188.8095238095238,2.3015873015873014,6.746031746031746,-166.26984126984127
-197.06349206349205,-269.1269841269841,-129.28571428571428,-51.82539682539682,-188.015873015873,46.42857142857142,-269.44444444444446,73.25396825396825,-166.26984126984127,10.079365079365079,-147.06349206349205,71.03174603174602,-128.015873015873,45.79365079365079,-135.3174603174603,40.079365079365076,-95.95238095238095,309.76190476190476,12.936507936507935,-131.8253968253968,188.8095238095238,2.3015873015873014,6.746031746031746,-166.26984126984127
158.17460317460316,-300.55555555555554,-59.12698412698413,-62.77777777777777,118.96825396825396,79.92063492063491,10.079365079365079,92.93650793650794,-3.4126984126984126,-29.920634920634917,246.26984126984127,91.34920634920634,-69.76190476190476,-46.42857142857142,10.396825396825395,18.65079365079365,201.98412698412696,325.0,12.777777777777777,44.2063492063492,-33.095238095238095,-0.7142857142857142,7.5396825396825395,-166.26984126984127
158.17460317460316,-300.55555555555554,-59.12698412698413,-62.77777777777777,118.96825396825396,79.92063492063491,10.079365079365079,92.93650793650794,-3.4126984126984126,-29.920634920634917,246.26984126984127,91.34920634920634,-69.76190476190476,-46.42857142857142,10.396825396825395,18.65079365079365,201.98412698412696,325.0,12.777777777777777,44.2063492063492,-33.095238095238095,-0.7142857142857142,7.5396825396825395,-166.26984126984127
-325.0,-173.88888888888889,-121.34920634920634,-2.9365079365079363,-325.0,217.85714285714283,-325.0,204.68253968253967,-171.03174603174602,115.0,-246.9047619047619,193.57142857142856,-115.79365079365078,37.698412698412696,-155.0,132.46031746031744,-74.04761904761904,308.968253968254,4.2063492063492065,-325.0,69.92063492063491,-2.46031746031746,-10.079365079365079,-321.8253968253968
-325.0,-173.88888888888889,-121.34920634920634,-2.9365079365079363,-325.0,217.85714285714283,-325.0,204.68253968253967,-171.03174603174602,115.0,-246.9047619047619,193.57142857142856,-115.79365079365078,37.698412698412696,-155.0,132.46031746031744,-74.04761904761904,308.968253968254,4.2063492063492065,-325.0,69.92063492063491,-2.46031746031746,-10.079365079365079,-321.8253968253968
-325.0,-173.88888888888889,-121.34920634920634,-2.9365079365079363,-325.0,217.85714285714283,-325.0,204.68253968253967,-171.03174603174602,115.0,-246.9047619047619,193.57142857142856,-115.79365079365078,37.698412698412696,-155.0,132.46031746031744,-74.04761904761904,308.968253968254,4.2063492063492065,-325.0,69.92063492063491,-2.46031746031746,-10.079365079365079,-321.8253968253968
-325.0,-173.88888888888889,-121.34920634920634,-2.9365079365079363,-325.0,217.85714285714283,-325.0,204.68253968253967,-171.03174603174602,115.0,-246.9047619047619,193.57142857142856,-115.79365079365078,37.698412698412696,-155.0,132.46031746031744,-74.04761904761904,308.968253968254,4.2063492063492065,-325.0,69.92063492063491,-2.46031746031746,-10.079365079365079,-321.8253968253968
-325.0,-232.14285714285714,-125.47619047619047,-36.58730158730159,-325.0,98.01587301587301,-325.0,115.95238095238095,-185.63492063492063,66.74603174603175,-325.0,104.36507936507935,-119.28571428571428,81.19047619047619,-161.19047619047618,76.58730158730158,-130.07936507936506,199.76190476190476,8.492063492063492,-250.07936507936506,163.4126984126984,-0.07936507936507936,-2.9365079365079363,-321.8253968253968
-325.0,-232.14285714285714,-125.47619047619047,-36.58730158730159,-325.0,98.01587301587301,-325.0,115.95238095238095,-185.63492063492063,66.74603174603175,-325.0,104.36507936507935,-119.28571428571428,81.19047619047619,-161.19047619047618,76.58730158730158,-130.07936507936506,199.76190476190476,8.492063492063492,-250.07936507936506,163.4126984126984,-0.07936507936507936,-2.9365079365079363,-321.8253968253968
-115.79365079365078,-239.28571428571428,-95.63492063492063,-36.11111111111111,-187.06349206349205,178.65079365079364,-95.0,158.96825396825395,-125.0,-6.26984126984127,-60.39682539682539,157.69841269841268,-86.58730158730158,-113.73015873015872,-131.5079365079365,35.79365079365079,-57.857142857142854,174.68253968253967,-1.507936507936508,-233.25396825396825,-59.12698412698413,-1.8253968253968254,0.873015873015873,-321.8253968253968
-115.79365079365078,-239.28571428571428,-95.63492063492063,-36.11111111111111,-187.06349206349205,178.65079365079364,-95.0,158.96825396825395,-125.0,-6.26984126984127,-60.39682539682539,157.69841269841268,-86.58730158730158,-113.73015873015872,-131.5079365079365,35.79365079365079,-57.857142857142854,174.68253968253967,-1.507936507936508,-233.25396825396825,-59.12698412698413,-1.8253968253968254,0.873015873015873,-321.8253968253968
-192.61904761904762,-167.38095238095238,-95.47619047619047,-3.095238095238095,-170.3968253968254,201.34920634920633,-149.44444444444443,185.47619047619045,-132.3015873015873,101.34920634920634,-100.39682539682539,171.8253968253968,-90.07936507936508,48.80952380952381,-132.3015873015873,105.15873015873015,61.34920634920635,168.96825396825395,5.317460317460317,-280.23809523809524,40.55555555555555,-4.841269841269841,-11.507936507936508,-321.8253968253968
-192.61904761904762,-167.38095238095238,-95.47619047619047,-3.095238095238095,-170.3968253968254,201.34920634920633,-149.44444444444443,185.47619047619045,-132.3015873015873,101.34920634920634,-100.39682539682539,171.8253968253968,-90.07936507936508,48.80952380952381,-132.3015873015873,105.15873015873015,61.34920634920635,168.96825396825395,5.317460317460317,-280.23809523809524,40.55555555555555,-4.841269841269841,-11.507936507936508,-321.8253968253968
262.46031746031747,-208.8095238095238,182.77777777777777,-43.095238095238095,239.28571428571428,175.3174603174603,263.0952380952381,154.68253968253967,215.63492063492063,-2.142857142857143,295.1587301587301,143.88888888888889,182.14285714285714,-134.84126984126982,204.52380952380952,24.206349206349206,229.44444444444443,158.8095238095238,-4.841269841269841,45.15873015873016,-227.85714285714283,-3.73015873015873,0.3968253968253968,-166.26984126984127
262.46031746031747,-208.8095238095238,182.77777777777777,-43.095238095238095,239.28571428571428,175.3174603174603,263.0952380952381,154.68253968253967,215.63492063492063,-2.142857142857143,295.1587301587301,143.88888888888889,182.14285714285714,-134.84126984126982,204.52380952380952,24.206349206349206,229.44444444444443,158.8095238095238,-4.841269841269841,45.15873015873016,-227.85714285714283,-3.73015873015873,0.3968253968253968,-166.26984126984127
325.0,-200.3968253968254,257.53968253968253,-47.38095238095238,325.0,80.55555555555556,325.0,99.12698412698413,308.8095238095238,49.76190476190476,325.0,72.14285714285714,225.79365079365078,82.93650793650794,287.85714285714283,54.52380952380952,225.95238095238093,97.85714285714285,8.809523809523808,272.46031746031747,-162.61904761904762,0.23809523809523808,-2.7777777777777777,-166.26984126984127
325.0,-200.3968253968254,257.53968253968253,-47.38095238095238,325.0,80.55555555555556,325.0,99.12698412698413,308.8095238095238,49.76190476190476,325.0,72.14285714285714,225.79365079365078,82.93650793650794,287.85714285714283,54.52380952380952,225.95238095238093,97.85714285714285,8.809523809523808,272.46031746031747,-162.61904761904762,0.23809523809523808,-2.7777777777777777,-166.26984126984127
106.9047619047619,-142.3015873015873,-38.65079365079365,-42.3015873015873,59.44444444444444,177.06349206349205,168.4920634920635,156.74603174603175,16.904761904761905,-7.3809523809523805,120.71428571428571,146.26984126984127,-55.317460317460316,-136.74603174603175,-35.79365079365079,26.26984126984127,15.634920634920634,121.03174603174602,-6.428571428571428,-126.58730158730158,-197.38095238095238,3.571428571428571,2.142857142857143,-166.26984126984127
106.9047619047619,-142.3015873015873,-38.65079365079365,-42.3015873015873,59.44444444444444,177.06349206349205,168.4920634920635,156.74603174603175,16.904761904761905,-7.3809523809523805,120.71428571428571,146.26984126984127,-55.317460317460316,-136.74603174603175,-35.79365079365079,26.26984126984127,15.634920634920634,121.03174603174602,-6.428571428571428,-126.58730158730158,-197.38095238095238,3.571428571428571,2.142857142857143,-166.26984126984127
-200.87301587301587,-121.82539682539682,-123.88888888888889,-46.11111111111111,-163.25396825396825,79.28571428571428,-159.12698412698413,95.31746031746032,-158.33333333333331,48.17460317460317,-78.33333333333333,77.38095238095238,-115.15873015873015,85.31746031746032,-148.96825396825395,53.57142857142857,107.53968253968253,99.6031746031746,8.492063492063492,-122.6190476190476,58.650793650793645,0.07936507936507936,-1.984126984126984,-166.26984126984127
-200.87301587301587,-121.82539682539682,-123.88888888888889,-46.11111111111111,-163.25396825396825,79.28571428571428,-159.12698412698413,95.31746031746032,-158.33333333333331,48.17460317460317,-78.33333333333333,77.38095238095238,-115.15873015873015,85.31746031746032,-148.96825396825395,53.57142857142857,107.53968253968253,99.6031746031746,8.492063492063492,-122.6190476190476,58.650793650793645,0.07936507936507936,-1.984126984126984,-166.26984126984127
38.80952380952381,-65.79365079365078,-52.3015873015873,-41.507936507936506,-26.11111111111111,172.61904761904762,99.76190476190476,148.17460317460316,-26.587301587301585,-16.428571428571427,86.42857142857143,148.17460317460316,-40.87301587301587,-143.09523809523807,-74.04761904761904,19.6031746031746,42.77777777777778,62.93650793650793,-12.142857142857142,-135.63492063492063,-152.61904761904762,-1.984126984126984,-0.7142857142857142,-166.26984126984127
38.80952380952381,-65.79365079365078,-52.3015873015873,-41.507936507936506,-26.11111111111111,172.61904761904762,99.76190476190476,148.17460317460316,-26.587301587301585,-16.428571428571427,86.42857142857143,148.17460317460316,-40.87301587301587,-143.09523809523807,-74.04761904761904,19.6031746031746,42.77777777777778,62.93650793650793,-12.142857142857142,-135.63492063492063,-152.61904761904762,-1.984126984126984,-0.7142857142857142,-166.26984126984127
-52.3015873015873,46.58730158730158,-77.06349206349206,-7.222222222222221,-27.539682539682538,166.58730158730157,21.507936507936506,154.04761904761904,-84.84126984126983,87.22222222222221,22.777777777777775,148.8095238095238,-71.98412698412697,56.42857142857142,-109.28571428571428,79.28571428571428,155.79365079365078,126.26984126984127,3.095238095238095,-176.42857142857142,10.873015873015872,-5.317460317460317,-11.507936507936508,-321.8253968253968
-52.3015873015873,46.58730158730158,-77.06349206349206,-7.222222222222221,-27.539682539682538,166.58730158730157,21.507936507936506,154.04761904761904,-84.84126984126983,87.22222222222221,22.777777777777775,148.8095238095238,-71.98412698412697,56.42857142857142,-109.28571428571428,79.28571428571428,155.79365079365078,126.26984126984127,3.095238095238095,-176.42857142857142,10.873015873015872,-5.317460317460317,-11.507936507936508,-321.8253968253968
172.46031746031744,10.873015873015872,77.53968253968253,-32.77777777777778,89.12698412698413,167.53968253968253,193.57142857142856,143.4126984126984,113.57142857142857,-13.888888888888888,168.65079365079364,144.36507936507937,83.4126984126984,-148.8095238095238,41.19047619047619,9.603174603174603,99.44444444444444,113.25396825396825,-17.698412698412696,-66.74603174603175,-207.2222222222222,-1.1904761904761905,-0.5555555555555556,-321.8253968253968
172.46031746031744,10.873015873015872,77.53968253968253,-32.77777777777778,89.12698412698413,167.53968253968253,193.57142857142856,143.4126984126984,113.57142857142857,-13.888888888888888,168.65079365079364,144.36507936507937,83.4126984126984,-148.8095238095238,41.19047619047619,9.603174603174603,99.44444444444444,113.25396825396825,-17.698412698412696,-66.74603174603175,-207.2222222222222,-1.1904761904761905,-0.5555555555555556,-321.8253968253968
325.0,65.15873015873015,203.7301587301587,-5.0,325.0,158.33333333333331,325.0,151.03174603174602,260.87301587301585,79.44444444444444,312.46031746031747,137.53968253968253,171.66666666666666,60.55555555555555,188.17460317460316,80.23809523809523,192.93650793650792,123.25396825396825,1.984126984126984,77.22222222222221,-147.38095238095238,-8.015873015873016,-11.666666666666666,-321.8253968253968
325.0,65.15873015873015,203.7301587301587,-5.0,325.0,158.33333333333331,325.0,151.03174603174602,260.87301587301585,79.44444444444444,312.46031746031747,137.53968253968253,171.66666666666666,60.55555555555555,188.17460317460316,80.23809523809523,192.93650793650792,123.25396825396825,1.984126984126984,77.22222222222221,-147.38095238095238,-8.015873015873016,-11.666666666666666,-321.8253968253968
325.0,55.476190476190474,248.49206349206347,-3.4126984126984126,309.76190476190476,210.7142857142857,325.0,179.44444444444443,287.06349206349205,46.269841269841265,303.25396825396825,173.88888888888889,229.28571428571428,-58.33333333333333,212.77777777777777,66.26984126984127,183.4126984126984,124.04761904761904,-21.349206349206348,-21.19047619047619,-236.26984126984127,-7.222222222222221,-10.555555555555555,-321.8253968253968
325.0,55.476190476190474,248.49206349206347,-3.4126984126984126,309.76190476190476,210.7142857142857,325.0,179.44444444444443,287.06349206349205,46.269841269841265,303.25396825396825,173.88888888888889,229.28571428571428,-58.33333333333333,212.77777777777777,66.26984126984127,183.4126984126984,124.04761904761904,-21.349206349206348,-21.19047619047619,-236.26984126984127,-7.222222222222221,-10.555555555555555,-321.8253968253968
325.0,-154.04761904761904,188.33333333333331,-70.71428571428571,325.0,-59.44444444444444,325.0,-48.80952380952381,250.07936507936506,-94.52380952380952,315.4761904761905,-60.873015873015866,134.2063492063492,58.8095238095238,230.55555555555554,-95.0,201.19047619047618,-28.809523809523807,7.698412698412698,229.44444444444443,-200.07936507936506,1.1904761904761905,-1.349206349206349,-321.8253968253968
325.0,-154.04761904761904,188.33333333333331,-70.71428571428571,325.0,-59.44444444444444,325.0,-48.80952380952381,250.07936507936506,-94.52380952380952,315.4761904761905,-60.873015873015866,134.2063492063492,58.8095238095238,230.55555555555554,-95.0,201.19047619047618,-28.809523809523807,7.698412698412698,229.44444444444443,-200.07936507936506,1.1904761904761905,-1.349206349206349,-321.8253968253968
325.0,-299.4444444444444,301.5079365079365,-108.33333333333333,325.0,-125.95238095238095,325.0,-132.77777777777777,325.0,-278.4920634920635,318.3333333333333,-135.79365079365078,274.36507936507934,-325.0,325.0,-247.2222222222222,203.57142857142856,-142.46031746031744,-118.8095238095238,307.06349206349205,-325.0,5.634920634920634,9.920634920634921,-166.26984126984127
325.0,-299.4444444444444,301.5079365079365,-108.33333333333333,325.0,-125.95238095238095,325.0,-132.77777777777777,325.0,-278.4920634920635,318.3333333333333,-135.79365079365078,274.36507936507934,-325.0,325.0,-247.2222222222222,203.57142857142856,-142.46031746031744,-118.8095238095238,307.06349206349205,-325.0,5.634920634920634,9.920634920634921,-166.26984126984127
325.0,-299.4444444444444,301.5079365079365,-108.33333333333333,325.0,-125.95238095238095,325.0,-132.77777777777777,325.0,-278.4920634920635,318.3333333333333,-135.79365079365078,274.36507936507934,-325.0,325.0,-247.2222222222222,203.57142857142856,-142.46031746031744,-118.8095238095238,307.06349206349205,-325.0,5.634920634920634,9.920634920634921,-166.26984126984127
325.0,-299.4444444444444,301.5079365079365,-108.33333333333333,325.0,-125.95238095238095,325.0,-132.77777777777777,325.0,-278.4920634920635,318.3333333333333,-135.79365079365078,274.36507936507934,-325.0,325.0,-247.2222222222222,203.57142857142856,-142.46031746031744,-118.8095238095238,307.06349206349205,-325.0,5.634920634920634,9.920634920634921,-166.26984126984127
188.17460317460316,-257.22222222222223,94.68253968253968,-62.3015873015873,141.5079365079365,-47.22222222222222,262.46031746031747,-79.44444444444444,131.03174603174602,-248.65079365079364,183.57142857142856,-87.38095238095238,92.14285714285714,-325.0,73.25396825396825,-211.8253968253968,102.93650793650794,-101.66666666666666,-143.09523809523807,36.42857142857142,-318.4920634920635,0.873015873015873,1.1904761904761905,-166.26984126984127
188.17460317460316,-257.22222222222223,94.68253968253968,-62.3015873015873,141.5079365079365,-47.22222222222222,262.46031746031747,-79.44444444444444,131.03174603174602,-248.65079365079364,183.57142857142856,-87.38095238095238,92.14285714285714,-325.0,73.25396825396825,-211.8253968253968,102.93650793650794,-101.66666666666666,-143.09523809523807,36.42857142857142,-318.4920634920635,0.873015873015873,1.1904761904761905,-166.26984126984127
-238.33333333333331,-249.9206349206349,-47.698412698412696,-41.19047619047619,-198.8095238095238,-97.38095238095238,-171.984126984127,-104.2063492063492,-92.77777777777777,-165.47619047619045,-175.79365079365078,-118.01587301587301,-45.15873015873016,-43.888888888888886,-103.09523809523809,-161.66666666666666,14.84126984126984,-92.46031746031746,-21.666666666666664,-128.8095238095238,-31.03174603174603,-2.9365079365079363,-9.285714285714285,-166.26984126984127
-238.33333333333331,-249.9206349206349,-47.698412698412696,-41.19047619047619,-198.8095238095238,-97.38095238095238,-171.984126984127,-104.2063492063492,-92.77777777777777,-165.47619047619045,-175.79365079365078,-118.01587301587301,-45.15873015873016,-43.888888888888886,-103.09523809523809,-161.66666666666666,14.84126984126984,-92.46031746031746,-21.666666666666664,-128.8095238095238,-31.03174603174603,-2.9365079365079363,-9.285714285714285,-166.26984126984127
-94.68253968253968,-269.76190476190476,-68.65079365079364,-59.76190476190476,-148.96825396825395,-53.25396825396825,-23.730158730158728,-85.31746031746032,-84.68253968253968,-253.88888888888889,-64.36507936507937,-89.92063492063491,-58.49206349206349,-325.0,-95.95238095238095,-214.84126984126982,-76.74603174603175,-183.7301587301587,-153.4126984126984,-94.84126984126983,-251.5079365079365,-2.619047619047619,-1.507936507936508,-166.26984126984127
-94.68253968253968,-269.76190476190476,-68.65079365079364,-59.76190476190476,-148.96825396825395,-53.25396825396825,-23.730158730158728,-85.31746031746032,-84.68253968253968,-253.88888888888889,-64.36507936507937,-89.92063492063491,-58.49206349206349,-325.0,-95.95238095238095,-214.84126984126982,-76.74603174603175,-183.7301587301587,-153.4126984126984,-94.84126984126983,-251.5079365079365,-2.619047619047619,-1.507936507936508,-166.26984126984127
-82.93650793650794,-275.95238095238096,-113.88888888888889,-74.84126984126983,-32.61904761904762,-181.34920634920633,-43.888888888888886,-165.3174603174603,-138.96825396825395,-208.96825396825395,28.333333333333332,-181.03174603174602,-110.07936507936508,-7.5396825396825395,-121.34920634920634,-194.2063492063492,142.61904761904762,-207.38095238095238,4.841269841269841,106.1111111111111,14.047619047619047,0.07936507936507936,-1.349206349206349,-321.8253968253968
-82.93650793650794,-275.95238095238096,-113.88888888888889,-74.84126984126983,-32.61904761904762,-181.34920634920633,-43.888888888888886,-165.3174603174603,-138.96825396825395,-208.96825396825395,28.333333333333332,-181.03174603174602,-110.07936507936508,-7.5396825396825395,-121.34920634920634,-194.2063492063492,142.61904761904762,-207.38095238095238,4.841269841269841,106.1111111111111,14.047619047619047,0.07936507936507936,-1.349206349206349,-321.8253968253968
280.7142857142857,-291.5079365079365,211.34920634920633,-50.079365079365076,236.26984126984127,-35.476190476190474,299.9206349206349,-69.44444444444444,246.58730158730157,-242.3015873015873,254.2063492063492,-76.9047619047619,215.15873015873015,-325.0,215.63492063492063,-197.69841269841268,166.42857142857142,-184.2063492063492,-148.17460317460316,83.88888888888889,-308.8095238095238,-2.9365079365079363,-1.0317460317460316,-321.8253968253968
280.7142857142857,-291.5079365079365,211.34920634920633,-50.079365079365076,236.26984126984127,-35.476190476190474,299.9206349206349,-69.44444444444444,246.58730158730157,-242.3015873015873,254.2063492063492,-76.9047619047619,215.15873015873015,-325.0,215.63492063492063,-197.69841269841268,166.42857142857142,-184.2063492063492,-148.17460317460316,83.88888888888889,-308.8095238095238,-2.9365079365079363,-1.0317460317460316,-321.8253968253968
123.25396825396825,-314.5238095238095,-11.349206349206348,-69.92063492063491,175.0,-183.57142857142856,158.8095238095238,-169.28571428571428,-3.571428571428571,-205.95238095238093,208.015873015873,-182.77777777777777,-26.746031746031743,-3.095238095238095,15.158730158730158,-199.60317460317458,177.06349206349205,-268.968253968254,8.174603174603174,199.12698412698413,-64.36507936507937,0.3968253968253968,-0.873015873015873,-321.8253968253968
123.25396825396825,-314.5238095238095,-11.349206349206348,-69.92063492063491,175.0,-183.57142857142856,158.8095238095238,-169.28571428571428,-3.571428571428571,-205.95238095238093,208.015873015873,-182.77777777777777,-26.746031746031743,-3.095238095238095,15.158730158730158,-199.60317460317458,177.06349206349205,-268.968253968254,8.174603174603174,199.12698412698413,-64.36507936507937,0.3968253968253968,-0.873015873015873,-321.8253968253968
55.0,-278.6507936507936,14.047619047619047,-50.71428571428571,-0.23809523809523808,-38.33333333333333,114.36507936507935,-73.25396825396825,14.682539682539682,-236.58730158730157,55.0,-71.66666666666666,25.0,-325.0,7.857142857142857,-199.9206349206349,15.95238095238095,-226.26984126984127,-159.44444444444443,-45.95238095238095,-289.6031746031746,-0.3968253968253968,-0.23809523809523808,-321.8253968253968
55.0,-278.6507936507936,14.047619047619047,-50.71428571428571,-0.23809523809523808,-38.33333333333333,114.36507936507935,-73.25396825396825,14.682539682539682,-236.58730158730157,55.0,-71.66666666666666,25.0,-325.0,7.857142857142857,-199.9206349206349,15.95238095238095,-226.26984126984127,-159.44444444444443,-45.95238095238095,-289.6031746031746,-0.3968253968253968,-0.23809523809523808,-321.8253968253968
-164.2063492063492,-293.25396825396825,-97.06349206349206,-46.269841269841265,-117.06349206349206,-106.9047619047619,-104.68253968253968,-102.93650793650794,-151.03174603174602,-146.58730158730157,-91.98412698412697,-119.28571428571428,-90.39682539682539,-8.333333333333332,-137.22222222222223,-141.34920634920636,111.03174603174602,-290.7142857142857,-15.476190476190474,-49.92063492063492,-16.11111111111111,-4.841269841269841,-7.698412698412698,-321.8253968253968
-164.2063492063492,-293.25396825396825,-97.06349206349206,-46.269841269841265,-117.06349206349206,-106.9047619047619,-104.68253968253968,-102.93650793650794,-151.03174603174602,-146.58730158730157,-91.98412698412697,-119.28571428571428,-90.39682539682539,-8.333333333333332,-137.22222222222223,-141.34920634920636,111.03174603174602,-290.7142857142857,-15.476190476190474,-49.92063492063492,-16.11111111111111,-4.841269841269841,-7.698412698412698,-321.8253968253968
-325.0,-314.2063492063492,-147.85714285714286,-53.57142857142857,-325.0,-37.698412698412696,-325.0,-64.84126984126983,-211.66666666666666,-225.15873015873015,-325.0,-64.04761904761905,-138.015873015873,-325.0,-179.28571428571428,-184.36507936507937,-325.0,-325.0,-164.84126984126982,-287.85714285714283,-26.428571428571427,1.6666666666666665,0.23809523809523808,-166.26984126984127
-325.0,-314.2063492063492,-147.85714285714286,-53.57142857142857,-325.0,-37.698412698412696,-325.0,-64.84126984126983,-211.66666666666666,-225.15873015873015,-325.0,-64.04761904761905,-138.015873015873,-325.0,-179.28571428571428,-184.36507936507937,-325.0,-325.0,-164.84126984126982,-287.85714285714283,-26.428571428571427,1.6666666666666665,0.23809523809523808,-166.26984126984127
-325.0,-325.0,-141.5079365079365,-69.44444444444444,-325.0,-187.38095238095238,-325.0,-165.95238095238093,-204.04761904761904,-195.63492063492063,-325.0,-165.79365079365078,-132.46031746031744,6.746031746031746,-173.09523809523807,-180.23809523809524,-224.52380952380952,-325.0,13.253968253968253,-138.96825396825395,172.61904761904762,-1.0317460317460316,-0.873015873015873,-166.26984126984127
-325.0,-325.0,-141.5079365079365,-69.44444444444444,-325.0,-187.38095238095238,-325.0,-165.95238095238093,-204.04761904761904,-195.63492063492063,-325.0,-165.79365079365078,-132.46031746031744,6.746031746031746,-173.09523809523807,-180.23809523809524,-224.52380952380952,-325.0,13.253968253968253,-138.96825396825395,172.61904761904762,-1.0317460317460316,-0.873015873015873,-166.26984126984127
-203.57142857142856,-325.0,-99.12698412698413,-79.6031746031746,-305.4761904761905,-115.0,-182.77777777777777,-128.65079365079364,-122.6190476190476,-284.36507936507934,-187.38095238095238,-109.12698412698413,-83.25396825396825,-325.0,-142.3015873015873,-230.2380952380952,-199.28571428571428,-325.0,-159.6031746031746,-82.61904761904762,-106.42857142857142,1.1904761904761905,5.952380952380952,-166.26984126984127
-203.57142857142856,-325.0,-99.12698412698413,-79.6031746031746,-305.4761904761905,-115.0,-182.77777777777777,-128.65079365079364,-122.6190476190476,-284.36507936507934,-187.38095238095238,-109.12698412698413,-83.25396825396825,-325.0,-142.3015873015873,-230.2380952380952,-199.28571428571428,-325.0,-159.6031746031746,-82.61904761904762,-106.42857142857142,1.1904761904761905,5.952380952380952,-166.26984126984127
-63.888888888888886,-325.0,-104.84126984126983,-95.31746031746032,-107.85714285714285,-187.85714285714283,-67.6984126984127,-175.79365079365078,-112.93650793650794,-260.39682539682536,-4.0476190476190474,-160.55555555555554,-105.31746031746032,-159.9206349206349,-120.71428571428571,-228.33333333333331,-7.857142857142857,-325.0,-59.285714285714285,87.06349206349206,-21.507936507936506,1.984126984126984,6.904761904761904,-166.26984126984127
-63.888888888888886,-325.0,-104.84126984126983,-95.31746031746032,-107.85714285714285,-187.85714285714283,-67.6984126984127,-175.79365079365078,-112.93650793650794,-260.39682539682536,-4.0476190476190474,-160.55555555555554,-105.31746031746032,-159.9206349206349,-120.71428571428571,-228.33333333333331,-7.857142857142857,-325.0,-59.285714285714285,87.06349206349206,-21.507936507936506,1.984126984126984,6.904761904761904,-166.26984126984127
-115.15873015873015,-325.0,-131.5079365079365,-73.88888888888889,-189.60317460317458,-98.17460317460316,-117.06349206349206,-109.76190476190476,-161.8253968253968,-257.53968253968253,-93.88888888888889,-87.06349206349206,-127.38095238095238,-325.0,-149.28571428571428,-216.58730158730157,-184.52380952380952,-325.0,-140.23809523809524,-67.06349206349206,-115.15873015873015,4.841269841269841,5.7936507936507935,-166.26984126984127
-115.15873015873015,-325.0,-131.5079365079365,-73.88888888888889,-189.60317460317458,-98.17460317460316,-117.06349206349206,-109.76190476190476,-161.8253968253968,-257.53968253968253,-93.88888888888889,-87.06349206349206,-127.38095238095238,-325.0,-149.28571428571428,-216.58730158730157,-184.52380952380952,-325.0,-140.23809523809524,-67.06349206349206,-115.15873015873015,4.841269841269841,5.7936507936507935,-166.26984126984127
-136.11111111111111,-325.0,-122.77777777777777,-59.76190476190476,-109.28571428571428,-165.79365079365078,-130.3968253968254,-142.61904761904762,-160.55555555555554,-163.88888888888889,-36.904761904761905,-137.53968253968253,-118.49206349206348,22.46031746031746,-149.28571428571428,-159.76190476190476,127.22222222222221,-325.0,21.19047619047619,75.79365079365078,55.15873015873016,-0.07936507936507936,0.07936507936507936,-321.8253968253968
-136.11111111111111,-325.0,-122.77777777777777,-59.76190476190476,-109.28571428571428,-165.79365079365078,-130.3968253968254,-142.61904761904762,-160.55555555555554,-163.88888888888889,-36.904761904761905,-137.53968253968253,-118.49206349206348,22.46031746031746,-149.28571428571428,-159.76190476190476,127.22222222222221,-325.0,21.19047619047619,75.79365079365078,55.15873015873016,-0.07936507936507936,0.07936507936507936,-321.8253968253968
-86.42857142857143,-325.0,-122.77777777777777,-89.28571428571428,-68.96825396825396,-231.8253968253968,-112.77777777777777,-192.93650793650792,-145.63492063492063,-212.14285714285714,37.22222222222222,-185.63492063492063,-122.93650793650794,13.412698412698411,-138.96825396825395,-198.96825396825395,189.12698412698413,-325.0,43.095238095238095,187.85714285714283,76.74603174603175,4.2063492063492065,8.015873015873016,-321.8253968253968
-86.42857142857143,-325.0,-122.77777777777777,-89.28571428571428,-68.96825396825396,-231.8253968253968,-112.77777777777777,-192.93650793650792,-145.63492063492063,-212.14285714285714,37.22222222222222,-185.63492063492063,-122.93650793650794,13.412698412698411,-138.96825396825395,-198.96825396825395,189.12698412698413,-325.0,43.095238095238095,187.85714285714283,76.74603174603175,4.2063492063492065,8.015873015873016,-321.8253968253968
119.28571428571428,-325.0,26.11111111111111,-89.92063492063491,128.015873015873,-223.25396825396825,106.1111111111111,-182.46031746031744,49.12698412698413,-207.2222222222222,177.06349206349205,-179.28571428571428,1.1904761904761905,13.095238095238095,52.14285714285714,-187.53968253968253,192.61904761904762,-325.0,43.888888888888886,256.4285714285714,-19.76190476190476,4.523809523809524,8.968253968253968,-321.8253968253968
119.28571428571428,-325.0,26.11111111111111,-89.92063492063491,128.015873015873,-223.25396825396825,106.1111111111111,-182.46031746031744,49.12698412698413,-207.2222222222222,177.06349206349205,-179.28571428571428,1.1904761904761905,13.095238095238095,52.14285714285714,-187.53968253968253,192.61904761904762,-325.0,43.888888888888886,256.4285714285714,-19.76190476190476,4.523809523809524,8.968253968253968,-321.8253968253968
310.07936507936506,-324.68253968253964,308.6507936507936,-26.587301587301585,283.0952380952381,27.38095238095238,325.0,-3.888888888888889,308.4920634920635,-169.9206349206349,255.15873015873015,6.904761904761904,304.8412698412698,-313.4126984126984,272.77777777777777,-122.77777777777777,176.11111111111111,-206.58730158730157,-146.9047619047619,94.68253968253968,-325.0,-0.3968253968253968,-1.984126984126984,-321.8253968253968
310.07936507936506,-324.68253968253964,308.6507936507936,-26.587301587301585,283.0952380952381,27.38095238095238,325.0,-3.888888888888889,308.4920634920635,-169.9206349206349,255.15873015873015,6.904761904761904,304.8412698412698,-313.4126984126984,272.77777777777777,-122.77777777777777,176.11111111111111,-206.58730158730157,-146.9047619047619,94.68253968253968,-325.0,-0.3968253968253968,-1.984126984126984,-321.8253968253968
-218.4920634920635,-325.0,-105.15873015873015,-57.22222222222222,-192.46031746031744,-147.85714285714286,-204.2063492063492,-122.14285714285714,-154.84126984126982,-140.3968253968254,-182.3015873015873,-112.77777777777777,-99.76190476190476,39.12698412698413,-144.68253968253967,-132.14285714285714,-4.682539682539682,-312.46031746031747,27.22222222222222,-42.14285714285714,103.4126984126984,3.888888888888889,2.3015873015873014,-321.8253968253968
-218.4920634920635,-325.0,-105.15873015873015,-57.22222222222222,-192.46031746031744,-147.85714285714286,-204.2063492063492,-122.14285714285714,-154.84126984126982,-140.3968253968254,-182.3015873015873,-112.77777777777777,-99.76190476190476,39.12698412698413,-144.68253968253967,-132.14285714285714,-4.682539682539682,-312.46031746031747,27.22222222222222,-42.14285714285714,103.4126984126984,3.888888888888889,2.3015873015873014,-321.8253968253968
-325.0,-248.17460317460316,-150.87301587301587,-23.095238095238095,-325.0,31.349206349206348,-325.0,-0.7142857142857142,-210.87301587301587,-153.4126984126984,-325.0,22.936507936507937,-139.9206349206349,-303.0952380952381,-175.63492063492063,-116.42857142857142,-325.0,-325.0,-141.66666666666666,-325.0,26.746031746031743,-0.7142857142857142,-1.507936507936508,-166.26984126984127
-325.0,-248.17460317460316,-150.87301587301587,-23.095238095238095,-325.0,31.349206349206348,-325.0,-0.7142857142857142,-210.87301587301587,-153.4126984126984,-325.0,22.936507936507937,-139.9206349206349,-303.0952380952381,-175.63492063492063,-116.42857142857142,-325.0,-325.0,-141.66666666666666,-325.0,26.746031746031743,-0.7142857142857142,-1.507936507936508,-166.26984126984127
-325.0,-294.2063492063492,-140.23809523809524,-70.87301587301587,-325.0,-152.61904761904762,-325.0,-124.2063492063492,-199.76190476190476,-138.015873015873,-325.0,-107.22222222222221,-130.7142857142857,43.095238095238095,-166.58730158730157,-127.85714285714285,-325.0,-325.0,28.174603174603174,-219.60317460317458,244.04761904761904,-0.873015873015873,1.0317460317460316,-166.26984126984127
-325.0,-294.2063492063492,-140.23809523809524,-70.87301587301587,-325.0,-152.61904761904762,-325.0,-124.2063492063492,-199.76190476190476,-138.015873015873,-325.0,-107.22222222222221,-130.7142857142857,43.095238095238095,-166.58730158730157,-127.85714285714285,-325.0,-325.0,28.174603174603174,-219.60317460317458,244.04761904761904,-0.873015873015873,1.0317460317460316,-166.26984126984127
-325.0,-325.0,-138.33333333333331,-62.93650793650793,-325.0,-31.03174603174603,-325.0,-47.53968253968254,-196.58730158730157,-201.03174603174602,-325.0,-18.65079365079365,-128.8095238095238,-325.0,-164.36507936507937,-148.015873015873,-325.0,-325.0,-159.28571428571428,-279.6031746031746,8.333333333333332,0.3968253968253968,3.253968253968254,-166.26984126984127
-325.0,-325.0,-138.33333333333331,-62.93650793650793,-325.0,-31.03174603174603,-325.0,-47.53968253968254,-196.58730158730157,-201.03174603174602,-325.0,-18.65079365079365,-128.8095238095238,-325.0,-164.36507936507937,-148.015873015873,-325.0,-325.0,-159.28571428571428,-279.6031746031746,8.333333333333332,0.3968253968253968,3.253968253968254,-166.26984126984127
-125.95238095238095,-325.0,-74.04761904761904,-77.53968253968253,-127.38095238095238,-109.92063492063491,-143.88888888888889,-96.74603174603175,-98.49206349206348,-186.11111111111111,-101.5079365079365,-80.55555555555556,-72.46031746031746,-155.63492063492063,-78.01587301587301,-146.9047619047619,-51.507936507936506,-325.0,-57.38095238095238,-12.936507936507935,27.063492063492063,2.9365079365079363,6.428571428571428,-166.26984126984127
-125.95238095238095,-325.0,-74.04761904761904,-77.53968253968253,-127.38095238095238,-109.92063492063491,-143.88888888888889,-96.74603174603175,-98.49206349206348,-186.11111111111111,-101.5079365079365,-80.55555555555556,-72.46031746031746,-155.63492063492063,-78.01587301587301,-146.9047619047619,-51.507936507936506,-325.0,-57.38095238095238,-12.936507936507935,27.063492063492063,2.9365079365079363,6.428571428571428,-166.26984126984127
323.0952380952381,-232.3015873015873,221.8253968253968,-49.6031746031746,222.77777777777777,5.634920634920634,325.0,-14.365079365079364,255.47619047619045,-177.38095238095238,237.69841269841268,-1.507936507936508,221.03174603174602,-325.0,197.06349206349205,-125.0,132.61904761904762,-325.0,-158.33333333333331,97.53968253968253,-281.5079365079365,-2.9365079365079363,2.46031746031746,-166.26984126984127
323.0952380952381,-232.3015873015873,221.8253968253968,-49.6031746031746,222.77777777777777,5.634920634920634,325.0,-14.365079365079364,255.47619047619045,-177.38095238095238,237.69841269841268,-1.507936507936508,221.03174603174602,-325.0,197.06349206349205,-125.0,132.61904761904762,-325.0,-158.33333333333331,97.53968253968253,-281.5079365079365,-2.9365079365079363,2.46031746031746,-166.26984126984127
323.0952380952381,-232.3015873015873,221.8253968253968,-49.6031746031746,222.77777777777777,5.634920634920634,325.0,-14.365079365079364,255.47619047619045,-177.38095238095238,237.69841269841268,-1.507936507936508,221.03174603174602,-325.0,197.06349206349205,-125.0,132.61904761904762,-325.0,-158.33333333333331,97.53968253968253,-281.5079365079365,-2.9365079365079363,2.46031746031746,-321.8253968253968
323.0952380952381,-232.3015873015873,221.8253968253968,-49.6031746031746,222.77777777777777,5.634920634920634,325.0,-14.365079365079364,255.47619047619045,-177.38095238095238,237.69841269841268,-1.507936507936508,221.03174603174602,-325.0,197.06349206349205,-125.0,132.61904761904762,-325.0,-158.33333333333331,97.53968253968253,-281.5079365079365,-2.9365079365079363,2.46031746031746,-321.8253968253968
-208.4920634920635,-229.44444444444443,-119.6031746031746,-44.047619047619044,-307.53968253968253,26.746031746031743,-200.23809523809524,2.142857142857143,-149.28571428571428,-164.2063492063492,-230.2380952380952,15.634920634920634,-106.9047619047619,-325.0,-157.69841269841268,-111.19047619047619,-309.9206349206349,-222.3015873015873,-158.33333333333331,-192.14285714285714,-144.36507936507937,1.349206349206349,4.523809523809524,-321.8253968253968
-208.4920634920635,-229.44444444444443,-119.6031746031746,-44.047619047619044,-307.53968253968253,26.746031746031743,-200.23809523809524,2.142857142857143,-149.28571428571428,-164.2063492063492,-230.2380952380952,15.634920634920634,-106.9047619047619,-325.0,-157.69841269841268,-111.19047619047619,-309.9206349206349,-222.3015873015873,-158.33333333333331,-192.14285714285714,-144.36507936507937,1.349206349206349,4.523809523809524,-321.8253968253968
-208.4920634920635,-229.44444444444443,-119.6031746031746,-44.047619047619044,-307.53968253968253,26.746031746031743,-200.23809523809524,2.142857142857143,-149.28571428571428,-164.2063492063492,-230.2380952380952,15.634920634920634,-106.9047619047619,-325.0,-157.69841269841268,-111.19047619047619,-309.9206349206349,-222.3015873015873,-158.33333333333331,-192.14285714285714,-144.36507936507937,1.349206349206349,4.523809523809524,-321.8253968253968
-208.4920634920635,-229.44444444444443,-119.6031746031746,-44.047619047619044,-307.53968253968253,26.746031746031743,-200.23809523809524,2.142857142857143,-149.28571428571428,-164.2063492063492,-230.2380952380952,15.634920634920634,-106.9047619047619,-325.0,-157.69841269841268,-111.19047619047619,-309.9206349206349,-222.3015873015873,-158.33333333333331,-192.14285714285714,-144.36507936507937,1.349206349206349,4.523809523809524,-321.8253968253968
-132.14285714285714,-133.88888888888889,-98.01587301587301,-15.158730158730158,-206.1111111111111,89.44444444444444,-90.55555555555556,55.476190476190474,-122.93650793650794,-91.98412698412697,-163.09523809523807,65.63492063492063,-87.38095238095238,-269.44444444444446,-139.44444444444443,-56.74603174603174,-202.46031746031744,-155.3174603174603,-127.85714285714285,-214.68253968253967,-148.17460317460316,-3.888888888888889,-5.158730158730158,-321.8253968253968
-132.14285714285714,-133.88888888888889,-98.01587301587301,-15.158730158730158,-206.1111111111111,89.44444444444444,-90.55555555555556,55.476190476190474,-122.93650793650794,-91.98412698412697,-163.09523809523807,65.63492063492063,-87.38095238095238,-269.44444444444446,-139.44444444444443,-56.74603174603174,-202.46031746031744,-155.3174603174603,-127.85714285714285,-214.68253968253967,-148.17460317460316,-3.888888888888889,-5.158730158730158,-321.8253968253968
-291.3492063492063,-144.36507936507937,-126.74603174603173,-31.19047619047619,-250.07936507936506,-56.74603174603174,-271.66666666666663,-34.2063492063492,-175.63492063492063,-33.57142857142857,-225.3174603174603,-41.507936507936506,-118.33333333333333,121.82539682539682,-151.19047619047618,-29.285714285714285,44.2063492063492,-272.9365079365079,33.73015873015873,-96.1111111111111,136.74603174603175,-1.0317460317460316,-4.523809523809524,-321.8253968253968
-291.3492063492063,-144.36507936507937,-126.74603174603173,-31.19047619047619,-250.07936507936506,-56.74603174603174,-271.66666666666663,-34.2063492063492,-175.63492063492063,-33.57142857142857,-225.3174603174603,-41.507936507936506,-118.33333333333333,121.82539682539682,-151.19047619047618,-29.285714285714285,44.2063492063492,-272.9365079365079,33.73015873015873,-96.1111111111111,136.74603174603175,-1.0317460317460316,-4.523809523809524,-321.8253968253968
-292.46031746031747,-97.6984126984127,-118.96825396825396,-8.174603174603174,-287.53968253968253,48.01587301587301,-263.0952380952381,39.12698412698413,-163.57142857142856,-24.68253968253968,-275.1587301587301,34.84126984126984,-109.12698412698413,-36.74603174603175,-147.2222222222222,-10.555555555555555,-140.3968253968254,-287.53968253968253,-27.38095238095238,-210.55555555555554,43.095238095238095,-2.142857142857143,-7.5396825396825395,-166.26984126984127
-292.46031746031747,-97.6984126984127,-118.96825396825396,-8.174603174603174,-287.53968253968253,48.01587301587301,-263.0952380952381,39.12698412698413,-163.57142857142856,-24.68253968253968,-275.1587301587301,34.84126984126984,-109.12698412698413,-36.74603174603175,-147.2222222222222,-10.555555555555555,-140.3968253968254,-287.53968253968253,-27.38095238095238,-210.55555555555554,43.095238095238095,-2.142857142857143,-7.5396825396825395,-166.26984126984127
-290.23809523809524,-144.68253968253967,-117.22222222222221,-34.2063492063492,-325.0,11.666666666666666,-280.23809523809524,11.507936507936508,-162.61904761904762,-64.52380952380952,-303.73015873015873,8.015873015873016,-107.53968253968253,-91.5079365079365,-143.4126984126984,-41.666666666666664,-207.06349206349205,-313.57142857142856,-21.03174603174603,-165.47619047619045,55.0,0.23809523809523808,-0.873015873015873,-166.26984126984127
-290.23809523809524,-144.68253968253967,-117.22222222222221,-34.2063492063492,-325.0,11.666666666666666,-280.23809523809524,11.507936507936508,-162.61904761904762,-64.52380952380952,-303.73015873015873,8.015873015873016,-107.53968253968253,-91.5079365079365,-143.4126984126984,-41.666666666666664,-207.06349206349205,-313.57142857142856,-21.03174603174603,-165.47619047619045,55.0,0.23809523809523808,-0.873015873015873,-166.26984126984127
-148.8095238095238,-73.73015873015872,-78.4920634920635,-5.7936507936507935,-220.07936507936506,128.33333333333331,-129.44444444444443,92.93650793650794,-106.9047619047619,-59.6031746031746,-194.52380952380952,94.68253968253968,-61.666666666666664,-250.07936507936506,-111.5079365079365,-15.634920634920634,-238.17460317460316,-296.90476190476187,-120.23809523809523,-243.88888888888889,-115.63492063492063,-3.4126984126984126,-5.0,-166.26984126984127
-148.8095238095238,-73.73015873015872,-78.4920634920635,-5.7936507936507935,-220.07936507936506,128.33333333333331,-129.44444444444443,92.93650793650794,-106.9047619047619,-59.6031746031746,-194.52380952380952,94.68253968253968,-61.666666666666664,-250.07936507936506,-111.5079365079365,-15.634920634920634,-238.17460317460316,-296.90476190476187,-120.23809523809523,-243.88888888888889,-115.63492063492063,-3.4126984126984126,-5.0,-166.26984126984127
-325.0,-177.69841269841268,-115.31746031746032,-52.93650793650794,-325.0,-76.9047619047619,-325.0,-51.03174603174603,-166.42857142857142,-53.25396825396825,-325.0,-58.96825396825397,-107.53968253968253,75.63492063492063,-137.69841269841268,-42.61904761904761,-261.031746031746,-325.0,43.888888888888886,-207.53968253968253,227.38095238095238,2.9365079365079363,3.4126984126984126,-166.26984126984127
-325.0,-177.69841269841268,-115.31746031746032,-52.93650793650794,-325.0,-76.9047619047619,-325.0,-51.03174603174603,-166.42857142857142,-53.25396825396825,-325.0,-58.96825396825397,-107.53968253968253,75.63492063492063,-137.69841269841268,-42.61904761904761,-261.031746031746,-325.0,43.888888888888886,-207.53968253968253,227.38095238095238,2.9365079365079363,3.4126984126984126,-166.26984126984127
-325.0,19.6031746031746,-117.53968253968253,-8.333333333333332,-325.0,130.23809523809524,-325.0,90.87301587301587,-168.96825396825395,-47.22222222222222,-325.0,102.46031746031746,-110.07936507936508,-246.26984126984127,-138.015873015873,-7.063492063492063,-325.0,-325.0,-123.25396825396825,-325.0,11.666666666666666,-2.3015873015873014,-4.841269841269841,-166.26984126984127
-325.0,19.6031746031746,-117.53968253968253,-8.333333333333332,-325.0,130.23809523809524,-325.0,90.87301587301587,-168.96825396825395,-47.22222222222222,-325.0,102.46031746031746,-110.07936507936508,-246.26984126984127,-138.015873015873,-7.063492063492063,-325.0,-325.0,-123.25396825396825,-325.0,11.666666666666666,-2.3015873015873014,-4.841269841269841,-166.26984126984127
-219.28571428571428,-15.793650793650793,-115.15873015873015,-42.3015873015873,-188.96825396825395,-49.12698412698413,-325.0,-26.9047619047619,-166.11111111111111,-12.936507936507935,-148.015873015873,-16.904761904761905,-107.6984126984127,147.2222222222222,-135.95238095238093,-2.142857142857143,58.33333333333333,-325.0,43.73015873015873,-5.0,178.33333333333331,-3.888888888888889,-5.7936507936507935,-321.8253968253968
-219.28571428571428,-15.793650793650793,-115.15873015873015,-42.3015873015873,-188.96825396825395,-49.12698412698413,-325.0,-26.9047619047619,-166.11111111111111,-12.936507936507935,-148.015873015873,-16.904761904761905,-107.6984126984127,147.2222222222222,-135.95238095238093,-2.142857142857143,58.33333333333333,-325.0,43.73015873015873,-5.0,178.33333333333331,-3.888888888888889,-5.7936507936507935,-321.8253968253968
-219.28571428571428,-15.793650793650793,-115.15873015873015,-42.3015873015873,-188.96825396825395,-49.12698412698413,-325.0,-26.9047619047619,-166.11111111111111,-12.936507936507935,-148.015873015873,-16.904761904761905,-107.6984126984127,147.2222222222222,-135.95238095238093,-2.142857142857143,58.33333333333333,-325.0,43.73015873015873,-5.0,178.33333333333331,-3.888888888888889,-5.7936507936507935,-321.8253968253968
-219.28571428571428,-15.793650793650793,-115.15873015873015,-42.3015873015873,-188.96825396825395,-49.12698412698413,-325.0,-26.9047619047619,-166.11111111111111,-12.936507936507935,-148.015873015873,-16.904761904761905,-107.6984126984127,147.2222222222222,-135.95238095238093,-2.142857142857143,58.33333333333333,-325.0,43.73015873015873,-5.0,178.33333333333331,-3.888888888888889,-5.7936507936507935,-321.8253968253968
-219.28571428571428,-15.793650793650793,-115.15873015873015,-42.3015873015873,-188.96825396825395,-49.12698412698413,-325.0,-26.9047619047619,-166.11111111111111,-12.936507936507935,-148.015873015873,-16.904761904761905,-107.6984126984127,147.2222222222222,-135.95238095238093,-2.142857142857143,58.33333333333333,-325.0,43.73015873015873,-5.0,178.33333333333331,-3.888888888888889,-5.7936507936507935,-321.8253968253968
-219.28571428571428,-15.793650793650793,-115.15873015873015,-42.3015873015873,-188.96825396825395,-49.12698412698413,-325.0,-26.9047619047619,-166.11111111111111,-12.936507936507935,-148.015873015873,-16.904761904761905,-107.6984126984127,147.2222222222222,-135.95238095238093,-2.142857142857143,58.33333333333333,-325.0,43.73015873015873,-5.0,178.33333333333331,-3.888888888888889,-5.7936507936507935,-321.8253968253968
-219.28571428571428,-15.793650793650793,-115.15873015873015,-42.3015873015873,-188.96825396825395,-49.12698412698413,-325.0,-26.9047619047619,-166.11111111111111,-12.936507936507935,-148.015873015873,-16.904761904761905,-107.6984126984127,147.2222222222222,-135.95238095238093,-2.142857142857143,58.33333333333333,-325.0,43.73015873015873,-5.0,178.33333333333331,-3.888888888888889,-5.7936507936507935,-321.8253968253968
-219.28571428571428,-15.793650793650793,-115.15873015873015,-42.3015873015873,-188.96825396825395,-49.12698412698413,-325.0,-26.9047619047619,-166.11111111111111,-12.936507936507935,-148.015873015873,-16.904761904761905,-107.6984126984127,147.2222222222222,-135.95238095238093,-2.142857142857143,58.33333333333333,-325.0,43.73015873015873,-5.0,178.33333333333331,-3.888888888888889,-5.7936507936507935,-321.8253968253968
-325.0,-35.0,-110.39682539682539,-78.65079365079364,-325.0,-76.74603174603175,-325.0,-41.666666666666664,-158.17460317460316,-44.68253968253968,-325.0,-44.047619047619044,-103.25396825396825,82.77777777777777,-130.7142857142857,-22.3015873015873,-279.9206349206349,-325.0,46.11111111111111,-211.8253968253968,233.4126984126984,3.253968253968254,4.523809523809524,-321.8253968253968
-325.0,-35.0,-110.39682539682539,-78.65079365079364,-325.0,-76.74603174603175,-325.0,-41.666666666666664,-158.17460317460316,-44.68253968253968,-325.0,-44.047619047619044,-103.25396825396825,82.77777777777777,-130.7142857142857,-22.3015873015873,-279.9206349206349,-325.0,46.11111111111111,-211.8253968253968,233.4126984126984,3.253968253968254,4.523809523809524,-321.8253968253968
-325.0,114.52380952380952,-108.17460317460316,-11.984126984126984,-325.0,149.28571428571428,-325.0,112.30158730158729,-156.74603174603175,-22.936507936507937,-325.0,124.52380952380952,-101.34920634920634,-222.3015873015873,-128.17460317460316,21.507936507936506,-325.0,-325.0,-120.07936507936508,-325.0,150.7142857142857,-2.9365079365079363,-5.158730158730158,-166.26984126984127
-325.0,114.52380952380952,-108.17460317460316,-11.984126984126984,-325.0,149.28571428571428,-325.0,112.30158730158729,-156.74603174603175,-22.936507936507937,-325.0,124.52380952380952,-101.34920634920634,-222.3015873015873,-128.17460317460316,21.507936507936506,-325.0,-325.0,-120.07936507936508,-325.0,150.7142857142857,-2.9365079365079363,-5.158730158730158,-166.26984126984127
-127.06349206349206,22.3015873015873,-41.34920634920635,-67.6984126984127,-123.4126984126984,-57.38095238095238,-195.63492063492063,-31.19047619047619,-60.39682539682539,-30.71428571428571,-109.12698412698413,-27.857142857142854,-30.238095238095237,84.04761904761904,-47.06349206349206,-18.333333333333332,87.53968253968253,-325.0,48.17460317460317,67.85714285714285,122.6190476190476,1.1904761904761905,3.253968253968254,-166.26984126984127
-127.06349206349206,22.3015873015873,-41.34920634920635,-67.6984126984127,-123.4126984126984,-57.38095238095238,-195.63492063492063,-31.19047619047619,-60.39682539682539,-30.71428571428571,-109.12698412698413,-27.857142857142854,-30.238095238095237,84.04761904761904,-47.06349206349206,-18.333333333333332,87.53968253968253,-325.0,48.17460317460317,67.85714285714285,122.6190476190476,1.1904761904761905,3.253968253968254,-166.26984126984127
325.0,178.33333333333331,291.5079365079365,5.158730158730158,325.0,258.17460317460313,315.7936507936508,219.60317460317458,307.85714285714283,83.4126984126984,315.7936507936508,225.95238095238093,287.06349206349205,-140.55555555555554,283.88888888888886,129.44444444444443,232.3015873015873,-216.74603174603175,-66.42857142857143,-5.158730158730158,-252.93650793650792,-5.952380952380952,-7.5396825396825395,-166.26984126984127
325.0,178.33333333333331,291.5079365079365,5.158730158730158,325.0,258.17460317460313,315.7936507936508,219.60317460317458,307.85714285714283,83.4126984126984,315.7936507936508,225.95238095238093,287.06349206349205,-140.55555555555554,283.88888888888886,129.44444444444443,232.3015873015873,-216.74603174603175,-66.42857142857143,-5.158730158730158,-252.93650793650792,-5.952380952380952,-7.5396825396825395,-166.26984126984127
86.1111111111111,179.44444444444443,-34.52380952380952,-28.65079365079365,122.6190476190476,168.17460317460316,-54.2063492063492,195.0,-26.9047619047619,189.76190476190476,165.95238095238093,189.76190476190476,-48.49206349206349,184.68253968253967,-8.809523809523808,203.4126984126984,232.14285714285714,-75.63492063492063,64.36507936507937,37.22222222222222,133.0952380952381,2.3015873015873014,4.523809523809524,-166.26984126984127
86.1111111111111,179.44444444444443,-34.52380952380952,-28.65079365079365,122.6190476190476,168.17460317460316,-54.2063492063492,195.0,-26.9047619047619,189.76190476190476,165.95238095238093,189.76190476190476,-48.49206349206349,184.68253968253967,-8.809523809523808,203.4126984126984,232.14285714285714,-75.63492063492063,64.36507936507937,37.22222222222222,133.0952380952381,2.3015873015873014,4.523809523809524,-166.26984126984127
46.58730158730158,170.87301587301587,-80.39682539682539,-43.888888888888886,51.666666666666664,166.74603174603175,-108.49206349206348,195.79365079365078,-73.4126984126984,161.19047619047618,128.65079365079364,194.2063492063492,-85.31746031746032,150.55555555555554,-40.87301587301587,185.63492063492063,191.34920634920633,-69.76190476190476,69.12698412698413,30.396825396825395,130.7142857142857,5.7936507936507935,11.507936507936508,-166.26984126984127
46.58730158730158,170.87301587301587,-80.39682539682539,-43.888888888888886,51.666666666666664,166.74603174603175,-108.49206349206348,195.79365079365078,-73.4126984126984,161.19047619047618,128.65079365079364,194.2063492063492,-85.31746031746032,150.55555555555554,-40.87301587301587,185.63492063492063,191.34920634920633,-69.76190476190476,69.12698412698413,30.396825396825395,130.7142857142857,5.7936507936507935,11.507936507936508,-166.26984126984127
-269.2857142857143,189.9206349206349,-111.5079365079365,-27.857142857142854,-238.8095238095238,192.3015873015873,-309.4444444444444,226.26984126984127,-154.04761904761904,219.44444444444443,-232.77777777777777,217.2222222222222,-105.31746031746032,189.9206349206349,-128.8095238095238,237.69841269841268,-77.22222222222221,9.126984126984127,62.460317460317455,-176.9047619047619,232.93650793650792,3.095238095238095,5.0,-321.8253968253968
-269.2857142857143,189.9206349206349,-111.5079365079365,-27.857142857142854,-238.8095238095238,192.3015873015873,-309.4444444444444,226.26984126984127,-154.04761904761904,219.44444444444443,-232.77777777777777,217.2222222222222,-105.31746031746032,189.9206349206349,-128.8095238095238,237.69841269841268,-77.22222222222221,9.126984126984127,62.460317460317455,-176.9047619047619,232.93650793650792,3.095238095238095,5.0,-321.8253968253968
-325.0,186.26984126984127,-110.07936507936508,-12.142857142857142,-325.0,265.1587301587301,-325.0,285.7936507936508,-157.06349206349205,241.98412698412696,-325.0,273.4126984126984,-103.09523809523809,68.01587301587301,-129.28571428571428,263.88888888888886,-325.0,53.57142857142857,25.952380952380953,-325.0,179.12698412698413,1.1904761904761905,0.873015873015873,-321.8253968253968
-325.0,186.26984126984127,-110.07936507936508,-12.142857142857142,-325.0,265.1587301587301,-325.0,285.7936507936508,-157.06349206349205,241.98412698412696,-325.0,273.4126984126984,-103.09523809523809,68.01587301587301,-129.28571428571428,263.88888888888886,-325.0,53.57142857142857,25.952380952380953,-325.0,179.12698412698413,1.1904761904761905,0.873015873015873,-321.8253968253968
-325.0,17.063492063492063,-106.9047619047619,-76.26984126984127,-325.0,175.0,-325.0,212.46031746031744,-152.93650793650792,182.3015873015873,-325.0,197.85714285714283,-100.39682539682539,136.42857142857142,-125.63492063492063,197.06349206349205,-325.0,-93.57142857142857,62.77777777777777,-309.2857142857143,264.36507936507934,3.73015873015873,10.079365079365079,-321.8253968253968
-325.0,17.063492063492063,-106.9047619047619,-76.26984126984127,-325.0,175.0,-325.0,212.46031746031744,-152.93650793650792,182.3015873015873,-325.0,197.85714285714283,-100.39682539682539,136.42857142857142,-125.63492063492063,197.06349206349205,-325.0,-93.57142857142857,62.77777777777777,-309.2857142857143,264.36507936507934,3.73015873015873,10.079365079365079,-321.8253968253968
-325.0,175.95238095238093,-104.36507936507935,-11.031746031746032,-325.0,262.46031746031747,-325.0,281.5079365079365,-149.44444444444443,282.9365079365079,-325.0,268.17460317460313,-97.85714285714285,158.015873015873,-122.93650793650794,289.2857142857143,-310.23809523809524,-158.65079365079364,42.14285714285714,-297.85714285714283,221.98412698412696,-1.507936507936508,-5.7936507936507935,-321.8253968253968
-325.0,175.95238095238093,-104.36507936507935,-11.031746031746032,-325.0,262.46031746031747,-325.0,281.5079365079365,-149.44444444444443,282.9365079365079,-325.0,268.17460317460313,-97.85714285714285,158.015873015873,-122.93650793650794,289.2857142857143,-310.23809523809524,-158.65079365079364,42.14285714285714,-297.85714285714283,221.98412698412696,-1.507936507936508,-5.7936507936507935,-321.8253968253968
-325.0,116.26984126984127,-103.88888888888889,-42.61904761904761,-325.0,199.9206349206349,-325.0,238.015873015873,-148.8095238095238,265.4761904761905,-325.0,211.5079365079365,-97.38095238095238,223.4126984126984,-122.30158730158729,259.76190476190476,-295.3174603174603,-236.74603174603175,57.38095238095238,-270.7142857142857,247.69841269841268,0.873015873015873,-0.5555555555555556,-321.8253968253968
-325.0,116.26984126984127,-103.88888888888889,-42.61904761904761,-325.0,199.9206349206349,-325.0,238.015873015873,-148.8095238095238,265.4761904761905,-325.0,211.5079365079365,-97.38095238095238,223.4126984126984,-122.30158730158729,259.76190476190476,-295.3174603174603,-236.74603174603175,57.38095238095238,-270.7142857142857,247.69841269841268,0.873015873015873,-0.5555555555555556,-321.8253968253968
-325.0,150.87301587301587,-101.98412698412697,-47.698412698412696,-325.0,192.93650793650792,-325.0,229.76190476190476,-146.11111111111111,259.9206349206349,-325.0,202.46031746031744,-95.63492063492063,222.14285714285714,-120.23809523809523,251.8253968253968,-266.1111111111111,-278.6507936507936,57.22222222222222,-259.2857142857143,244.2063492063492,1.0317460317460316,-0.7142857142857142,-166.26984126984127
-325.0,150.87301587301587,-101.98412698412697,-47.698412698412696,-325.0,192.93650793650792,-325.0,229.76190476190476,-146.11111111111111,259.9206349206349,-325.0,202.46031746031744,-95.63492063492063,222.14285714285714,-120.23809523809523,251.8253968253968,-266.1111111111111,-278.6507936507936,57.22222222222222,-259.2857142857143,244.2063492063492,1.0317460317460316,-0.7142857142857142,-166.26984126984127
-325.0,101.19047619047619,-99.12698412698413,-87.22222222222221,-325.0,168.8095238095238,-325.0,200.23809523809524,-142.14285714285714,154.84126984126982,-325.0,180.87301587301587,-92.77777777777777,113.73015873015872,-116.9047619047619,177.06349206349205,-280.7142857142857,-325.0,58.96825396825397,-212.93650793650792,205.15873015873015,2.7777777777777777,8.809523809523808,-166.26984126984127
-325.0,101.19047619047619,-99.12698412698413,-87.22222222222221,-325.0,168.8095238095238,-325.0,200.23809523809524,-142.14285714285714,154.84126984126982,-325.0,180.87301587301587,-92.77777777777777,113.73015873015872,-116.9047619047619,177.06349206349205,-280.7142857142857,-325.0,58.96825396825397,-212.93650793650792,205.15873015873015,2.7777777777777777,8.809523809523808,-166.26984126984127
-325.0,95.79365079365078,-97.6984126984127,-74.2063492063492,-325.0,167.85714285714286,-325.0,203.57142857142856,-140.23809523809524,194.2063492063492,-325.0,182.93650793650792,-91.5079365079365,165.95238095238093,-115.31746031746032,204.52380952380952,-278.3333333333333,-325.0,57.22222222222222,-230.3968253968254,223.25396825396825,1.8253968253968254,4.523809523809524,-166.26984126984127
-325.0,95.79365079365078,-97.6984126984127,-74.2063492063492,-325.0,167.85714285714286,-325.0,203.57142857142856,-140.23809523809524,194.2063492063492,-325.0,182.93650793650792,-91.5079365079365,165.95238095238093,-115.31746031746032,204.52380952380952,-278.3333333333333,-325.0,57.22222222222222,-230.3968253968254,223.25396825396825,1.8253968253968254,4.523809523809524,-166.26984126984127
-148.96825396825395,39.92063492063492,-74.2063492063492,-94.52380952380952,-209.76190476190476,160.7142857142857,-223.4126984126984,191.8253968253968,-87.06349206349206,137.06349206349205,-154.84126984126982,178.4920634920635,-67.6984126984127,97.06349206349206,-75.79365079365078,166.74603174603175,-65.15873015873015,-325.0,57.857142857142854,-86.9047619047619,125.0,2.7777777777777777,9.603174603174603,-166.26984126984127
-148.96825396825395,39.92063492063492,-74.2063492063492,-94.52380952380952,-209.76190476190476,160.7142857142857,-223.4126984126984,191.8253968253968,-87.06349206349206,137.06349206349205,-154.84126984126982,178.4920634920635,-67.6984126984127,97.06349206349206,-75.79365079365078,166.74603174603175,-65.15873015873015,-325.0,57.857142857142854,-86.9047619047619,125.0,2.7777777777777777,9.603174603174603,-166.26984126984127
-73.73015873015872,86.26984126984127,-74.84126984126983,-90.55555555555556,-67.22222222222221,150.7142857142857,-160.7142857142857,184.84126984126982,-97.06349206349206,176.74603174603175,-20.873015873015873,169.9206349206349,-70.23809523809524,155.95238095238093,-83.88888888888889,181.5079365079365,107.38095238095238,-325.0,56.269841269841265,-21.507936507936506,158.65079365079364,1.984126984126984,5.317460317460317,-166.26984126984127
-73.73015873015872,86.26984126984127,-74.84126984126983,-90.55555555555556,-67.22222222222221,150.7142857142857,-160.7142857142857,184.84126984126982,-97.06349206349206,176.74603174603175,-20.873015873015873,169.9206349206349,-70.23809523809524,155.95238095238093,-83.88888888888889,181.5079365079365,107.38095238095238,-325.0,56.269841269841265,-21.507936507936506,158.65079365079364,1.984126984126984,5.317460317460317,-166.26984126984127
186.58730158730157,94.52380952380952,22.936507936507937,-104.68253968253968,180.7142857142857,151.5079365079365,75.79365079365078,176.42857142857142,50.71428571428571,117.38095238095238,250.7142857142857,167.38095238095238,36.269841269841265,82.14285714285714,90.07936507936508,143.4126984126984,288.968253968254,-325.0,55.79365079365079,124.68253968253967,7.857142857142857,5.634920634920634,11.984126984126984,-321.8253968253968
186.58730158730157,94.52380952380952,22.936507936507937,-104.68253968253968,180.7142857142857,151.5079365079365,75.79365079365078,176.42857142857142,50.71428571428571,117.38095238095238,250.7142857142857,167.38095238095238,36.269841269841265,82.14285714285714,90.07936507936508,143.4126984126984,288.968253968254,-325.0,55.79365079365079,124.68253968253967,7.857142857142857,5.634920634920634,11.984126984126984,-321.8253968253968
255.79365079365078,118.17460317460316,124.2063492063492,-93.73015873015872,252.77777777777777,144.36507936507937,200.3968253968254,171.5079365079365,159.44444444444443,155.3174603174603,287.85714285714283,158.65079365079364,107.22222222222221,146.58730158730157,200.23809523809524,163.4126984126984,303.25396825396825,-325.0,54.841269841269835,189.9206349206349,18.80952380952381,5.158730158730158,7.063492063492063,-321.8253968253968
255.79365079365078,118.17460317460316,124.2063492063492,-93.73015873015872,252.77777777777777,144.36507936507937,200.3968253968254,171.5079365079365,159.44444444444443,155.3174603174603,287.85714285714283,158.65079365079364,107.22222222222221,146.58730158730157,200.23809523809524,163.4126984126984,303.25396825396825,-325.0,54.841269841269835,189.9206349206349,18.80952380952381,5.158730158730158,7.063492063492063,-321.8253968253968
0.3968253968253968,187.85714285714283,48.01587301587301,-62.93650793650793,-0.07936507936507936,231.19047619047618,-0.07936507936507936,239.9206349206349,50.39682539682539,172.61904761904762,-0.07936507936507936,231.8253968253968,28.65079365079365,39.44444444444444,83.09523809523809,183.09523809523807,-3.73015873015873,-198.4920634920635,13.888888888888888,-34.84126984126984,-4.841269841269841,1.6666666666666665,0.7142857142857142,-321.8253968253968
0.3968253968253968,187.85714285714283,48.01587301587301,-62.93650793650793,-0.07936507936507936,231.19047619047618,-0.07936507936507936,239.9206349206349,50.39682539682539,172.61904761904762,-0.07936507936507936,231.8253968253968,28.65079365079365,39.44444444444444,83.09523809523809,183.09523809523807,-3.73015873015873,-198.4920634920635,13.888888888888888,-34.84126984126984,-4.841269841269841,1.6666666666666665,0.7142857142857142,-321.8253968253968
-325.0,199.60317460317458,-111.5079365079365,-50.71428571428571,-325.0,223.7301587301587,-325.0,233.25396825396825,-154.04761904761904,208.33333333333331,-325.0,221.5079365079365,-104.52380952380952,149.44444444444443,-131.8253968253968,211.8253968253968,-229.76190476190476,3.095238095238095,38.33333333333333,-235.79365079365078,162.3015873015873,-2.142857142857143,-5.317460317460317,-321.8253968253968
-325.0,199.60317460317458,-111.5079365079365,-50.71428571428571,-325.0,223.7301587301587,-325.0,233.25396825396825,-154.04761904761904,208.33333333333331,-325.0,221.5079365079365,-104.52380952380952,149.44444444444443,-131.8253968253968,211.8253968253968,-229.76190476190476,3.095238095238095,38.33333333333333,-235.79365079365078,162.3015873015873,-2.142857142857143,-5.317460317460317,-321.8253968253968
42.460317460317455,159.28571428571428,3.571428571428571,-73.4126984126984,-15.793650793650793,232.46031746031744,-20.873015873015873,229.9206349206349,11.507936507936508,108.49206349206348,30.396825396825395,232.46031746031744,1.1904761904761905,-46.58730158730158,9.285714285714285,144.84126984126982,-1.349206349206349,-141.19047619047618,2.46031746031746,-75.79365079365078,-53.57142857142857,-1.1904761904761905,2.46031746031746,-321.8253968253968
42.460317460317455,159.28571428571428,3.571428571428571,-73.4126984126984,-15.793650793650793,232.46031746031744,-20.873015873015873,229.9206349206349,11.507936507936508,108.49206349206348,30.396825396825395,232.46031746031744,1.1904761904761905,-46.58730158730158,9.285714285714285,144.84126984126982,-1.349206349206349,-141.19047619047618,2.46031746031746,-75.79365079365078,-53.57142857142857,-1.1904761904761905,2.46031746031746,-321.8253968253968
-181.66666666666666,189.28571428571428,-65.63492063492063,-55.95238095238095,-181.66666666666666,206.42857142857142,-196.58730158730157,211.34920634920633,-88.33333333333333,191.34920634920633,-192.46031746031744,205.95238095238093,-63.25396825396825,143.57142857142856,-87.38095238095238,190.07936507936506,-85.95238095238095,-229.12698412698413,35.0,-211.03174603174602,112.93650793650794,-0.7142857142857142,-5.0,-166.26984126984127
-181.66666666666666,189.28571428571428,-65.63492063492063,-55.95238095238095,-181.66666666666666,206.42857142857142,-196.58730158730157,211.34920634920633,-88.33333333333333,191.34920634920633,-192.46031746031744,205.95238095238093,-63.25396825396825,143.57142857142856,-87.38095238095238,190.07936507936506,-85.95238095238095,-229.12698412698413,35.0,-211.03174603174602,112.93650793650794,-0.7142857142857142,-5.0,-166.26984126984127
-325.0,101.19047619047619,-108.01587301587301,-107.85714285714285,-325.0,119.28571428571428,-325.0,139.9206349206349,-150.23809523809524,82.61904761904762,-325.0,143.88888888888889,-101.66666666666666,38.01587301587301,-126.42857142857142,99.6031746031746,-325.0,-325.0,48.33333333333333,-269.9206349206349,214.68253968253967,5.952380952380952,11.349206349206348,-166.26984126984127
-325.0,101.19047619047619,-108.01587301587301,-107.85714285714285,-325.0,119.28571428571428,-325.0,139.9206349206349,-150.23809523809524,82.61904761904762,-325.0,143.88888888888889,-101.66666666666666,38.01587301587301,-126.42857142857142,99.6031746031746,-325.0,-325.0,48.33333333333333,-269.9206349206349,214.68253968253967,5.952380952380952,11.349206349206348,-166.26984126984127
-325.0,119.92063492063491,-100.39682539682539,-108.01587301587301,-325.0,99.6031746031746,-325.0,128.4920634920635,-140.3968253968254,104.2063492063492,-325.0,124.68253968253967,-94.84126984126983,110.71428571428571,-118.33333333333333,119.92063492063491,-325.0,-290.87301587301585,46.74603174603175,-238.17460317460316,218.33333333333331,2.619047619047619,5.476190476190476,-166.26984126984127
