Fp1[1],Fp2[2],F3[3],F4[4],C3[5],C4[6],P3[7],P4[8],O1[9],O2[10],F7[11],F8[12],T3[13],T4[14],T5[15],T6[16],Fz[17],Pz[18],Cz[19],Pg1[20],Pg2[21],EOGR[22],EOOGL[23],EMG[24]
324.8412698412698,-325.0,325.0,-325.0,325.0,325.0,325.0,325.0,325.0,325.0,-325.0,325.0,325.0,-325.0,325.0,325.0,325.0,237.69841269841268,-325.0,-325.0,-325.0,1.349206349206349,-6.428571428571428,-166.26984126984127
324.8412698412698,-325.0,325.0,-325.0,325.0,325.0,325.0,325.0,325.0,325.0,-325.0,325.0,325.0,-325.0,325.0,325.0,325.0,237.69841269841268,-325.0,-325.0,-325.0,1.349206349206349,-6.428571428571428,-166.26984126984127
320.07936507936506,-325.0,325.0,-325.0,325.0,325.0,325.0,325.0,325.0,325.0,-325.0,325.0,325.0,-325.0,325.0,325.0,325.0,233.88888888888889,-325.0,-325.0,-325.0,-0.5555555555555556,6.26984126984127,-166.26984126984127
320.07936507936506,-325.0,325.0,-325.0,325.0,325.0,325.0,325.0,325.0,325.0,-325.0,325.0,325.0,-325.0,325.0,325.0,325.0,233.88888888888889,-325.0,-325.0,-325.0,-0.5555555555555556,6.26984126984127,-166.26984126984127
308.015873015873,-325.0,325.0,-325.0,325.0,325.0,325.0,325.0,325.0,325.0,-325.0,325.0,325.0,-325.0,325.0,325.0,325.0,225.3174603174603,-325.0,-325.0,-325.0,4.682539682539682,15.158730158730158,-166.26984126984127
308.015873015873,-325.0,325.0,-325.0,325.0,325.0,325.0,325.0,325.0,325.0,-325.0,325.0,325.0,-325.0,325.0,325.0,325.0,225.3174603174603,-325.0,-325.0,-325.0,4.682539682539682,15.158730158730158,-166.26984126984127
292.1428571428571,-325.0,325.0,-325.0,325.0,325.0,325.0,325.0,325.0,325.0,-325.0,325.0,325.0,-325.0,325.0,325.0,325.0,214.36507936507937,-243.25396825396825,-325.0,-325.0,-4.365079365079365,-16.11111111111111,-166.26984126984127
292.1428571428571,-325.0,325.0,-325.0,325.0,325.0,325.0,325.0,325.0,325.0,-325.0,325.0,325.0,-325.0,325.0,325.0,325.0,214.36507936507937,-243.25396825396825,-325.0,-325.0,-4.365079365079365,-16.11111111111111,-166.26984126984127
284.68253968253964,-325.0,325.0,-325.0,325.0,325.0,323.0952380952381,325.0,325.0,325.0,-325.0,325.0,325.0,-325.0,325.0,325.0,325.0,208.96825396825395,325.0,-325.0,-325.0,4.841269841269841,0.07936507936507936,-166.26984126984127
284.68253968253964,-325.0,325.0,-325.0,325.0,325.0,323.0952380952381,325.0,325.0,325.0,-325.0,325.0,325.0,-325.0,325.0,325.0,325.0,208.96825396825395,325.0,-325.0,-325.0,4.841269841269841,0.07936507936507936,-166.26984126984127
238.49206349206347,-325.0,325.0,-320.07936507936506,317.06349206349205,325.0,272.3015873015873,325.0,325.0,325.0,-325.0,325.0,325.0,-291.8253968253968,325.0,325.0,325.0,177.06349206349205,325.0,-325.0,-325.0,4.2063492063492065,-0.3968253968253968,-321.8253968253968
238.49206349206347,-325.0,325.0,-320.07936507936506,317.06349206349205,325.0,272.3015873015873,325.0,325.0,325.0,-325.0,325.0,325.0,-291.8253968253968,325.0,325.0,325.0,177.06349206349205,325.0,-325.0,-325.0,4.2063492063492065,-0.3968253968253968,-321.8253968253968
220.3968253968254,-325.0,325.0,-295.6349206349206,294.2063492063492,325.0,252.3015873015873,325.0,325.0,325.0,-325.0,325.0,325.0,-269.76190476190476,325.0,325.0,314.36507936507934,164.2063492063492,325.0,-325.0,-325.0,4.682539682539682,14.523809523809524,-321.8253968253968
220.3968253968254,-325.0,325.0,-295.6349206349206,294.2063492063492,325.0,252.3015873015873,325.0,325.0,325.0,-325.0,325.0,325.0,-269.76190476190476,325.0,325.0,314.36507936507934,164.2063492063492,325.0,-325.0,-325.0,4.682539682539682,14.523809523809524,-321.8253968253968
216.42857142857142,-325.0,325.0,-290.55555555555554,289.4444444444444,325.0,248.015873015873,325.0,325.0,325.0,-325.0,325.0,325.0,-265.0,325.0,325.0,308.8095238095238,161.66666666666666,325.0,-325.0,-325.0,4.2063492063492065,14.682539682539682,-321.8253968253968
216.42857142857142,-325.0,325.0,-290.55555555555554,289.4444444444444,325.0,248.015873015873,325.0,325.0,325.0,-325.0,325.0,325.0,-265.0,325.0,325.0,308.8095238095238,161.66666666666666,325.0,-325.0,-325.0,4.2063492063492065,14.682539682539682,-321.8253968253968
216.42857142857142,-325.0,325.0,-290.55555555555554,289.4444444444444,325.0,248.015873015873,325.0,325.0,325.0,-325.0,325.0,325.0,-265.0,325.0,325.0,308.8095238095238,161.66666666666666,325.0,-325.0,-325.0,4.2063492063492065,14.682539682539682,-321.8253968253968
216.42857142857142,-325.0,325.0,-290.55555555555554,289.4444444444444,325.0,248.015873015873,325.0,325.0,325.0,-325.0,325.0,325.0,-265.0,325.0,325.0,308.8095238095238,161.66666666666666,325.0,-325.0,-325.0,4.2063492063492065,14.682539682539682,-321.8253968253968
190.55555555555554,-314.5238095238095,303.73015873015873,-255.79365079365078,256.4285714285714,295.95238095238096,218.96825396825395,294.68253968253964,305.4761904761905,312.1428571428571,-325.0,291.984126984127,306.1111111111111,-233.25396825396825,306.58730158730157,-0.07936507936507936,272.3015873015873,143.09523809523807,303.4126984126984,-288.6507936507936,-286.1111111111111,-0.3968253968253968,8.333333333333332,-321.8253968253968
190.55555555555554,-314.5238095238095,303.73015873015873,-255.79365079365078,256.4285714285714,295.95238095238096,218.96825396825395,294.68253968253964,305.4761904761905,312.1428571428571,-325.0,291.984126984127,306.1111111111111,-233.25396825396825,306.58730158730157,-0.07936507936507936,272.3015873015873,143.09523809523807,303.4126984126984,-288.6507936507936,-286.1111111111111,-0.3968253968253968,8.333333333333332,-321.8253968253968
162.46031746031744,-300.07936507936506,278.6507936507936,-218.17460317460316,220.7142857142857,263.57142857142856,187.53968253968253,261.031746031746,282.46031746031747,281.984126984127,-325.0,255.95238095238093,283.4126984126984,-198.96825396825395,284.8412698412698,-325.0,232.93650793650792,122.93650793650794,278.17460317460313,-249.12698412698413,-243.88888888888889,-6.111111111111111,-6.746031746031746,-166.26984126984127
162.46031746031744,-300.07936507936506,278.6507936507936,-218.17460317460316,220.7142857142857,263.57142857142856,187.53968253968253,261.031746031746,282.46031746031747,281.984126984127,-325.0,255.95238095238093,283.4126984126984,-198.96825396825395,284.8412698412698,-325.0,232.93650793650792,122.93650793650794,278.17460317460313,-249.12698412698413,-243.88888888888889,-6.111111111111111,-6.746031746031746,-166.26984126984127
157.38095238095238,-291.3492063492063,270.39682539682536,-211.66666666666666,214.52380952380952,255.79365079365078,182.14285714285714,253.4126984126984,274.2063492063492,254.2063492063492,-325.0,248.49206349206347,274.8412698412698,-192.77777777777777,276.58730158730157,-325.0,225.95238095238093,119.28571428571428,269.76190476190476,-241.66666666666666,-236.42857142857142,6.746031746031746,13.095238095238095,-166.26984126984127
157.38095238095238,-291.3492063492063,270.39682539682536,-211.66666666666666,214.52380952380952,255.79365079365078,182.14285714285714,253.4126984126984,274.2063492063492,254.2063492063492,-325.0,248.49206349206347,274.8412698412698,-192.77777777777777,276.58730158730157,-325.0,225.95238095238093,119.28571428571428,269.76190476190476,-241.66666666666666,-236.42857142857142,6.746031746031746,13.095238095238095,-166.26984126984127
157.38095238095238,-291.3492063492063,270.39682539682536,-211.66666666666666,214.52380952380952,255.79365079365078,182.14285714285714,253.4126984126984,274.2063492063492,254.2063492063492,-325.0,248.49206349206347,274.8412698412698,-192.77777777777777,276.58730158730157,-325.0,225.95238095238093,119.28571428571428,269.76190476190476,-241.66666666666666,-236.42857142857142,6.746031746031746,13.095238095238095,-166.26984126984127
157.38095238095238,-291.3492063492063,270.39682539682536,-211.66666666666666,214.52380952380952,255.79365079365078,182.14285714285714,253.4126984126984,274.2063492063492,254.2063492063492,-325.0,248.49206349206347,274.8412698412698,-192.77777777777777,276.58730158730157,-325.0,225.95238095238093,119.28571428571428,269.76190476190476,-241.66666666666666,-236.42857142857142,6.746031746031746,13.095238095238095,-166.26984126984127
121.5079365079365,-228.015873015873,209.44444444444443,-164.52380952380952,168.015873015873,199.44444444444443,141.5079365079365,198.65079365079364,214.04761904761904,-325.0,-268.17460317460313,192.61904761904762,213.7301587301587,-149.12698412698413,216.1111111111111,-325.0,175.63492063492063,93.4126984126984,209.12698412698413,-188.17460317460316,-182.46031746031744,2.9365079365079363,-3.73015873015873,-166.26984126984127
121.5079365079365,-228.015873015873,209.44444444444443,-164.52380952380952,168.015873015873,199.44444444444443,141.5079365079365,198.65079365079364,214.04761904761904,-325.0,-268.17460317460313,192.61904761904762,213.7301587301587,-149.12698412698413,216.1111111111111,-325.0,175.63492063492063,93.4126984126984,209.12698412698413,-188.17460317460316,-182.46031746031744,2.9365079365079363,-3.73015873015873,-166.26984126984127
121.5079365079365,-228.015873015873,209.44444444444443,-164.52380952380952,168.015873015873,199.44444444444443,141.5079365079365,198.65079365079364,214.04761904761904,-325.0,-268.17460317460313,192.61904761904762,213.7301587301587,-149.12698412698413,216.1111111111111,-325.0,175.63492063492063,93.4126984126984,209.12698412698413,-188.17460317460316,-182.46031746031744,2.9365079365079363,-3.73015873015873,-166.26984126984127
121.5079365079365,-228.015873015873,209.44444444444443,-164.52380952380952,168.015873015873,199.44444444444443,141.5079365079365,198.65079365079364,214.04761904761904,-325.0,-268.17460317460313,192.61904761904762,213.7301587301587,-149.12698412698413,216.1111111111111,-325.0,175.63492063492063,93.4126984126984,209.12698412698413,-188.17460317460316,-182.46031746031744,2.9365079365079363,-3.73015873015873,-166.26984126984127
-325.0,325.0,139.9206349206349,-110.07936507936508,-325.0,134.84126984126982,95.0,134.68253968253967,144.68253968253967,-325.0,-183.88888888888889,128.65079365079364,143.57142857142856,-99.44444444444444,146.42857142857142,-325.0,117.6984126984127,63.41269841269841,140.7142857142857,-126.58730158730158,-120.71428571428571,3.888888888888889,2.46031746031746,-321.8253968253968
-325.0,325.0,139.9206349206349,-110.07936507936508,-325.0,134.84126984126982,95.0,134.68253968253967,144.68253968253967,-325.0,-183.88888888888889,128.65079365079364,143.57142857142856,-99.44444444444444,146.42857142857142,-325.0,117.6984126984127,63.41269841269841,140.7142857142857,-126.58730158730158,-120.71428571428571,3.888888888888889,2.46031746031746,-321.8253968253968
-325.0,325.0,134.52380952380952,-105.95238095238095,-325.0,129.9206349206349,91.34920634920634,129.76190476190476,139.12698412698413,-325.0,-177.06349206349205,123.73015873015872,138.17460317460316,-95.47619047619047,140.87301587301587,-323.25396825396825,113.09523809523809,61.19047619047619,135.47619047619048,-121.98412698412697,-115.95238095238095,0.3968253968253968,-1.6666666666666665,-321.8253968253968
-325.0,325.0,134.52380952380952,-105.95238095238095,-325.0,129.9206349206349,91.34920634920634,129.76190476190476,139.12698412698413,-325.0,-177.06349206349205,123.73015873015872,138.17460317460316,-95.47619047619047,140.87301587301587,-323.25396825396825,113.09523809523809,61.19047619047619,135.47619047619048,-121.98412698412697,-115.95238095238095,0.3968253968253968,-1.6666666666666665,-321.8253968253968
-325.0,325.0,132.14285714285714,-104.2063492063492,-325.0,127.53968253968253,89.76190476190476,127.53968253968253,136.9047619047619,-325.0,-174.2063492063492,121.66666666666666,135.63492063492063,-93.73015873015872,138.4920634920635,-318.8095238095238,111.19047619047619,60.079365079365076,133.25396825396825,-119.92063492063491,-114.04761904761904,-0.07936507936507936,-0.07936507936507936,-321.8253968253968
-325.0,325.0,132.14285714285714,-104.2063492063492,-325.0,127.53968253968253,89.76190476190476,127.53968253968253,136.9047619047619,-325.0,-174.2063492063492,121.66666666666666,135.63492063492063,-93.73015873015872,138.4920634920635,-318.8095238095238,111.19047619047619,60.079365079365076,133.25396825396825,-119.92063492063491,-114.04761904761904,-0.07936507936507936,-0.07936507936507936,-321.8253968253968
-325.0,325.0,131.03174603174602,-103.25396825396825,-325.0,126.58730158730158,88.96825396825396,126.42857142857142,135.79365079365078,-325.0,-172.77777777777777,120.71428571428571,134.52380952380952,-92.77777777777777,137.38095238095238,-316.1111111111111,110.39682539682539,59.6031746031746,132.14285714285714,-118.65079365079364,-112.93650793650794,-7.5396825396825395,-12.619047619047619,-321.8253968253968
-325.0,325.0,131.03174603174602,-103.25396825396825,-325.0,126.58730158730158,88.96825396825396,126.42857142857142,135.79365079365078,-325.0,-172.77777777777777,120.71428571428571,134.52380952380952,-92.77777777777777,137.38095238095238,-316.1111111111111,110.39682539682539,59.6031746031746,132.14285714285714,-118.65079365079364,-112.93650793650794,-7.5396825396825395,-12.619047619047619,-321.8253968253968
-325.0,325.0,120.87301587301586,-95.31746031746032,-325.0,-325.0,82.14285714285714,117.22222222222221,125.31746031746032,-325.0,-160.07936507936506,111.19047619047619,124.52380952380952,-85.63492063492063,127.06349206349206,-293.0952380952381,101.82539682539682,55.317460317460316,121.98412698412697,-109.6031746031746,-103.73015873015872,-1.6666666666666665,6.26984126984127,-321.8253968253968
-325.0,325.0,120.87301587301586,-95.31746031746032,-325.0,-325.0,82.14285714285714,117.22222222222221,125.31746031746032,-325.0,-160.07936507936506,111.19047619047619,124.52380952380952,-85.63492063492063,127.06349206349206,-293.0952380952381,101.82539682539682,55.317460317460316,121.98412698412697,-109.6031746031746,-103.73015873015872,-1.6666666666666665,6.26984126984127,-321.8253968253968
-325.0,325.0,120.87301587301586,-95.31746031746032,-325.0,-325.0,82.14285714285714,117.22222222222221,125.31746031746032,-325.0,-160.07936507936506,111.19047619047619,124.52380952380952,-85.63492063492063,127.06349206349206,-293.0952380952381,101.82539682539682,55.317460317460316,121.98412698412697,-109.6031746031746,-103.73015873015872,-1.6666666666666665,6.26984126984127,-166.26984126984127
-325.0,325.0,120.87301587301586,-95.31746031746032,-325.0,-325.0,82.14285714285714,117.22222222222221,125.31746031746032,-325.0,-160.07936507936506,111.19047619047619,124.52380952380952,-85.63492063492063,127.06349206349206,-293.0952380952381,101.82539682539682,55.317460317460316,121.98412698412697,-109.6031746031746,-103.73015873015872,-1.6666666666666665,6.26984126984127,-166.26984126984127
-325.0,325.0,120.87301587301586,-95.31746031746032,-325.0,-325.0,82.14285714285714,117.22222222222221,125.31746031746032,-325.0,-160.07936507936506,111.19047619047619,124.52380952380952,-85.63492063492063,127.06349206349206,-293.0952380952381,101.82539682539682,55.317460317460316,121.98412698412697,-109.6031746031746,-103.73015873015872,-1.6666666666666665,6.26984126984127,-166.26984126984127
-325.0,325.0,120.87301587301586,-95.31746031746032,-325.0,-325.0,82.14285714285714,117.22222222222221,125.31746031746032,-325.0,-160.07936507936506,111.19047619047619,124.52380952380952,-85.63492063492063,127.06349206349206,-293.0952380952381,101.82539682539682,55.317460317460316,121.98412698412697,-109.6031746031746,-103.73015873015872,-1.6666666666666665,6.26984126984127,-166.26984126984127
-325.0,325.0,120.87301587301586,-95.31746031746032,-325.0,-325.0,82.14285714285714,117.22222222222221,125.31746031746032,-325.0,-160.07936507936506,111.19047619047619,124.52380952380952,-85.63492063492063,127.06349206349206,-293.0952380952381,101.82539682539682,55.317460317460316,121.98412698412697,-109.6031746031746,-103.73015873015872,-1.6666666666666665,6.26984126984127,-166.26984126984127
-325.0,325.0,120.87301587301586,-95.31746031746032,-325.0,-325.0,82.14285714285714,117.22222222222221,125.31746031746032,-325.0,-160.07936507936506,111.19047619047619,124.52380952380952,-85.63492063492063,127.06349206349206,-293.0952380952381,101.82539682539682,55.317460317460316,121.98412698412697,-109.6031746031746,-103.73015873015872,-1.6666666666666665,6.26984126984127,-166.26984126984127
-325.0,325.0,120.87301587301586,-95.31746031746032,-325.0,-325.0,82.14285714285714,117.22222222222221,125.31746031746032,-325.0,-160.07936507936506,111.19047619047619,124.52380952380952,-85.63492063492063,127.06349206349206,-293.0952380952381,101.82539682539682,55.317460317460316,121.98412698412697,-109.6031746031746,-103.73015873015872,-1.6666666666666665,6.26984126984127,-166.26984126984127
-325.0,325.0,120.87301587301586,-95.31746031746032,-325.0,-325.0,82.14285714285714,117.22222222222221,125.31746031746032,-325.0,-160.07936507936506,111.19047619047619,124.52380952380952,-85.63492063492063,127.06349206349206,-293.0952380952381,101.82539682539682,55.317460317460316,121.98412698412697,-109.6031746031746,-103.73015873015872,-1.6666666666666665,6.26984126984127,-166.26984126984127
-325.0,325.0,120.87301587301586,-95.31746031746032,-325.0,-325.0,82.14285714285714,117.22222222222221,125.31746031746032,-325.0,-160.07936507936506,111.19047619047619,124.52380952380952,-85.63492063492063,127.06349206349206,-293.0952380952381,101.82539682539682,55.317460317460316,121.98412698412697,-109.6031746031746,-103.73015873015872,-1.6666666666666665,6.26984126984127,-166.26984126984127
-325.0,325.0,120.87301587301586,-95.31746031746032,-325.0,-325.0,82.14285714285714,117.22222222222221,125.31746031746032,-325.0,-160.07936507936506,111.19047619047619,124.52380952380952,-85.63492063492063,127.06349206349206,-293.0952380952381,101.82539682539682,55.317460317460316,121.98412698412697,-109.6031746031746,-103.73015873015872,-1.6666666666666665,6.26984126984127,-166.26984126984127
-325.0,325.0,83.88888888888889,-66.58730158730158,-325.0,-325.0,-325.0,82.61904761904762,88.17460317460316,-266.74603174603175,-114.36507936507935,77.6984126984127,87.06349206349206,325.0,89.44444444444444,-209.12698412698413,71.5079365079365,39.12698412698413,-325.0,-76.9047619047619,-71.98412698412697,2.9365079365079363,10.079365079365079,-321.8253968253968
-325.0,325.0,83.88888888888889,-66.58730158730158,-325.0,-325.0,-325.0,82.61904761904762,88.17460317460316,-266.74603174603175,-114.36507936507935,77.6984126984127,87.06349206349206,325.0,89.44444444444444,-209.12698412698413,71.5079365079365,39.12698412698413,-325.0,-76.9047619047619,-71.98412698412697,2.9365079365079363,10.079365079365079,-321.8253968253968
-325.0,325.0,82.14285714285714,-65.0,-325.0,-325.0,-325.0,76.9047619047619,86.42857142857143,-261.3492063492063,-111.98412698412697,76.1111111111111,85.0,325.0,87.38095238095238,-205.0,70.07936507936508,38.33333333333333,-325.0,-75.31746031746032,-70.39682539682539,-0.5555555555555556,-0.3968253968253968,-321.8253968253968
-325.0,325.0,82.14285714285714,-65.0,-325.0,-325.0,-325.0,76.9047619047619,86.42857142857143,-261.3492063492063,-111.98412698412697,76.1111111111111,85.0,325.0,87.38095238095238,-205.0,70.07936507936508,38.33333333333333,-325.0,-75.31746031746032,-70.39682539682539,-0.5555555555555556,-0.3968253968253968,-321.8253968253968
-325.0,325.0,80.23809523809523,-63.73015873015873,-325.0,-325.0,-325.0,48.01587301587301,84.52380952380952,-255.79365079365078,-109.76190476190476,74.2063492063492,83.25396825396825,325.0,85.63492063492063,-200.7142857142857,68.33333333333333,37.698412698412696,-325.0,-73.73015873015872,-68.80952380952381,3.888888888888889,1.1904761904761905,-321.8253968253968
-325.0,325.0,80.23809523809523,-63.73015873015873,-325.0,-325.0,-325.0,48.01587301587301,84.52380952380952,-255.79365079365078,-109.76190476190476,74.2063492063492,83.25396825396825,325.0,85.63492063492063,-200.7142857142857,68.33333333333333,37.698412698412696,-325.0,-73.73015873015872,-68.80952380952381,3.888888888888889,1.1904761904761905,-321.8253968253968
-325.0,325.0,78.96825396825396,-62.61904761904761,-325.0,-325.0,-325.0,-215.63492063492063,83.09523809523809,-251.34920634920633,-108.01587301587301,72.93650793650794,81.82539682539682,325.0,84.04761904761904,-197.2222222222222,67.22222222222221,37.06349206349206,-325.0,-72.3015873015873,-67.53968253968253,-4.0476190476190474,-1.8253968253968254,-321.8253968253968
-325.0,325.0,78.96825396825396,-62.61904761904761,-325.0,-325.0,-325.0,-215.63492063492063,83.09523809523809,-251.34920634920633,-108.01587301587301,72.93650793650794,81.82539682539682,325.0,84.04761904761904,-197.2222222222222,67.22222222222221,37.06349206349206,-325.0,-72.3015873015873,-67.53968253968253,-4.0476190476190474,-1.8253968253968254,-321.8253968253968
-325.0,325.0,77.38095238095238,-61.507936507936506,-325.0,-325.0,-325.0,-237.69841269841268,81.66666666666666,-247.06349206349205,-106.1111111111111,71.66666666666666,80.39682539682539,325.0,82.61904761904762,-193.88888888888889,66.11111111111111,36.42857142857142,-325.0,-71.19047619047619,-66.26984126984127,2.7777777777777777,1.0317460317460316,-321.8253968253968
-325.0,325.0,77.38095238095238,-61.507936507936506,-325.0,-325.0,-325.0,-237.69841269841268,81.66666666666666,-247.06349206349205,-106.1111111111111,71.66666666666666,80.39682539682539,325.0,82.61904761904762,-193.88888888888889,66.11111111111111,36.42857142857142,-325.0,-71.19047619047619,-66.26984126984127,2.7777777777777777,1.0317460317460316,-321.8253968253968
-325.0,325.0,76.42857142857143,-60.55555555555555,-325.0,-325.0,-325.0,-325.0,80.55555555555556,-244.36507936507934,-104.68253968253968,70.71428571428571,79.28571428571428,325.0,81.66666666666666,-191.5079365079365,65.15873015873015,35.95238095238095,-325.0,-70.39682539682539,-65.31746031746032,-6.587301587301587,-11.666666666666666,-166.26984126984127
-325.0,325.0,76.42857142857143,-60.55555555555555,-325.0,-325.0,-325.0,-325.0,80.55555555555556,-244.36507936507934,-104.68253968253968,70.71428571428571,79.28571428571428,325.0,81.66666666666666,-191.5079365079365,65.15873015873015,35.95238095238095,-325.0,-70.39682539682539,-65.31746031746032,-6.587301587301587,-11.666666666666666,-166.26984126984127
-325.0,325.0,74.68253968253968,-59.285714285714285,-325.0,-325.0,-325.0,-325.0,78.96825396825396,-238.8095238095238,-102.61904761904762,69.12698412698413,77.6984126984127,325.0,79.76190476190476,-187.53968253968253,-48.01587301587301,28.65079365079365,-4.0476190476190474,-68.65079365079364,-63.888888888888886,3.253968253968254,0.7142857142857142,-166.26984126984127
-325.0,325.0,74.68253968253968,-59.285714285714285,-325.0,-325.0,-325.0,-325.0,78.96825396825396,-238.8095238095238,-102.61904761904762,69.12698412698413,77.6984126984127,325.0,79.76190476190476,-187.53968253968253,-48.01587301587301,28.65079365079365,-4.0476190476190474,-68.65079365079364,-63.888888888888886,3.253968253968254,0.7142857142857142,-166.26984126984127
-325.0,325.0,73.4126984126984,-58.49206349206349,-325.0,-325.0,-325.0,-325.0,77.53968253968253,-234.68253968253967,-101.03174603174602,64.04761904761905,76.1111111111111,325.0,78.4920634920635,-184.52380952380952,-242.6190476190476,-22.46031746031746,43.888888888888886,-67.53968253968253,-62.77777777777777,3.095238095238095,0.873015873015873,-166.26984126984127
-325.0,325.0,73.4126984126984,-58.49206349206349,-325.0,-325.0,-325.0,-325.0,77.53968253968253,-234.68253968253967,-101.03174603174602,64.04761904761905,76.1111111111111,325.0,78.4920634920635,-184.52380952380952,-242.6190476190476,-22.46031746031746,43.888888888888886,-67.53968253968253,-62.77777777777777,3.095238095238095,0.873015873015873,-166.26984126984127
-325.0,325.0,70.71428571428571,-56.11111111111111,-325.0,-325.0,-325.0,-325.0,74.84126984126983,-226.74603174603175,-97.53968253968253,-280.39682539682536,73.57142857142857,325.0,75.79365079365078,-178.015873015873,-325.0,-325.0,11.984126984126984,-64.84126984126983,-60.238095238095234,-3.571428571428571,-0.23809523809523808,-166.26984126984127
-325.0,325.0,70.71428571428571,-56.11111111111111,-325.0,-325.0,-325.0,-325.0,74.84126984126983,-226.74603174603175,-97.53968253968253,-280.39682539682536,73.57142857142857,325.0,75.79365079365078,-178.015873015873,-325.0,-325.0,11.984126984126984,-64.84126984126983,-60.238095238095234,-3.571428571428571,-0.23809523809523808,-166.26984126984127
-325.0,325.0,69.6031746031746,-55.15873015873016,-325.0,-325.0,-325.0,-325.0,73.57142857142857,-222.93650793650792,-95.79365079365078,-267.6984126984127,72.3015873015873,325.0,74.52380952380952,-175.3174603174603,-188.33333333333331,-325.0,325.0,-63.888888888888886,-59.44444444444444,2.619047619047619,-0.3968253968253968,-166.26984126984127
-325.0,325.0,69.6031746031746,-55.15873015873016,-325.0,-325.0,-325.0,-325.0,73.57142857142857,-222.93650793650792,-95.79365079365078,-267.6984126984127,72.3015873015873,325.0,74.52380952380952,-175.3174603174603,-188.33333333333331,-325.0,325.0,-63.888888888888886,-59.44444444444444,2.619047619047619,-0.3968253968253968,-166.26984126984127
-325.0,325.0,68.80952380952381,-54.52380952380952,-325.0,-325.0,-325.0,-325.0,72.77777777777777,-220.07936507936506,-95.0,-325.0,71.5079365079365,325.0,73.57142857142857,-173.25396825396825,89.12698412698413,-325.0,300.07936507936506,-62.93650793650793,-58.650793650793645,-8.015873015873016,-11.031746031746032,-321.8253968253968
-325.0,325.0,68.80952380952381,-54.52380952380952,-325.0,-325.0,-325.0,-325.0,72.77777777777777,-220.07936507936506,-95.0,-325.0,71.5079365079365,325.0,73.57142857142857,-173.25396825396825,89.12698412698413,-325.0,300.07936507936506,-62.93650793650793,-58.650793650793645,-8.015873015873016,-11.031746031746032,-321.8253968253968
-325.0,325.0,67.06349206349206,-53.095238095238095,-325.0,-325.0,-325.0,-325.0,71.03174603174602,-215.47619047619045,-92.93650793650794,-325.0,69.76190476190476,325.0,71.98412698412697,-169.44444444444443,106.74603174603175,-325.0,51.34920634920635,-61.666666666666664,-57.22222222222222,3.4126984126984126,0.3968253968253968,-321.8253968253968
-325.0,325.0,67.06349206349206,-53.095238095238095,-325.0,-325.0,-325.0,-325.0,71.03174603174602,-215.47619047619045,-92.93650793650794,-325.0,69.76190476190476,325.0,71.98412698412697,-169.44444444444443,106.74603174603175,-325.0,51.34920634920635,-61.666666666666664,-57.22222222222222,3.4126984126984126,0.3968253968253968,-321.8253968253968
-325.0,325.0,65.95238095238095,-52.3015873015873,-325.0,-325.0,-325.0,-325.0,69.92063492063491,-211.8253968253968,-91.19047619047619,-325.0,68.65079365079364,325.0,70.71428571428571,-166.58730158730157,102.77777777777777,-325.0,-229.60317460317458,-60.55555555555555,-56.269841269841265,-3.73015873015873,-0.23809523809523808,-321.8253968253968
-325.0,325.0,65.95238095238095,-52.3015873015873,-325.0,-325.0,-325.0,-325.0,69.92063492063491,-211.8253968253968,-91.19047619047619,-325.0,68.65079365079364,325.0,70.71428571428571,-166.58730158730157,102.77777777777777,-325.0,-229.60317460317458,-60.55555555555555,-56.269841269841265,-3.73015873015873,-0.23809523809523808,-321.8253968253968
-325.0,325.0,65.15873015873015,-51.82539682539682,-325.0,-325.0,-325.0,-325.0,68.65079365079364,-209.12698412698413,-90.07936507936508,-325.0,67.85714285714285,325.0,69.76190476190476,-164.52380952380952,101.19047619047619,-325.0,-325.0,-59.76190476190476,-55.476190476190474,7.857142857142857,10.714285714285714,-321.8253968253968
-325.0,325.0,65.15873015873015,-51.82539682539682,-325.0,-325.0,-325.0,-325.0,68.65079365079364,-209.12698412698413,-90.07936507936508,-325.0,67.85714285714285,325.0,69.76190476190476,-164.52380952380952,101.19047619047619,-325.0,-325.0,-59.76190476190476,-55.476190476190474,7.857142857142857,10.714285714285714,-321.8253968253968
-325.0,325.0,63.57142857142857,-50.71428571428571,-325.0,-325.0,-325.0,-325.0,67.38095238095238,-204.68253968253967,-83.88888888888889,-325.0,66.26984126984127,325.0,68.33333333333333,-161.19047619047618,98.65079365079364,-325.0,-295.4761904761905,-58.650793650793645,-54.047619047619044,-4.523809523809524,-0.3968253968253968,-321.8253968253968
-325.0,325.0,63.57142857142857,-50.71428571428571,-325.0,-325.0,-325.0,-325.0,67.38095238095238,-204.68253968253967,-83.88888888888889,-325.0,66.26984126984127,325.0,68.33333333333333,-161.19047619047618,98.65079365079364,-325.0,-295.4761904761905,-58.650793650793645,-54.047619047619044,-4.523809523809524,-0.3968253968253968,-321.8253968253968
-325.0,325.0,62.460317460317455,-49.76190476190476,-325.0,-325.0,-325.0,-325.0,66.26984126984127,-201.34920634920633,81.19047619047619,-325.0,65.15873015873015,325.0,67.22222222222221,-158.4920634920635,96.58730158730158,-325.0,-35.79365079365079,-57.698412698412696,-53.25396825396825,2.7777777777777777,-0.3968253968253968,-166.26984126984127
-325.0,325.0,62.460317460317455,-49.76190476190476,-325.0,-325.0,-325.0,-325.0,66.26984126984127,-201.34920634920633,81.19047619047619,-325.0,65.15873015873015,325.0,67.22222222222221,-158.4920634920635,96.58730158730158,-325.0,-35.79365079365079,-57.698412698412696,-53.25396825396825,2.7777777777777777,-0.3968253968253968,-166.26984126984127
-325.0,325.0,61.34920634920635,-48.80952380952381,-325.0,-325.0,-325.0,-325.0,65.15873015873015,-197.85714285714283,187.38095238095238,-325.0,64.04761904761905,325.0,65.79365079365078,-155.79365079365078,94.84126984126983,-325.0,-325.0,-56.74603174603174,-52.3015873015873,-2.619047619047619,-0.873015873015873,-166.26984126984127
-325.0,325.0,61.34920634920635,-48.80952380952381,-325.0,-325.0,-325.0,-325.0,65.15873015873015,-197.85714285714283,187.38095238095238,-325.0,64.04761904761905,325.0,65.79365079365078,-155.79365079365078,94.84126984126983,-325.0,-325.0,-56.74603174603174,-52.3015873015873,-2.619047619047619,-0.873015873015873,-166.26984126984127
-325.0,325.0,61.03174603174603,-48.49206349206349,-325.0,-325.0,-325.0,-325.0,64.84126984126983,-196.74603174603175,115.0,-325.0,63.888888888888886,325.0,65.63492063492063,-155.15873015873015,94.52380952380952,-325.0,-325.0,-56.269841269841265,-51.98412698412698,1.8253968253968254,9.761904761904761,-166.26984126984127
-325.0,325.0,61.03174603174603,-48.49206349206349,-325.0,-325.0,-325.0,-325.0,64.84126984126983,-196.74603174603175,115.0,-325.0,63.888888888888886,325.0,65.63492063492063,-155.15873015873015,94.52380952380952,-325.0,-325.0,-56.269841269841265,-51.98412698412698,1.8253968253968254,9.761904761904761,-166.26984126984127
-325.0,325.0,59.285714285714285,-47.22222222222222,-325.0,-325.0,-325.0,-325.0,62.77777777777777,-191.19047619047618,112.30158730158729,-325.0,61.98412698412698,325.0,63.57142857142857,-150.55555555555554,-231.19047619047618,-325.0,-325.0,-54.841269841269835,-50.39682539682539,-3.4126984126984126,-0.3968253968253968,-166.26984126984127
-325.0,325.0,59.285714285714285,-47.22222222222222,-325.0,-325.0,-325.0,-325.0,62.77777777777777,-191.19047619047618,112.30158730158729,-325.0,61.98412698412698,325.0,63.57142857142857,-150.55555555555554,-231.19047619047618,-325.0,-325.0,-54.841269841269835,-50.39682539682539,-3.4126984126984126,-0.3968253968253968,-166.26984126984127
-325.0,325.0,58.01587301587301,-46.269841269841265,-325.0,-325.0,-325.0,-325.0,61.82539682539682,-188.015873015873,272.46031746031747,-325.0,60.55555555555555,325.0,62.61904761904761,-148.015873015873,-314.36507936507934,-325.0,-325.0,-53.73015873015873,-49.44444444444444,2.7777777777777777,-0.3968253968253968,-166.26984126984127
-325.0,325.0,58.01587301587301,-46.269841269841265,-325.0,-325.0,-325.0,-325.0,61.82539682539682,-188.015873015873,272.46031746031747,-325.0,60.55555555555555,325.0,62.61904761904761,-148.015873015873,-314.36507936507934,-325.0,-325.0,-53.73015873015873,-49.44444444444444,2.7777777777777777,-0.3968253968253968,-166.26984126984127
-325.0,322.46031746031747,57.06349206349206,-45.476190476190474,-325.0,-325.0,-325.0,-325.0,60.71428571428571,-184.84126984126982,284.68253968253964,-325.0,59.6031746031746,325.0,61.507936507936506,-145.79365079365078,69.92063492063491,-325.0,-325.0,-52.77777777777777,-48.650793650793645,-4.523809523809524,-1.507936507936508,-321.8253968253968
-325.0,322.46031746031747,57.06349206349206,-45.476190476190474,-325.0,-325.0,-325.0,-325.0,60.71428571428571,-184.84126984126982,284.68253968253964,-325.0,59.6031746031746,325.0,61.507936507936506,-145.79365079365078,69.92063492063491,-325.0,-325.0,-52.77777777777777,-48.650793650793645,-4.523809523809524,-1.507936507936508,-321.8253968253968
-325.0,317.06349206349205,56.11111111111111,-44.84126984126984,-325.0,-325.0,-325.0,-325.0,59.76190476190476,-181.8253968253968,325.0,-325.0,58.49206349206349,325.0,60.39682539682539,-143.4126984126984,98.65079365079364,-325.0,-197.2222222222222,-52.3015873015873,-48.01587301587301,2.7777777777777777,-0.5555555555555556,-321.8253968253968
-325.0,317.06349206349205,56.11111111111111,-44.84126984126984,-325.0,-325.0,-325.0,-325.0,59.76190476190476,-181.8253968253968,325.0,-325.0,58.49206349206349,325.0,60.39682539682539,-143.4126984126984,98.65079365079364,-325.0,-197.2222222222222,-52.3015873015873,-48.01587301587301,2.7777777777777777,-0.5555555555555556,-321.8253968253968
-21.984126984126984,311.8253968253968,55.0,-44.047619047619044,-323.4126984126984,-325.0,-325.0,-325.0,58.8095238095238,-178.8095238095238,325.0,-325.0,57.698412698412696,325.0,59.44444444444444,-140.87301587301587,92.93650793650794,-325.0,-68.80952380952381,-51.19047619047619,-47.22222222222222,-4.0476190476190474,-0.3968253968253968,-321.8253968253968
-21.984126984126984,311.8253968253968,55.0,-44.047619047619044,-323.4126984126984,-325.0,-325.0,-325.0,58.8095238095238,-178.8095238095238,325.0,-325.0,57.698412698412696,325.0,59.44444444444444,-140.87301587301587,92.93650793650794,-325.0,-68.80952380952381,-51.19047619047619,-47.22222222222222,-4.0476190476190474,-0.3968253968253968,-321.8253968253968
325.0,306.74603174603175,54.047619047619044,-43.57142857142857,-318.17460317460313,-325.0,-325.0,-325.0,57.857142857142854,-175.95238095238093,325.0,-325.0,56.58730158730158,325.0,58.33333333333333,-138.65079365079364,99.12698412698413,-325.0,-325.0,-50.55555555555555,-46.42857142857142,2.619047619047619,-0.3968253968253968,-321.8253968253968
325.0,306.74603174603175,54.047619047619044,-43.57142857142857,-318.17460317460313,-325.0,-325.0,-325.0,57.857142857142854,-175.95238095238093,325.0,-325.0,56.58730158730158,325.0,58.33333333333333,-138.65079365079364,99.12698412698413,-325.0,-325.0,-50.55555555555555,-46.42857142857142,2.619047619047619,-0.3968253968253968,-321.8253968253968
232.14285714285714,302.77777777777777,53.25396825396825,-42.77777777777778,-314.2063492063492,-325.0,-325.0,-325.0,57.06349206349206,-173.73015873015873,325.0,-325.0,55.79365079365079,325.0,57.53968253968254,-136.9047619047619,97.22222222222221,-325.0,-325.0,-49.92063492063492,-45.63492063492063,-0.07936507936507936,0.07936507936507936,-321.8253968253968
232.14285714285714,302.77777777777777,53.25396825396825,-42.77777777777778,-314.2063492063492,-325.0,-325.0,-325.0,57.06349206349206,-173.73015873015873,325.0,-325.0,55.79365079365079,325.0,57.53968253968254,-136.9047619047619,97.22222222222221,-325.0,-325.0,-49.92063492063492,-45.63492063492063,-0.07936507936507936,0.07936507936507936,-321.8253968253968
262.1428571428571,296.58730158730157,52.14285714285714,-41.98412698412698,-307.85714285714283,-325.0,-325.0,-325.0,55.79365079365079,-170.07936507936506,325.0,-325.0,54.68253968253968,325.0,56.42857142857142,-134.04761904761904,94.68253968253968,-325.0,-325.0,-48.80952380952381,-44.68253968253968,1.8253968253968254,-0.873015873015873,-166.26984126984127
262.1428571428571,296.58730158730157,52.14285714285714,-41.98412698412698,-307.85714285714283,-325.0,-325.0,-325.0,55.79365079365079,-170.07936507936506,325.0,-325.0,54.68253968253968,325.0,56.42857142857142,-134.04761904761904,94.68253968253968,-325.0,-325.0,-48.80952380952381,-44.68253968253968,1.8253968253968254,-0.873015873015873,-166.26984126984127
145.79365079365078,289.2857142857143,50.71428571428571,-40.87301587301587,-300.55555555555554,-325.0,-325.0,-325.0,54.36507936507936,-165.63492063492063,325.0,-325.0,53.25396825396825,325.0,54.841269841269835,-130.87301587301587,91.98412698412697,-325.0,-325.0,-47.38095238095238,-43.57142857142857,4.365079365079365,10.238095238095237,-166.26984126984127
145.79365079365078,289.2857142857143,50.71428571428571,-40.87301587301587,-300.55555555555554,-325.0,-325.0,-325.0,54.36507936507936,-165.63492063492063,325.0,-325.0,53.25396825396825,325.0,54.841269841269835,-130.87301587301587,91.98412698412697,-325.0,-325.0,-47.38095238095238,-43.57142857142857,4.365079365079365,10.238095238095237,-166.26984126984127
133.57142857142856,284.36507936507934,49.76190476190476,-40.238095238095234,-295.7936507936508,-325.0,-325.0,-325.0,53.25396825396825,-162.77777777777777,325.0,-325.0,52.3015873015873,325.0,53.888888888888886,-128.4920634920635,90.07936507936508,-325.0,-325.0,-46.74603174603175,-42.61904761904761,-4.2063492063492065,-10.714285714285714,-166.26984126984127
133.57142857142856,284.36507936507934,49.76190476190476,-40.238095238095234,-295.7936507936508,-325.0,-325.0,-325.0,53.25396825396825,-162.77777777777777,325.0,-325.0,52.3015873015873,325.0,53.888888888888886,-128.4920634920635,90.07936507936508,-325.0,-325.0,-46.74603174603175,-42.61904761904761,-4.2063492063492065,-10.714285714285714,-166.26984126984127
-149.6031746031746,278.6507936507936,48.650793650793645,-39.44444444444444,-289.76190476190476,-325.0,-325.0,-325.0,52.14285714285714,-159.12698412698413,325.0,-325.0,51.19047619047619,325.0,52.77777777777777,-125.79365079365078,87.85714285714285,-325.0,-325.0,-45.63492063492063,-41.82539682539682,-0.07936507936507936,-0.3968253968253968,-166.26984126984127
-149.6031746031746,278.6507936507936,48.650793650793645,-39.44444444444444,-289.76190476190476,-325.0,-325.0,-325.0,52.14285714285714,-159.12698412698413,325.0,-325.0,51.19047619047619,325.0,52.77777777777777,-125.79365079365078,87.85714285714285,-325.0,-325.0,-45.63492063492063,-41.82539682539682,-0.07936507936507936,-0.3968253968253968,-166.26984126984127
-325.0,271.66666666666663,47.698412698412696,-38.17460317460317,-282.77777777777777,-325.0,-325.0,-325.0,50.87301587301587,-155.15873015873015,325.0,-325.0,50.079365079365076,325.0,51.666666666666664,-122.6190476190476,85.47619047619047,-325.0,-325.0,-44.2063492063492,-40.55555555555555,0.873015873015873,11.031746031746032,-166.26984126984127
-325.0,271.66666666666663,47.698412698412696,-38.17460317460317,-282.77777777777777,-325.0,-325.0,-325.0,50.87301587301587,-155.15873015873015,325.0,-325.0,50.079365079365076,325.0,51.666666666666664,-122.6190476190476,85.47619047619047,-325.0,-325.0,-44.2063492063492,-40.55555555555555,0.873015873015873,11.031746031746032,-166.26984126984127
-325.0,261.66666666666663,45.476190476190474,-36.904761904761905,-272.6190476190476,-325.0,-325.0,-325.0,48.80952380952381,-149.44444444444443,325.0,-325.0,48.01587301587301,325.0,49.285714285714285,-118.17460317460316,81.66666666666666,-325.0,-325.0,-42.77777777777778,-39.12698412698413,-4.841269841269841,-11.349206349206348,-321.8253968253968
-325.0,261.66666666666663,45.476190476190474,-36.904761904761905,-272.6190476190476,-325.0,-325.0,-325.0,48.80952380952381,-149.44444444444443,325.0,-325.0,48.01587301587301,325.0,49.285714285714285,-118.17460317460316,81.66666666666666,-325.0,-325.0,-42.77777777777778,-39.12698412698413,-4.841269841269841,-11.349206349206348,-321.8253968253968
-325.0,258.3333333333333,45.0,-36.42857142857142,-269.44444444444446,-325.0,-325.0,-325.0,48.33333333333333,-147.69841269841268,325.0,-325.0,47.38095238095238,325.0,48.650793650793645,-116.58730158730158,80.23809523809523,-325.0,-325.0,-42.3015873015873,-38.49206349206349,-2.3015873015873014,-11.666666666666666,-321.8253968253968
-325.0,258.3333333333333,45.0,-36.42857142857142,-269.44444444444446,-325.0,-325.0,-325.0,48.33333333333333,-147.69841269841268,325.0,-325.0,47.38095238095238,325.0,48.650793650793645,-116.58730158730158,80.23809523809523,-325.0,-325.0,-42.3015873015873,-38.49206349206349,-2.3015873015873014,-11.666666666666666,-321.8253968253968
-325.0,246.42857142857142,42.77777777777778,-34.36507936507936,-257.22222222222223,-324.5238095238095,-325.0,-325.0,45.95238095238095,-140.3968253968254,-325.0,-325.0,45.15873015873016,325.0,46.42857142857142,-111.03174603174602,-325.0,-325.0,-311.031746031746,-40.079365079365076,-36.42857142857142,-2.46031746031746,0.7142857142857142,-321.8253968253968
-325.0,246.42857142857142,42.77777777777778,-34.36507936507936,-257.22222222222223,-324.5238095238095,-325.0,-325.0,45.95238095238095,-140.3968253968254,-325.0,-325.0,45.15873015873016,325.0,46.42857142857142,-111.03174603174602,-325.0,-325.0,-311.031746031746,-40.079365079365076,-36.42857142857142,-2.46031746031746,0.7142857142857142,-321.8253968253968
-325.0,243.4126984126984,42.14285714285714,-33.888888888888886,-254.2063492063492,-321.3492063492063,-325.0,-325.0,45.476190476190474,-138.65079365079364,-325.0,-325.0,44.52380952380952,325.0,45.79365079365079,-109.76190476190476,-325.0,-325.0,-311.031746031746,-39.6031746031746,-35.95238095238095,-0.07936507936507936,-0.5555555555555556,-321.8253968253968
-325.0,243.4126984126984,42.14285714285714,-33.888888888888886,-254.2063492063492,-321.3492063492063,-325.0,-325.0,45.476190476190474,-138.65079365079364,-325.0,-325.0,44.52380952380952,325.0,45.79365079365079,-109.76190476190476,-325.0,-325.0,-311.031746031746,-39.6031746031746,-35.95238095238095,-0.07936507936507936,-0.5555555555555556,-321.8253968253968
-325.0,238.17460317460316,41.34920634920635,-33.095238095238095,-248.96825396825395,-315.0,-325.0,-325.0,44.52380952380952,-135.63492063492063,-325.0,-325.0,43.73015873015873,325.0,44.84126984126984,-107.38095238095238,-325.0,-325.0,-325.0,-38.49206349206349,-35.15873015873016,-2.7777777777777777,0.3968253968253968,-321.8253968253968
-325.0,238.17460317460316,41.34920634920635,-33.095238095238095,-248.96825396825395,-315.0,-325.0,-325.0,44.52380952380952,-135.63492063492063,-325.0,-325.0,43.73015873015873,325.0,44.84126984126984,-107.38095238095238,-325.0,-325.0,-325.0,-38.49206349206349,-35.15873015873016,-2.7777777777777777,0.3968253968253968,-321.8253968253968
-325.0,234.2063492063492,40.55555555555555,-32.61904761904762,-245.0,-309.9206349206349,-325.0,-325.0,43.57142857142857,-133.25396825396825,-325.0,-325.0,42.77777777777778,325.0,44.2063492063492,-105.63492063492063,-325.0,-325.0,-25.476190476190474,-38.01587301587301,-34.52380952380952,1.8253968253968254,-2.46031746031746,-166.26984126984127
-325.0,234.2063492063492,40.55555555555555,-32.61904761904762,-245.0,-309.9206349206349,-325.0,-325.0,43.57142857142857,-133.25396825396825,-325.0,-325.0,42.77777777777778,325.0,44.2063492063492,-105.63492063492063,-325.0,-325.0,-25.476190476190474,-38.01587301587301,-34.52380952380952,1.8253968253968254,-2.46031746031746,-166.26984126984127
-322.6190476190476,230.3968253968254,39.92063492063492,-32.3015873015873,-241.19047619047618,-305.0,-325.0,-325.0,42.93650793650794,-131.03174603174602,-325.0,-325.0,42.14285714285714,325.0,43.25396825396825,-104.04761904761904,-91.19047619047619,-325.0,325.0,-37.698412698412696,-34.047619047619044,-4.365079365079365,0.23809523809523808,-166.26984126984127
-322.6190476190476,230.3968253968254,39.92063492063492,-32.3015873015873,-241.19047619047618,-305.0,-325.0,-325.0,42.93650793650794,-131.03174603174602,-325.0,-325.0,42.14285714285714,325.0,43.25396825396825,-104.04761904761904,-91.19047619047619,-325.0,325.0,-37.698412698412696,-34.047619047619044,-4.365079365079365,0.23809523809523808,-166.26984126984127
-317.06349206349205,226.58730158730157,39.12698412698413,-31.666666666666664,-237.38095238095238,-300.07936507936506,-325.0,-325.0,42.3015873015873,-129.12698412698413,-325.0,-325.0,41.34920634920635,325.0,42.61904761904761,-102.14285714285714,-308.015873015873,-325.0,325.0,-36.904761904761905,-33.57142857142857,2.619047619047619,-1.349206349206349,-166.26984126984127
-317.06349206349205,226.58730158730157,39.12698412698413,-31.666666666666664,-237.38095238095238,-300.07936507936506,-325.0,-325.0,42.3015873015873,-129.12698412698413,-325.0,-325.0,41.34920634920635,325.0,42.61904761904761,-102.14285714285714,-308.015873015873,-325.0,325.0,-36.904761904761905,-33.57142857142857,2.619047619047619,-1.349206349206349,-166.26984126984127
-311.5079365079365,222.77777777777777,38.49206349206349,-31.03174603174603,-233.57142857142856,-295.3174603174603,-325.0,-325.0,41.34920634920635,-126.74603174603173,-325.0,-325.0,40.714285714285715,325.0,41.82539682539682,-100.39682539682539,-325.0,-325.0,325.0,-36.11111111111111,-32.93650793650794,-3.571428571428571,1.0317460317460316,-166.26984126984127
-311.5079365079365,222.77777777777777,38.49206349206349,-31.03174603174603,-233.57142857142856,-295.3174603174603,-325.0,-325.0,41.34920634920635,-126.74603174603173,-325.0,-325.0,40.714285714285715,325.0,41.82539682539682,-100.39682539682539,-325.0,-325.0,325.0,-36.11111111111111,-32.93650793650794,-3.571428571428571,1.0317460317460316,-166.26984126984127
-306.26984126984127,218.96825396825395,37.698412698412696,-30.555555555555554,-229.76190476190476,-290.39682539682536,-325.0,-325.0,40.87301587301587,-124.68253968253967,-325.0,-325.0,39.92063492063492,325.0,41.19047619047619,-98.80952380952381,-325.0,-325.0,325.0,-35.63492063492063,-32.460317460317455,1.507936507936508,-3.095238095238095,-166.26984126984127
-306.26984126984127,218.96825396825395,37.698412698412696,-30.555555555555554,-229.76190476190476,-290.39682539682536,-325.0,-325.0,40.87301587301587,-124.68253968253967,-325.0,-325.0,39.92063492063492,325.0,41.19047619047619,-98.80952380952381,-325.0,-325.0,325.0,-35.63492063492063,-32.460317460317455,1.507936507936508,-3.095238095238095,-166.26984126984127
-300.87301587301585,215.3174603174603,37.06349206349206,-30.07936507936508,-225.95238095238093,-285.6349206349206,-325.0,-325.0,40.079365079365076,-122.46031746031746,-325.0,-325.0,39.285714285714285,325.0,40.39682539682539,-97.22222222222221,-325.0,-325.0,325.0,-35.15873015873016,-31.666666666666664,-3.095238095238095,1.0317460317460316,-321.8253968253968
-300.87301587301585,215.3174603174603,37.06349206349206,-30.07936507936508,-225.95238095238093,-285.6349206349206,-325.0,-325.0,40.079365079365076,-122.46031746031746,-325.0,-325.0,39.285714285714285,325.0,40.39682539682539,-97.22222222222221,-325.0,-325.0,325.0,-35.15873015873016,-31.666666666666664,-3.095238095238095,1.0317460317460316,-321.8253968253968
-295.7936507936508,211.66666666666666,36.42857142857142,-29.6031746031746,-222.3015873015873,-281.19047619047615,-325.0,-325.0,39.6031746031746,-120.55555555555554,-325.0,-325.0,38.65079365079365,325.0,39.76190476190476,-95.63492063492063,-210.55555555555554,-325.0,325.0,-34.682539682539684,-31.349206349206348,1.984126984126984,-2.619047619047619,-321.8253968253968
-295.7936507936508,211.66666666666666,36.42857142857142,-29.6031746031746,-222.3015873015873,-281.19047619047615,-325.0,-325.0,39.6031746031746,-120.55555555555554,-325.0,-325.0,38.65079365079365,325.0,39.76190476190476,-95.63492063492063,-210.55555555555554,-325.0,325.0,-34.682539682539684,-31.349206349206348,1.984126984126984,-2.619047619047619,-321.8253968253968
-290.87301587301585,208.015873015873,35.79365079365079,-29.126984126984127,-218.8095238095238,-276.74603174603175,-325.0,-325.0,38.80952380952381,-118.49206349206348,-325.0,-325.0,38.01587301587301,325.0,38.96825396825397,-94.04761904761904,322.1428571428571,-325.0,325.0,-33.888888888888886,-30.87301587301587,-3.571428571428571,1.6666666666666665,-321.8253968253968
-290.87301587301585,208.015873015873,35.79365079365079,-29.126984126984127,-218.8095238095238,-276.74603174603175,-325.0,-325.0,38.80952380952381,-118.49206349206348,-325.0,-325.0,38.01587301587301,325.0,38.96825396825397,-94.04761904761904,322.1428571428571,-325.0,325.0,-33.888888888888886,-30.87301587301587,-3.571428571428571,1.6666666666666665,-321.8253968253968
-285.95238095238096,204.68253968253967,35.15873015873016,-28.49206349206349,-215.47619047619045,-272.3015873015873,-325.0,-325.0,38.17460317460317,-116.58730158730158,-325.0,-325.0,37.22222222222222,325.0,38.33333333333333,-92.61904761904762,231.34920634920633,-325.0,325.0,-33.41269841269841,-29.6031746031746,2.142857142857143,-2.619047619047619,-321.8253968253968
-285.95238095238096,204.68253968253967,35.15873015873016,-28.49206349206349,-215.47619047619045,-272.3015873015873,-325.0,-325.0,38.17460317460317,-116.58730158730158,-325.0,-325.0,37.22222222222222,325.0,38.33333333333333,-92.61904761904762,231.34920634920633,-325.0,325.0,-33.41269841269841,-29.6031746031746,2.142857142857143,-2.619047619047619,-321.8253968253968
-280.87301587301585,201.34920634920633,34.52380952380952,-28.174603174603174,-211.8253968253968,-267.6984126984127,-325.0,-325.0,37.38095238095238,-114.36507936507935,-280.55555555555554,-325.0,36.74603174603175,325.0,37.698412698412696,-91.03174603174602,-58.8095238095238,-325.0,325.0,-32.77777777777778,-29.285714285714285,-2.619047619047619,2.3015873015873014,-321.8253968253968
-280.87301587301585,201.34920634920633,34.52380952380952,-28.174603174603174,-211.8253968253968,-267.6984126984127,-325.0,-325.0,37.38095238095238,-114.36507936507935,-280.55555555555554,-325.0,36.74603174603175,325.0,37.698412698412696,-91.03174603174602,-58.8095238095238,-325.0,325.0,-32.77777777777778,-29.285714285714285,-2.619047619047619,2.3015873015873014,-321.8253968253968
-276.1111111111111,198.015873015873,33.888888888888886,-27.698412698412696,-208.33333333333331,-263.57142857142856,-325.0,-325.0,36.74603174603175,-112.46031746031746,2.619047619047619,-325.0,36.269841269841265,325.0,37.22222222222222,-89.44444444444444,-325.0,-325.0,325.0,-32.14285714285714,30.396825396825395,1.984126984126984,-3.095238095238095,-166.26984126984127
-276.1111111111111,198.015873015873,33.888888888888886,-27.698412698412696,-208.33333333333331,-263.57142857142856,-325.0,-325.0,36.74603174603175,-112.46031746031746,2.619047619047619,-325.0,36.269841269841265,325.0,37.22222222222222,-89.44444444444444,-325.0,-325.0,325.0,-32.14285714285714,30.396825396825395,1.984126984126984,-3.095238095238095,-166.26984126984127
-271.3492063492063,194.36507936507937,33.25396825396825,-27.22222222222222,-204.84126984126982,-259.1269841269841,-325.0,-325.0,36.269841269841265,-110.71428571428571,197.2222222222222,-325.0,35.317460317460316,325.0,36.58730158730159,-88.01587301587301,-44.84126984126984,-325.0,325.0,-31.825396825396822,8.174603174603174,-3.253968253968254,1.1904761904761905,-166.26984126984127
-271.3492063492063,194.36507936507937,33.25396825396825,-27.22222222222222,-204.84126984126982,-259.1269841269841,-325.0,-325.0,36.269841269841265,-110.71428571428571,197.2222222222222,-325.0,35.317460317460316,325.0,36.58730158730159,-88.01587301587301,-44.84126984126984,-325.0,325.0,-31.825396825396822,8.174603174603174,-3.253968253968254,1.1904761904761905,-166.26984126984127
-266.74603174603175,191.19047619047618,32.77777777777778,-26.9047619047619,-201.98412698412696,-255.0,-321.19047619047615,-325.0,35.63492063492063,-108.65079365079364,325.0,-325.0,34.84126984126984,325.0,35.79365079365079,-86.58730158730158,-162.61904761904762,-325.0,325.0,-31.349206349206348,61.03174603174603,1.984126984126984,-3.095238095238095,-166.26984126984127
-266.74603174603175,191.19047619047618,32.77777777777778,-26.9047619047619,-201.98412698412696,-255.0,-321.19047619047615,-325.0,35.63492063492063,-108.65079365079364,325.0,-325.0,34.84126984126984,325.0,35.79365079365079,-86.58730158730158,-162.61904761904762,-325.0,325.0,-31.349206349206348,61.03174603174603,1.984126984126984,-3.095238095238095,-166.26984126984127
-262.1428571428571,188.015873015873,32.14285714285714,-26.26984126984127,-198.4920634920635,-250.87301587301585,-315.7936507936508,-325.0,34.84126984126984,-106.9047619047619,325.0,-325.0,34.36507936507936,325.0,35.15873015873016,-85.0,-325.0,-325.0,325.0,-30.71428571428571,38.80952380952381,-2.3015873015873014,2.3015873015873014,-166.26984126984127
-262.1428571428571,188.015873015873,32.14285714285714,-26.26984126984127,-198.4920634920635,-250.87301587301585,-315.7936507936508,-325.0,34.84126984126984,-106.9047619047619,325.0,-325.0,34.36507936507936,325.0,35.15873015873016,-85.0,-325.0,-325.0,325.0,-30.71428571428571,38.80952380952381,-2.3015873015873014,2.3015873015873014,-166.26984126984127
-256.58730158730157,184.04761904761904,31.349206349206348,-25.952380952380953,-194.52380952380952,-245.79365079365078,-309.1269841269841,-325.0,34.36507936507936,-104.68253968253968,325.0,-325.0,33.57142857142857,325.0,34.52380952380952,-83.4126984126984,-188.4920634920635,-325.0,325.0,-30.238095238095237,103.09523809523809,0.07936507936507936,-0.873015873015873,-166.26984126984127
-256.58730158730157,184.04761904761904,31.349206349206348,-25.952380952380953,-194.52380952380952,-245.79365079365078,-309.1269841269841,-325.0,34.36507936507936,-104.68253968253968,325.0,-325.0,33.57142857142857,325.0,34.52380952380952,-83.4126984126984,-188.4920634920635,-325.0,325.0,-30.238095238095237,103.09523809523809,0.07936507936507936,-0.873015873015873,-166.26984126984127
-251.03174603174602,180.07936507936506,30.87301587301587,-25.476190476190474,-190.55555555555554,-240.7142857142857,-302.77777777777777,-325.0,33.57142857142857,-102.30158730158729,325.0,-325.0,32.77777777777778,325.0,33.73015873015873,-75.79365079365078,-73.09523809523809,-325.0,325.0,-29.6031746031746,135.79365079365078,3.571428571428571,9.444444444444445,-321.8253968253968
-251.03174603174602,180.07936507936506,30.87301587301587,-25.476190476190474,-190.55555555555554,-240.7142857142857,-302.77777777777777,-325.0,33.57142857142857,-102.30158730158729,325.0,-325.0,32.77777777777778,325.0,33.73015873015873,-75.79365079365078,-73.09523809523809,-325.0,325.0,-29.6031746031746,135.79365079365078,3.571428571428571,9.444444444444445,-321.8253968253968
-246.74603174603172,177.2222222222222,30.238095238095237,-25.0,-187.38095238095238,-236.74603174603175,-297.6984126984127,-325.0,32.77777777777778,-100.71428571428571,325.0,-325.0,32.3015873015873,325.0,33.095238095238095,-76.58730158730158,-325.0,-325.0,325.0,104.68253968253968,318.015873015873,-4.2063492063492065,-10.238095238095237,-321.8253968253968
-246.74603174603172,177.2222222222222,30.238095238095237,-25.0,-187.38095238095238,-236.74603174603175,-297.6984126984127,-325.0,32.77777777777778,-100.71428571428571,325.0,-325.0,32.3015873015873,325.0,33.095238095238095,-76.58730158730158,-325.0,-325.0,325.0,104.68253968253968,318.015873015873,-4.2063492063492065,-10.238095238095237,-321.8253968253968
-242.46031746031744,174.04761904761904,29.76190476190476,-24.523809523809522,-184.52380952380952,-233.09523809523807,-292.9365079365079,-325.0,32.3015873015873,-98.96825396825396,325.0,-325.0,31.666666666666664,325.0,32.61904761904762,-65.47619047619047,-325.0,-325.0,325.0,10.396825396825395,229.44444444444443,3.888888888888889,9.761904761904761,-321.8253968253968
-242.46031746031744,174.04761904761904,29.76190476190476,-24.523809523809522,-184.52380952380952,-233.09523809523807,-292.9365079365079,-325.0,32.3015873015873,-98.96825396825396,325.0,-325.0,31.666666666666664,325.0,32.61904761904762,-65.47619047619047,-325.0,-325.0,325.0,10.396825396825395,229.44444444444443,3.888888888888889,9.761904761904761,-321.8253968253968
-238.33333333333331,171.19047619047618,29.126984126984127,-24.206349206349206,-181.5079365079365,-228.96825396825395,-287.85714285714283,-325.0,31.825396825396822,-97.22222222222221,325.0,-325.0,31.19047619047619,320.87301587301585,31.98412698412698,-66.9047619047619,-325.0,-325.0,325.0,325.0,325.0,-5.476190476190476,-9.920634920634921,-321.8253968253968
-238.33333333333331,171.19047619047618,29.126984126984127,-24.206349206349206,-181.5079365079365,-228.96825396825395,-287.85714285714283,-325.0,31.825396825396822,-97.22222222222221,325.0,-325.0,31.19047619047619,320.87301587301585,31.98412698412698,-66.9047619047619,-325.0,-325.0,325.0,325.0,325.0,-5.476190476190476,-9.920634920634921,-321.8253968253968
-234.04761904761904,168.33333333333331,28.65079365079365,-23.57142857142857,-178.65079365079364,-225.63492063492063,-283.0952380952381,-325.0,31.19047619047619,-95.63492063492063,325.0,-325.0,30.71428571428571,315.4761904761905,31.349206349206348,-53.095238095238095,-325.0,-325.0,325.0,325.0,288.8095238095238,4.523809523809524,8.968253968253968,-321.8253968253968
-234.04761904761904,168.33333333333331,28.65079365079365,-23.57142857142857,-178.65079365079364,-225.63492063492063,-283.0952380952381,-325.0,31.19047619047619,-95.63492063492063,325.0,-325.0,30.71428571428571,315.4761904761905,31.349206349206348,-53.095238095238095,-325.0,-325.0,325.0,325.0,288.8095238095238,4.523809523809524,8.968253968253968,-321.8253968253968
-231.5079365079365,166.26984126984127,28.174603174603174,-23.41269841269841,-176.11111111111111,-222.61904761904762,-279.44444444444446,-325.0,31.03174603174603,-94.36507936507935,325.0,-325.0,30.396825396825395,311.3492063492063,31.19047619047619,-53.888888888888886,-325.0,-325.0,325.0,325.0,325.0,-3.253968253968254,-13.412698412698411,-166.26984126984127
-231.5079365079365,166.26984126984127,28.174603174603174,-23.41269841269841,-176.11111111111111,-222.61904761904762,-279.44444444444446,-325.0,31.03174603174603,-94.36507936507935,325.0,-325.0,30.396825396825395,311.3492063492063,31.19047619047619,-53.888888888888886,-325.0,-325.0,325.0,325.0,325.0,-3.253968253968254,-13.412698412698411,-166.26984126984127
-224.2063492063492,161.19047619047618,27.38095238095238,-22.777777777777775,-171.5079365079365,-216.26984126984127,-271.3492063492063,-325.0,20.238095238095237,-91.66666666666666,325.0,-325.0,29.6031746031746,301.984126984127,30.07936507936508,-60.39682539682539,-325.0,-325.0,325.0,325.0,325.0,1.8253968253968254,-3.73015873015873,-166.26984126984127
-224.2063492063492,161.19047619047618,27.38095238095238,-22.777777777777775,-171.5079365079365,-216.26984126984127,-271.3492063492063,-325.0,20.238095238095237,-91.66666666666666,325.0,-325.0,29.6031746031746,301.984126984127,30.07936507936508,-60.39682539682539,-325.0,-325.0,325.0,325.0,325.0,1.8253968253968254,-3.73015873015873,-166.26984126984127
-220.3968253968254,158.4920634920635,26.9047619047619,-22.3015873015873,-168.8095238095238,-212.93650793650792,-266.74603174603175,-325.0,26.11111111111111,-90.07936507936508,325.0,-325.0,28.809523809523807,296.74603174603175,29.76190476190476,-72.46031746031746,-325.0,-325.0,325.0,325.0,325.0,-2.9365079365079363,2.9365079365079363,-166.26984126984127
-220.3968253968254,158.4920634920635,26.9047619047619,-22.3015873015873,-168.8095238095238,-212.93650793650792,-266.74603174603175,-325.0,26.11111111111111,-90.07936507936508,325.0,-325.0,28.809523809523807,296.74603174603175,29.76190476190476,-72.46031746031746,-325.0,-325.0,325.0,325.0,325.0,-2.9365079365079363,2.9365079365079363,-166.26984126984127
-216.58730158730157,155.79365079365078,26.26984126984127,-21.984126984126984,-165.95238095238093,-209.44444444444443,-262.3015873015873,-324.36507936507934,-41.34920634920635,-88.4920634920635,325.0,-325.0,28.333333333333332,291.66666666666663,29.126984126984127,-47.698412698412696,-251.5079365079365,-325.0,325.0,325.0,325.0,1.349206349206349,-3.095238095238095,-166.26984126984127
-216.58730158730157,155.79365079365078,26.26984126984127,-21.984126984126984,-165.95238095238093,-209.44444444444443,-262.3015873015873,-324.36507936507934,-41.34920634920635,-88.4920634920635,325.0,-325.0,28.333333333333332,291.66666666666663,29.126984126984127,-47.698412698412696,-251.5079365079365,-325.0,325.0,325.0,325.0,1.349206349206349,-3.095238095238095,-166.26984126984127
-212.77777777777777,153.25396825396825,25.952380952380953,-21.666666666666664,-163.25396825396825,-205.95238095238093,-257.85714285714283,-319.76190476190476,-21.825396825396822,-87.22222222222221,325.0,-325.0,27.857142857142854,286.74603174603175,28.65079365079365,-66.74603174603175,-42.93650793650794,-325.0,325.0,325.0,325.0,-2.3015873015873014,3.095238095238095,-166.26984126984127
-212.77777777777777,153.25396825396825,25.952380952380953,-21.666666666666664,-163.25396825396825,-205.95238095238093,-257.85714285714283,-319.76190476190476,-21.825396825396822,-87.22222222222221,325.0,-325.0,27.857142857142854,286.74603174603175,28.65079365079365,-66.74603174603175,-42.93650793650794,-325.0,325.0,325.0,325.0,-2.3015873015873014,3.095238095238095,-166.26984126984127
-208.33333333333331,149.76190476190476,25.476190476190474,-21.507936507936506,-159.9206349206349,-201.8253968253968,-252.6190476190476,-313.57142857142856,-244.2063492063492,-85.31746031746032,325.0,-325.0,27.38095238095238,280.55555555555554,-20.873015873015873,-40.714285714285715,325.0,-325.0,325.0,325.0,325.0,-1.984126984126984,-12.936507936507935,-321.8253968253968
-208.33333333333331,149.76190476190476,25.476190476190474,-21.507936507936506,-159.9206349206349,-201.8253968253968,-252.6190476190476,-313.57142857142856,-244.2063492063492,-85.31746031746032,325.0,-325.0,27.38095238095238,280.55555555555554,-20.873015873015873,-40.714285714285715,325.0,-325.0,325.0,325.0,325.0,-1.984126984126984,-12.936507936507935,-321.8253968253968
-204.04761904761904,146.74603174603175,24.84126984126984,-21.03174603174603,-156.74603174603175,-197.53968253968253,-247.38095238095238,-307.22222222222223,-75.95238095238095,-83.4126984126984,325.0,-324.36507936507934,26.746031746031743,274.5238095238095,28.333333333333332,-27.857142857142854,-325.0,-325.0,325.0,325.0,325.0,4.2063492063492065,8.492063492063492,-321.8253968253968
-204.04761904761904,146.74603174603175,24.84126984126984,-21.03174603174603,-156.74603174603175,-197.53968253968253,-247.38095238095238,-307.22222222222223,-75.95238095238095,-83.4126984126984,325.0,-324.36507936507934,26.746031746031743,274.5238095238095,28.333333333333332,-27.857142857142854,-325.0,-325.0,325.0,325.0,325.0,4.2063492063492065,8.492063492063492,-321.8253968253968
-201.19047619047618,145.0,24.523809523809522,-20.396825396825395,-154.68253968253967,-195.15873015873015,-244.2063492063492,-303.4126984126984,-325.0,-82.61904761904762,325.0,-320.87301587301585,26.587301587301585,271.031746031746,-86.74603174603175,-26.428571428571427,-325.0,-325.0,325.0,325.0,325.0,-1.6666666666666665,-12.3015873015873,-321.8253968253968
-201.19047619047618,145.0,24.523809523809522,-20.396825396825395,-154.68253968253967,-195.15873015873015,-244.2063492063492,-303.4126984126984,-325.0,-82.61904761904762,325.0,-320.87301587301585,26.587301587301585,271.031746031746,-86.74603174603175,-26.428571428571427,-325.0,-325.0,325.0,325.0,325.0,-1.6666666666666665,-12.3015873015873,-321.8253968253968
-198.65079365079364,143.09523809523807,24.206349206349206,-20.238095238095237,-152.77777777777777,-192.93650793650792,-241.19047619047618,-299.9206349206349,-197.85714285714283,-81.5079365079365,325.0,-316.90476190476187,26.26984126984127,267.38095238095235,-29.920634920634917,-5.0,-325.0,-325.0,325.0,325.0,325.0,1.984126984126984,-4.0476190476190474,-321.8253968253968
-198.65079365079364,143.09523809523807,24.206349206349206,-20.238095238095237,-152.77777777777777,-192.93650793650792,-241.19047619047618,-299.9206349206349,-197.85714285714283,-81.5079365079365,325.0,-316.90476190476187,26.26984126984127,267.38095238095235,-29.920634920634917,-5.0,-325.0,-325.0,325.0,325.0,325.0,1.984126984126984,-4.0476190476190474,-321.8253968253968
-194.36507936507937,140.07936507936506,23.730158730158728,-19.92063492063492,-149.6031746031746,-188.96825396825395,-236.26984126984127,-293.88888888888886,-142.3015873015873,-79.44444444444444,325.0,-310.39682539682536,25.79365079365079,261.5079365079365,1.8253968253968254,-14.523809523809524,-325.0,-323.0952380952381,325.0,325.0,325.0,-0.5555555555555556,-0.7142857142857142,-321.8253968253968
-194.36507936507937,140.07936507936506,23.730158730158728,-19.92063492063492,-149.6031746031746,-188.96825396825395,-236.26984126984127,-293.88888888888886,-142.3015873015873,-79.44444444444444,325.0,-310.39682539682536,25.79365079365079,261.5079365079365,1.8253968253968254,-14.523809523809524,-325.0,-323.0952380952381,325.0,325.0,325.0,-0.5555555555555556,-0.7142857142857142,-321.8253968253968
-190.23809523809524,137.06349206349205,23.095238095238095,-19.285714285714285,-146.74603174603175,-185.0,-231.19047619047618,-288.015873015873,-175.79365079365078,-77.85714285714285,325.0,-303.88888888888886,25.0,255.95238095238093,6.111111111111111,26.587301587301585,-146.26984126984127,-317.53968253968253,325.0,325.0,325.0,4.365079365079365,8.492063492063492,-166.26984126984127
-190.23809523809524,137.06349206349205,23.095238095238095,-19.285714285714285,-146.74603174603175,-185.0,-231.19047619047618,-288.015873015873,-175.79365079365078,-77.85714285714285,325.0,-303.88888888888886,25.0,255.95238095238093,6.111111111111111,26.587301587301585,-146.26984126984127,-317.53968253968253,325.0,325.0,325.0,4.365079365079365,8.492063492063492,-166.26984126984127
-186.9047619047619,134.84126984126982,19.285714285714285,1.6666666666666665,-144.36507936507937,-182.14285714285714,-227.2222222222222,-283.57142857142856,-325.0,-76.42857142857143,325.0,-298.8095238095238,24.68253968253968,251.5079365079365,-143.25396825396825,22.142857142857142,325.0,-312.46031746031747,41.666666666666664,325.0,325.0,-5.0,-9.761904761904761,-166.26984126984127
-186.9047619047619,134.84126984126982,19.285714285714285,1.6666666666666665,-144.36507936507937,-182.14285714285714,-227.2222222222222,-283.57142857142856,-325.0,-76.42857142857143,325.0,-298.8095238095238,24.68253968253968,251.5079365079365,-143.25396825396825,22.142857142857142,325.0,-312.46031746031747,41.666666666666664,325.0,325.0,-5.0,-9.761904761904761,-166.26984126984127
-185.95238095238093,134.2063492063492,20.396825396825395,-9.603174603174603,-143.73015873015873,-181.19047619047618,-226.26984126984127,-282.3015873015873,-325.0,-75.95238095238095,325.0,-297.38095238095235,24.523809523809522,250.3968253968254,-101.34920634920634,-1.1904761904761905,325.0,-311.031746031746,-241.66666666666666,325.0,325.0,-5.952380952380952,-5.634920634920634,-166.26984126984127
-185.95238095238093,134.2063492063492,20.396825396825395,-9.603174603174603,-143.73015873015873,-181.19047619047618,-226.26984126984127,-282.3015873015873,-325.0,-75.95238095238095,325.0,-297.38095238095235,24.523809523809522,250.3968253968254,-101.34920634920634,-1.1904761904761905,325.0,-311.031746031746,-241.66666666666666,325.0,325.0,-5.952380952380952,-5.634920634920634,-166.26984126984127
-178.17460317460316,128.4920634920635,-34.52380952380952,34.36507936507936,-137.85714285714286,-173.88888888888889,-216.9047619047619,-271.031746031746,-325.0,-72.77777777777777,325.0,-285.0,23.57142857142857,239.76190476190476,-203.4126984126984,40.55555555555555,-325.0,-298.8095238095238,288.3333333333333,325.0,325.0,1.984126984126984,12.777777777777777,-166.26984126984127
-178.17460317460316,128.4920634920635,-34.52380952380952,34.36507936507936,-137.85714285714286,-173.88888888888889,-216.9047619047619,-271.031746031746,-325.0,-72.77777777777777,325.0,-285.0,23.57142857142857,239.76190476190476,-203.4126984126984,40.55555555555555,-325.0,-298.8095238095238,288.3333333333333,325.0,325.0,1.984126984126984,12.777777777777777,-166.26984126984127
-178.17460317460316,128.4920634920635,-34.52380952380952,34.36507936507936,-137.85714285714286,-173.88888888888889,-216.9047619047619,-271.031746031746,-325.0,-72.77777777777777,325.0,-285.0,23.57142857142857,239.76190476190476,-203.4126984126984,40.55555555555555,-325.0,-298.8095238095238,288.3333333333333,325.0,325.0,1.984126984126984,12.777777777777777,-166.26984126984127
-178.17460317460316,128.4920634920635,-34.52380952380952,34.36507936507936,-137.85714285714286,-173.88888888888889,-216.9047619047619,-271.031746031746,-325.0,-72.77777777777777,325.0,-285.0,23.57142857142857,239.76190476190476,-203.4126984126984,40.55555555555555,-325.0,-298.8095238095238,288.3333333333333,325.0,325.0,1.984126984126984,12.777777777777777,-166.26984126984127
-178.17460317460316,128.4920634920635,-34.52380952380952,34.36507936507936,-137.85714285714286,-173.88888888888889,-216.9047619047619,-271.031746031746,-325.0,-72.77777777777777,325.0,-285.0,23.57142857142857,239.76190476190476,-203.4126984126984,40.55555555555555,-325.0,-298.8095238095238,288.3333333333333,325.0,325.0,1.984126984126984,12.777777777777777,-321.8253968253968
-178.17460317460316,128.4920634920635,-34.52380952380952,34.36507936507936,-137.85714285714286,-173.88888888888889,-216.9047619047619,-271.031746031746,-325.0,-72.77777777777777,325.0,-285.0,23.57142857142857,239.76190476190476,-203.4126984126984,40.55555555555555,-325.0,-298.8095238095238,288.3333333333333,325.0,325.0,1.984126984126984,12.777777777777777,-321.8253968253968
-155.95238095238093,113.09523809523809,-166.9047619047619,325.0,-121.82539682539682,-153.09523809523807,-190.87301587301587,-240.07936507936506,-325.0,-63.73015873015873,325.0,-251.19047619047618,-91.19047619047619,210.07936507936506,-325.0,81.03174603174602,-325.0,-264.68253968253964,-325.0,325.0,325.0,-6.904761904761904,-3.095238095238095,-321.8253968253968
-155.95238095238093,113.09523809523809,-166.9047619047619,325.0,-121.82539682539682,-153.09523809523807,-190.87301587301587,-240.07936507936506,-325.0,-63.73015873015873,325.0,-251.19047619047618,-91.19047619047619,210.07936507936506,-325.0,81.03174603174602,-325.0,-264.68253968253964,-325.0,325.0,325.0,-6.904761904761904,-3.095238095238095,-321.8253968253968
-136.42857142857142,99.12698412698413,-325.0,325.0,-107.22222222222221,-134.84126984126982,-167.53968253968253,-211.98412698412696,-325.0,-56.11111111111111,325.0,-220.3968253968254,-298.968253968254,183.25396825396825,-325.0,187.06349206349205,325.0,-233.57142857142856,-325.0,325.0,325.0,-4.682539682539682,-8.65079365079365,-321.8253968253968
-136.42857142857142,99.12698412698413,-325.0,325.0,-107.22222222222221,-134.84126984126982,-167.53968253968253,-211.98412698412696,-325.0,-56.11111111111111,325.0,-220.3968253968254,-298.968253968254,183.25396825396825,-325.0,187.06349206349205,325.0,-233.57142857142856,-325.0,325.0,325.0,-4.682539682539682,-8.65079365079365,-321.8253968253968
-135.63492063492063,98.80952380952381,-325.0,325.0,-106.58730158730158,-134.2063492063492,-166.58730158730157,-210.7142857142857,-325.0,-55.63492063492063,325.0,-219.28571428571428,-272.77777777777777,182.46031746031744,-325.0,162.14285714285714,325.0,-232.46031746031744,-325.0,325.0,325.0,-6.26984126984127,-3.571428571428571,-321.8253968253968
-135.63492063492063,98.80952380952381,-325.0,325.0,-106.58730158730158,-134.2063492063492,-166.58730158730157,-210.7142857142857,-325.0,-55.63492063492063,325.0,-219.28571428571428,-272.77777777777777,182.46031746031744,-325.0,162.14285714285714,325.0,-232.46031746031744,-325.0,325.0,325.0,-6.26984126984127,-3.571428571428571,-321.8253968253968
-125.31746031746032,91.34920634920634,-325.0,325.0,-99.12698412698413,-124.52380952380952,-154.2063492063492,-195.95238095238093,-325.0,-51.507936507936506,325.0,-203.4126984126984,-325.0,168.4920634920635,-325.0,280.7142857142857,-75.0,-216.1111111111111,325.0,325.0,325.0,3.095238095238095,14.365079365079364,-321.8253968253968
-125.31746031746032,91.34920634920634,-325.0,325.0,-99.12698412698413,-124.52380952380952,-154.2063492063492,-195.95238095238093,-325.0,-51.507936507936506,325.0,-203.4126984126984,-325.0,168.4920634920635,-325.0,280.7142857142857,-75.0,-216.1111111111111,325.0,325.0,325.0,3.095238095238095,14.365079365079364,-321.8253968253968
-123.4126984126984,89.76190476190476,-325.0,325.0,-97.53968253968253,-122.46031746031746,-151.8253968253968,-192.93650793650792,-325.0,-50.87301587301587,325.0,-200.23809523809524,-325.0,165.47619047619045,-325.0,300.7142857142857,125.0,-212.93650793650792,325.0,325.0,325.0,4.0476190476190474,14.523809523809524,-166.26984126984127
-123.4126984126984,89.76190476190476,-325.0,325.0,-97.53968253968253,-122.46031746031746,-151.8253968253968,-192.93650793650792,-325.0,-50.87301587301587,325.0,-200.23809523809524,-325.0,165.47619047619045,-325.0,300.7142857142857,125.0,-212.93650793650792,325.0,325.0,325.0,4.0476190476190474,14.523809523809524,-166.26984126984127
92.46031746031746,87.06349206349206,-118.8095238095238,325.0,-26.746031746031743,-119.28571428571428,-147.53968253968253,-187.85714285714283,-208.96825396825395,-49.44444444444444,325.0,-194.36507936507937,-81.03174603174602,160.55555555555554,-145.15873015873015,325.0,303.4126984126984,-207.06349206349205,325.0,325.0,325.0,-2.619047619047619,-7.063492063492063,-166.26984126984127
92.46031746031746,87.06349206349206,-118.8095238095238,325.0,-26.746031746031743,-119.28571428571428,-147.53968253968253,-187.85714285714283,-208.96825396825395,-49.44444444444444,325.0,-194.36507936507937,-81.03174603174602,160.55555555555554,-145.15873015873015,325.0,303.4126984126984,-207.06349206349205,325.0,325.0,325.0,-2.619047619047619,-7.063492063492063,-166.26984126984127
325.0,85.63492063492063,-143.88888888888889,325.0,77.22222222222221,-117.53968253968253,-145.47619047619048,-185.15873015873015,-131.984126984127,-48.96825396825397,325.0,-191.5079365079365,-133.25396825396825,157.85714285714286,-98.80952380952381,305.6349206349206,325.0,-204.2063492063492,325.0,325.0,325.0,-1.349206349206349,5.317460317460317,-166.26984126984127
325.0,85.63492063492063,-143.88888888888889,325.0,77.22222222222221,-117.53968253968253,-145.47619047619048,-185.15873015873015,-131.984126984127,-48.96825396825397,325.0,-191.5079365079365,-133.25396825396825,157.85714285714286,-98.80952380952381,305.6349206349206,325.0,-204.2063492063492,325.0,325.0,325.0,-1.349206349206349,5.317460317460317,-166.26984126984127
325.0,84.04761904761904,30.238095238095237,325.0,206.26984126984127,-115.79365079365078,-143.09523809523807,-182.14285714285714,58.8095238095238,-48.33333333333333,325.0,-188.33333333333331,28.174603174603174,155.0,72.14285714285714,325.0,325.0,-201.03174603174602,325.0,325.0,325.0,-0.7142857142857142,-6.904761904761904,-166.26984126984127
325.0,84.04761904761904,30.238095238095237,325.0,206.26984126984127,-115.79365079365078,-143.09523809523807,-182.14285714285714,58.8095238095238,-48.33333333333333,325.0,-188.33333333333331,28.174603174603174,155.0,72.14285714285714,325.0,325.0,-201.03174603174602,325.0,325.0,325.0,-0.7142857142857142,-6.904761904761904,-166.26984126984127
325.0,82.61904761904762,-41.82539682539682,325.0,134.68253968253967,-113.73015873015872,-56.904761904761905,-179.44444444444443,-70.23809523809524,-47.38095238095238,325.0,-185.15873015873015,-37.857142857142854,152.3015873015873,4.365079365079365,309.76190476190476,325.0,-197.85714285714283,325.0,325.0,325.0,0.23809523809523808,6.26984126984127,-166.26984126984127
325.0,82.61904761904762,-41.82539682539682,325.0,134.68253968253967,-113.73015873015872,-56.904761904761905,-179.44444444444443,-70.23809523809524,-47.38095238095238,325.0,-185.15873015873015,-37.857142857142854,152.3015873015873,4.365079365079365,309.76190476190476,325.0,-197.85714285714283,325.0,325.0,325.0,0.23809523809523808,6.26984126984127,-166.26984126984127
325.0,81.66666666666666,-19.444444444444443,325.0,325.0,-112.6190476190476,111.19047619047619,-177.38095238095238,134.84126984126982,-46.904761904761905,325.0,-182.77777777777777,-29.920634920634917,150.23809523809524,107.6984126984127,325.0,325.0,-195.63492063492063,325.0,325.0,325.0,-0.3968253968253968,-0.3968253968253968,-321.8253968253968
325.0,81.66666666666666,-19.444444444444443,325.0,325.0,-112.6190476190476,111.19047619047619,-177.38095238095238,134.84126984126982,-46.904761904761905,325.0,-182.77777777777777,-29.920634920634917,150.23809523809524,107.6984126984127,325.0,325.0,-195.63492063492063,325.0,325.0,325.0,-0.3968253968253968,-0.3968253968253968,-321.8253968253968
325.0,81.03174603174602,14.682539682539682,325.0,325.0,-111.82539682539682,194.68253968253967,-175.95238095238093,325.0,-46.58730158730158,325.0,-181.34920634920633,-16.904761904761905,148.96825396825395,214.84126984126982,325.0,325.0,-194.04761904761904,325.0,325.0,325.0,-7.063492063492063,-16.11111111111111,-321.8253968253968
325.0,81.03174603174602,14.682539682539682,325.0,325.0,-111.82539682539682,194.68253968253967,-175.95238095238093,325.0,-46.58730158730158,325.0,-181.34920634920633,-16.904761904761905,148.96825396825395,214.84126984126982,325.0,325.0,-194.04761904761904,325.0,325.0,325.0,-7.063492063492063,-16.11111111111111,-321.8253968253968
325.0,81.03174603174602,14.682539682539682,325.0,325.0,-111.82539682539682,194.68253968253967,-175.95238095238093,325.0,-46.58730158730158,325.0,-181.34920634920633,-16.904761904761905,148.96825396825395,214.84126984126982,325.0,325.0,-194.04761904761904,325.0,325.0,325.0,-7.063492063492063,-16.11111111111111,-321.8253968253968
325.0,81.03174603174602,14.682539682539682,325.0,325.0,-111.82539682539682,194.68253968253967,-175.95238095238093,325.0,-46.58730158730158,325.0,-181.34920634920633,-16.904761904761905,148.96825396825395,214.84126984126982,325.0,325.0,-194.04761904761904,325.0,325.0,325.0,-7.063492063492063,-16.11111111111111,-321.8253968253968
325.0,77.38095238095238,-28.174603174603174,325.0,325.0,-106.58730158730158,50.55555555555555,-168.17460317460316,282.1428571428571,-44.36507936507936,325.0,-173.4126984126984,-44.68253968253968,141.8253968253968,176.42857142857142,316.1111111111111,325.0,-185.63492063492063,325.0,325.0,325.0,0.07936507936507936,6.26984126984127,-321.8253968253968
325.0,77.38095238095238,-28.174603174603174,325.0,325.0,-106.58730158730158,50.55555555555555,-168.17460317460316,282.1428571428571,-44.36507936507936,325.0,-173.4126984126984,-44.68253968253968,141.8253968253968,176.42857142857142,316.1111111111111,325.0,-185.63492063492063,325.0,325.0,325.0,0.07936507936507936,6.26984126984127,-321.8253968253968
325.0,75.95238095238095,-33.25396825396825,325.0,325.0,-104.84126984126983,54.047619047619044,-165.47619047619045,89.76190476190476,-43.73015873015873,322.9365079365079,-170.23809523809524,-49.92063492063492,139.28571428571428,94.2063492063492,325.0,325.0,-182.61904761904762,325.0,325.0,325.0,0.23809523809523808,-6.587301587301587,-321.8253968253968
325.0,75.95238095238095,-33.25396825396825,325.0,325.0,-104.84126984126983,54.047619047619044,-165.47619047619045,89.76190476190476,-43.73015873015873,322.9365079365079,-170.23809523809524,-49.92063492063492,139.28571428571428,94.2063492063492,325.0,325.0,-182.61904761904762,325.0,325.0,325.0,0.23809523809523808,-6.587301587301587,-321.8253968253968
325.0,73.4126984126984,-47.06349206349206,325.0,325.0,-101.34920634920634,-106.26984126984127,-160.07936507936506,23.253968253968253,-41.98412698412698,312.3015873015873,-164.52380952380952,-61.98412698412698,134.52380952380952,52.93650793650794,325.0,309.2857142857143,-176.58730158730157,325.0,325.0,325.0,-0.23809523809523808,-7.063492063492063,-166.26984126984127
325.0,73.4126984126984,-47.06349206349206,325.0,325.0,-101.34920634920634,-106.26984126984127,-160.07936507936506,23.253968253968253,-41.98412698412698,312.3015873015873,-164.52380952380952,-61.98412698412698,134.52380952380952,52.93650793650794,325.0,309.2857142857143,-176.58730158730157,325.0,325.0,325.0,-0.23809523809523808,-7.063492063492063,-166.26984126984127
325.0,72.14285714285714,-53.095238095238095,325.0,325.0,-99.6031746031746,-139.9206349206349,-157.38095238095238,-22.3015873015873,-38.49206349206349,307.22222222222223,-161.66666666666666,-67.6984126984127,132.14285714285714,23.095238095238095,313.25396825396825,295.0,-174.04761904761904,325.0,325.0,325.0,-0.3968253968253968,6.587301587301587,-166.26984126984127
325.0,72.14285714285714,-53.095238095238095,325.0,325.0,-99.6031746031746,-139.9206349206349,-157.38095238095238,-22.3015873015873,-38.49206349206349,307.22222222222223,-161.66666666666666,-67.6984126984127,132.14285714285714,23.095238095238095,313.25396825396825,295.0,-174.04761904761904,325.0,325.0,325.0,-0.3968253968253968,6.587301587301587,-166.26984126984127
325.0,71.03174603174602,-57.857142857142854,325.0,325.0,-98.01587301587301,8.65079365079365,-154.84126984126982,195.3174603174603,-29.76190476190476,302.3015873015873,-158.96825396825395,-72.93650793650794,129.76190476190476,152.93650793650792,325.0,313.73015873015873,-171.03174603174602,325.0,325.0,325.0,-1.1904761904761905,-8.174603174603174,-166.26984126984127
325.0,71.03174603174602,-57.857142857142854,325.0,325.0,-98.01587301587301,8.65079365079365,-154.84126984126982,195.3174603174603,-29.76190476190476,302.3015873015873,-158.96825396825395,-72.93650793650794,129.76190476190476,152.93650793650792,325.0,313.73015873015873,-171.03174603174602,325.0,325.0,325.0,-1.1904761904761905,-8.174603174603174,-166.26984126984127
325.0,70.87301587301587,-59.12698412698413,325.0,325.0,-97.6984126984127,-22.777777777777775,-154.2063492063492,175.47619047619045,-36.904761904761905,301.031746031746,-158.17460317460316,-74.2063492063492,129.28571428571428,172.77777777777777,325.0,302.6190476190476,-170.3968253968254,325.0,325.0,325.0,-6.111111111111111,-16.11111111111111,-166.26984126984127
325.0,70.87301587301587,-59.12698412698413,325.0,325.0,-97.6984126984127,-22.777777777777775,-154.2063492063492,175.47619047619045,-36.904761904761905,301.031746031746,-158.17460317460316,-74.2063492063492,129.28571428571428,172.77777777777777,325.0,302.6190476190476,-170.3968253968254,325.0,325.0,325.0,-6.111111111111111,-16.11111111111111,-166.26984126984127
325.0,68.65079365079364,-67.06349206349206,325.0,325.0,-95.15873015873015,126.26984126984127,-150.3968253968254,210.2380952380952,-5.158730158730158,293.73015873015873,-154.2063492063492,-81.34920634920634,125.79365079365078,106.42857142857142,325.0,-325.0,-166.11111111111111,325.0,325.0,325.0,4.365079365079365,1.6666666666666665,-166.26984126984127
325.0,68.65079365079364,-67.06349206349206,325.0,325.0,-95.15873015873015,126.26984126984127,-150.3968253968254,210.2380952380952,-5.158730158730158,293.73015873015873,-154.2063492063492,-81.34920634920634,125.79365079365078,106.42857142857142,325.0,-325.0,-166.11111111111111,325.0,325.0,325.0,4.365079365079365,1.6666666666666665,-166.26984126984127
325.0,67.6984126984127,-71.98412698412697,325.0,325.0,-93.4126984126984,-156.26984126984127,-147.85714285714286,-11.031746031746032,-40.714285714285715,288.8095238095238,-151.66666666666666,-85.79365079365078,123.73015873015872,31.507936507936506,295.95238095238096,-325.0,-163.4126984126984,325.0,325.0,325.0,-5.634920634920634,-1.349206349206349,-321.8253968253968
325.0,67.6984126984127,-71.98412698412697,325.0,325.0,-93.4126984126984,-156.26984126984127,-147.85714285714286,-11.031746031746032,-40.714285714285715,288.8095238095238,-151.66666666666666,-85.79365079365078,123.73015873015872,31.507936507936506,295.95238095238096,-325.0,-163.4126984126984,325.0,325.0,325.0,-5.634920634920634,-1.349206349206349,-321.8253968253968
175.15873015873015,65.63492063492063,-325.0,325.0,-149.28571428571428,-90.39682539682539,-153.4126984126984,-143.4126984126984,-325.0,-35.95238095238095,280.55555555555554,-146.74603174603175,-305.95238095238096,119.76190476190476,-325.0,310.39682539682536,-283.57142857142856,-158.33333333333331,325.0,325.0,325.0,-3.888888888888889,-7.222222222222221,-321.8253968253968
175.15873015873015,65.63492063492063,-325.0,325.0,-149.28571428571428,-90.39682539682539,-153.4126984126984,-143.4126984126984,-325.0,-35.95238095238095,280.55555555555554,-146.74603174603175,-305.95238095238096,119.76190476190476,-325.0,310.39682539682536,-283.57142857142856,-158.33333333333331,325.0,325.0,325.0,-3.888888888888889,-7.222222222222221,-321.8253968253968
44.2063492063492,64.68253968253968,-315.6349206349206,325.0,-246.1111111111111,-88.80952380952381,-152.46031746031744,-141.66666666666666,-325.0,-17.22222222222222,277.06349206349205,-145.0,-254.52380952380952,118.17460317460316,-325.0,325.0,-325.0,-156.42857142857142,323.88888888888886,325.0,325.0,5.7936507936507935,14.84126984126984,-321.8253968253968
44.2063492063492,64.68253968253968,-315.6349206349206,325.0,-246.1111111111111,-88.80952380952381,-152.46031746031744,-141.66666666666666,-325.0,-17.22222222222222,277.06349206349205,-145.0,-254.52380952380952,118.17460317460316,-325.0,325.0,-325.0,-156.42857142857142,323.88888888888886,325.0,325.0,5.7936507936507935,14.84126984126984,-321.8253968253968
44.2063492063492,64.68253968253968,-315.6349206349206,325.0,-246.1111111111111,-88.80952380952381,-152.46031746031744,-141.66666666666666,-325.0,-17.22222222222222,277.06349206349205,-145.0,-254.52380952380952,118.17460317460316,-325.0,325.0,-325.0,-156.42857142857142,323.88888888888886,325.0,325.0,5.7936507936507935,14.84126984126984,-321.8253968253968
44.2063492063492,64.68253968253968,-315.6349206349206,325.0,-246.1111111111111,-88.80952380952381,-152.46031746031744,-141.66666666666666,-325.0,-17.22222222222222,277.06349206349205,-145.0,-254.52380952380952,118.17460317460316,-325.0,325.0,-325.0,-156.42857142857142,323.88888888888886,325.0,325.0,5.7936507936507935,14.84126984126984,-321.8253968253968
44.2063492063492,64.68253968253968,-315.6349206349206,325.0,-246.1111111111111,-88.80952380952381,-152.46031746031744,-141.66666666666666,-325.0,-17.22222222222222,277.06349206349205,-145.0,-254.52380952380952,118.17460317460316,-325.0,325.0,-325.0,-156.42857142857142,323.88888888888886,325.0,325.0,5.7936507936507935,14.84126984126984,-321.8253968253968
44.2063492063492,64.68253968253968,-315.6349206349206,325.0,-246.1111111111111,-88.80952380952381,-152.46031746031744,-141.66666666666666,-325.0,-17.22222222222222,277.06349206349205,-145.0,-254.52380952380952,118.17460317460316,-325.0,325.0,-325.0,-156.42857142857142,323.88888888888886,325.0,325.0,5.7936507936507935,14.84126984126984,-321.8253968253968
44.2063492063492,64.68253968253968,-315.6349206349206,325.0,-246.1111111111111,-88.80952380952381,-152.46031746031744,-141.66666666666666,-325.0,-17.22222222222222,277.06349206349205,-145.0,-254.52380952380952,118.17460317460316,-325.0,325.0,-325.0,-156.42857142857142,323.88888888888886,325.0,325.0,5.7936507936507935,14.84126984126984,-166.26984126984127
44.2063492063492,64.68253968253968,-315.6349206349206,325.0,-246.1111111111111,-88.80952380952381,-152.46031746031744,-141.66666666666666,-325.0,-17.22222222222222,277.06349206349205,-145.0,-254.52380952380952,118.17460317460316,-325.0,325.0,-325.0,-156.42857142857142,323.88888888888886,325.0,325.0,5.7936507936507935,14.84126984126984,-166.26984126984127
-140.3968253968254,62.3015873015873,-310.7142857142857,325.0,-226.1111111111111,-85.63492063492063,-145.95238095238093,-136.58730158730157,-325.0,17.698412698412696,267.06349206349205,-139.6031746031746,-240.87301587301587,113.57142857142857,-325.0,325.0,-316.1111111111111,-150.87301587301587,311.8253968253968,320.87301587301585,325.0,3.571428571428571,6.587301587301587,-166.26984126984127
-140.3968253968254,62.3015873015873,-310.7142857142857,325.0,-226.1111111111111,-85.63492063492063,-145.95238095238093,-136.58730158730157,-325.0,17.698412698412696,267.06349206349205,-139.6031746031746,-240.87301587301587,113.57142857142857,-325.0,325.0,-316.1111111111111,-150.87301587301587,311.8253968253968,320.87301587301585,325.0,3.571428571428571,6.587301587301587,-166.26984126984127
-325.0,59.285714285714285,-325.0,325.0,-285.95238095238096,-81.66666666666666,-137.38095238095238,-129.9206349206349,-325.0,-25.952380952380953,254.04761904761904,-132.3015873015873,-325.0,107.6984126984127,-325.0,259.1269841269841,301.5079365079365,-143.57142857142856,295.95238095238096,312.9365079365079,321.19047619047615,-5.7936507936507935,-7.857142857142857,-166.26984126984127
-325.0,59.285714285714285,-325.0,325.0,-285.95238095238096,-81.66666666666666,-137.38095238095238,-129.9206349206349,-325.0,-25.952380952380953,254.04761904761904,-132.3015873015873,-325.0,107.6984126984127,-325.0,259.1269841269841,301.5079365079365,-143.57142857142856,295.95238095238096,312.9365079365079,321.19047619047615,-5.7936507936507935,-7.857142857142857,-166.26984126984127
-325.0,58.17460317460317,-325.0,325.0,-182.46031746031744,-80.39682539682539,-135.0,-127.85714285714285,-325.0,43.25396825396825,249.76190476190476,-130.23809523809524,-322.1428571428571,105.79365079365078,-325.0,304.04761904761904,325.0,-141.34920634920636,290.87301587301585,307.69841269841265,315.7936507936508,4.682539682539682,7.222222222222221,-166.26984126984127
-325.0,58.17460317460317,-325.0,325.0,-182.46031746031744,-80.39682539682539,-135.0,-127.85714285714285,-325.0,43.25396825396825,249.76190476190476,-130.23809523809524,-322.1428571428571,105.79365079365078,-325.0,304.04761904761904,325.0,-141.34920634920636,290.87301587301585,307.69841269841265,315.7936507936508,4.682539682539682,7.222222222222221,-166.26984126984127
-325.0,57.38095238095238,-325.0,325.0,-312.9365079365079,-78.96825396825396,-132.61904761904762,-125.63492063492063,-325.0,-26.587301587301585,245.63492063492063,-128.015873015873,-325.0,103.88888888888889,-325.0,253.09523809523807,-252.46031746031744,-138.96825396825395,285.95238095238096,302.6190476190476,310.39682539682536,-3.888888888888889,-7.5396825396825395,-166.26984126984127
-325.0,57.38095238095238,-325.0,325.0,-312.9365079365079,-78.96825396825396,-132.61904761904762,-125.63492063492063,-325.0,-26.587301587301585,245.63492063492063,-128.015873015873,-325.0,103.88888888888889,-325.0,253.09523809523807,-252.46031746031744,-138.96825396825395,285.95238095238096,302.6190476190476,310.39682539682536,-3.888888888888889,-7.5396825396825395,-166.26984126984127
-325.0,56.269841269841265,-325.0,325.0,-308.4920634920635,-77.53968253968253,-130.23809523809524,-123.73015873015872,-325.0,67.38095238095238,241.66666666666666,-125.47619047619047,-325.0,101.98412698412697,-325.0,296.26984126984127,-325.0,-136.74603174603175,281.031746031746,297.6984126984127,305.1587301587301,4.0476190476190474,7.222222222222221,-321.8253968253968
-325.0,56.269841269841265,-325.0,325.0,-308.4920634920635,-77.53968253968253,-130.23809523809524,-123.73015873015872,-325.0,67.38095238095238,241.66666666666666,-125.47619047619047,-325.0,101.98412698412697,-325.0,296.26984126984127,-325.0,-136.74603174603175,281.031746031746,297.6984126984127,305.1587301587301,4.0476190476190474,7.222222222222221,-321.8253968253968
-325.0,55.63492063492063,-325.0,325.0,-312.77777777777777,-76.58730158730158,-128.4920634920635,-122.30158730158729,-325.0,25.317460317460316,238.65079365079364,-124.04761904761904,-325.0,100.71428571428571,-325.0,265.4761904761905,-325.0,-135.15873015873015,277.53968253968253,293.88888888888886,301.19047619047615,-1.349206349206349,-0.873015873015873,-321.8253968253968
-325.0,55.63492063492063,-325.0,325.0,-312.77777777777777,-76.58730158730158,-128.4920634920635,-122.30158730158729,-325.0,25.317460317460316,238.65079365079364,-124.04761904761904,-325.0,100.71428571428571,-325.0,265.4761904761905,-325.0,-135.15873015873015,277.53968253968253,293.88888888888886,301.19047619047615,-1.349206349206349,-0.873015873015873,-321.8253968253968
-325.0,31.03174603174603,-325.0,325.0,-325.0,-75.0,-125.79365079365078,-119.6031746031746,-325.0,80.87301587301587,233.7301587301587,-121.34920634920634,-325.0,98.49206349206348,-325.0,277.22222222222223,-325.0,-132.14285714285714,271.5079365079365,287.85714285714283,294.68253968253964,4.0476190476190474,6.111111111111111,-321.8253968253968
-325.0,31.03174603174603,-325.0,325.0,-325.0,-75.0,-125.79365079365078,-119.6031746031746,-325.0,80.87301587301587,233.7301587301587,-121.34920634920634,-325.0,98.49206349206348,-325.0,277.22222222222223,-325.0,-132.14285714285714,271.5079365079365,287.85714285714283,294.68253968253964,4.0476190476190474,6.111111111111111,-321.8253968253968
-325.0,50.87301587301587,-325.0,325.0,-325.0,-73.73015873015872,-123.57142857142857,-117.6984126984127,-325.0,-18.174603174603174,229.76190476190476,-119.6031746031746,-325.0,96.74603174603175,-325.0,226.74603174603175,-325.0,-130.07936507936506,266.90476190476187,283.25396825396825,289.6031746031746,-5.634920634920634,-8.492063492063492,-321.8253968253968
-325.0,50.87301587301587,-325.0,325.0,-325.0,-73.73015873015872,-123.57142857142857,-117.6984126984127,-325.0,-18.174603174603174,229.76190476190476,-119.6031746031746,-325.0,96.74603174603175,-325.0,226.74603174603175,-325.0,-130.07936507936506,266.90476190476187,283.25396825396825,289.6031746031746,-5.634920634920634,-8.492063492063492,-321.8253968253968
-325.0,45.476190476190474,-325.0,325.0,-325.0,-72.61904761904762,-121.5079365079365,-115.79365079365078,-325.0,102.30158730158729,225.95238095238093,-117.53968253968253,-325.0,95.0,-325.0,284.36507936507934,-325.0,-128.015873015873,262.3015873015873,278.4920634920635,284.68253968253964,4.0476190476190474,6.111111111111111,-321.8253968253968
-325.0,45.476190476190474,-325.0,325.0,-325.0,-72.61904761904762,-121.5079365079365,-115.79365079365078,-325.0,102.30158730158729,225.95238095238093,-117.53968253968253,-325.0,95.0,-325.0,284.36507936507934,-325.0,-128.015873015873,262.3015873015873,278.4920634920635,284.68253968253964,4.0476190476190474,6.111111111111111,-321.8253968253968
-325.0,50.87301587301587,-325.0,325.0,-325.0,-71.34920634920634,-119.44444444444444,-113.88888888888889,-325.0,-14.365079365079364,222.3015873015873,-115.47619047619047,-325.0,93.4126984126984,-325.0,241.03174603174602,-325.0,-125.95238095238095,257.85714285714283,273.88888888888886,279.9206349206349,-5.7936507936507935,-6.587301587301587,-166.26984126984127
-325.0,50.87301587301587,-325.0,325.0,-325.0,-71.34920634920634,-119.44444444444444,-113.88888888888889,-325.0,-14.365079365079364,222.3015873015873,-115.47619047619047,-325.0,93.4126984126984,-325.0,241.03174603174602,-325.0,-125.95238095238095,257.85714285714283,273.88888888888886,279.9206349206349,-5.7936507936507935,-6.587301587301587,-166.26984126984127
-325.0,39.76190476190476,-325.0,325.0,-324.04761904761904,-70.07936507936508,-117.38095238095238,-112.30158730158729,-325.0,118.33333333333333,218.65079365079364,-113.57142857142857,-325.0,91.66666666666666,-325.0,286.90476190476187,-232.6190476190476,-123.73015873015872,253.4126984126984,269.44444444444446,275.0,4.0476190476190474,6.904761904761904,-166.26984126984127
-325.0,39.76190476190476,-325.0,325.0,-324.04761904761904,-70.07936507936508,-117.38095238095238,-112.30158730158729,-325.0,118.33333333333333,218.65079365079364,-113.57142857142857,-325.0,91.66666666666666,-325.0,286.90476190476187,-232.6190476190476,-123.73015873015872,253.4126984126984,269.44444444444446,275.0,4.0476190476190474,6.904761904761904,-166.26984126984127
-325.0,51.82539682539682,-325.0,325.0,-320.39682539682536,-69.28571428571428,-115.63492063492063,-110.87301587301587,-325.0,15.793650793650793,216.1111111111111,-111.98412698412697,-325.0,90.71428571428571,-325.0,251.8253968253968,-325.0,-122.6190476190476,250.2380952380952,266.1111111111111,271.5079365079365,-6.746031746031746,-14.682539682539682,-166.26984126984127
-325.0,51.82539682539682,-325.0,325.0,-320.39682539682536,-69.28571428571428,-115.63492063492063,-110.87301587301587,-325.0,15.793650793650793,216.1111111111111,-111.98412698412697,-325.0,90.71428571428571,-325.0,251.8253968253968,-325.0,-122.6190476190476,250.2380952380952,266.1111111111111,271.5079365079365,-6.746031746031746,-14.682539682539682,-166.26984126984127
-325.0,50.71428571428571,-325.0,325.0,-316.26984126984127,-68.33333333333333,-114.36507936507935,-109.44444444444444,-325.0,95.0,213.4126984126984,-110.71428571428571,-325.0,89.44444444444444,-325.0,280.23809523809524,-166.42857142857142,-121.03174603174602,246.9047619047619,262.77777777777777,268.015873015873,-2.46031746031746,-8.65079365079365,-166.26984126984127
-325.0,50.71428571428571,-325.0,325.0,-316.26984126984127,-68.33333333333333,-114.36507936507935,-109.44444444444444,-325.0,95.0,213.4126984126984,-110.71428571428571,-325.0,89.44444444444444,-325.0,280.23809523809524,-166.42857142857142,-121.03174603174602,246.9047619047619,262.77777777777777,268.015873015873,-2.46031746031746,-8.65079365079365,-166.26984126984127
-325.0,49.6031746031746,-325.0,325.0,-309.4444444444444,-67.22222222222221,-111.82539682539682,-107.22222222222221,-325.0,34.682539682539684,208.4920634920635,-108.33333333333333,-325.0,87.38095238095238,-325.0,253.57142857142856,-56.269841269841265,-118.33333333333333,241.8253968253968,257.53968253968253,262.1428571428571,-7.063492063492063,-15.317460317460316,-166.26984126984127
-325.0,49.6031746031746,-325.0,325.0,-309.4444444444444,-67.22222222222221,-111.82539682539682,-107.22222222222221,-325.0,34.682539682539684,208.4920634920635,-108.33333333333333,-325.0,87.38095238095238,-325.0,253.57142857142856,-56.269841269841265,-118.33333333333333,241.8253968253968,257.53968253968253,262.1428571428571,-7.063492063492063,-15.317460317460316,-166.26984126984127
-325.0,48.650793650793645,-325.0,325.0,-302.77777777777777,-65.63492063492063,-109.6031746031746,-105.0,-325.0,163.73015873015873,204.52380952380952,-106.1111111111111,-325.0,85.47619047619047,-325.0,284.2063492063492,-325.0,-116.1111111111111,236.58730158730157,252.14285714285714,256.58730158730157,4.365079365079365,5.7936507936507935,-321.8253968253968
-325.0,48.650793650793645,-325.0,325.0,-302.77777777777777,-65.63492063492063,-109.6031746031746,-105.0,-325.0,163.73015873015873,204.52380952380952,-106.1111111111111,-325.0,85.47619047619047,-325.0,284.2063492063492,-325.0,-116.1111111111111,236.58730158730157,252.14285714285714,256.58730158730157,4.365079365079365,5.7936507936507935,-321.8253968253968
-325.0,48.01587301587301,-325.0,325.0,-298.8095238095238,-64.84126984126983,-108.17460317460316,-103.88888888888889,-325.0,96.74603174603175,201.98412698412696,-104.84126984126983,-325.0,84.36507936507937,-325.0,253.88888888888889,-325.0,-114.68253968253967,233.57142857142856,248.8095238095238,253.4126984126984,-0.873015873015873,-0.873015873015873,-321.8253968253968
-325.0,48.01587301587301,-325.0,325.0,-298.8095238095238,-64.84126984126983,-108.17460317460316,-103.88888888888889,-325.0,96.74603174603175,201.98412698412696,-104.84126984126983,-325.0,84.36507936507937,-325.0,253.88888888888889,-325.0,-114.68253968253967,233.57142857142856,248.8095238095238,253.4126984126984,-0.873015873015873,-0.873015873015873,-321.8253968253968
-325.0,47.22222222222222,-325.0,325.0,-292.9365079365079,-63.73015873015873,-106.26984126984127,-102.14285714285714,-325.0,108.01587301587301,198.65079365079364,-102.93650793650794,-325.0,82.77777777777777,-325.0,252.14285714285714,-325.0,-112.93650793650794,229.44444444444443,244.68253968253967,248.96825396825395,-1.349206349206349,-0.873015873015873,-321.8253968253968
-325.0,47.22222222222222,-325.0,325.0,-292.9365079365079,-63.73015873015873,-106.26984126984127,-102.14285714285714,-325.0,108.01587301587301,198.65079365079364,-102.93650793650794,-325.0,82.77777777777777,-325.0,252.14285714285714,-325.0,-112.93650793650794,229.44444444444443,244.68253968253967,248.96825396825395,-1.349206349206349,-0.873015873015873,-321.8253968253968
-322.1428571428571,45.79365079365079,-325.0,325.0,-286.1111111111111,-62.14285714285714,-103.73015873015872,-99.6031746031746,-325.0,125.15873015873015,193.88888888888889,-100.55555555555554,-325.0,80.55555555555556,-325.0,260.07936507936506,-325.0,-110.07936507936508,167.85714285714286,238.8095238095238,242.6190476190476,-0.5555555555555556,-0.07936507936507936,-321.8253968253968
-322.1428571428571,45.79365079365079,-325.0,325.0,-286.1111111111111,-62.14285714285714,-103.73015873015872,-99.6031746031746,-325.0,125.15873015873015,193.88888888888889,-100.55555555555554,-325.0,80.55555555555556,-325.0,260.07936507936506,-325.0,-110.07936507936508,167.85714285714286,238.8095238095238,242.6190476190476,-0.5555555555555556,-0.07936507936507936,-321.8253968253968
-315.1587301587301,45.0,-325.0,325.0,-280.07936507936506,-60.71428571428571,-101.34920634920634,-97.53968253968253,-325.0,142.14285714285714,189.60317460317458,-98.17460317460316,-325.0,78.80952380952381,-325.0,292.3015873015873,-325.0,-107.6984126984127,-325.0,233.7301587301587,237.38095238095238,-2.142857142857143,-8.968253968253968,-321.8253968253968
-315.1587301587301,45.0,-325.0,325.0,-280.07936507936506,-60.71428571428571,-101.34920634920634,-97.53968253968253,-325.0,142.14285714285714,189.60317460317458,-98.17460317460316,-325.0,78.80952380952381,-325.0,292.3015873015873,-325.0,-107.6984126984127,-325.0,233.7301587301587,237.38095238095238,-2.142857142857143,-8.968253968253968,-321.8253968253968
-306.58730158730157,43.73015873015873,-325.0,325.0,-272.9365079365079,-59.285714285714285,-98.80952380952381,-95.15873015873015,-325.0,207.06349206349205,185.0,-95.47619047619047,-325.0,76.74603174603175,-325.0,325.0,-325.0,-105.0,-99.92063492063491,227.69841269841268,231.19047619047618,2.9365079365079363,4.841269841269841,-166.26984126984127
-306.58730158730157,43.73015873015873,-325.0,325.0,-272.9365079365079,-59.285714285714285,-98.80952380952381,-95.15873015873015,-325.0,207.06349206349205,185.0,-95.47619047619047,-325.0,76.74603174603175,-325.0,325.0,-325.0,-105.0,-99.92063492063491,227.69841269841268,231.19047619047618,2.9365079365079363,4.841269841269841,-166.26984126984127
-302.6190476190476,43.25396825396825,-325.0,325.0,-269.44444444444446,-58.650793650793645,-97.38095238095238,-94.2063492063492,-325.0,82.3015873015873,182.77777777777777,-94.52380952380952,-325.0,75.79365079365078,-325.0,325.0,-325.0,-104.2063492063492,261.8253968253968,225.0,228.17460317460316,-8.015873015873016,-14.84126984126984,-166.26984126984127
-302.6190476190476,43.25396825396825,-325.0,325.0,-269.44444444444446,-58.650793650793645,-97.38095238095238,-94.2063492063492,-325.0,82.3015873015873,182.77777777777777,-94.52380952380952,-325.0,75.79365079365078,-325.0,325.0,-325.0,-104.2063492063492,261.8253968253968,225.0,228.17460317460316,-8.015873015873016,-14.84126984126984,-166.26984126984127
-295.95238095238096,42.3015873015873,-325.0,325.0,-263.88888888888886,-57.53968253968254,-95.63492063492063,-92.30158730158729,-325.0,238.17460317460316,178.96825396825395,-92.61904761904762,-325.0,74.04761904761904,-325.0,325.0,-325.0,-101.98412698412697,236.42857142857142,220.3968253968254,223.25396825396825,4.0476190476190474,5.476190476190476,-166.26984126984127
-295.95238095238096,42.3015873015873,-325.0,325.0,-263.88888888888886,-57.53968253968254,-95.63492063492063,-92.30158730158729,-325.0,238.17460317460316,178.96825396825395,-92.61904761904762,-325.0,74.04761904761904,-325.0,325.0,-325.0,-101.98412698412697,236.42857142857142,220.3968253968254,223.25396825396825,4.0476190476190474,5.476190476190476,-166.26984126984127
-294.68253968253964,42.3015873015873,-325.0,325.0,-262.6190476190476,-57.22222222222222,-95.31746031746032,-91.82539682539682,-325.0,262.1428571428571,178.17460317460316,-92.46031746031746,-325.0,73.73015873015872,-325.0,325.0,-325.0,-101.5079365079365,233.7301587301587,219.44444444444443,222.46031746031744,2.619047619047619,-3.095238095238095,-166.26984126984127
-294.68253968253964,42.3015873015873,-325.0,325.0,-262.6190476190476,-57.22222222222222,-95.31746031746032,-91.82539682539682,-325.0,262.1428571428571,178.17460317460316,-92.46031746031746,-325.0,73.73015873015872,-325.0,325.0,-325.0,-101.5079365079365,233.7301587301587,219.44444444444443,222.46031746031744,2.619047619047619,-3.095238095238095,-166.26984126984127
-285.3174603174603,40.87301587301587,-325.0,325.0,-254.84126984126982,-55.63492063492063,-92.30158730158729,-89.12698412698413,-325.0,278.17460317460313,173.09523809523807,-89.28571428571428,-325.0,71.5079365079365,-325.0,325.0,-325.0,-98.80952380952381,226.42857142857142,213.09523809523807,215.63492063492063,4.365079365079365,5.158730158730158,-166.26984126984127
-285.3174603174603,40.87301587301587,-325.0,325.0,-254.84126984126982,-55.63492063492063,-92.30158730158729,-89.12698412698413,-325.0,278.17460317460313,173.09523809523807,-89.28571428571428,-325.0,71.5079365079365,-325.0,325.0,-325.0,-98.80952380952381,226.42857142857142,213.09523809523807,215.63492063492063,4.365079365079365,5.158730158730158,-166.26984126984127
-280.23809523809524,40.238095238095234,-325.0,325.0,-250.3968253968254,-54.52380952380952,-90.55555555555556,-87.85714285714285,-325.0,165.47619047619045,170.07936507936506,-88.01587301587301,-325.0,70.07936507936508,-325.0,325.0,-325.0,-97.06349206349206,222.14285714285714,209.60317460317458,211.98412698412696,-6.111111111111111,-6.904761904761904,-321.8253968253968
-280.23809523809524,40.238095238095234,-325.0,325.0,-250.3968253968254,-54.52380952380952,-90.55555555555556,-87.85714285714285,-325.0,165.47619047619045,170.07936507936506,-88.01587301587301,-325.0,70.07936507936508,-325.0,325.0,-325.0,-97.06349206349206,222.14285714285714,209.60317460317458,211.98412698412696,-6.111111111111111,-6.904761904761904,-321.8253968253968
-275.3174603174603,39.6031746031746,-325.0,325.0,-246.26984126984127,-53.888888888888886,-89.12698412698413,-86.42857142857143,-325.0,325.0,167.2222222222222,-86.42857142857143,-325.0,68.80952380952381,-325.0,325.0,-325.0,-95.79365079365078,218.17460317460316,205.95238095238093,208.17460317460316,4.365079365079365,5.158730158730158,-321.8253968253968
-275.3174603174603,39.6031746031746,-325.0,325.0,-246.26984126984127,-53.888888888888886,-89.12698412698413,-86.42857142857143,-325.0,325.0,167.2222222222222,-86.42857142857143,-325.0,68.80952380952381,-325.0,325.0,-325.0,-95.79365079365078,218.17460317460316,205.95238095238093,208.17460317460316,4.365079365079365,5.158730158730158,-321.8253968253968
-271.5079365079365,38.96825396825397,-325.0,325.0,-243.25396825396825,-53.095238095238095,-87.85714285714285,-85.47619047619047,-325.0,245.79365079365078,165.15873015873015,-85.15873015873015,-325.0,68.01587301587301,-325.0,325.0,-325.0,-94.68253968253968,215.47619047619045,203.25396825396825,205.47619047619045,-0.23809523809523808,-0.23809523809523808,-321.8253968253968
-271.5079365079365,38.96825396825397,-325.0,325.0,-243.25396825396825,-53.095238095238095,-87.85714285714285,-85.47619047619047,-325.0,245.79365079365078,165.15873015873015,-85.15873015873015,-325.0,68.01587301587301,-325.0,325.0,-325.0,-94.68253968253968,215.47619047619045,203.25396825396825,205.47619047619045,-0.23809523809523808,-0.23809523809523808,-321.8253968253968
-266.58730158730157,38.33333333333333,-325.0,322.46031746031747,-238.96825396825395,-52.460317460317455,-86.42857142857143,-84.04761904761904,-325.0,245.79365079365078,162.46031746031744,-83.57142857142857,-325.0,66.9047619047619,-325.0,325.0,-325.0,-92.93650793650794,211.66666666666666,200.07936507936506,201.8253968253968,-0.3968253968253968,-0.07936507936507936,-321.8253968253968
-266.58730158730157,38.33333333333333,-325.0,322.46031746031747,-238.96825396825395,-52.460317460317455,-86.42857142857143,-84.04761904761904,-325.0,245.79365079365078,162.46031746031744,-83.57142857142857,-325.0,66.9047619047619,-325.0,325.0,-325.0,-92.93650793650794,211.66666666666666,200.07936507936506,201.8253968253968,-0.3968253968253968,-0.07936507936507936,-321.8253968253968
-259.2857142857143,37.38095238095238,-325.0,314.5238095238095,-232.77777777777777,-50.87301587301587,-84.36507936507937,-81.82539682539682,-325.0,221.5079365079365,158.4920634920635,-81.82539682539682,-325.0,65.0,-325.0,325.0,-325.0,-90.55555555555556,-100.07936507936508,194.84126984126982,196.9047619047619,-0.873015873015873,-0.873015873015873,-321.8253968253968
-259.2857142857143,37.38095238095238,-325.0,314.5238095238095,-232.77777777777777,-50.87301587301587,-84.36507936507937,-81.82539682539682,-325.0,221.5079365079365,158.4920634920635,-81.82539682539682,-325.0,65.0,-325.0,325.0,-325.0,-90.55555555555556,-100.07936507936508,194.84126984126982,196.9047619047619,-0.873015873015873,-0.873015873015873,-321.8253968253968
-252.46031746031744,36.58730158730159,-325.0,306.74603174603175,-226.74603174603175,-49.76190476190476,-81.98412698412697,-79.76190476190476,-325.0,192.46031746031744,154.36507936507937,-79.44444444444444,-325.0,63.095238095238095,-325.0,325.0,-325.0,-88.4920634920635,-325.0,190.3968253968254,191.66666666666666,-1.1904761904761905,-0.873015873015873,-166.26984126984127
-252.46031746031744,36.58730158730159,-325.0,306.74603174603175,-226.74603174603175,-49.76190476190476,-81.98412698412697,-79.76190476190476,-325.0,192.46031746031744,154.36507936507937,-79.44444444444444,-325.0,63.095238095238095,-325.0,325.0,-325.0,-88.4920634920635,-325.0,190.3968253968254,191.66666666666666,-1.1904761904761905,-0.873015873015873,-166.26984126984127
-247.85714285714283,35.95238095238095,-325.0,301.5079365079365,-222.93650793650792,-48.80952380952381,-80.87301587301587,-78.80952380952381,-325.0,247.53968253968253,151.984126984127,-78.17460317460316,-325.0,62.3015873015873,-325.0,325.0,-325.0,-87.22222222222221,-325.0,187.06349206349205,188.33333333333331,6.587301587301587,13.412698412698411,-166.26984126984127
-247.85714285714283,35.95238095238095,-325.0,301.5079365079365,-222.93650793650792,-48.80952380952381,-80.87301587301587,-78.80952380952381,-325.0,247.53968253968253,151.984126984127,-78.17460317460316,-325.0,62.3015873015873,-325.0,325.0,-325.0,-87.22222222222221,-325.0,187.06349206349205,188.33333333333331,6.587301587301587,13.412698412698411,-166.26984126984127
-242.46031746031744,35.15873015873016,-325.0,295.1587301587301,-218.17460317460316,-47.857142857142854,-78.96825396825396,-77.06349206349206,-325.0,86.74603174603175,148.8095238095238,-76.58730158730158,-325.0,60.873015873015866,-325.0,325.0,-325.0,-85.15873015873015,-325.0,182.93650793650792,184.2063492063492,-4.841269841269841,-5.158730158730158,-166.26984126984127
-242.46031746031744,35.15873015873016,-325.0,295.1587301587301,-218.17460317460316,-47.857142857142854,-78.96825396825396,-77.06349206349206,-325.0,86.74603174603175,148.8095238095238,-76.58730158730158,-325.0,60.873015873015866,-325.0,325.0,-325.0,-85.15873015873015,-325.0,182.93650793650792,184.2063492063492,-4.841269841269841,-5.158730158730158,-166.26984126984127
-238.015873015873,34.52380952380952,-325.0,290.23809523809524,-214.52380952380952,-46.904761904761905,-77.6984126984127,-75.79365079365078,-325.0,284.5238095238095,146.26984126984127,-75.31746031746032,-325.0,59.76190476190476,-325.0,325.0,-325.0,-83.73015873015872,-212.14285714285714,179.9206349206349,181.03174603174602,3.73015873015873,4.523809523809524,-166.26984126984127
-238.015873015873,34.52380952380952,-325.0,290.23809523809524,-214.52380952380952,-46.904761904761905,-77.6984126984127,-75.79365079365078,-325.0,284.5238095238095,146.26984126984127,-75.31746031746032,-325.0,59.76190476190476,-325.0,325.0,-325.0,-83.73015873015872,-212.14285714285714,179.9206349206349,181.03174603174602,3.73015873015873,4.523809523809524,-166.26984126984127
-233.88888888888889,34.047619047619044,-325.0,285.3174603174603,-210.87301587301587,-46.58730158730158,-76.58730158730158,-74.52380952380952,-325.0,209.28571428571428,143.88888888888889,-74.2063492063492,-325.0,58.650793650793645,-325.0,325.0,-325.0,-82.46031746031746,-54.68253968253968,177.06349206349205,177.85714285714286,-4.841269841269841,-5.952380952380952,-166.26984126984127
-233.88888888888889,34.047619047619044,-325.0,285.3174603174603,-210.87301587301587,-46.58730158730158,-76.58730158730158,-74.52380952380952,-325.0,209.28571428571428,143.88888888888889,-74.2063492063492,-325.0,58.650793650793645,-325.0,325.0,-325.0,-82.46031746031746,-54.68253968253968,177.06349206349205,177.85714285714286,-4.841269841269841,-5.952380952380952,-166.26984126984127
-232.77777777777777,33.888888888888886,-325.0,284.04761904761904,-209.9206349206349,-46.11111111111111,-76.26984126984127,-74.2063492063492,-325.0,216.9047619047619,143.4126984126984,-73.88888888888889,-325.0,58.49206349206349,-325.0,325.0,-325.0,-81.98412698412697,-78.01587301587301,176.42857142857142,177.2222222222222,-2.142857142857143,3.253968253968254,-321.8253968253968
-232.77777777777777,33.888888888888886,-325.0,284.04761904761904,-209.9206349206349,-46.11111111111111,-76.26984126984127,-74.2063492063492,-325.0,216.9047619047619,143.4126984126984,-73.88888888888889,-325.0,58.49206349206349,-325.0,325.0,-325.0,-81.98412698412697,-78.01587301587301,176.42857142857142,177.2222222222222,-2.142857142857143,3.253968253968254,-321.8253968253968
-232.77777777777777,33.888888888888886,-325.0,284.04761904761904,-209.9206349206349,-46.11111111111111,-76.26984126984127,-74.2063492063492,-325.0,216.9047619047619,143.4126984126984,-73.88888888888889,-325.0,58.49206349206349,-325.0,325.0,-325.0,-81.98412698412697,-78.01587301587301,176.42857142857142,177.2222222222222,-2.142857142857143,3.253968253968254,-321.8253968253968
-232.77777777777777,33.888888888888886,-325.0,284.04761904761904,-209.9206349206349,-46.11111111111111,-76.26984126984127,-74.2063492063492,-325.0,216.9047619047619,143.4126984126984,-73.88888888888889,-325.0,58.49206349206349,-325.0,325.0,-325.0,-81.98412698412697,-78.01587301587301,176.42857142857142,177.2222222222222,-2.142857142857143,3.253968253968254,-321.8253968253968
-226.74603174603175,32.93650793650794,-325.0,277.06349206349205,-204.68253968253967,-45.15873015873016,-74.2063492063492,-72.61904761904762,-325.0,270.87301587301585,139.76190476190476,-71.98412698412697,-325.0,56.904761904761905,-325.0,325.0,-325.0,-80.23809523809523,-201.5079365079365,171.984126984127,172.61904761904762,-0.07936507936507936,-1.0317460317460316,-321.8253968253968
-226.74603174603175,32.93650793650794,-325.0,277.06349206349205,-204.68253968253967,-45.15873015873016,-74.2063492063492,-72.61904761904762,-325.0,270.87301587301585,139.76190476190476,-71.98412698412697,-325.0,56.904761904761905,-325.0,325.0,-325.0,-80.23809523809523,-201.5079365079365,171.984126984127,172.61904761904762,-0.07936507936507936,-1.0317460317460316,-321.8253968253968
-217.53968253968253,31.825396825396822,-325.0,266.58730158730157,-196.74603174603175,-43.41269841269841,-71.5079365079365,-69.92063492063491,-325.0,241.98412698412696,134.36507936507937,-69.12698412698413,-325.0,54.68253968253968,-325.0,325.0,-325.0,-76.9047619047619,-325.0,165.47619047619045,165.79365079365078,-5.0,-4.841269841269841,-321.8253968253968
-217.53968253968253,31.825396825396822,-325.0,266.58730158730157,-196.74603174603175,-43.41269841269841,-71.5079365079365,-69.92063492063491,-325.0,241.98412698412696,134.36507936507937,-69.12698412698413,-325.0,54.68253968253968,-325.0,325.0,-325.0,-76.9047619047619,-325.0,165.47619047619045,165.79365079365078,-5.0,-4.841269841269841,-321.8253968253968
-211.66666666666666,31.03174603174603,-325.0,259.76190476190476,-191.8253968253968,-42.460317460317455,-69.6031746031746,-68.33333333333333,-325.0,290.07936507936506,131.03174603174602,-67.38095238095238,-325.0,53.25396825396825,-325.0,325.0,-290.23809523809524,-75.15873015873015,-325.0,161.19047619047618,161.5079365079365,-3.095238095238095,-10.396825396825395,-321.8253968253968
-211.66666666666666,31.03174603174603,-325.0,259.76190476190476,-191.8253968253968,-42.460317460317455,-69.6031746031746,-68.33333333333333,-325.0,290.07936507936506,131.03174603174602,-67.38095238095238,-325.0,53.25396825396825,-325.0,325.0,-290.23809523809524,-75.15873015873015,-325.0,161.19047619047618,161.5079365079365,-3.095238095238095,-10.396825396825395,-321.8253968253968
-208.96825396825395,30.555555555555554,-325.0,256.74603174603175,-189.28571428571428,-41.82539682539682,-68.4920634920635,-67.38095238095238,-325.0,240.55555555555554,129.28571428571428,-66.42857142857143,-325.0,52.61904761904761,-325.0,323.57142857142856,-323.73015873015873,-74.2063492063492,-325.0,159.6031746031746,159.28571428571428,-3.4126984126984126,4.2063492063492065,-166.26984126984127
-208.96825396825395,30.555555555555554,-325.0,256.74603174603175,-189.28571428571428,-41.82539682539682,-68.4920634920635,-67.38095238095238,-325.0,240.55555555555554,129.28571428571428,-66.42857142857143,-325.0,52.61904761904761,-325.0,323.57142857142856,-323.73015873015873,-74.2063492063492,-325.0,159.6031746031746,159.28571428571428,-3.4126984126984126,4.2063492063492065,-166.26984126984127
-205.15873015873015,30.238095238095237,-325.0,251.8253968253968,-186.11111111111111,-41.19047619047619,-67.53968253968253,-66.11111111111111,-325.0,325.0,127.22222222222221,-65.31746031746032,-325.0,51.507936507936506,-325.0,325.0,-302.6190476190476,-73.09523809523809,-325.0,156.74603174603175,156.58730158730157,1.507936507936508,-4.682539682539682,-166.26984126984127
-205.15873015873015,30.238095238095237,-325.0,251.8253968253968,-186.11111111111111,-41.19047619047619,-67.53968253968253,-66.11111111111111,-325.0,325.0,127.22222222222221,-65.31746031746032,-325.0,51.507936507936506,-325.0,325.0,-302.6190476190476,-73.09523809523809,-325.0,156.74603174603175,156.58730158730157,1.507936507936508,-4.682539682539682,-166.26984126984127
-199.12698412698413,29.285714285714285,-325.0,245.63492063492063,-181.5079365079365,-40.079365079365076,-66.11111111111111,-64.68253968253968,-325.0,286.58730158730157,124.04761904761904,-63.888888888888886,-325.0,50.238095238095234,-325.0,314.8412698412698,-224.68253968253967,-71.34920634920634,-325.0,152.61904761904762,152.61904761904762,-1.507936507936508,-0.3968253968253968,-166.26984126984127
-199.12698412698413,29.285714285714285,-325.0,245.63492063492063,-181.5079365079365,-40.079365079365076,-66.11111111111111,-64.68253968253968,-325.0,286.58730158730157,124.04761904761904,-63.888888888888886,-325.0,50.238095238095234,-325.0,314.8412698412698,-224.68253968253967,-71.34920634920634,-325.0,152.61904761904762,152.61904761904762,-1.507936507936508,-0.3968253968253968,-166.26984126984127
-196.11111111111111,28.96825396825397,-325.0,241.66666666666666,-178.33333333333331,-39.76190476190476,-64.84126984126983,-63.73015873015873,-325.0,177.2222222222222,121.82539682539682,-62.61904761904761,-325.0,49.44444444444444,-325.0,281.8253968253968,-308.6507936507936,-70.23809523809524,-325.0,150.23809523809524,149.76190476190476,-7.222222222222221,-14.523809523809524,-166.26984126984127
-196.11111111111111,28.96825396825397,-325.0,241.66666666666666,-178.33333333333331,-39.76190476190476,-64.84126984126983,-63.73015873015873,-325.0,177.2222222222222,121.82539682539682,-62.61904761904761,-325.0,49.44444444444444,-325.0,281.8253968253968,-308.6507936507936,-70.23809523809524,-325.0,150.23809523809524,149.76190476190476,-7.222222222222221,-14.523809523809524,-166.26984126984127
-191.98412698412696,28.174603174603174,-325.0,236.42857142857142,-174.52380952380952,-38.80952380952381,-63.41269841269841,-62.460317460317455,-325.0,288.3333333333333,119.28571428571428,-61.34920634920635,-325.0,48.33333333333333,-325.0,313.0952380952381,-131.5079365079365,-68.80952380952381,-325.0,147.06349206349205,146.58730158730157,4.0476190476190474,3.095238095238095,-166.26984126984127
-191.98412698412696,28.174603174603174,-325.0,236.42857142857142,-174.52380952380952,-38.80952380952381,-63.41269841269841,-62.460317460317455,-325.0,288.3333333333333,119.28571428571428,-61.34920634920635,-325.0,48.33333333333333,-325.0,313.0952380952381,-131.5079365079365,-68.80952380952381,-325.0,147.06349206349205,146.58730158730157,4.0476190476190474,3.095238095238095,-166.26984126984127
-188.33333333333331,27.698412698412696,-325.0,232.6190476190476,-171.66666666666666,-38.17460317460317,-62.3015873015873,-61.666666666666664,-323.88888888888886,105.79365079365078,117.38095238095238,-60.39682539682539,-325.0,47.22222222222222,-325.0,239.60317460317458,-55.95238095238095,-67.53968253968253,-325.0,144.52380952380952,144.04761904761904,-5.158730158730158,-5.0,-321.8253968253968
-188.33333333333331,27.698412698412696,-325.0,232.6190476190476,-171.66666666666666,-38.17460317460317,-62.3015873015873,-61.666666666666664,-323.88888888888886,105.79365079365078,117.38095238095238,-60.39682539682539,-325.0,47.22222222222222,-325.0,239.60317460317458,-55.95238095238095,-67.53968253968253,-325.0,144.52380952380952,144.04761904761904,-5.158730158730158,-5.0,-321.8253968253968
