Fp1[1],Fp2[2],F3[3],F4[4],C3[5],C4[6],P3[7],P4[8],O1[9],O2[10],F7[11],F8[12],T3[13],T4[14],T5[15],T6[16],Fz[17],Pz[18],Cz[19],Pg1[20],Pg2[21],EOGR[22],EOOGL[23],EMG[24]
92.61904761904762,-187.06349206349205,-153.73015873015873,-67.6984126984127,83.09523809523809,81.82539682539682,165.3174603174603,179.76190476190476,-185.15873015873015,325.0,-325.0,325.0,-166.9047619047619,-325.0,-170.3968253968254,325.0,-325.0,198.33333333333331,-106.74603174603175,-325.0,-325.0,24.206349206349206,31.666666666666664,-166.26984126984127
92.61904761904762,-187.06349206349205,-153.73015873015873,-67.6984126984127,83.09523809523809,81.82539682539682,165.3174603174603,179.76190476190476,-185.15873015873015,325.0,-325.0,325.0,-166.9047619047619,-325.0,-170.3968253968254,325.0,-325.0,198.33333333333331,-106.74603174603175,-325.0,-325.0,24.206349206349206,31.666666666666664,-166.26984126984127
325.0,-325.0,-150.87301587301587,26.587301587301585,325.0,325.0,325.0,325.0,-168.8095238095238,325.0,-323.4126984126984,325.0,-149.6031746031746,-325.0,-152.3015873015873,325.0,-325.0,195.79365079365078,-101.66666666666666,-325.0,-325.0,-28.65079365079365,-36.42857142857142,-166.26984126984127
325.0,-325.0,-150.87301587301587,26.587301587301585,325.0,325.0,325.0,325.0,-168.8095238095238,325.0,-323.4126984126984,325.0,-149.6031746031746,-325.0,-152.3015873015873,325.0,-325.0,195.79365079365078,-101.66666666666666,-325.0,-325.0,-28.65079365079365,-36.42857142857142,-166.26984126984127
325.0,-325.0,-216.1111111111111,43.25396825396825,325.0,323.88888888888886,325.0,323.73015873015873,-103.4126984126984,318.015873015873,-277.53968253968253,319.9206349206349,-218.96825396825395,-325.0,-221.8253968253968,325.0,-325.0,165.47619047619045,-44.84126984126984,-325.0,-325.0,30.555555555555554,38.96825396825397,-166.26984126984127
325.0,-325.0,-216.1111111111111,43.25396825396825,325.0,323.88888888888886,325.0,323.73015873015873,-103.4126984126984,318.015873015873,-277.53968253968253,319.9206349206349,-218.96825396825395,-325.0,-221.8253968253968,325.0,-325.0,165.47619047619045,-44.84126984126984,-325.0,-325.0,30.555555555555554,38.96825396825397,-166.26984126984127
325.0,-325.0,-320.23809523809524,60.39682539682539,325.0,301.8253968253968,325.0,302.1428571428571,325.0,56.74603174603174,-222.14285714285714,293.88888888888886,-323.88888888888886,-325.0,-325.0,325.0,-317.06349206349205,128.96825396825395,25.158730158730158,-325.0,-325.0,-0.873015873015873,-0.7142857142857142,-166.26984126984127
325.0,-325.0,-320.23809523809524,60.39682539682539,325.0,301.8253968253968,325.0,302.1428571428571,325.0,56.74603174603174,-222.14285714285714,293.88888888888886,-323.88888888888886,-325.0,-325.0,325.0,-317.06349206349205,128.96825396825395,25.158730158730158,-325.0,-325.0,-0.873015873015873,-0.7142857142857142,-166.26984126984127
325.0,-316.1111111111111,-258.6507936507936,65.15873015873015,320.87301587301585,279.76190476190476,323.88888888888886,280.39682539682536,325.0,-325.0,-206.58730158730157,271.8253968253968,-265.0,-322.46031746031747,-269.2857142857143,325.0,-293.4126984126984,119.12698412698413,46.74603174603175,-309.2857142857143,-307.06349206349205,0.5555555555555556,-0.7142857142857142,-166.26984126984127
325.0,-316.1111111111111,-258.6507936507936,65.15873015873015,320.87301587301585,279.76190476190476,323.88888888888886,280.39682539682536,325.0,-325.0,-206.58730158730157,271.8253968253968,-265.0,-322.46031746031747,-269.2857142857143,325.0,-293.4126984126984,119.12698412698413,46.74603174603175,-309.2857142857143,-307.06349206349205,0.5555555555555556,-0.7142857142857142,-166.26984126984127
324.8412698412698,-288.4920634920635,-185.79365079365078,45.0,296.90476190476187,255.47619047619045,301.984126984127,256.1111111111111,325.0,-325.0,63.41269841269841,247.38095238095238,-191.5079365079365,-298.4920634920635,-194.2063492063492,-119.12698412698413,-267.22222222222223,108.17460317460316,44.52380952380952,-281.8253968253968,-278.4920634920635,-34.52380952380952,-45.79365079365079,-321.8253968253968
324.8412698412698,-288.4920634920635,-185.79365079365078,45.0,296.90476190476187,255.47619047619045,301.984126984127,256.1111111111111,325.0,-325.0,63.41269841269841,247.38095238095238,-191.5079365079365,-298.4920634920635,-194.2063492063492,-119.12698412698413,-267.22222222222223,108.17460317460316,44.52380952380952,-281.8253968253968,-278.4920634920635,-34.52380952380952,-45.79365079365079,-321.8253968253968
320.7142857142857,-270.55555555555554,-143.25396825396825,31.349206349206348,278.6507936507936,239.44444444444443,283.0952380952381,240.3968253968254,325.0,-325.0,325.0,231.66666666666666,-148.015873015873,-279.1269841269841,-152.77777777777777,-325.0,-250.07936507936506,101.19047619047619,40.87301587301587,-264.04761904761904,-260.23809523809524,-16.428571428571427,-21.666666666666664,-321.8253968253968
320.7142857142857,-270.55555555555554,-143.25396825396825,31.349206349206348,278.6507936507936,239.44444444444443,283.0952380952381,240.3968253968254,325.0,-325.0,325.0,231.66666666666666,-148.015873015873,-279.1269841269841,-152.77777777777777,-325.0,-250.07936507936506,101.19047619047619,40.87301587301587,-264.04761904761904,-260.23809523809524,-16.428571428571427,-21.666666666666664,-321.8253968253968
296.58730158730157,-250.7142857142857,-128.8095238095238,29.126984126984127,258.6507936507936,221.98412698412696,262.1428571428571,223.25396825396825,325.0,-325.0,325.0,214.36507936507937,-132.14285714285714,-257.85714285714283,-138.17460317460316,-325.0,-231.34920634920633,93.73015873015872,49.12698412698413,-244.52380952380952,-240.55555555555554,-16.428571428571427,-23.253968253968253,-321.8253968253968
296.58730158730157,-250.7142857142857,-128.8095238095238,29.126984126984127,258.6507936507936,221.98412698412696,262.1428571428571,223.25396825396825,325.0,-325.0,325.0,214.36507936507937,-132.14285714285714,-257.85714285714283,-138.17460317460316,-325.0,-231.34920634920633,93.73015873015872,49.12698412698413,-244.52380952380952,-240.55555555555554,-16.428571428571427,-23.253968253968253,-321.8253968253968
287.53968253968253,-243.7301587301587,-127.6984126984127,26.9047619047619,251.19047619047618,215.63492063492063,254.2063492063492,216.9047619047619,325.0,-325.0,325.0,207.69841269841268,-130.7142857142857,-250.07936507936506,-136.74603174603175,-325.0,-224.52380952380952,91.19047619047619,49.76190476190476,-237.2222222222222,-232.93650793650792,-0.23809523809523808,-0.873015873015873,-321.8253968253968
287.53968253968253,-243.7301587301587,-127.6984126984127,26.9047619047619,251.19047619047618,215.63492063492063,254.2063492063492,216.9047619047619,325.0,-325.0,325.0,207.69841269841268,-130.7142857142857,-250.07936507936506,-136.74603174603175,-325.0,-224.52380952380952,91.19047619047619,49.76190476190476,-237.2222222222222,-232.93650793650792,-0.23809523809523808,-0.873015873015873,-321.8253968253968
282.46031746031747,-239.44444444444443,-129.44444444444443,25.0,247.06349206349205,211.98412698412696,250.07936507936506,213.09523809523807,325.0,-325.0,325.0,204.36507936507937,-133.57142857142856,-245.95238095238093,-136.42857142857142,-325.0,-220.7142857142857,89.44444444444444,49.76190476190476,-233.25396825396825,-228.8095238095238,-34.047619047619044,-46.269841269841265,-321.8253968253968
282.46031746031747,-239.44444444444443,-129.44444444444443,25.0,247.06349206349205,211.98412698412696,250.07936507936506,213.09523809523807,325.0,-325.0,325.0,204.36507936507937,-133.57142857142856,-245.95238095238093,-136.42857142857142,-325.0,-220.7142857142857,89.44444444444444,49.76190476190476,-233.25396825396825,-228.8095238095238,-34.047619047619044,-46.269841269841265,-321.8253968253968
282.46031746031747,-239.44444444444443,-129.44444444444443,25.0,247.06349206349205,211.98412698412696,250.07936507936506,213.09523809523807,325.0,-325.0,325.0,204.36507936507937,-133.57142857142856,-245.95238095238093,-136.42857142857142,-325.0,-220.7142857142857,89.44444444444444,49.76190476190476,-233.25396825396825,-228.8095238095238,-34.047619047619044,-46.269841269841265,-166.26984126984127
282.46031746031747,-239.44444444444443,-129.44444444444443,25.0,247.06349206349205,211.98412698412696,250.07936507936506,213.09523809523807,325.0,-325.0,325.0,204.36507936507937,-133.57142857142856,-245.95238095238093,-136.42857142857142,-325.0,-220.7142857142857,89.44444444444444,49.76190476190476,-233.25396825396825,-228.8095238095238,-34.047619047619044,-46.269841269841265,-166.26984126984127
282.46031746031747,-239.44444444444443,-129.44444444444443,25.0,247.06349206349205,211.98412698412696,250.07936507936506,213.09523809523807,325.0,-325.0,325.0,204.36507936507937,-133.57142857142856,-245.95238095238093,-136.42857142857142,-325.0,-220.7142857142857,89.44444444444444,49.76190476190476,-233.25396825396825,-228.8095238095238,-34.047619047619044,-46.269841269841265,-166.26984126984127
282.46031746031747,-239.44444444444443,-129.44444444444443,25.0,247.06349206349205,211.98412698412696,250.07936507936506,213.09523809523807,325.0,-325.0,325.0,204.36507936507937,-133.57142857142856,-245.95238095238093,-136.42857142857142,-325.0,-220.7142857142857,89.44444444444444,49.76190476190476,-233.25396825396825,-228.8095238095238,-34.047619047619044,-46.269841269841265,-166.26984126984127
282.46031746031747,-239.44444444444443,-129.44444444444443,25.0,247.06349206349205,211.98412698412696,250.07936507936506,213.09523809523807,325.0,-325.0,325.0,204.36507936507937,-133.57142857142856,-245.95238095238093,-136.42857142857142,-325.0,-220.7142857142857,89.44444444444444,49.76190476190476,-233.25396825396825,-228.8095238095238,-34.047619047619044,-46.269841269841265,-166.26984126984127
282.46031746031747,-239.44444444444443,-129.44444444444443,25.0,247.06349206349205,211.98412698412696,250.07936507936506,213.09523809523807,325.0,-325.0,325.0,204.36507936507937,-133.57142857142856,-245.95238095238093,-136.42857142857142,-325.0,-220.7142857142857,89.44444444444444,49.76190476190476,-233.25396825396825,-228.8095238095238,-34.047619047619044,-46.269841269841265,-166.26984126984127
282.46031746031747,-239.44444444444443,-129.44444444444443,25.0,247.06349206349205,211.98412698412696,250.07936507936506,213.09523809523807,325.0,-325.0,325.0,204.36507936507937,-133.57142857142856,-245.95238095238093,-136.42857142857142,-325.0,-220.7142857142857,89.44444444444444,49.76190476190476,-233.25396825396825,-228.8095238095238,-34.047619047619044,-46.269841269841265,-166.26984126984127
282.46031746031747,-239.44444444444443,-129.44444444444443,25.0,247.06349206349205,211.98412698412696,250.07936507936506,213.09523809523807,325.0,-325.0,325.0,204.36507936507937,-133.57142857142856,-245.95238095238093,-136.42857142857142,-325.0,-220.7142857142857,89.44444444444444,49.76190476190476,-233.25396825396825,-228.8095238095238,-34.047619047619044,-46.269841269841265,-166.26984126984127
282.46031746031747,-239.44444444444443,-129.44444444444443,25.0,247.06349206349205,211.98412698412696,250.07936507936506,213.09523809523807,325.0,-325.0,325.0,204.36507936507937,-133.57142857142856,-245.95238095238093,-136.42857142857142,-325.0,-220.7142857142857,89.44444444444444,49.76190476190476,-233.25396825396825,-228.8095238095238,-34.047619047619044,-46.269841269841265,-166.26984126984127
282.46031746031747,-239.44444444444443,-129.44444444444443,25.0,247.06349206349205,211.98412698412696,250.07936507936506,213.09523809523807,325.0,-325.0,325.0,204.36507936507937,-133.57142857142856,-245.95238095238093,-136.42857142857142,-325.0,-220.7142857142857,89.44444444444444,49.76190476190476,-233.25396825396825,-228.8095238095238,-34.047619047619044,-46.269841269841265,-166.26984126984127
282.46031746031747,-239.44444444444443,-129.44444444444443,25.0,247.06349206349205,211.98412698412696,250.07936507936506,213.09523809523807,325.0,-325.0,325.0,204.36507936507937,-133.57142857142856,-245.95238095238093,-136.42857142857142,-325.0,-220.7142857142857,89.44444444444444,49.76190476190476,-233.25396825396825,-228.8095238095238,-34.047619047619044,-46.269841269841265,-321.8253968253968
282.46031746031747,-239.44444444444443,-129.44444444444443,25.0,247.06349206349205,211.98412698412696,250.07936507936506,213.09523809523807,325.0,-325.0,325.0,204.36507936507937,-133.57142857142856,-245.95238095238093,-136.42857142857142,-325.0,-220.7142857142857,89.44444444444444,49.76190476190476,-233.25396825396825,-228.8095238095238,-34.047619047619044,-46.269841269841265,-321.8253968253968
282.46031746031747,-239.44444444444443,-129.44444444444443,25.0,247.06349206349205,211.98412698412696,250.07936507936506,213.09523809523807,325.0,-325.0,325.0,204.36507936507937,-133.57142857142856,-245.95238095238093,-136.42857142857142,-325.0,-220.7142857142857,89.44444444444444,49.76190476190476,-233.25396825396825,-228.8095238095238,-34.047619047619044,-46.269841269841265,-321.8253968253968
282.46031746031747,-239.44444444444443,-129.44444444444443,25.0,247.06349206349205,211.98412698412696,250.07936507936506,213.09523809523807,325.0,-325.0,325.0,204.36507936507937,-133.57142857142856,-245.95238095238093,-136.42857142857142,-325.0,-220.7142857142857,89.44444444444444,49.76190476190476,-233.25396825396825,-228.8095238095238,-34.047619047619044,-46.269841269841265,-321.8253968253968
282.46031746031747,-239.44444444444443,-129.44444444444443,25.0,247.06349206349205,211.98412698412696,250.07936507936506,213.09523809523807,325.0,-325.0,325.0,204.36507936507937,-133.57142857142856,-245.95238095238093,-136.42857142857142,-325.0,-220.7142857142857,89.44444444444444,49.76190476190476,-233.25396825396825,-228.8095238095238,-34.047619047619044,-46.269841269841265,-321.8253968253968
282.46031746031747,-239.44444444444443,-129.44444444444443,25.0,247.06349206349205,211.98412698412696,250.07936507936506,213.09523809523807,325.0,-325.0,325.0,204.36507936507937,-133.57142857142856,-245.95238095238093,-136.42857142857142,-325.0,-220.7142857142857,89.44444444444444,49.76190476190476,-233.25396825396825,-228.8095238095238,-34.047619047619044,-46.269841269841265,-321.8253968253968
282.46031746031747,-239.44444444444443,-129.44444444444443,25.0,247.06349206349205,211.98412698412696,250.07936507936506,213.09523809523807,325.0,-325.0,325.0,204.36507936507937,-133.57142857142856,-245.95238095238093,-136.42857142857142,-325.0,-220.7142857142857,89.44444444444444,49.76190476190476,-233.25396825396825,-228.8095238095238,-34.047619047619044,-46.269841269841265,-321.8253968253968
282.46031746031747,-239.44444444444443,-129.44444444444443,25.0,247.06349206349205,211.98412698412696,250.07936507936506,213.09523809523807,325.0,-325.0,325.0,204.36507936507937,-133.57142857142856,-245.95238095238093,-136.42857142857142,-325.0,-220.7142857142857,89.44444444444444,49.76190476190476,-233.25396825396825,-228.8095238095238,-34.047619047619044,-46.269841269841265,-321.8253968253968
282.46031746031747,-239.44444444444443,-129.44444444444443,25.0,247.06349206349205,211.98412698412696,250.07936507936506,213.09523809523807,325.0,-325.0,325.0,204.36507936507937,-133.57142857142856,-245.95238095238093,-136.42857142857142,-325.0,-220.7142857142857,89.44444444444444,49.76190476190476,-233.25396825396825,-228.8095238095238,-34.047619047619044,-46.269841269841265,-321.8253968253968
282.46031746031747,-239.44444444444443,-129.44444444444443,25.0,247.06349206349205,211.98412698412696,250.07936507936506,213.09523809523807,325.0,-325.0,325.0,204.36507936507937,-133.57142857142856,-245.95238095238093,-136.42857142857142,-325.0,-220.7142857142857,89.44444444444444,49.76190476190476,-233.25396825396825,-228.8095238095238,-34.047619047619044,-46.269841269841265,-321.8253968253968
42.77777777777778,-114.04761904761904,-220.7142857142857,64.84126984126983,123.73015873015872,128.65079365079364,97.6984126984127,213.09523809523807,152.3015873015873,-325.0,152.3015873015873,204.36507936507937,28.96825396825397,-256.1111111111111,-136.42857142857142,-325.0,-230.87301587301587,89.44444444444444,-112.77777777777777,-223.09523809523807,-228.8095238095238,-34.047619047619044,116.26984126984127,-166.26984126984127
42.77777777777778,-114.04761904761904,-220.7142857142857,64.84126984126983,123.73015873015872,128.65079365079364,97.6984126984127,213.09523809523807,152.3015873015873,-325.0,152.3015873015873,204.36507936507937,28.96825396825397,-256.1111111111111,-136.42857142857142,-325.0,-230.87301587301587,89.44444444444444,-112.77777777777777,-223.09523809523807,-228.8095238095238,-34.047619047619044,116.26984126984127,-166.26984126984127
-196.74603174603175,11.507936507936508,-311.8253968253968,104.68253968253968,0.5555555555555556,45.317460317460316,-54.68253968253968,213.09523809523807,-20.396825396825395,-325.0,-20.396825396825395,204.36507936507937,191.5079365079365,-266.26984126984127,-136.42857142857142,-325.0,-241.03174603174602,89.44444444444444,-275.3174603174603,-212.93650793650792,-228.8095238095238,-34.047619047619044,278.8095238095238,-166.26984126984127
-196.74603174603175,11.507936507936508,-311.8253968253968,104.68253968253968,0.5555555555555556,45.317460317460316,-54.68253968253968,213.09523809523807,-20.396825396825395,-325.0,-20.396825396825395,204.36507936507937,191.5079365079365,-266.26984126984127,-136.42857142857142,-325.0,-241.03174603174602,89.44444444444444,-275.3174603174603,-212.93650793650792,-228.8095238095238,-34.047619047619044,278.8095238095238,-166.26984126984127
-196.74603174603175,11.507936507936508,-311.8253968253968,104.68253968253968,0.5555555555555556,45.317460317460316,-54.68253968253968,213.09523809523807,-20.396825396825395,-325.0,-20.396825396825395,204.36507936507937,191.5079365079365,-266.26984126984127,-136.42857142857142,-325.0,-241.03174603174602,89.44444444444444,-275.3174603174603,-212.93650793650792,-228.8095238095238,-34.047619047619044,278.8095238095238,-166.26984126984127
-196.74603174603175,11.507936507936508,-311.8253968253968,104.68253968253968,0.5555555555555556,45.317460317460316,-54.68253968253968,213.09523809523807,-20.396825396825395,-325.0,-20.396825396825395,204.36507936507937,191.5079365079365,-266.26984126984127,-136.42857142857142,-325.0,-241.03174603174602,89.44444444444444,-275.3174603174603,-212.93650793650792,-228.8095238095238,-34.047619047619044,278.8095238095238,-166.26984126984127
-196.74603174603175,11.507936507936508,-311.8253968253968,104.68253968253968,0.5555555555555556,45.317460317460316,-54.68253968253968,213.09523809523807,-20.396825396825395,-325.0,-20.396825396825395,204.36507936507937,191.5079365079365,-266.26984126984127,-136.42857142857142,-325.0,-241.03174603174602,89.44444444444444,-275.3174603174603,-212.93650793650792,-228.8095238095238,-34.047619047619044,278.8095238095238,-166.26984126984127
-196.74603174603175,11.507936507936508,-311.8253968253968,104.68253968253968,0.5555555555555556,45.317460317460316,-54.68253968253968,213.09523809523807,-20.396825396825395,-325.0,-20.396825396825395,204.36507936507937,191.5079365079365,-266.26984126984127,-136.42857142857142,-325.0,-241.03174603174602,89.44444444444444,-275.3174603174603,-212.93650793650792,-228.8095238095238,-34.047619047619044,278.8095238095238,-166.26984126984127
-196.74603174603175,11.507936507936508,-311.8253968253968,104.68253968253968,0.5555555555555556,45.317460317460316,-54.68253968253968,213.09523809523807,-20.396825396825395,-325.0,-20.396825396825395,204.36507936507937,191.5079365079365,-266.26984126984127,-136.42857142857142,-325.0,-241.03174603174602,89.44444444444444,-275.3174603174603,-212.93650793650792,-228.8095238095238,-34.047619047619044,278.8095238095238,-166.26984126984127
-196.74603174603175,11.507936507936508,-311.8253968253968,104.68253968253968,0.5555555555555556,45.317460317460316,-54.68253968253968,213.09523809523807,-20.396825396825395,-325.0,-20.396825396825395,204.36507936507937,191.5079365079365,-266.26984126984127,-136.42857142857142,-325.0,-241.03174603174602,89.44444444444444,-275.3174603174603,-212.93650793650792,-228.8095238095238,-34.047619047619044,278.8095238095238,-166.26984126984127
-196.74603174603175,11.507936507936508,-311.8253968253968,104.68253968253968,0.5555555555555556,45.317460317460316,-54.68253968253968,213.09523809523807,-20.396825396825395,-325.0,-20.396825396825395,204.36507936507937,191.5079365079365,-266.26984126984127,-136.42857142857142,-325.0,-241.03174603174602,89.44444444444444,-275.3174603174603,-212.93650793650792,-228.8095238095238,-34.047619047619044,278.8095238095238,-321.8253968253968
-196.74603174603175,11.507936507936508,-311.8253968253968,104.68253968253968,0.5555555555555556,45.317460317460316,-54.68253968253968,213.09523809523807,-20.396825396825395,-325.0,-20.396825396825395,204.36507936507937,191.5079365079365,-266.26984126984127,-136.42857142857142,-325.0,-241.03174603174602,89.44444444444444,-275.3174603174603,-212.93650793650792,-228.8095238095238,-34.047619047619044,278.8095238095238,-321.8253968253968
-196.74603174603175,11.507936507936508,-311.8253968253968,104.68253968253968,0.5555555555555556,45.317460317460316,-54.68253968253968,213.09523809523807,-20.396825396825395,-325.0,-20.396825396825395,204.36507936507937,191.5079365079365,-266.26984126984127,-136.42857142857142,-325.0,-241.03174603174602,89.44444444444444,-275.3174603174603,-212.93650793650792,-228.8095238095238,-34.047619047619044,278.8095238095238,-321.8253968253968
-196.74603174603175,11.507936507936508,-311.8253968253968,104.68253968253968,0.5555555555555556,45.317460317460316,-54.68253968253968,213.09523809523807,-20.396825396825395,-325.0,-20.396825396825395,204.36507936507937,191.5079365079365,-266.26984126984127,-136.42857142857142,-325.0,-241.03174603174602,89.44444444444444,-275.3174603174603,-212.93650793650792,-228.8095238095238,-34.047619047619044,278.8095238095238,-321.8253968253968
-196.74603174603175,11.507936507936508,-311.8253968253968,104.68253968253968,0.5555555555555556,45.317460317460316,-54.68253968253968,213.09523809523807,-20.396825396825395,-325.0,-20.396825396825395,204.36507936507937,191.5079365079365,-266.26984126984127,-136.42857142857142,-325.0,-241.03174603174602,89.44444444444444,-275.3174603174603,-212.93650793650792,-228.8095238095238,-34.047619047619044,278.8095238095238,-321.8253968253968
-196.74603174603175,11.507936507936508,-311.8253968253968,104.68253968253968,0.5555555555555556,45.317460317460316,-54.68253968253968,213.09523809523807,-20.396825396825395,-325.0,-20.396825396825395,204.36507936507937,191.5079365079365,-266.26984126984127,-136.42857142857142,-325.0,-241.03174603174602,89.44444444444444,-275.3174603174603,-212.93650793650792,-228.8095238095238,-34.047619047619044,278.8095238095238,-321.8253968253968
-196.74603174603175,11.507936507936508,-311.8253968253968,104.68253968253968,0.5555555555555556,45.317460317460316,-54.68253968253968,213.09523809523807,-20.396825396825395,-325.0,-20.396825396825395,204.36507936507937,191.5079365079365,-266.26984126984127,-136.42857142857142,-325.0,-241.03174603174602,89.44444444444444,-275.3174603174603,-212.93650793650792,-228.8095238095238,-34.047619047619044,278.8095238095238,-321.8253968253968
-196.74603174603175,11.507936507936508,-311.8253968253968,104.68253968253968,0.5555555555555556,45.317460317460316,-54.68253968253968,213.09523809523807,-20.396825396825395,-325.0,-20.396825396825395,204.36507936507937,191.5079365079365,-266.26984126984127,-136.42857142857142,-325.0,-241.03174603174602,89.44444444444444,-275.3174603174603,-212.93650793650792,-228.8095238095238,-34.047619047619044,278.8095238095238,-321.8253968253968
-196.74603174603175,11.507936507936508,-311.8253968253968,104.68253968253968,0.5555555555555556,45.317460317460316,-54.68253968253968,213.09523809523807,-20.396825396825395,-325.0,-20.396825396825395,204.36507936507937,191.5079365079365,-266.26984126984127,-136.42857142857142,-325.0,-241.03174603174602,89.44444444444444,-275.3174603174603,-212.93650793650792,-228.8095238095238,-34.047619047619044,278.8095238095238,-321.8253968253968
-196.74603174603175,11.507936507936508,-311.8253968253968,104.68253968253968,0.5555555555555556,45.317460317460316,-54.68253968253968,213.09523809523807,-20.396825396825395,-325.0,-20.396825396825395,204.36507936507937,191.5079365079365,-266.26984126984127,-136.42857142857142,-325.0,-241.03174603174602,89.44444444444444,-275.3174603174603,-212.93650793650792,-228.8095238095238,-34.047619047619044,278.8095238095238,-321.8253968253968
-196.74603174603175,11.507936507936508,-311.8253968253968,104.68253968253968,0.5555555555555556,45.317460317460316,-54.68253968253968,213.09523809523807,-20.396825396825395,-325.0,-20.396825396825395,204.36507936507937,191.5079365079365,-266.26984126984127,-136.42857142857142,-325.0,-241.03174603174602,89.44444444444444,-275.3174603174603,-212.93650793650792,-228.8095238095238,-34.047619047619044,278.8095238095238,-166.26984126984127
-196.74603174603175,11.507936507936508,-311.8253968253968,104.68253968253968,0.5555555555555556,45.317460317460316,-54.68253968253968,213.09523809523807,-20.396825396825395,-325.0,-20.396825396825395,204.36507936507937,191.5079365079365,-266.26984126984127,-136.42857142857142,-325.0,-241.03174603174602,89.44444444444444,-275.3174603174603,-212.93650793650792,-228.8095238095238,-34.047619047619044,278.8095238095238,-166.26984126984127
-196.74603174603175,11.507936507936508,-311.8253968253968,104.68253968253968,0.5555555555555556,45.317460317460316,-54.68253968253968,213.09523809523807,-20.396825396825395,-325.0,-20.396825396825395,204.36507936507937,191.5079365079365,-266.26984126984127,-136.42857142857142,-325.0,-241.03174603174602,89.44444444444444,-275.3174603174603,-212.93650793650792,-228.8095238095238,-34.047619047619044,278.8095238095238,-166.26984126984127
-196.74603174603175,11.507936507936508,-311.8253968253968,104.68253968253968,0.5555555555555556,45.317460317460316,-54.68253968253968,213.09523809523807,-20.396825396825395,-325.0,-20.396825396825395,204.36507936507937,191.5079365079365,-266.26984126984127,-136.42857142857142,-325.0,-241.03174603174602,89.44444444444444,-275.3174603174603,-212.93650793650792,-228.8095238095238,-34.047619047619044,278.8095238095238,-166.26984126984127
-196.74603174603175,11.507936507936508,-311.8253968253968,104.68253968253968,0.5555555555555556,45.317460317460316,-54.68253968253968,213.09523809523807,-20.396825396825395,-325.0,-20.396825396825395,204.36507936507937,191.5079365079365,-266.26984126984127,-136.42857142857142,-325.0,-241.03174603174602,89.44444444444444,-275.3174603174603,-212.93650793650792,-228.8095238095238,-34.047619047619044,278.8095238095238,-166.26984126984127
-196.74603174603175,11.507936507936508,-311.8253968253968,104.68253968253968,0.5555555555555556,45.317460317460316,-54.68253968253968,213.09523809523807,-20.396825396825395,-325.0,-20.396825396825395,204.36507936507937,191.5079365079365,-266.26984126984127,-136.42857142857142,-325.0,-241.03174603174602,89.44444444444444,-275.3174603174603,-212.93650793650792,-228.8095238095238,-34.047619047619044,278.8095238095238,-166.26984126984127
-196.74603174603175,11.507936507936508,-311.8253968253968,104.68253968253968,0.5555555555555556,45.317460317460316,-54.68253968253968,213.09523809523807,-20.396825396825395,-325.0,-20.396825396825395,204.36507936507937,191.5079365079365,-266.26984126984127,-136.42857142857142,-325.0,-241.03174603174602,89.44444444444444,-275.3174603174603,-212.93650793650792,-228.8095238095238,-34.047619047619044,278.8095238095238,-166.26984126984127
-196.74603174603175,11.507936507936508,-311.8253968253968,104.68253968253968,0.5555555555555556,45.317460317460316,-54.68253968253968,213.09523809523807,-20.396825396825395,-325.0,-20.396825396825395,204.36507936507937,191.5079365079365,-266.26984126984127,-136.42857142857142,-325.0,-241.03174603174602,89.44444444444444,-275.3174603174603,-212.93650793650792,-228.8095238095238,-34.047619047619044,278.8095238095238,-166.26984126984127
-196.74603174603175,11.507936507936508,-311.8253968253968,104.68253968253968,0.5555555555555556,45.317460317460316,-54.68253968253968,213.09523809523807,-20.396825396825395,-325.0,-20.396825396825395,204.36507936507937,191.5079365079365,-266.26984126984127,-136.42857142857142,-325.0,-241.03174603174602,89.44444444444444,-275.3174603174603,-212.93650793650792,-228.8095238095238,-34.047619047619044,278.8095238095238,-166.26984126984127
-196.74603174603175,11.507936507936508,-311.8253968253968,104.68253968253968,0.5555555555555556,45.317460317460316,-54.68253968253968,213.09523809523807,-20.396825396825395,-325.0,-20.396825396825395,204.36507936507937,191.5079365079365,-266.26984126984127,-136.42857142857142,-325.0,-241.03174603174602,89.44444444444444,-275.3174603174603,-212.93650793650792,-228.8095238095238,-34.047619047619044,278.8095238095238,-166.26984126984127
167.69841269841268,-145.47619047619048,88.4920634920635,-7.698412698412698,150.87301587301587,127.53968253968253,150.23809523809524,130.07936507936506,264.36507936507934,-325.0,325.0,122.46031746031746,81.34920634920634,-146.74603174603175,83.09523809523809,-325.0,-132.14285714285714,-325.0,33.25396825396825,-140.3968253968254,-135.0,-20.07936507936508,-25.476190476190474,-321.8253968253968
167.69841269841268,-145.47619047619048,88.4920634920635,-7.698412698412698,150.87301587301587,127.53968253968253,150.23809523809524,130.07936507936506,264.36507936507934,-325.0,325.0,122.46031746031746,81.34920634920634,-146.74603174603175,83.09523809523809,-325.0,-132.14285714285714,-325.0,33.25396825396825,-140.3968253968254,-135.0,-20.07936507936508,-25.476190476190474,-321.8253968253968
167.69841269841268,-145.47619047619048,88.4920634920635,-7.698412698412698,150.87301587301587,127.53968253968253,150.23809523809524,130.07936507936506,264.36507936507934,-325.0,325.0,122.46031746031746,81.34920634920634,-146.74603174603175,83.09523809523809,-325.0,-132.14285714285714,-325.0,33.25396825396825,-140.3968253968254,-135.0,-20.07936507936508,-25.476190476190474,-321.8253968253968
167.69841269841268,-145.47619047619048,88.4920634920635,-7.698412698412698,150.87301587301587,127.53968253968253,150.23809523809524,130.07936507936506,264.36507936507934,-325.0,325.0,122.46031746031746,81.34920634920634,-146.74603174603175,83.09523809523809,-325.0,-132.14285714285714,-325.0,33.25396825396825,-140.3968253968254,-135.0,-20.07936507936508,-25.476190476190474,-321.8253968253968
167.69841269841268,-145.47619047619048,88.4920634920635,-7.698412698412698,150.87301587301587,127.53968253968253,150.23809523809524,130.07936507936506,264.36507936507934,-325.0,325.0,122.46031746031746,81.34920634920634,-146.74603174603175,83.09523809523809,-325.0,-132.14285714285714,-325.0,33.25396825396825,-140.3968253968254,-135.0,-20.07936507936508,-25.476190476190474,-321.8253968253968
167.69841269841268,-145.47619047619048,88.4920634920635,-7.698412698412698,150.87301587301587,127.53968253968253,150.23809523809524,130.07936507936506,264.36507936507934,-325.0,325.0,122.46031746031746,81.34920634920634,-146.74603174603175,83.09523809523809,-325.0,-132.14285714285714,-325.0,33.25396825396825,-140.3968253968254,-135.0,-20.07936507936508,-25.476190476190474,-321.8253968253968
167.69841269841268,-145.47619047619048,88.4920634920635,-7.698412698412698,150.87301587301587,127.53968253968253,150.23809523809524,130.07936507936506,264.36507936507934,-325.0,325.0,122.46031746031746,81.34920634920634,-146.74603174603175,83.09523809523809,-325.0,-132.14285714285714,-325.0,33.25396825396825,-140.3968253968254,-135.0,-20.07936507936508,-25.476190476190474,-321.8253968253968
167.69841269841268,-145.47619047619048,88.4920634920635,-7.698412698412698,150.87301587301587,127.53968253968253,150.23809523809524,130.07936507936506,264.36507936507934,-325.0,325.0,122.46031746031746,81.34920634920634,-146.74603174603175,83.09523809523809,-325.0,-132.14285714285714,-325.0,33.25396825396825,-140.3968253968254,-135.0,-20.07936507936508,-25.476190476190474,-321.8253968253968
159.9206349206349,-138.96825396825395,104.36507936507935,-15.0,144.2063492063492,-98.80952380952381,143.4126984126984,124.2063492063492,252.46031746031744,-311.5079365079365,325.0,116.74603174603173,101.66666666666666,-140.07936507936506,100.39682539682539,-325.0,-126.1111111111111,-325.0,25.952380952380953,-134.04761904761904,-128.8095238095238,3.4126984126984126,5.476190476190476,-321.8253968253968
159.9206349206349,-138.96825396825395,104.36507936507935,-15.0,144.2063492063492,-98.80952380952381,143.4126984126984,124.2063492063492,252.46031746031744,-311.5079365079365,325.0,116.74603174603173,101.66666666666666,-140.07936507936506,100.39682539682539,-325.0,-126.1111111111111,-325.0,25.952380952380953,-134.04761904761904,-128.8095238095238,3.4126984126984126,5.476190476190476,-321.8253968253968
150.23809523809524,-130.87301587301587,120.07936507936508,-20.555555555555554,135.63492063492063,-325.0,134.84126984126982,117.06349206349206,237.53968253968253,-294.2063492063492,325.0,109.76190476190476,119.12698412698413,-131.5079365079365,120.39682539682539,-325.0,-118.65079365079364,-325.0,21.349206349206348,-126.1111111111111,-120.71428571428571,-25.0,-32.14285714285714,-166.26984126984127
150.23809523809524,-130.87301587301587,120.07936507936508,-20.555555555555554,135.63492063492063,-325.0,134.84126984126982,117.06349206349206,237.53968253968253,-294.2063492063492,325.0,109.76190476190476,119.12698412698413,-131.5079365079365,120.39682539682539,-325.0,-118.65079365079364,-325.0,21.349206349206348,-126.1111111111111,-120.71428571428571,-25.0,-32.14285714285714,-166.26984126984127
144.68253968253967,-126.1111111111111,115.0,-17.38095238095238,130.3968253968254,-325.0,129.76190476190476,112.6190476190476,228.65079365079364,-283.0952380952381,325.0,105.63492063492063,116.1111111111111,-126.42857142857142,113.09523809523809,-323.25396825396825,-114.04761904761904,-325.0,22.936507936507937,-121.5079365079365,-116.1111111111111,25.79365079365079,35.317460317460316,-166.26984126984127
144.68253968253967,-126.1111111111111,115.0,-17.38095238095238,130.3968253968254,-325.0,129.76190476190476,112.6190476190476,228.65079365079364,-283.0952380952381,325.0,105.63492063492063,116.1111111111111,-126.42857142857142,113.09523809523809,-323.25396825396825,-114.04761904761904,-325.0,22.936507936507937,-121.5079365079365,-116.1111111111111,25.79365079365079,35.317460317460316,-166.26984126984127
140.7142857142857,-122.6190476190476,105.0,-17.38095238095238,127.53968253968253,-325.0,126.1111111111111,109.92063492063491,222.93650793650792,-275.7936507936508,325.0,102.61904761904762,103.25396825396825,-123.09523809523809,106.74603174603175,-318.4920634920635,-111.34920634920634,-325.0,21.984126984126984,-118.01587301587301,-112.77777777777777,-23.88888888888889,-30.238095238095237,-166.26984126984127
140.7142857142857,-122.6190476190476,105.0,-17.38095238095238,127.53968253968253,-325.0,126.1111111111111,109.92063492063491,222.93650793650792,-275.7936507936508,325.0,102.61904761904762,103.25396825396825,-123.09523809523809,106.74603174603175,-318.4920634920635,-111.34920634920634,-325.0,21.984126984126984,-118.01587301587301,-112.77777777777777,-23.88888888888889,-30.238095238095237,-166.26984126984127
138.65079365079364,-121.19047619047619,123.25396825396825,-22.3015873015873,125.79365079365078,-325.0,124.52380952380952,108.49206349206348,220.07936507936506,-272.3015873015873,325.0,101.34920634920634,122.93650793650794,-121.66666666666666,123.57142857142857,-314.8412698412698,-109.92063492063491,-325.0,16.587301587301585,-116.58730158730158,-111.5079365079365,0.3968253968253968,2.142857142857143,-166.26984126984127
138.65079365079364,-121.19047619047619,123.25396825396825,-22.3015873015873,125.79365079365078,-325.0,124.52380952380952,108.49206349206348,220.07936507936506,-272.3015873015873,325.0,101.34920634920634,122.93650793650794,-121.66666666666666,123.57142857142857,-314.8412698412698,-109.92063492063491,-325.0,16.587301587301585,-116.58730158730158,-111.5079365079365,0.3968253968253968,2.142857142857143,-166.26984126984127
135.15873015873015,-118.17460317460316,126.42857142857142,-21.825396825396822,122.46031746031746,-325.0,121.5079365079365,105.63492063492063,214.52380952380952,-265.3174603174603,325.0,98.96825396825396,125.47619047619047,-118.33333333333333,127.6984126984127,-306.90476190476187,-106.9047619047619,-325.0,17.38095238095238,-113.73015873015872,-108.49206349206348,-25.317460317460316,-32.3015873015873,-166.26984126984127
135.15873015873015,-118.17460317460316,126.42857142857142,-21.825396825396822,122.46031746031746,-325.0,121.5079365079365,105.63492063492063,214.52380952380952,-265.3174603174603,325.0,98.96825396825396,125.47619047619047,-118.33333333333333,127.6984126984127,-306.90476190476187,-106.9047619047619,-325.0,17.38095238095238,-113.73015873015872,-108.49206349206348,-25.317460317460316,-32.3015873015873,-166.26984126984127
133.4126984126984,-116.74603174603173,131.66666666666666,-21.666666666666664,121.03174603174602,-325.0,119.76190476190476,104.52380952380952,211.8253968253968,-261.984126984127,325.0,97.53968253968253,132.61904761904762,-116.74603174603173,132.14285714285714,-303.0952380952381,-105.63492063492063,-325.0,16.904761904761905,-112.14285714285714,-106.9047619047619,-1.0317460317460316,0.07936507936507936,-321.8253968253968
133.4126984126984,-116.74603174603173,131.66666666666666,-21.666666666666664,121.03174603174602,-325.0,119.76190476190476,104.52380952380952,211.8253968253968,-261.984126984127,325.0,97.53968253968253,132.61904761904762,-116.74603174603173,132.14285714285714,-303.0952380952381,-105.63492063492063,-325.0,16.904761904761905,-112.14285714285714,-106.9047619047619,-1.0317460317460316,0.07936507936507936,-321.8253968253968
130.3968253968254,-114.2063492063492,119.92063492063491,-20.396825396825395,118.33333333333333,-325.0,117.38095238095238,102.30158730158729,207.2222222222222,-256.26984126984127,325.0,95.31746031746032,119.12698412698413,-114.2063492063492,121.19047619047619,-296.74603174603175,-103.25396825396825,-325.0,18.333333333333332,-109.92063492063491,-104.68253968253968,-24.84126984126984,-32.93650793650794,-321.8253968253968
130.3968253968254,-114.2063492063492,119.92063492063491,-20.396825396825395,118.33333333333333,-325.0,117.38095238095238,102.30158730158729,207.2222222222222,-256.26984126984127,325.0,95.31746031746032,119.12698412698413,-114.2063492063492,121.19047619047619,-296.74603174603175,-103.25396825396825,-325.0,18.333333333333332,-109.92063492063491,-104.68253968253968,-24.84126984126984,-32.93650793650794,-321.8253968253968
128.4920634920635,-112.46031746031746,146.42857142857142,-26.428571428571427,117.22222222222221,-325.0,115.79365079365078,101.19047619047619,204.68253968253967,-252.6190476190476,325.0,94.04761904761904,150.3968253968254,-113.09523809523809,144.68253968253967,-292.9365079365079,-101.66666666666666,-325.0,12.936507936507935,-108.17460317460316,-103.09523809523809,25.158730158730158,32.460317460317455,-321.8253968253968
128.4920634920635,-112.46031746031746,146.42857142857142,-26.428571428571427,117.22222222222221,-325.0,115.79365079365078,101.19047619047619,204.68253968253967,-252.6190476190476,325.0,94.04761904761904,150.3968253968254,-113.09523809523809,144.68253968253967,-292.9365079365079,-101.66666666666666,-325.0,12.936507936507935,-108.17460317460316,-103.09523809523809,25.158730158730158,32.460317460317455,-321.8253968253968
124.2063492063492,-108.96825396825396,178.4920634920635,-28.015873015873016,113.09523809523809,-325.0,111.98412698412697,97.53968253968253,197.85714285714283,-244.36507936507934,-0.07936507936507936,90.87301587301587,181.34920634920633,-108.80952380952381,179.9206349206349,-283.25396825396825,-98.33333333333333,-325.0,9.285714285714285,-104.52380952380952,-99.6031746031746,-0.3968253968253968,-0.5555555555555556,-321.8253968253968
124.2063492063492,-108.96825396825396,178.4920634920635,-28.015873015873016,113.09523809523809,-325.0,111.98412698412697,97.53968253968253,197.85714285714283,-244.36507936507934,-0.07936507936507936,90.87301587301587,181.34920634920633,-108.80952380952381,179.9206349206349,-283.25396825396825,-98.33333333333333,-325.0,9.285714285714285,-104.52380952380952,-99.6031746031746,-0.3968253968253968,-0.5555555555555556,-321.8253968253968
121.82539682539682,-107.06349206349206,225.95238095238093,-32.3015873015873,111.19047619047619,-325.0,109.92063492063491,95.95238095238095,194.52380952380952,-240.07936507936506,-325.0,89.28571428571428,228.33333333333331,-106.9047619047619,227.2222222222222,-278.4920634920635,-96.58730158730158,-325.0,5.0,-102.61904761904762,-97.85714285714285,-1.0317460317460316,-0.3968253968253968,-321.8253968253968
121.82539682539682,-107.06349206349206,225.95238095238093,-32.3015873015873,111.19047619047619,-325.0,109.92063492063491,95.95238095238095,194.52380952380952,-240.07936507936506,-325.0,89.28571428571428,228.33333333333331,-106.9047619047619,227.2222222222222,-278.4920634920635,-96.58730158730158,-325.0,5.0,-102.61904761904762,-97.85714285714285,-1.0317460317460316,-0.3968253968253968,-321.8253968253968
118.8095238095238,-104.36507936507935,211.03174603174602,-37.06349206349206,108.33333333333333,-325.0,107.06349206349206,93.4126984126984,189.60317460317458,-234.2063492063492,-325.0,87.06349206349206,213.09523809523807,-104.04761904761904,212.3015873015873,-271.5079365079365,-94.2063492063492,-325.0,0.07936507936507936,-100.07936507936508,-95.15873015873015,-0.7142857142857142,-0.7142857142857142,-166.26984126984127
118.8095238095238,-104.36507936507935,211.03174603174602,-37.06349206349206,108.33333333333333,-325.0,107.06349206349206,93.4126984126984,189.60317460317458,-234.2063492063492,-325.0,87.06349206349206,213.09523809523807,-104.04761904761904,212.3015873015873,-271.5079365079365,-94.2063492063492,-325.0,0.07936507936507936,-100.07936507936508,-95.15873015873015,-0.7142857142857142,-0.7142857142857142,-166.26984126984127
117.85714285714285,-103.4126984126984,196.11111111111111,-31.98412698412698,107.53968253968253,-325.0,106.26984126984127,92.61904761904762,188.015873015873,-231.98412698412696,-325.0,86.26984126984127,196.42857142857142,-103.25396825396825,199.28571428571428,-269.1269841269841,-93.25396825396825,-325.0,4.2063492063492065,-99.12698412698413,-94.2063492063492,-28.174603174603174,-36.74603174603175,-166.26984126984127
117.85714285714285,-103.4126984126984,196.11111111111111,-31.98412698412698,107.53968253968253,-325.0,106.26984126984127,92.61904761904762,188.015873015873,-231.98412698412696,-325.0,86.26984126984127,196.42857142857142,-103.25396825396825,199.28571428571428,-269.1269841269841,-93.25396825396825,-325.0,4.2063492063492065,-99.12698412698413,-94.2063492063492,-28.174603174603174,-36.74603174603175,-166.26984126984127
113.88888888888889,-100.55555555555554,207.53968253968253,-29.444444444444443,104.52380952380952,-325.0,102.77777777777777,90.23809523809523,182.46031746031744,-225.15873015873015,-325.0,83.73015873015872,208.33333333333331,-100.07936507936508,209.28571428571428,-261.5079365079365,-90.71428571428571,-325.0,6.111111111111111,-96.26984126984127,-91.5079365079365,-3.73015873015873,-4.841269841269841,-166.26984126984127
113.88888888888889,-100.55555555555554,207.53968253968253,-29.444444444444443,104.52380952380952,-325.0,102.77777777777777,90.23809523809523,182.46031746031744,-225.15873015873015,-325.0,83.73015873015872,208.33333333333331,-100.07936507936508,209.28571428571428,-261.5079365079365,-90.71428571428571,-325.0,6.111111111111111,-96.26984126984127,-91.5079365079365,-3.73015873015873,-4.841269841269841,-166.26984126984127
111.98412698412697,-98.80952380952381,202.3015873015873,-31.666666666666664,102.46031746031746,-325.0,101.03174603174602,88.65079365079364,179.28571428571428,-221.34920634920633,-325.0,82.3015873015873,206.1111111111111,-98.17460317460316,203.57142857142856,-257.06349206349205,-89.12698412698413,-325.0,5.634920634920634,-94.84126984126983,-89.76190476190476,4.0476190476190474,4.365079365079365,-166.26984126984127
111.98412698412697,-98.80952380952381,202.3015873015873,-31.666666666666664,102.46031746031746,-325.0,101.03174603174602,88.65079365079364,179.28571428571428,-221.34920634920633,-325.0,82.3015873015873,206.1111111111111,-98.17460317460316,203.57142857142856,-257.06349206349205,-89.12698412698413,-325.0,5.634920634920634,-94.84126984126983,-89.76190476190476,4.0476190476190474,4.365079365079365,-166.26984126984127
110.39682539682539,-97.53968253968253,187.06349206349205,-32.14285714285714,101.34920634920634,-325.0,99.6031746031746,87.53968253968253,176.9047619047619,-218.33333333333331,-325.0,81.03174603174602,189.60317460317458,-97.06349206349206,188.96825396825395,-253.7301587301587,-87.85714285714285,-325.0,4.0476190476190474,-93.57142857142857,-88.4920634920635,-0.23809523809523808,-0.7142857142857142,-166.26984126984127
110.39682539682539,-97.53968253968253,187.06349206349205,-32.14285714285714,101.34920634920634,-325.0,99.6031746031746,87.53968253968253,176.9047619047619,-218.33333333333331,-325.0,81.03174603174602,189.60317460317458,-97.06349206349206,188.96825396825395,-253.7301587301587,-87.85714285714285,-325.0,4.0476190476190474,-93.57142857142857,-88.4920634920635,-0.23809523809523808,-0.7142857142857142,-166.26984126984127
108.17460317460316,-95.47619047619047,186.42857142857142,-31.825396825396822,99.12698412698413,-325.0,97.53968253968253,85.79365079365078,173.25396825396825,-213.7301587301587,-325.0,79.28571428571428,190.7142857142857,-95.0,187.53968253968253,-248.65079365079364,-85.95238095238095,-325.0,4.682539682539682,-91.34920634920634,-86.58730158730158,4.0476190476190474,5.317460317460317,-321.8253968253968
108.17460317460316,-95.47619047619047,186.42857142857142,-31.825396825396822,99.12698412698413,-325.0,97.53968253968253,85.79365079365078,173.25396825396825,-213.7301587301587,-325.0,79.28571428571428,190.7142857142857,-95.0,187.53968253968253,-248.65079365079364,-85.95238095238095,-325.0,4.682539682539682,-91.34920634920634,-86.58730158730158,4.0476190476190474,5.317460317460317,-321.8253968253968
106.74603174603175,-94.36507936507935,169.76190476190476,-29.76190476190476,97.85714285714285,-325.0,96.26984126984127,84.68253968253968,171.03174603174602,-211.19047619047618,-325.0,78.33333333333333,171.984126984127,-93.73015873015872,171.34920634920633,-245.47619047619045,-84.84126984126983,-325.0,6.26984126984127,-90.39682539682539,-85.47619047619047,-0.3968253968253968,-0.7142857142857142,-321.8253968253968
106.74603174603175,-94.36507936507935,169.76190476190476,-29.76190476190476,97.85714285714285,-325.0,96.26984126984127,84.68253968253968,171.03174603174602,-211.19047619047618,-325.0,78.33333333333333,171.984126984127,-93.73015873015872,171.34920634920633,-245.47619047619045,-84.84126984126983,-325.0,6.26984126984127,-90.39682539682539,-85.47619047619047,-0.3968253968253968,-0.7142857142857142,-321.8253968253968
104.36507936507935,-92.30158730158729,161.19047619047618,-32.93650793650794,95.79365079365078,-325.0,94.2063492063492,82.77777777777777,167.53968253968253,-206.42857142857142,-325.0,76.58730158730158,165.3174603174603,-91.82539682539682,162.3015873015873,-240.3968253968254,-82.93650793650794,-325.0,3.253968253968254,-88.4920634920635,-83.4126984126984,6.111111111111111,6.111111111111111,-321.8253968253968
104.36507936507935,-92.30158730158729,161.19047619047618,-32.93650793650794,95.79365079365078,-325.0,94.2063492063492,82.77777777777777,167.53968253968253,-206.42857142857142,-325.0,76.58730158730158,165.3174603174603,-91.82539682539682,162.3015873015873,-240.3968253968254,-82.93650793650794,-325.0,3.253968253968254,-88.4920634920635,-83.4126984126984,6.111111111111111,6.111111111111111,-321.8253968253968
102.46031746031746,-90.71428571428571,136.26984126984127,-29.6031746031746,94.2063492063492,-325.0,92.46031746031746,81.5079365079365,164.68253968253967,-203.25396825396825,-325.0,75.47619047619047,136.58730158730157,-90.07936507936508,138.4920634920635,-236.58730158730157,-81.66666666666666,-325.0,4.841269841269841,-87.06349206349206,-82.3015873015873,-5.952380952380952,-7.5396825396825395,-321.8253968253968
102.46031746031746,-90.71428571428571,136.26984126984127,-29.6031746031746,94.2063492063492,-325.0,92.46031746031746,81.5079365079365,164.68253968253967,-203.25396825396825,-325.0,75.47619047619047,136.58730158730157,-90.07936507936508,138.4920634920635,-236.58730158730157,-81.66666666666666,-325.0,4.841269841269841,-87.06349206349206,-82.3015873015873,-5.952380952380952,-7.5396825396825395,-321.8253968253968
100.55555555555554,-89.28571428571428,150.55555555555554,-34.84126984126984,92.77777777777777,-325.0,90.87301587301587,46.11111111111111,161.8253968253968,-199.60317460317458,-325.0,74.04761904761904,155.15873015873015,-88.4920634920635,151.984126984127,-232.46031746031744,-80.23809523809523,-325.0,0.873015873015873,-85.31746031746032,-80.55555555555556,6.26984126984127,7.222222222222221,-321.8253968253968
100.55555555555554,-89.28571428571428,150.55555555555554,-34.84126984126984,92.77777777777777,-325.0,90.87301587301587,46.11111111111111,161.8253968253968,-199.60317460317458,-325.0,74.04761904761904,155.15873015873015,-88.4920634920635,151.984126984127,-232.46031746031744,-80.23809523809523,-325.0,0.873015873015873,-85.31746031746032,-80.55555555555556,6.26984126984127,7.222222222222221,-321.8253968253968
98.80952380952381,-87.85714285714285,123.25396825396825,-30.87301587301587,91.03174603174602,-325.0,89.28571428571428,72.93650793650794,158.96825396825395,-196.42857142857142,-325.0,72.77777777777777,123.57142857142857,-87.06349206349206,125.31746031746032,-228.49206349206347,-78.96825396825396,-325.0,3.253968253968254,-84.2063492063492,-79.28571428571428,-7.063492063492063,-8.492063492063492,-166.26984126984127
98.80952380952381,-87.85714285714285,123.25396825396825,-30.87301587301587,91.03174603174602,-325.0,89.28571428571428,72.93650793650794,158.96825396825395,-196.42857142857142,-325.0,72.77777777777777,123.57142857142857,-87.06349206349206,125.31746031746032,-228.49206349206347,-78.96825396825396,-325.0,3.253968253968254,-84.2063492063492,-79.28571428571428,-7.063492063492063,-8.492063492063492,-166.26984126984127
96.58730158730158,-85.79365079365078,160.07936507936506,-34.84126984126984,89.12698412698413,-325.0,87.38095238095238,-137.85714285714286,155.63492063492063,-192.14285714285714,-325.0,71.34920634920634,166.42857142857142,-85.15873015873015,161.66666666666666,-223.7301587301587,-77.06349206349206,-325.0,-0.3968253968253968,-82.3015873015873,-77.38095238095238,31.507936507936506,39.6031746031746,-166.26984126984127
96.58730158730158,-85.79365079365078,160.07936507936506,-34.84126984126984,89.12698412698413,-325.0,87.38095238095238,-137.85714285714286,155.63492063492063,-192.14285714285714,-325.0,71.34920634920634,166.42857142857142,-85.15873015873015,161.66666666666666,-223.7301587301587,-77.06349206349206,-325.0,-0.3968253968253968,-82.3015873015873,-77.38095238095238,31.507936507936506,39.6031746031746,-166.26984126984127
94.52380952380952,-84.04761904761904,139.44444444444443,-32.61904761904762,87.38095238095238,-325.0,85.47619047619047,-227.69841269841268,152.3015873015873,-188.015873015873,-325.0,51.666666666666664,141.984126984127,-83.25396825396825,144.2063492063492,-218.96825396825395,-75.47619047619047,-325.0,1.507936507936508,-80.23809523809523,-75.63492063492063,-23.253968253968253,-32.460317460317455,-166.26984126984127
94.52380952380952,-84.04761904761904,139.44444444444443,-32.61904761904762,87.38095238095238,-325.0,85.47619047619047,-227.69841269841268,152.3015873015873,-188.015873015873,-325.0,51.666666666666664,141.984126984127,-83.25396825396825,144.2063492063492,-218.96825396825395,-75.47619047619047,-325.0,1.507936507936508,-80.23809523809523,-75.63492063492063,-23.253968253968253,-32.460317460317455,-166.26984126984127
93.25396825396825,-82.77777777777777,213.7301587301587,-35.95238095238095,85.95238095238095,-325.0,84.36507936507937,-325.0,150.3968253968254,-185.3174603174603,-325.0,39.76190476190476,221.5079365079365,-82.14285714285714,216.42857142857142,-216.1111111111111,-74.36507936507937,-323.4126984126984,-2.3015873015873014,-79.44444444444444,-74.52380952380952,33.25396825396825,41.03174603174603,-166.26984126984127
93.25396825396825,-82.77777777777777,213.7301587301587,-35.95238095238095,85.95238095238095,-325.0,84.36507936507937,-325.0,150.3968253968254,-185.3174603174603,-325.0,39.76190476190476,221.5079365079365,-82.14285714285714,216.42857142857142,-216.1111111111111,-74.36507936507937,-323.4126984126984,-2.3015873015873014,-79.44444444444444,-74.52380952380952,33.25396825396825,41.03174603174603,-166.26984126984127
93.25396825396825,-82.77777777777777,213.7301587301587,-35.95238095238095,85.95238095238095,-325.0,84.36507936507937,-325.0,150.3968253968254,-185.3174603174603,-325.0,39.76190476190476,221.5079365079365,-82.14285714285714,216.42857142857142,-216.1111111111111,-74.36507936507937,-323.4126984126984,-2.3015873015873014,-79.44444444444444,-74.52380952380952,33.25396825396825,41.03174603174603,-166.26984126984127
93.25396825396825,-82.77777777777777,213.7301587301587,-35.95238095238095,85.95238095238095,-325.0,84.36507936507937,-325.0,150.3968253968254,-185.3174603174603,-325.0,39.76190476190476,221.5079365079365,-82.14285714285714,216.42857142857142,-216.1111111111111,-74.36507936507937,-323.4126984126984,-2.3015873015873014,-79.44444444444444,-74.52380952380952,33.25396825396825,41.03174603174603,-166.26984126984127
93.25396825396825,-82.77777777777777,213.7301587301587,-35.95238095238095,85.95238095238095,-325.0,84.36507936507937,-325.0,150.3968253968254,-185.3174603174603,-325.0,39.76190476190476,221.5079365079365,-82.14285714285714,216.42857142857142,-216.1111111111111,-74.36507936507937,-323.4126984126984,-2.3015873015873014,-79.44444444444444,-74.52380952380952,33.25396825396825,41.03174603174603,-321.8253968253968
93.25396825396825,-82.77777777777777,213.7301587301587,-35.95238095238095,85.95238095238095,-325.0,84.36507936507937,-325.0,150.3968253968254,-185.3174603174603,-325.0,39.76190476190476,221.5079365079365,-82.14285714285714,216.42857142857142,-216.1111111111111,-74.36507936507937,-323.4126984126984,-2.3015873015873014,-79.44444444444444,-74.52380952380952,33.25396825396825,41.03174603174603,-321.8253968253968
93.25396825396825,-82.77777777777777,213.7301587301587,-35.95238095238095,85.95238095238095,-325.0,84.36507936507937,-325.0,150.3968253968254,-185.3174603174603,-325.0,39.76190476190476,221.5079365079365,-82.14285714285714,216.42857142857142,-216.1111111111111,-74.36507936507937,-323.4126984126984,-2.3015873015873014,-79.44444444444444,-74.52380952380952,33.25396825396825,41.03174603174603,-321.8253968253968
93.25396825396825,-82.77777777777777,213.7301587301587,-35.95238095238095,85.95238095238095,-325.0,84.36507936507937,-325.0,150.3968253968254,-185.3174603174603,-325.0,39.76190476190476,221.5079365079365,-82.14285714285714,216.42857142857142,-216.1111111111111,-74.36507936507937,-323.4126984126984,-2.3015873015873014,-79.44444444444444,-74.52380952380952,33.25396825396825,41.03174603174603,-321.8253968253968
86.58730158730158,-77.22222222222221,278.6507936507936,-49.92063492063492,80.71428571428571,-325.0,78.65079365079364,-325.0,140.3968253968254,-173.09523809523807,-325.0,-325.0,286.90476190476187,-76.42857142857143,281.984126984127,-201.8253968253968,-69.28571428571428,-303.0952380952381,-18.015873015873016,-73.57142857142857,-69.44444444444444,32.460317460317455,41.34920634920635,-321.8253968253968
86.58730158730158,-77.22222222222221,278.6507936507936,-49.92063492063492,80.71428571428571,-325.0,78.65079365079364,-325.0,140.3968253968254,-173.09523809523807,-325.0,-325.0,286.90476190476187,-76.42857142857143,281.984126984127,-201.8253968253968,-69.28571428571428,-303.0952380952381,-18.015873015873016,-73.57142857142857,-69.44444444444444,32.460317460317455,41.34920634920635,-321.8253968253968
85.63492063492063,-76.42857142857143,263.57142857142856,-48.96825396825397,79.44444444444444,-325.0,77.6984126984127,-325.0,138.65079365079364,-171.03174603174602,-325.0,-325.0,269.76190476190476,-75.47619047619047,267.38095238095235,-199.28571428571428,-68.33333333333333,-299.4444444444444,-16.746031746031743,-72.77777777777777,-68.4920634920635,9.603174603174603,11.031746031746032,-321.8253968253968
85.63492063492063,-76.42857142857143,263.57142857142856,-48.96825396825397,79.44444444444444,-325.0,77.6984126984127,-325.0,138.65079365079364,-171.03174603174602,-325.0,-325.0,269.76190476190476,-75.47619047619047,267.38095238095235,-199.28571428571428,-68.33333333333333,-299.4444444444444,-16.746031746031743,-72.77777777777777,-68.4920634920635,9.603174603174603,11.031746031746032,-321.8253968253968
83.88888888888889,-74.84126984126983,232.46031746031744,-39.44444444444444,77.85714285714285,-325.0,76.1111111111111,-325.0,135.63492063492063,-167.38095238095238,-325.0,-325.0,239.12698412698413,-73.88888888888889,233.57142857142856,-195.3174603174603,-66.9047619047619,-293.4126984126984,-7.5396825396825395,-71.19047619047619,-66.9047619047619,33.095238095238095,41.82539682539682,-321.8253968253968
83.88888888888889,-74.84126984126983,232.46031746031744,-39.44444444444444,77.85714285714285,-325.0,76.1111111111111,-325.0,135.63492063492063,-167.38095238095238,-325.0,-325.0,239.12698412698413,-73.88888888888889,233.57142857142856,-195.3174603174603,-66.9047619047619,-293.4126984126984,-7.5396825396825395,-71.19047619047619,-66.9047619047619,33.095238095238095,41.82539682539682,-321.8253968253968
82.14285714285714,-73.25396825396825,202.61904761904762,-30.87301587301587,76.26984126984127,-325.0,74.36507936507937,-325.0,132.77777777777777,-163.88888888888889,-325.0,-325.0,206.26984126984127,-72.3015873015873,207.53968253968253,-191.19047619047618,-65.79365079365078,-287.6984126984127,0.5555555555555556,-69.92063492063491,-65.47619047619047,-23.41269841269841,-30.555555555555554,-166.26984126984127
82.14285714285714,-73.25396825396825,202.61904761904762,-30.87301587301587,76.26984126984127,-325.0,74.36507936507937,-325.0,132.77777777777777,-163.88888888888889,-325.0,-325.0,206.26984126984127,-72.3015873015873,207.53968253968253,-191.19047619047618,-65.79365079365078,-287.6984126984127,0.5555555555555556,-69.92063492063491,-65.47619047619047,-23.41269841269841,-30.555555555555554,-166.26984126984127
81.03174603174602,-72.3015873015873,211.98412698412696,-32.460317460317455,75.0,-325.0,73.4126984126984,-325.0,131.03174603174602,-161.66666666666666,-325.0,-325.0,219.28571428571428,-71.34920634920634,213.4126984126984,-188.65079365079364,-64.68253968253968,-284.04761904761904,-1.6666666666666665,-69.12698412698413,-64.52380952380952,32.93650793650794,43.41269841269841,-166.26984126984127
81.03174603174602,-72.3015873015873,211.98412698412696,-32.460317460317455,75.0,-325.0,73.4126984126984,-325.0,131.03174603174602,-161.66666666666666,-325.0,-325.0,219.28571428571428,-71.34920634920634,213.4126984126984,-188.65079365079364,-64.68253968253968,-284.04761904761904,-1.6666666666666665,-69.12698412698413,-64.52380952380952,32.93650793650794,43.41269841269841,-166.26984126984127
78.33333333333333,-70.23809523809524,180.07936507936506,-32.460317460317455,72.93650793650794,-325.0,71.19047619047619,-325.0,127.22222222222221,-156.9047619047619,-325.0,-325.0,186.11111111111111,-57.698412698412696,182.93650793650792,-183.4126984126984,-62.93650793650793,-276.4285714285714,-1.507936507936508,-67.06349206349206,-62.61904761904761,11.984126984126984,14.047619047619047,-166.26984126984127
78.33333333333333,-70.23809523809524,180.07936507936506,-32.460317460317455,72.93650793650794,-325.0,71.19047619047619,-325.0,127.22222222222221,-156.9047619047619,-325.0,-325.0,186.11111111111111,-57.698412698412696,182.93650793650792,-183.4126984126984,-62.93650793650793,-276.4285714285714,-1.507936507936508,-67.06349206349206,-62.61904761904761,11.984126984126984,14.047619047619047,-166.26984126984127
77.06349206349206,-69.28571428571428,160.7142857142857,-28.015873015873016,71.66666666666666,-325.0,69.92063492063491,-325.0,125.15873015873015,-154.36507936507937,-325.0,-325.0,166.74603174603175,4.682539682539682,163.88888888888889,-180.23809523809524,-61.98412698412698,-271.984126984127,2.46031746031746,-65.95238095238095,-61.507936507936506,12.142857142857142,14.84126984126984,-166.26984126984127
77.06349206349206,-69.28571428571428,160.7142857142857,-28.015873015873016,71.66666666666666,-325.0,69.92063492063491,-325.0,125.15873015873015,-154.36507936507937,-325.0,-325.0,166.74603174603175,4.682539682539682,163.88888888888889,-180.23809523809524,-61.98412698412698,-271.984126984127,2.46031746031746,-65.95238095238095,-61.507936507936506,12.142857142857142,14.84126984126984,-166.26984126984127
75.47619047619047,-67.53968253968253,150.87301587301587,-26.11111111111111,70.23809523809524,-325.0,68.4920634920635,-325.0,122.46031746031746,-151.03174603174602,-325.0,-325.0,157.38095238095238,143.4126984126984,152.3015873015873,-176.42857142857142,-60.39682539682539,-266.58730158730157,3.73015873015873,-64.2063492063492,-60.238095238095234,34.682539682539684,44.36507936507936,-166.26984126984127
75.47619047619047,-67.53968253968253,150.87301587301587,-26.11111111111111,70.23809523809524,-325.0,68.4920634920635,-325.0,122.46031746031746,-151.03174603174602,-325.0,-325.0,157.38095238095238,143.4126984126984,152.3015873015873,-176.42857142857142,-60.39682539682539,-266.58730158730157,3.73015873015873,-64.2063492063492,-60.238095238095234,34.682539682539684,44.36507936507936,-166.26984126984127
73.57142857142857,-66.26984126984127,124.52380952380952,-30.555555555555554,68.65079365079364,-325.0,66.9047619047619,-325.0,119.76190476190476,-147.85714285714286,-325.0,-325.0,128.17460317460316,307.22222222222223,129.6031746031746,-172.93650793650792,-59.12698412698413,-261.031746031746,-1.507936507936508,-63.095238095238095,-58.8095238095238,-22.3015873015873,-28.809523809523807,-321.8253968253968
73.57142857142857,-66.26984126984127,124.52380952380952,-30.555555555555554,68.65079365079364,-325.0,66.9047619047619,-325.0,119.76190476190476,-147.85714285714286,-325.0,-325.0,128.17460317460316,307.22222222222223,129.6031746031746,-172.93650793650792,-59.12698412698413,-261.031746031746,-1.507936507936508,-63.095238095238095,-58.8095238095238,-22.3015873015873,-28.809523809523807,-321.8253968253968
73.25396825396825,-65.95238095238095,126.42857142857142,-32.61904761904762,68.33333333333333,-325.0,66.58730158730158,-325.0,119.12698412698413,-147.2222222222222,-325.0,-325.0,130.7142857142857,289.6031746031746,129.76190476190476,-172.14285714285714,-58.96825396825397,-259.9206349206349,-3.095238095238095,-62.93650793650793,-58.33333333333333,-9.603174603174603,-12.46031746031746,-321.8253968253968
73.25396825396825,-65.95238095238095,126.42857142857142,-32.61904761904762,68.33333333333333,-325.0,66.58730158730158,-325.0,119.12698412698413,-147.2222222222222,-325.0,-325.0,130.7142857142857,289.6031746031746,129.76190476190476,-172.14285714285714,-58.96825396825397,-259.9206349206349,-3.095238095238095,-62.93650793650793,-58.33333333333333,-9.603174603174603,-12.46031746031746,-321.8253968253968
70.87301587301587,-64.04761904761905,64.04761904761905,-36.11111111111111,66.42857142857143,-325.0,64.52380952380952,-325.0,115.63492063492063,-142.93650793650792,325.0,-325.0,65.79365079365078,325.0,67.06349206349206,-167.2222222222222,-57.38095238095238,-252.77777777777777,-7.063492063492063,-61.03174603174603,-56.904761904761905,-21.825396825396822,-28.96825396825397,-321.8253968253968
70.87301587301587,-64.04761904761905,64.04761904761905,-36.11111111111111,66.42857142857143,-325.0,64.52380952380952,-325.0,115.63492063492063,-142.93650793650792,325.0,-325.0,65.79365079365078,325.0,67.06349206349206,-167.2222222222222,-57.38095238095238,-252.77777777777777,-7.063492063492063,-61.03174603174603,-56.904761904761905,-21.825396825396822,-28.96825396825397,-321.8253968253968
70.23809523809524,-63.41269841269841,39.285714285714285,-31.507936507936506,65.63492063492063,-325.0,63.888888888888886,-325.0,114.36507936507935,-141.03174603174602,325.0,-325.0,43.41269841269841,325.0,40.079365079365076,-165.0,-56.58730158730158,-249.76190476190476,-3.4126984126984126,-60.39682539682539,-56.11111111111111,33.73015873015873,43.73015873015873,-321.8253968253968
70.23809523809524,-63.41269841269841,39.285714285714285,-31.507936507936506,65.63492063492063,-325.0,63.888888888888886,-325.0,114.36507936507935,-141.03174603174602,325.0,-325.0,43.41269841269841,325.0,40.079365079365076,-165.0,-56.58730158730158,-249.76190476190476,-3.4126984126984126,-60.39682539682539,-56.11111111111111,33.73015873015873,43.73015873015873,-321.8253968253968
69.28571428571428,-62.61904761904761,52.3015873015873,-31.19047619047619,64.84126984126983,-325.0,62.93650793650793,-325.0,112.77777777777777,-139.28571428571428,325.0,-325.0,56.904761904761905,325.0,54.52380952380952,-162.93650793650792,-55.95238095238095,-246.74603174603172,-3.095238095238095,-59.6031746031746,-55.317460317460316,13.73015873015873,17.063492063492063,-321.8253968253968
69.28571428571428,-62.61904761904761,52.3015873015873,-31.19047619047619,64.84126984126983,-325.0,62.93650793650793,-325.0,112.77777777777777,-139.28571428571428,325.0,-325.0,56.904761904761905,325.0,54.52380952380952,-162.93650793650792,-55.95238095238095,-246.74603174603172,-3.095238095238095,-59.6031746031746,-55.317460317460316,13.73015873015873,17.063492063492063,-321.8253968253968
67.53968253968253,-61.34920634920635,61.98412698412698,-26.9047619047619,63.41269841269841,-325.0,61.666666666666664,-325.0,110.39682539682539,-136.42857142857142,325.0,-325.0,66.42857142857143,325.0,62.3015873015873,-159.44444444444443,-54.68253968253968,-242.14285714285714,0.3968253968253968,-58.17460317460317,-54.2063492063492,35.15873015873016,44.047619047619044,-166.26984126984127
67.53968253968253,-61.34920634920635,61.98412698412698,-26.9047619047619,63.41269841269841,-325.0,61.666666666666664,-325.0,110.39682539682539,-136.42857142857142,325.0,-325.0,66.42857142857143,325.0,62.3015873015873,-159.44444444444443,-54.68253968253968,-242.14285714285714,0.3968253968253968,-58.17460317460317,-54.2063492063492,35.15873015873016,44.047619047619044,-166.26984126984127
66.58730158730158,-60.55555555555555,67.85714285714285,-28.96825396825397,62.61904761904761,-325.0,60.71428571428571,-325.0,108.96825396825396,-134.68253968253967,325.0,-325.0,73.25396825396825,325.0,70.23809523809524,-157.38095238095238,-54.047619047619044,-239.12698412698413,-1.8253968253968254,-57.38095238095238,-53.41269841269841,15.476190476190474,18.174603174603174,-166.26984126984127
66.58730158730158,-60.55555555555555,67.85714285714285,-28.96825396825397,62.61904761904761,-325.0,60.71428571428571,-325.0,108.96825396825396,-134.68253968253967,325.0,-325.0,73.25396825396825,325.0,70.23809523809524,-157.38095238095238,-54.047619047619044,-239.12698412698413,-1.8253968253968254,-57.38095238095238,-53.41269841269841,15.476190476190474,18.174603174603174,-166.26984126984127
65.15873015873015,-59.12698412698413,77.53968253968253,-27.857142857142854,61.34920634920635,-325.0,59.44444444444444,-325.0,106.74603174603175,-131.66666666666666,325.0,-325.0,83.09523809523809,325.0,78.01587301587301,-154.36507936507937,-52.77777777777777,-234.2063492063492,-1.349206349206349,-56.269841269841265,-52.3015873015873,34.2063492063492,44.2063492063492,-166.26984126984127
65.15873015873015,-59.12698412698413,77.53968253968253,-27.857142857142854,61.34920634920635,-325.0,59.44444444444444,-325.0,106.74603174603175,-131.66666666666666,325.0,-325.0,83.09523809523809,325.0,78.01587301587301,-154.36507936507937,-52.77777777777777,-234.2063492063492,-1.349206349206349,-56.269841269841265,-52.3015873015873,34.2063492063492,44.2063492063492,-166.26984126984127
64.04761904761905,-58.17460317460317,87.22222222222221,-28.809523809523807,60.238095238095234,-325.0,58.49206349206349,-325.0,104.84126984126983,-129.44444444444443,325.0,-325.0,93.57142857142857,325.0,87.85714285714285,-151.8253968253968,-51.82539682539682,-230.3968253968254,-2.9365079365079363,-55.317460317460316,-51.34920634920635,34.682539682539684,44.68253968253968,-166.26984126984127
64.04761904761905,-58.17460317460317,87.22222222222221,-28.809523809523807,60.238095238095234,-325.0,58.49206349206349,-325.0,104.84126984126983,-129.44444444444443,325.0,-325.0,93.57142857142857,325.0,87.85714285714285,-151.8253968253968,-51.82539682539682,-230.3968253968254,-2.9365079365079363,-55.317460317460316,-51.34920634920635,34.682539682539684,44.68253968253968,-166.26984126984127
63.095238095238095,-57.22222222222222,97.06349206349206,-29.76190476190476,59.285714285714285,-325.0,57.53968253968254,-325.0,102.93650793650794,-127.22222222222221,325.0,-325.0,104.2063492063492,325.0,97.85714285714285,-149.12698412698413,-50.87301587301587,-226.42857142857142,-4.365079365079365,-54.2063492063492,-50.39682539682539,35.317460317460316,45.317460317460316,-166.26984126984127
63.095238095238095,-57.22222222222222,97.06349206349206,-29.76190476190476,59.285714285714285,-325.0,57.53968253968254,-325.0,102.93650793650794,-127.22222222222221,325.0,-325.0,104.2063492063492,325.0,97.85714285714285,-149.12698412698413,-50.87301587301587,-226.42857142857142,-4.365079365079365,-54.2063492063492,-50.39682539682539,35.317460317460316,45.317460317460316,-166.26984126984127
61.98412698412698,-56.269841269841265,83.09523809523809,-29.444444444444443,57.857142857142854,-325.0,56.42857142857142,-325.0,101.19047619047619,-125.0,325.0,-325.0,90.07936507936508,325.0,83.88888888888889,-146.58730158730157,-50.079365079365076,-222.93650793650792,-4.682539682539682,-53.41269841269841,-49.6031746031746,35.0,45.0,-321.8253968253968
61.98412698412698,-56.269841269841265,83.09523809523809,-29.444444444444443,57.857142857142854,-325.0,56.42857142857142,-325.0,101.19047619047619,-125.0,325.0,-325.0,90.07936507936508,325.0,83.88888888888889,-146.58730158730157,-50.079365079365076,-222.93650793650792,-4.682539682539682,-53.41269841269841,-49.6031746031746,35.0,45.0,-321.8253968253968
60.873015873015866,-55.317460317460316,69.28571428571428,-28.96825396825397,56.58730158730158,-325.0,55.476190476190474,-325.0,99.44444444444444,-122.77777777777777,325.0,-325.0,76.1111111111111,325.0,69.92063492063491,-144.04761904761904,-49.285714285714285,-219.44444444444443,-4.841269841269841,-52.460317460317455,-48.650793650793645,34.84126984126984,44.84126984126984,-321.8253968253968
60.873015873015866,-55.317460317460316,69.28571428571428,-28.96825396825397,56.58730158730158,-325.0,55.476190476190474,-325.0,99.44444444444444,-122.77777777777777,325.0,-325.0,76.1111111111111,325.0,69.92063492063491,-144.04761904761904,-49.285714285714285,-219.44444444444443,-4.841269841269841,-52.460317460317455,-48.650793650793645,34.84126984126984,44.84126984126984,-321.8253968253968
59.6031746031746,-54.36507936507936,71.5079365079365,-31.03174603174603,31.666666666666664,-325.0,54.68253968253968,-325.0,97.85714285714285,-120.87301587301586,325.0,-325.0,78.65079365079364,325.0,72.46031746031746,-141.8253968253968,-48.49206349206349,-216.1111111111111,-7.063492063492063,-51.666666666666664,-47.857142857142854,35.15873015873016,45.15873015873016,-321.8253968253968
59.6031746031746,-54.36507936507936,71.5079365079365,-31.03174603174603,31.666666666666664,-325.0,54.68253968253968,-325.0,97.85714285714285,-120.87301587301586,325.0,-325.0,78.65079365079364,325.0,72.46031746031746,-141.8253968253968,-48.49206349206349,-216.1111111111111,-7.063492063492063,-51.666666666666664,-47.857142857142854,35.15873015873016,45.15873015873016,-321.8253968253968
58.49206349206349,-53.41269841269841,73.88888888888889,-32.93650793650794,6.746031746031746,-325.0,53.888888888888886,-325.0,96.42857142857142,-118.8095238095238,325.0,-325.0,81.19047619047619,325.0,75.0,-139.44444444444443,-47.53968253968254,-212.77777777777777,-9.126984126984127,-50.71428571428571,-46.904761904761905,35.63492063492063,45.476190476190474,-321.8253968253968
58.49206349206349,-53.41269841269841,73.88888888888889,-32.93650793650794,6.746031746031746,-325.0,53.888888888888886,-325.0,96.42857142857142,-118.8095238095238,325.0,-325.0,81.19047619047619,325.0,75.0,-139.44444444444443,-47.53968253968254,-212.77777777777777,-9.126984126984127,-50.71428571428571,-46.904761904761905,35.63492063492063,45.476190476190474,-321.8253968253968
57.53968253968254,-51.507936507936506,64.68253968253968,-27.539682539682538,-57.698412698412696,-320.23809523809524,52.14285714285714,-325.0,94.68253968253968,-116.9047619047619,325.0,-325.0,72.14285714285714,325.0,65.47619047619047,-137.22222222222223,-46.74603174603175,-209.28571428571428,-4.2063492063492065,-49.76190476190476,-46.269841269841265,35.0,45.63492063492063,-321.8253968253968
57.53968253968254,-51.507936507936506,64.68253968253968,-27.539682539682538,-57.698412698412696,-320.23809523809524,52.14285714285714,-325.0,94.68253968253968,-116.9047619047619,325.0,-325.0,72.14285714285714,325.0,65.47619047619047,-137.22222222222223,-46.74603174603175,-209.28571428571428,-4.2063492063492065,-49.76190476190476,-46.269841269841265,35.0,45.63492063492063,-321.8253968253968
55.95238095238095,-51.19047619047619,39.6031746031746,-22.3015873015873,-192.46031746031744,-312.77777777777777,-60.079365079365076,-325.0,91.98412698412697,-113.73015873015872,325.0,-325.0,44.047619047619044,325.0,43.73015873015873,-133.73015873015873,-45.63492063492063,-204.04761904761904,0.5555555555555556,-48.49206349206349,-45.0,-0.23809523809523808,-0.3968253968253968,-166.26984126984127
55.95238095238095,-51.19047619047619,39.6031746031746,-22.3015873015873,-192.46031746031744,-312.77777777777777,-60.079365079365076,-325.0,91.98412698412697,-113.73015873015872,325.0,-325.0,44.047619047619044,325.0,43.73015873015873,-133.73015873015873,-45.63492063492063,-204.04761904761904,0.5555555555555556,-48.49206349206349,-45.0,-0.23809523809523808,-0.3968253968253968,-166.26984126984127
54.68253968253968,-51.507936507936506,85.47619047619047,-28.96825396825397,-300.55555555555554,-306.26984126984127,-44.52380952380952,-325.0,90.07936507936508,-111.34920634920634,325.0,-325.0,93.88888888888889,325.0,88.17460317460316,-130.7142857142857,-44.52380952380952,-199.76190476190476,-6.26984126984127,-47.53968253968254,-43.888888888888886,18.015873015873016,22.142857142857142,-166.26984126984127
54.68253968253968,-51.507936507936506,85.47619047619047,-28.96825396825397,-300.55555555555554,-306.26984126984127,-44.52380952380952,-325.0,90.07936507936508,-111.34920634920634,325.0,-325.0,93.88888888888889,325.0,88.17460317460316,-130.7142857142857,-44.52380952380952,-199.76190476190476,-6.26984126984127,-47.53968253968254,-43.888888888888886,18.015873015873016,22.142857142857142,-166.26984126984127
54.36507936507936,-51.19047619047619,93.25396825396825,-28.65079365079365,-276.1111111111111,-305.0,-40.87301587301587,-325.0,89.44444444444444,-110.87301587301587,325.0,-325.0,103.09523809523809,325.0,95.47619047619047,-130.23809523809524,-44.52380952380952,-198.8095238095238,-6.587301587301587,-47.38095238095238,-43.73015873015873,35.317460317460316,45.0,-166.26984126984127
54.36507936507936,-51.19047619047619,93.25396825396825,-28.65079365079365,-276.1111111111111,-305.0,-40.87301587301587,-325.0,89.44444444444444,-110.87301587301587,325.0,-325.0,103.09523809523809,325.0,95.47619047619047,-130.23809523809524,-44.52380952380952,-198.8095238095238,-6.587301587301587,-47.38095238095238,-43.73015873015873,35.317460317460316,45.0,-166.26984126984127
53.095238095238095,-49.76190476190476,127.06349206349206,-32.77777777777778,-325.0,-297.6984126984127,-160.55555555555554,-325.0,87.38095238095238,-107.6984126984127,325.0,-325.0,134.04761904761904,325.0,130.87301587301587,-127.6984126984127,-43.095238095238095,-194.04761904761904,-9.920634920634921,-46.11111111111111,-42.77777777777778,3.253968253968254,1.0317460317460316,-166.26984126984127
53.095238095238095,-49.76190476190476,127.06349206349206,-32.77777777777778,-325.0,-297.6984126984127,-160.55555555555554,-325.0,87.38095238095238,-107.6984126984127,325.0,-325.0,134.04761904761904,325.0,130.87301587301587,-127.6984126984127,-43.095238095238095,-194.04761904761904,-9.920634920634921,-46.11111111111111,-42.77777777777778,3.253968253968254,1.0317460317460316,-166.26984126984127
52.3015873015873,-44.52380952380952,108.33333333333333,-26.428571428571427,-325.0,-294.04761904761904,-242.77777777777777,-325.0,86.26984126984127,-106.42857142857142,325.0,-325.0,112.30158730158729,325.0,114.2063492063492,-126.42857142857142,-42.77777777777778,-191.8253968253968,-4.523809523809524,-45.63492063492063,-42.14285714285714,-15.793650793650793,-22.777777777777775,-166.26984126984127
52.3015873015873,-44.52380952380952,108.33333333333333,-26.428571428571427,-325.0,-294.04761904761904,-242.77777777777777,-325.0,86.26984126984127,-106.42857142857142,325.0,-325.0,112.30158730158729,325.0,114.2063492063492,-126.42857142857142,-42.77777777777778,-191.8253968253968,-4.523809523809524,-45.63492063492063,-42.14285714285714,-15.793650793650793,-22.777777777777775,-166.26984126984127
51.19047619047619,-45.95238095238095,143.88888888888889,-32.61904761904762,-325.0,-287.6984126984127,-325.0,-325.0,84.52380952380952,-104.2063492063492,325.0,-325.0,148.96825396825395,325.0,147.69841269841268,-124.04761904761904,-22.777777777777775,-187.69841269841268,-4.2063492063492065,-44.36507936507936,-40.87301587301587,4.0476190476190474,3.095238095238095,-321.8253968253968
51.19047619047619,-45.95238095238095,143.88888888888889,-32.61904761904762,-325.0,-287.6984126984127,-325.0,-325.0,84.52380952380952,-104.2063492063492,325.0,-325.0,148.96825396825395,325.0,147.69841269841268,-124.04761904761904,-22.777777777777775,-187.69841269841268,-4.2063492063492065,-44.36507936507936,-40.87301587301587,4.0476190476190474,3.095238095238095,-321.8253968253968
50.55555555555555,-46.58730158730158,151.5079365079365,-54.52380952380952,-325.0,-284.36507936507934,-325.0,-325.0,83.4126984126984,-102.93650793650794,325.0,-325.0,154.36507936507937,325.0,156.9047619047619,-122.6190476190476,-32.3015873015873,-185.63492063492063,-5.476190476190476,-43.888888888888886,-40.55555555555555,-15.634920634920634,-21.507936507936506,-321.8253968253968
50.55555555555555,-46.58730158730158,151.5079365079365,-54.52380952380952,-325.0,-284.36507936507934,-325.0,-325.0,83.4126984126984,-102.93650793650794,325.0,-325.0,154.36507936507937,325.0,156.9047619047619,-122.6190476190476,-32.3015873015873,-185.63492063492063,-5.476190476190476,-43.888888888888886,-40.55555555555555,-15.634920634920634,-21.507936507936506,-321.8253968253968
49.6031746031746,-46.58730158730158,181.66666666666666,-85.0,-325.0,-278.3333333333333,-325.0,-325.0,81.5079365079365,-100.39682539682539,325.0,-325.0,187.53968253968253,325.0,185.95238095238093,-119.76190476190476,36.11111111111111,-181.66666666666666,-7.698412698412698,-43.095238095238095,-39.44444444444444,4.841269841269841,5.158730158730158,-321.8253968253968
49.6031746031746,-46.58730158730158,181.66666666666666,-85.0,-325.0,-278.3333333333333,-325.0,-325.0,81.5079365079365,-100.39682539682539,325.0,-325.0,187.53968253968253,325.0,185.95238095238093,-119.76190476190476,36.11111111111111,-181.66666666666666,-7.698412698412698,-43.095238095238095,-39.44444444444444,4.841269841269841,5.158730158730158,-321.8253968253968
48.80952380952381,40.238095238095234,194.2063492063492,-178.8095238095238,-325.0,-275.0,-325.0,-325.0,80.39682539682539,-99.28571428571428,325.0,-325.0,199.12698412698413,325.0,200.23809523809524,-118.33333333333333,13.412698412698411,-179.44444444444443,-11.031746031746032,-42.460317460317455,-38.96825396825397,-15.0,-20.238095238095237,-321.8253968253968
48.80952380952381,40.238095238095234,194.2063492063492,-178.8095238095238,-325.0,-275.0,-325.0,-325.0,80.39682539682539,-99.28571428571428,325.0,-325.0,199.12698412698413,325.0,200.23809523809524,-118.33333333333333,13.412698412698411,-179.44444444444443,-11.031746031746032,-42.460317460317455,-38.96825396825397,-15.0,-20.238095238095237,-321.8253968253968
47.857142857142854,86.1111111111111,212.14285714285714,-172.14285714285714,-325.0,-269.1269841269841,-325.0,-325.0,78.96825396825396,-97.22222222222221,325.0,-325.0,217.38095238095238,325.0,216.1111111111111,-115.79365079365078,154.68253968253967,-176.11111111111111,-17.698412698412696,-41.507936507936506,-38.01587301587301,5.317460317460317,5.7936507936507935,-321.8253968253968
47.857142857142854,86.1111111111111,212.14285714285714,-172.14285714285714,-325.0,-269.1269841269841,-325.0,-325.0,78.96825396825396,-97.22222222222221,325.0,-325.0,217.38095238095238,325.0,216.1111111111111,-115.79365079365078,154.68253968253967,-176.11111111111111,-17.698412698412696,-41.507936507936506,-38.01587301587301,5.317460317460317,5.7936507936507935,-321.8253968253968
47.22222222222222,112.6190476190476,200.55555555555554,-248.65079365079364,-325.0,-265.7936507936508,-325.0,-325.0,77.85714285714285,-95.95238095238095,325.0,-325.0,205.79365079365078,325.0,206.9047619047619,-114.36507936507935,174.04761904761904,-173.88888888888889,-13.412698412698411,-40.87301587301587,-37.53968253968254,-14.84126984126984,-19.6031746031746,-166.26984126984127
47.22222222222222,112.6190476190476,200.55555555555554,-248.65079365079364,-325.0,-265.7936507936508,-325.0,-325.0,77.85714285714285,-95.95238095238095,325.0,-325.0,205.79365079365078,325.0,206.9047619047619,-114.36507936507935,174.04761904761904,-173.88888888888889,-13.412698412698411,-40.87301587301587,-37.53968253968254,-14.84126984126984,-19.6031746031746,-166.26984126984127
46.11111111111111,171.8253968253968,188.015873015873,-252.6190476190476,-325.0,-260.55555555555554,-325.0,-325.0,76.26984126984127,-93.88888888888889,325.0,-325.0,192.77777777777777,325.0,190.55555555555554,-111.98412698412697,325.0,-170.23809523809524,-12.142857142857142,-39.92063492063492,-36.904761904761905,6.746031746031746,7.3809523809523805,-166.26984126984127
46.11111111111111,171.8253968253968,188.015873015873,-252.6190476190476,-325.0,-260.55555555555554,-325.0,-325.0,76.26984126984127,-93.88888888888889,325.0,-325.0,192.77777777777777,325.0,190.55555555555554,-111.98412698412697,325.0,-170.23809523809524,-12.142857142857142,-39.92063492063492,-36.904761904761905,6.746031746031746,7.3809523809523805,-166.26984126984127
46.11111111111111,171.8253968253968,188.015873015873,-252.6190476190476,-325.0,-260.55555555555554,-325.0,-325.0,76.26984126984127,-93.88888888888889,325.0,-325.0,192.77777777777777,325.0,190.55555555555554,-111.98412698412697,325.0,-170.23809523809524,-12.142857142857142,-39.92063492063492,-36.904761904761905,6.746031746031746,7.3809523809523805,-166.26984126984127
46.11111111111111,171.8253968253968,188.015873015873,-252.6190476190476,-325.0,-260.55555555555554,-325.0,-325.0,76.26984126984127,-93.88888888888889,325.0,-325.0,192.77777777777777,325.0,190.55555555555554,-111.98412698412697,325.0,-170.23809523809524,-12.142857142857142,-39.92063492063492,-36.904761904761905,6.746031746031746,7.3809523809523805,-166.26984126984127
44.36507936507936,325.0,164.04761904761904,-325.0,-325.0,-251.8253968253968,-325.0,-325.0,73.25396825396825,-90.55555555555556,325.0,-325.0,170.55555555555554,325.0,166.74603174603175,-108.17460317460316,325.0,-164.68253968253967,-8.65079365079365,-38.65079365079365,-27.698412698412696,7.5396825396825395,8.333333333333332,-166.26984126984127
44.36507936507936,325.0,164.04761904761904,-325.0,-325.0,-251.8253968253968,-325.0,-325.0,73.25396825396825,-90.55555555555556,325.0,-325.0,170.55555555555554,325.0,166.74603174603175,-108.17460317460316,325.0,-164.68253968253967,-8.65079365079365,-38.65079365079365,-27.698412698412696,7.5396825396825395,8.333333333333332,-166.26984126984127
43.73015873015873,325.0,150.55555555555554,-325.0,-325.0,-248.8095238095238,-325.0,-325.0,72.46031746031746,-89.44444444444444,325.0,-325.0,155.15873015873015,325.0,154.04761904761904,-106.9047619047619,325.0,-162.77777777777777,-7.222222222222221,-38.33333333333333,15.158730158730158,-13.412698412698411,-18.65079365079365,-166.26984126984127
43.73015873015873,325.0,150.55555555555554,-325.0,-325.0,-248.8095238095238,-325.0,-325.0,72.46031746031746,-89.44444444444444,325.0,-325.0,155.15873015873015,325.0,154.04761904761904,-106.9047619047619,325.0,-162.77777777777777,-7.222222222222221,-38.33333333333333,15.158730158730158,-13.412698412698411,-18.65079365079365,-166.26984126984127
42.61904761904761,306.26984126984127,159.28571428571428,-325.0,-325.0,-242.77777777777777,-325.0,-325.0,70.71428571428571,-87.22222222222221,325.0,-325.0,167.53968253968253,325.0,163.73015873015873,-104.04761904761904,325.0,-158.8095238095238,-8.174603174603174,-37.22222222222222,-17.063492063492063,22.142857142857142,28.015873015873016,-321.8253968253968
42.61904761904761,306.26984126984127,159.28571428571428,-325.0,-325.0,-242.77777777777777,-325.0,-325.0,70.71428571428571,-87.22222222222221,325.0,-325.0,167.53968253968253,325.0,163.73015873015873,-104.04761904761904,325.0,-158.8095238095238,-8.174603174603174,-37.22222222222222,-17.063492063492063,22.142857142857142,28.015873015873016,-321.8253968253968
40.39682539682539,325.0,146.58730158730157,-325.0,-325.0,-236.74603174603175,-325.0,-325.0,69.12698412698413,-85.0,325.0,-325.0,151.66666666666666,325.0,150.23809523809524,-101.5079365079365,325.0,-155.0,-19.6031746031746,-36.42857142857142,150.23809523809524,-12.619047619047619,-17.22222222222222,-321.8253968253968
40.39682539682539,325.0,146.58730158730157,-325.0,-325.0,-236.74603174603175,-325.0,-325.0,69.12698412698413,-85.0,325.0,-325.0,151.66666666666666,325.0,150.23809523809524,-101.5079365079365,325.0,-155.0,-19.6031746031746,-36.42857142857142,150.23809523809524,-12.619047619047619,-17.22222222222222,-321.8253968253968
38.96825396825397,325.0,157.85714285714286,-325.0,-325.0,-232.93650793650792,-325.0,-325.0,67.6984126984127,-83.57142857142857,-116.42857142857142,-325.0,164.2063492063492,325.0,164.36507936507937,-99.6031746031746,325.0,-152.46031746031744,-16.26984126984127,-35.63492063492063,-10.079365079365079,11.984126984126984,15.317460317460316,-321.8253968253968
38.96825396825397,325.0,157.85714285714286,-325.0,-325.0,-232.93650793650792,-325.0,-325.0,67.6984126984127,-83.57142857142857,-116.42857142857142,-325.0,164.2063492063492,325.0,164.36507936507937,-99.6031746031746,325.0,-152.46031746031744,-16.26984126984127,-35.63492063492063,-10.079365079365079,11.984126984126984,15.317460317460316,-321.8253968253968
21.507936507936506,325.0,224.36507936507934,-325.0,-325.0,-228.96825396825395,-325.0,-325.0,66.74603174603175,-81.98412698412697,-325.0,-325.0,232.46031746031744,325.0,230.7142857142857,-98.01587301587301,325.0,-149.9206349206349,-18.65079365079365,-35.0,208.015873015873,-11.19047619047619,-15.793650793650793,-321.8253968253968
21.507936507936506,325.0,224.36507936507934,-325.0,-325.0,-228.96825396825395,-325.0,-325.0,66.74603174603175,-81.98412698412697,-325.0,-325.0,232.46031746031744,325.0,230.7142857142857,-98.01587301587301,325.0,-149.9206349206349,-18.65079365079365,-35.0,208.015873015873,-11.19047619047619,-15.793650793650793,-321.8253968253968
28.015873015873016,325.0,183.88888888888889,-325.0,-325.0,-225.3174603174603,-325.0,-325.0,65.47619047619047,-80.71428571428571,-325.0,-325.0,187.69841269841268,325.0,187.53968253968253,-96.42857142857142,325.0,-147.53968253968253,-17.22222222222222,-34.52380952380952,70.23809523809524,9.920634920634921,13.095238095238095,-321.8253968253968
28.015873015873016,325.0,183.88888888888889,-325.0,-325.0,-225.3174603174603,-325.0,-325.0,65.47619047619047,-80.71428571428571,-325.0,-325.0,187.69841269841268,325.0,187.53968253968253,-96.42857142857142,325.0,-147.53968253968253,-17.22222222222222,-34.52380952380952,70.23809523809524,9.920634920634921,13.095238095238095,-321.8253968253968
-68.96825396825396,325.0,173.73015873015873,-325.0,-325.0,-222.3015873015873,-325.0,-325.0,64.84126984126983,-79.92063492063491,-325.0,-325.0,178.33333333333331,325.0,180.87301587301587,-95.0,325.0,-145.47619047619048,-15.95238095238095,-34.047619047619044,325.0,-33.57142857142857,-43.73015873015873,-166.26984126984127
-68.96825396825396,325.0,173.73015873015873,-325.0,-325.0,-222.3015873015873,-325.0,-325.0,64.84126984126983,-79.92063492063491,-325.0,-325.0,178.33333333333331,325.0,180.87301587301587,-95.0,325.0,-145.47619047619048,-15.95238095238095,-34.047619047619044,325.0,-33.57142857142857,-43.73015873015873,-166.26984126984127
-0.873015873015873,325.0,175.15873015873015,-325.0,-325.0,-218.015873015873,-325.0,-325.0,63.25396825396825,-78.01587301587301,-325.0,-325.0,180.7142857142857,325.0,179.60317460317458,-93.09523809523809,325.0,-142.61904761904762,-18.174603174603174,-33.41269841269841,187.06349206349205,9.920634920634921,12.46031746031746,-166.26984126984127
-0.873015873015873,325.0,175.15873015873015,-325.0,-325.0,-218.015873015873,-325.0,-325.0,63.25396825396825,-78.01587301587301,-325.0,-325.0,180.7142857142857,325.0,179.60317460317458,-93.09523809523809,325.0,-142.61904761904762,-18.174603174603174,-33.41269841269841,187.06349206349205,9.920634920634921,12.46031746031746,-166.26984126984127
-122.77777777777777,325.0,172.61904761904762,-325.0,-325.0,-214.2063492063492,-325.0,-325.0,62.3015873015873,-76.58730158730158,-325.0,-325.0,178.33333333333331,325.0,178.17460317460316,-91.34920634920634,325.0,-140.3968253968254,-18.333333333333332,1.0317460317460316,325.0,-9.126984126984127,-13.412698412698411,-166.26984126984127
-122.77777777777777,325.0,172.61904761904762,-325.0,-325.0,-214.2063492063492,-325.0,-325.0,62.3015873015873,-76.58730158730158,-325.0,-325.0,178.33333333333331,325.0,178.17460317460316,-91.34920634920634,325.0,-140.3968253968254,-18.333333333333332,1.0317460317460316,325.0,-9.126984126984127,-13.412698412698411,-166.26984126984127
-47.698412698412696,325.0,189.44444444444443,-325.0,-325.0,-211.8253968253968,-325.0,-325.0,61.34920634920635,-75.63492063492063,-325.0,-325.0,199.60317460317458,325.0,193.25396825396825,-56.74603174603174,325.0,-138.65079365079364,-20.71428571428571,-29.920634920634917,325.0,31.825396825396822,41.34920634920635,-166.26984126984127
-47.698412698412696,325.0,189.44444444444443,-325.0,-325.0,-211.8253968253968,-325.0,-325.0,61.34920634920635,-75.63492063492063,-325.0,-325.0,199.60317460317458,325.0,193.25396825396825,-56.74603174603174,325.0,-138.65079365079364,-20.71428571428571,-29.920634920634917,325.0,31.825396825396822,41.34920634920635,-166.26984126984127
-233.4126984126984,325.0,189.60317460317458,-325.0,-325.0,-207.2222222222222,-325.0,-325.0,59.92063492063492,-73.88888888888889,-325.0,-325.0,196.42857142857142,325.0,195.95238095238093,-49.6031746031746,325.0,-135.79365079365078,-26.428571428571427,322.77777777777777,325.0,-8.968253968253968,-12.3015873015873,-166.26984126984127
-233.4126984126984,325.0,189.60317460317458,-325.0,-325.0,-207.2222222222222,-325.0,-325.0,59.92063492063492,-73.88888888888889,-325.0,-325.0,196.42857142857142,325.0,195.95238095238093,-49.6031746031746,325.0,-135.79365079365078,-26.428571428571427,322.77777777777777,325.0,-8.968253968253968,-12.3015873015873,-166.26984126984127
-143.57142857142856,325.0,188.96825396825395,-325.0,-325.0,-203.7301587301587,-325.0,-325.0,59.12698412698413,-72.77777777777777,-325.0,-325.0,195.95238095238093,325.0,195.0,-87.6984126984127,325.0,-133.57142857142856,-21.984126984126984,179.12698412698413,286.74603174603175,7.857142857142857,10.555555555555555,-321.8253968253968
-143.57142857142856,325.0,188.96825396825395,-325.0,-325.0,-203.7301587301587,-325.0,-325.0,59.12698412698413,-72.77777777777777,-325.0,-325.0,195.95238095238093,325.0,195.0,-87.6984126984127,325.0,-133.57142857142856,-21.984126984126984,179.12698412698413,286.74603174603175,7.857142857142857,10.555555555555555,-321.8253968253968
-325.0,325.0,168.17460317460316,-325.0,-325.0,-201.19047619047618,-325.0,-325.0,58.17460317460317,-71.66666666666666,-325.0,-325.0,168.33333333333331,325.0,172.46031746031744,-86.9047619047619,325.0,-131.66666666666666,-14.047619047619047,325.0,325.0,-32.14285714285714,-42.14285714285714,-321.8253968253968
-325.0,325.0,168.17460317460316,-325.0,-325.0,-201.19047619047618,-325.0,-325.0,58.17460317460317,-71.66666666666666,-325.0,-325.0,168.33333333333331,325.0,172.46031746031744,-86.9047619047619,325.0,-131.66666666666666,-14.047619047619047,325.0,325.0,-32.14285714285714,-42.14285714285714,-321.8253968253968
-325.0,325.0,144.36507936507937,-325.0,-325.0,-197.85714285714283,-325.0,-325.0,57.22222222222222,-70.39682539682539,-325.0,-325.0,146.58730158730157,325.0,150.23809523809524,-78.01587301587301,325.0,-129.6031746031746,-16.746031746031743,325.0,325.0,-31.98412698412698,-41.98412698412698,-321.8253968253968
-325.0,325.0,144.36507936507937,-325.0,-325.0,-197.85714285714283,-325.0,-325.0,57.22222222222222,-70.39682539682539,-325.0,-325.0,146.58730158730157,325.0,150.23809523809524,-78.01587301587301,325.0,-129.6031746031746,-16.746031746031743,325.0,325.0,-31.98412698412698,-41.98412698412698,-321.8253968253968
-325.0,325.0,159.28571428571428,-325.0,-325.0,-192.46031746031744,-325.0,-325.0,55.476190476190474,-67.85714285714285,-325.0,-325.0,168.65079365079364,325.0,164.2063492063492,-82.77777777777777,325.0,-126.1111111111111,-21.03174603174603,325.0,325.0,23.57142857142857,29.920634920634917,-321.8253968253968
-325.0,325.0,159.28571428571428,-325.0,-325.0,-192.46031746031744,-325.0,-325.0,55.476190476190474,-67.85714285714285,-325.0,-325.0,168.65079365079364,325.0,164.2063492063492,-82.77777777777777,325.0,-126.1111111111111,-21.03174603174603,325.0,325.0,23.57142857142857,29.920634920634917,-321.8253968253968
-325.0,325.0,111.19047619047619,-325.0,-325.0,-189.12698412698413,-325.0,-321.5079365079365,53.73015873015873,-66.74603174603175,-325.0,-325.0,114.04761904761904,325.0,117.06349206349206,-76.58730158730158,325.0,-124.04761904761904,-18.49206349206349,325.0,325.0,-24.68253968253968,-32.3015873015873,-321.8253968253968
-325.0,325.0,111.19047619047619,-325.0,-325.0,-189.12698412698413,-325.0,-321.5079365079365,53.73015873015873,-66.74603174603175,-325.0,-325.0,114.04761904761904,325.0,117.06349206349206,-76.58730158730158,325.0,-124.04761904761904,-18.49206349206349,325.0,325.0,-24.68253968253968,-32.3015873015873,-321.8253968253968
-325.0,325.0,131.03174603174602,-325.0,-325.0,-186.11111111111111,-325.0,-316.26984126984127,53.41269841269841,-66.11111111111111,-325.0,-324.2063492063492,139.9206349206349,325.0,136.58730158730157,-79.28571428571428,325.0,-122.14285714285714,-21.03174603174603,325.0,325.0,24.365079365079364,30.07936507936508,-166.26984126984127
-325.0,325.0,131.03174603174602,-325.0,-325.0,-186.11111111111111,-325.0,-316.26984126984127,53.41269841269841,-66.11111111111111,-325.0,-324.2063492063492,139.9206349206349,325.0,136.58730158730157,-79.28571428571428,325.0,-122.14285714285714,-21.03174603174603,325.0,325.0,24.365079365079364,30.07936507936508,-166.26984126984127
-325.0,325.0,112.6190476190476,-325.0,-325.0,-183.88888888888889,-325.0,-312.3015873015873,49.92063492063492,-65.31746031746032,-325.0,-320.87301587301585,114.84126984126983,325.0,117.53968253968253,-78.01587301587301,325.0,-120.55555555555554,-17.063492063492063,325.0,325.0,-21.03174603174603,-24.84126984126984,-166.26984126984127
-325.0,325.0,112.6190476190476,-325.0,-325.0,-183.88888888888889,-325.0,-312.3015873015873,49.92063492063492,-65.31746031746032,-325.0,-320.87301587301585,114.84126984126983,325.0,117.53968253968253,-78.01587301587301,325.0,-120.55555555555554,-17.063492063492063,325.0,325.0,-21.03174603174603,-24.84126984126984,-166.26984126984127
-325.0,325.0,115.0,-325.0,-325.0,-181.66666666666666,-325.0,-308.6507936507936,51.03174603174603,-64.52380952380952,-325.0,-316.58730158730157,121.03174603174602,325.0,121.03174603174602,-78.80952380952381,325.0,-119.12698412698413,-17.22222222222222,325.0,325.0,4.682539682539682,6.904761904761904,-166.26984126984127
-325.0,325.0,115.0,-325.0,-325.0,-181.66666666666666,-325.0,-308.6507936507936,51.03174603174603,-64.52380952380952,-325.0,-316.58730158730157,121.03174603174602,325.0,121.03174603174602,-78.80952380952381,325.0,-119.12698412698413,-17.22222222222222,325.0,325.0,4.682539682539682,6.904761904761904,-166.26984126984127
-325.0,325.0,111.82539682539682,-325.0,-325.0,-177.69841269841268,-325.0,-302.46031746031747,40.079365079365076,-63.25396825396825,-325.0,-309.76190476190476,113.4126984126984,325.0,115.63492063492063,-78.65079365079364,325.0,-116.58730158730158,-11.507936507936508,325.0,325.0,-20.396825396825395,-25.952380952380953,-166.26984126984127
-325.0,325.0,111.82539682539682,-325.0,-325.0,-177.69841269841268,-325.0,-302.46031746031747,40.079365079365076,-63.25396825396825,-325.0,-309.76190476190476,113.4126984126984,325.0,115.63492063492063,-78.65079365079364,325.0,-116.58730158730158,-11.507936507936508,325.0,325.0,-20.396825396825395,-25.952380952380953,-166.26984126984127
-325.0,325.0,89.12698412698413,-325.0,-325.0,-174.04761904761904,-325.0,-296.58730158730157,47.06349206349206,-61.82539682539682,-325.0,-303.4126984126984,96.1111111111111,325.0,94.04761904761904,-47.38095238095238,325.0,-114.2063492063492,-10.396825396825395,325.0,325.0,23.41269841269841,31.349206349206348,-166.26984126984127
-325.0,325.0,89.12698412698413,-325.0,-325.0,-174.04761904761904,-325.0,-296.58730158730157,47.06349206349206,-61.82539682539682,-325.0,-303.4126984126984,96.1111111111111,325.0,94.04761904761904,-47.38095238095238,325.0,-114.2063492063492,-10.396825396825395,325.0,325.0,23.41269841269841,31.349206349206348,-166.26984126984127
-325.0,325.0,78.80952380952381,-325.0,-325.0,-171.19047619047618,-325.0,-291.5079365079365,-6.26984126984127,-60.55555555555555,-325.0,-298.3333333333333,82.3015873015873,325.0,84.36507936507937,-44.2063492063492,325.0,-112.46031746031746,-11.825396825396824,325.0,325.0,-25.158730158730158,-32.14285714285714,-321.8253968253968
-325.0,325.0,78.80952380952381,-325.0,-325.0,-171.19047619047618,-325.0,-291.5079365079365,-6.26984126984127,-60.55555555555555,-325.0,-298.3333333333333,82.3015873015873,325.0,84.36507936507937,-44.2063492063492,325.0,-112.46031746031746,-11.825396825396824,325.0,325.0,-25.158730158730158,-32.14285714285714,-321.8253968253968
-325.0,325.0,71.03174603174602,-325.0,-325.0,-168.4920634920635,-325.0,-286.90476190476187,43.095238095238095,-59.6031746031746,-325.0,-293.4126984126984,77.53968253968253,325.0,76.1111111111111,-73.4126984126984,325.0,-110.55555555555554,-8.492063492063492,325.0,325.0,23.88888888888889,31.19047619047619,-321.8253968253968
-325.0,325.0,71.03174603174602,-325.0,-325.0,-168.4920634920635,-325.0,-286.90476190476187,43.095238095238095,-59.6031746031746,-325.0,-293.4126984126984,77.53968253968253,325.0,76.1111111111111,-73.4126984126984,325.0,-110.55555555555554,-8.492063492063492,325.0,325.0,23.88888888888889,31.19047619047619,-321.8253968253968
-325.0,325.0,63.73015873015873,-325.0,-325.0,-164.2063492063492,-325.0,-279.9206349206349,-29.920634920634917,-58.17460317460317,-325.0,-285.7936507936508,69.92063492063491,325.0,70.23809523809524,-70.07936507936508,325.0,-107.6984126984127,-4.841269841269841,325.0,325.0,-2.619047619047619,-5.317460317460317,-321.8253968253968
-325.0,325.0,63.73015873015873,-325.0,-325.0,-164.2063492063492,-325.0,-279.9206349206349,-29.920634920634917,-58.17460317460317,-325.0,-285.7936507936508,69.92063492063491,325.0,70.23809523809524,-70.07936507936508,325.0,-107.6984126984127,-4.841269841269841,325.0,325.0,-2.619047619047619,-5.317460317460317,-321.8253968253968
-325.0,325.0,27.698412698412696,-323.57142857142856,-325.0,-162.14285714285714,-325.0,-276.74603174603175,47.857142857142854,-57.38095238095238,-325.0,-282.1428571428571,32.93650793650794,325.0,37.53968253968254,-73.88888888888889,325.0,-106.74603174603175,0.5555555555555556,325.0,325.0,26.587301587301585,35.0,-321.8253968253968
-325.0,325.0,27.698412698412696,-323.57142857142856,-325.0,-162.14285714285714,-325.0,-276.74603174603175,47.857142857142854,-57.38095238095238,-325.0,-282.1428571428571,32.93650793650794,325.0,37.53968253968254,-73.88888888888889,325.0,-106.74603174603175,0.5555555555555556,325.0,325.0,26.587301587301585,35.0,-321.8253968253968
-325.0,325.0,27.698412698412696,-323.57142857142856,-325.0,-162.14285714285714,-325.0,-276.74603174603175,47.857142857142854,-57.38095238095238,-325.0,-282.1428571428571,32.93650793650794,325.0,37.53968253968254,-73.88888888888889,325.0,-106.74603174603175,0.5555555555555556,325.0,325.0,26.587301587301585,35.0,-321.8253968253968
-325.0,325.0,27.698412698412696,-323.57142857142856,-325.0,-162.14285714285714,-325.0,-276.74603174603175,47.857142857142854,-57.38095238095238,-325.0,-282.1428571428571,32.93650793650794,325.0,37.53968253968254,-73.88888888888889,325.0,-106.74603174603175,0.5555555555555556,325.0,325.0,26.587301587301585,35.0,-321.8253968253968
-325.0,325.0,8.968253968253968,-311.19047619047615,-325.0,-156.26984126984127,-325.0,-266.74603174603175,-35.15873015873016,-55.317460317460316,-325.0,-271.66666666666663,11.825396825396824,325.0,111.03174603174602,-70.55555555555556,325.0,-102.77777777777777,-7.698412698412698,325.0,325.0,1.984126984126984,2.46031746031746,-166.26984126984127
-325.0,325.0,8.968253968253968,-311.19047619047615,-325.0,-156.26984126984127,-325.0,-266.74603174603175,-35.15873015873016,-55.317460317460316,-325.0,-271.66666666666663,11.825396825396824,325.0,111.03174603174602,-70.55555555555556,325.0,-102.77777777777777,-7.698412698412698,325.0,325.0,1.984126984126984,2.46031746031746,-166.26984126984127
-325.0,325.0,25.0,-305.7936507936508,-325.0,-153.57142857142856,-325.0,-262.3015873015873,-138.96825396825395,-54.36507936507936,-325.0,-267.06349206349205,31.03174603174603,325.0,131.19047619047618,-69.12698412698413,325.0,-101.03174603174602,-6.26984126984127,325.0,325.0,-2.142857142857143,-3.253968253968254,-166.26984126984127
-325.0,325.0,25.0,-305.7936507936508,-325.0,-153.57142857142856,-325.0,-262.3015873015873,-138.96825396825395,-54.36507936507936,-325.0,-267.06349206349205,31.03174603174603,325.0,131.19047619047618,-69.12698412698413,325.0,-101.03174603174602,-6.26984126984127,325.0,325.0,-2.142857142857143,-3.253968253968254,-166.26984126984127
-325.0,325.0,2.46031746031746,-300.55555555555554,-325.0,-151.19047619047618,-325.0,-258.17460317460313,-79.12698412698413,-53.41269841269841,-325.0,-262.9365079365079,5.0,325.0,248.65079365079364,-68.01587301587301,325.0,-99.44444444444444,-1.984126984126984,325.0,325.0,0.23809523809523808,1.984126984126984,-166.26984126984127
-325.0,325.0,2.46031746031746,-300.55555555555554,-325.0,-151.19047619047618,-325.0,-258.17460317460313,-79.12698412698413,-53.41269841269841,-325.0,-262.9365079365079,5.0,325.0,248.65079365079364,-68.01587301587301,325.0,-99.44444444444444,-1.984126984126984,325.0,325.0,0.23809523809523808,1.984126984126984,-166.26984126984127
-325.0,325.0,12.777777777777777,-295.1587301587301,-325.0,-148.4920634920635,-325.0,-253.88888888888889,-195.0,-52.3015873015873,-325.0,-258.17460317460313,18.015873015873016,325.0,216.74603174603175,-66.74603174603175,325.0,-97.6984126984127,-8.65079365079365,325.0,325.0,0.23809523809523808,-1.8253968253968254,-166.26984126984127
-325.0,325.0,12.777777777777777,-295.1587301587301,-325.0,-148.4920634920635,-325.0,-253.88888888888889,-195.0,-52.3015873015873,-325.0,-258.17460317460313,18.015873015873016,325.0,216.74603174603175,-66.74603174603175,325.0,-97.6984126984127,-8.65079365079365,325.0,325.0,0.23809523809523808,-1.8253968253968254,-166.26984126984127
-325.0,325.0,-33.41269841269841,-290.23809523809524,-325.0,-146.11111111111111,-325.0,-249.9206349206349,-126.58730158730158,23.095238095238095,-325.0,-254.04761904761904,-32.460317460317455,325.0,325.0,-65.79365079365078,325.0,-96.26984126984127,-5.0,325.0,325.0,-1.0317460317460316,-0.3968253968253968,-166.26984126984127
-325.0,325.0,-33.41269841269841,-290.23809523809524,-325.0,-146.11111111111111,-325.0,-249.9206349206349,-126.58730158730158,23.095238095238095,-325.0,-254.04761904761904,-32.460317460317455,325.0,325.0,-65.79365079365078,325.0,-96.26984126984127,-5.0,325.0,325.0,-1.0317460317460316,-0.3968253968253968,-166.26984126984127
-325.0,325.0,-40.714285714285715,-285.1587301587301,-325.0,-143.57142857142856,-325.0,-245.95238095238093,-259.1269841269841,6.746031746031746,-325.0,-249.76190476190476,-35.476190476190474,325.0,274.5238095238095,-64.52380952380952,325.0,-94.68253968253968,-2.142857142857143,325.0,325.0,0.5555555555555556,-1.1904761904761905,-321.8253968253968
-325.0,325.0,-40.714285714285715,-285.1587301587301,-325.0,-143.57142857142856,-325.0,-245.95238095238093,-259.1269841269841,6.746031746031746,-325.0,-249.76190476190476,-35.476190476190474,325.0,274.5238095238095,-64.52380952380952,325.0,-94.68253968253968,-2.142857142857143,325.0,325.0,0.5555555555555556,-1.1904761904761905,-321.8253968253968
-325.0,325.0,-57.22222222222222,-279.1269841269841,-325.0,-140.87301587301587,-325.0,-241.19047619047618,-213.09523809523807,256.1111111111111,-325.0,-244.52380952380952,-54.68253968253968,325.0,325.0,-63.57142857142857,325.0,-92.77777777777777,-3.095238095238095,325.0,325.0,0.23809523809523808,-0.7142857142857142,-321.8253968253968
-325.0,325.0,-57.22222222222222,-279.1269841269841,-325.0,-140.87301587301587,-325.0,-241.19047619047618,-213.09523809523807,256.1111111111111,-325.0,-244.52380952380952,-54.68253968253968,325.0,325.0,-63.57142857142857,325.0,-92.77777777777777,-3.095238095238095,325.0,325.0,0.23809523809523808,-0.7142857142857142,-321.8253968253968
-325.0,325.0,-57.698412698412696,-272.9365079365079,-325.0,-137.69841269841268,-325.0,-235.95238095238093,-228.17460317460316,219.44444444444443,-325.0,-239.28571428571428,-52.460317460317455,323.73015873015873,325.0,-61.98412698412698,325.0,-90.87301587301587,-2.46031746031746,325.0,325.0,23.41269841269841,31.349206349206348,-321.8253968253968
-325.0,325.0,-57.698412698412696,-272.9365079365079,-325.0,-137.69841269841268,-325.0,-235.95238095238093,-228.17460317460316,219.44444444444443,-325.0,-239.28571428571428,-52.460317460317455,323.73015873015873,325.0,-61.98412698412698,325.0,-90.87301587301587,-2.46031746031746,325.0,325.0,23.41269841269841,31.349206349206348,-321.8253968253968
-325.0,325.0,-90.55555555555556,-267.06349206349205,-325.0,-135.0,-325.0,-231.66666666666666,-314.2063492063492,242.77777777777777,-325.0,-234.36507936507934,-89.76190476190476,316.90476190476187,325.0,-60.873015873015866,325.0,-89.28571428571428,1.8253968253968254,325.0,325.0,0.07936507936507936,-0.5555555555555556,-321.8253968253968
-325.0,325.0,-90.55555555555556,-267.06349206349205,-325.0,-135.0,-325.0,-231.66666666666666,-314.2063492063492,242.77777777777777,-325.0,-234.36507936507934,-89.76190476190476,316.90476190476187,325.0,-60.873015873015866,325.0,-89.28571428571428,1.8253968253968254,325.0,325.0,0.07936507936507936,-0.5555555555555556,-321.8253968253968
-325.0,325.0,-49.12698412698413,-258.968253968254,-325.0,-131.19047619047618,-325.0,-225.15873015873015,-267.06349206349205,117.22222222222221,-293.4126984126984,-227.38095238095238,-60.39682539682539,307.22222222222223,325.0,-49.92063492063492,325.0,-86.74603174603175,2.3015873015873014,325.0,325.0,24.047619047619047,30.396825396825395,-321.8253968253968
-325.0,325.0,-49.12698412698413,-258.968253968254,-325.0,-131.19047619047618,-325.0,-225.15873015873015,-267.06349206349205,117.22222222222221,-293.4126984126984,-227.38095238095238,-60.39682539682539,307.22222222222223,325.0,-49.92063492063492,325.0,-86.74603174603175,2.3015873015873014,325.0,325.0,24.047619047619047,30.396825396825395,-321.8253968253968
-325.0,325.0,155.95238095238093,-239.9206349206349,-325.0,-121.82539682539682,-325.0,-209.44444444444443,-267.06349206349205,64.04761904761905,-236.1111111111111,-211.03174603174602,-85.47619047619047,284.2063492063492,325.0,15.793650793650793,325.0,-80.71428571428571,3.253968253968254,325.0,325.0,-4.365079365079365,-5.476190476190476,-166.26984126984127
-325.0,325.0,155.95238095238093,-239.9206349206349,-325.0,-121.82539682539682,-325.0,-209.44444444444443,-267.06349206349205,64.04761904761905,-236.1111111111111,-211.03174603174602,-85.47619047619047,284.2063492063492,325.0,15.793650793650793,325.0,-80.71428571428571,3.253968253968254,325.0,325.0,-4.365079365079365,-5.476190476190476,-166.26984126984127
-325.0,325.0,201.8253968253968,-222.93650793650792,-325.0,-113.57142857142857,-325.0,-195.95238095238093,-325.0,-80.07936507936508,-166.42857142857142,-196.9047619047619,-77.85714285714285,264.68253968253964,325.0,78.01587301587301,325.0,-75.15873015873015,1.507936507936508,325.0,325.0,5.7936507936507935,6.26984126984127,-166.26984126984127
-325.0,325.0,201.8253968253968,-222.93650793650792,-325.0,-113.57142857142857,-325.0,-195.95238095238093,-325.0,-80.07936507936508,-166.42857142857142,-196.9047619047619,-77.85714285714285,264.68253968253964,325.0,78.01587301587301,325.0,-75.15873015873015,1.507936507936508,325.0,325.0,5.7936507936507935,6.26984126984127,-166.26984126984127
-325.0,325.0,325.0,-219.12698412698413,-325.0,-111.82539682539682,-325.0,-192.93650793650792,-318.17460317460313,-25.634920634920633,-101.66666666666666,-193.7301587301587,-118.96825396825396,260.07936507936506,325.0,325.0,325.0,-74.2063492063492,-0.5555555555555556,325.0,325.0,-6.587301587301587,-8.333333333333332,-166.26984126984127
-325.0,325.0,325.0,-219.12698412698413,-325.0,-111.82539682539682,-325.0,-192.93650793650792,-318.17460317460313,-25.634920634920633,-101.66666666666666,-193.7301587301587,-118.96825396825396,260.07936507936506,325.0,325.0,325.0,-74.2063492063492,-0.5555555555555556,325.0,325.0,-6.587301587301587,-8.333333333333332,-166.26984126984127
-325.0,325.0,186.58730158730157,-216.42857142857142,-325.0,-110.55555555555554,-325.0,-190.3968253968254,-325.0,-77.06349206349206,-151.19047619047618,-191.03174603174602,-154.36507936507937,256.74603174603175,325.0,325.0,325.0,-73.25396825396825,1.6666666666666665,325.0,325.0,-14.682539682539682,-22.777777777777775,-166.26984126984127
-325.0,325.0,186.58730158730157,-216.42857142857142,-325.0,-110.55555555555554,-325.0,-190.3968253968254,-325.0,-77.06349206349206,-151.19047619047618,-191.03174603174602,-154.36507936507937,256.74603174603175,325.0,325.0,325.0,-73.25396825396825,1.6666666666666665,325.0,325.0,-14.682539682539682,-22.777777777777775,-166.26984126984127
-325.0,325.0,325.0,-211.66666666666666,-323.88888888888886,-108.33333333333333,-325.0,-186.74603174603175,-318.17460317460313,82.93650793650794,-56.269841269841265,-187.38095238095238,-157.69841269841268,251.03174603174602,325.0,325.0,325.0,-71.82539682539682,-0.23809523809523808,325.0,325.0,-6.428571428571428,-8.968253968253968,-166.26984126984127
-325.0,325.0,325.0,-211.66666666666666,-323.88888888888886,-108.33333333333333,-325.0,-186.74603174603175,-318.17460317460313,82.93650793650794,-56.269841269841265,-187.38095238095238,-157.69841269841268,251.03174603174602,325.0,325.0,325.0,-71.82539682539682,-0.23809523809523808,325.0,325.0,-6.428571428571428,-8.968253968253968,-166.26984126984127
-325.0,325.0,275.95238095238096,-208.015873015873,-318.8095238095238,-106.42857142857142,-325.0,-183.7301587301587,-325.0,-23.41269841269841,-48.49206349206349,-184.04761904761904,-175.47619047619045,246.74603174603172,325.0,325.0,325.0,-70.71428571428571,0.23809523809523808,325.0,325.0,7.698412698412698,8.809523809523808,-321.8253968253968
-325.0,325.0,275.95238095238096,-208.015873015873,-318.8095238095238,-106.42857142857142,-325.0,-183.7301587301587,-325.0,-23.41269841269841,-48.49206349206349,-184.04761904761904,-175.47619047619045,246.74603174603172,325.0,325.0,325.0,-70.71428571428571,0.23809523809523808,325.0,325.0,7.698412698412698,8.809523809523808,-321.8253968253968
-325.0,325.0,312.9365079365079,-205.3174603174603,-315.0,-105.31746031746032,-325.0,-181.5079365079365,-325.0,149.76190476190476,-26.11111111111111,-181.984126984127,-200.7142857142857,243.57142857142856,325.0,325.0,325.0,-70.07936507936508,5.158730158730158,325.0,325.0,-1.507936507936508,-1.349206349206349,-321.8253968253968
-325.0,325.0,312.9365079365079,-205.3174603174603,-315.0,-105.31746031746032,-325.0,-181.5079365079365,-325.0,149.76190476190476,-26.11111111111111,-181.984126984127,-200.7142857142857,243.57142857142856,325.0,325.0,325.0,-70.07936507936508,5.158730158730158,325.0,325.0,-1.507936507936508,-1.349206349206349,-321.8253968253968
-325.0,325.0,325.0,-200.87301587301587,-308.4920634920635,-102.93650793650794,-324.04761904761904,-177.69841269841268,-325.0,91.5079365079365,-5.634920634920634,-178.015873015873,-215.47619047619045,238.17460317460316,320.87301587301585,325.0,325.0,-65.79365079365078,7.5396825396825395,325.0,325.0,8.492063492063492,9.285714285714285,-321.8253968253968
-325.0,325.0,325.0,-200.87301587301587,-308.4920634920635,-102.93650793650794,-324.04761904761904,-177.69841269841268,-325.0,91.5079365079365,-5.634920634920634,-178.015873015873,-215.47619047619045,238.17460317460316,320.87301587301585,325.0,325.0,-65.79365079365078,7.5396825396825395,325.0,325.0,8.492063492063492,9.285714285714285,-321.8253968253968
-325.0,325.0,325.0,-198.17460317460316,-305.0,-101.82539682539682,-320.55555555555554,-175.63492063492063,-315.95238095238096,325.0,66.58730158730158,-175.79365079365078,-205.63492063492063,235.3174603174603,316.90476190476187,325.0,325.0,-65.15873015873015,3.571428571428571,325.0,325.0,14.523809523809524,20.07936507936508,-321.8253968253968
-325.0,325.0,325.0,-198.17460317460316,-305.0,-101.82539682539682,-320.55555555555554,-175.63492063492063,-315.95238095238096,325.0,66.58730158730158,-175.79365079365078,-205.63492063492063,235.3174603174603,316.90476190476187,325.0,325.0,-65.15873015873015,3.571428571428571,325.0,325.0,14.523809523809524,20.07936507936508,-321.8253968253968
-325.0,325.0,325.0,-198.17460317460316,-305.0,-101.82539682539682,-320.55555555555554,-175.63492063492063,-315.95238095238096,325.0,66.58730158730158,-175.79365079365078,-205.63492063492063,235.3174603174603,316.90476190476187,325.0,325.0,-65.15873015873015,3.571428571428571,325.0,325.0,14.523809523809524,20.07936507936508,-321.8253968253968
-325.0,325.0,325.0,-198.17460317460316,-305.0,-101.82539682539682,-320.55555555555554,-175.63492063492063,-315.95238095238096,325.0,66.58730158730158,-175.79365079365078,-205.63492063492063,235.3174603174603,316.90476190476187,325.0,325.0,-65.15873015873015,3.571428571428571,325.0,325.0,14.523809523809524,20.07936507936508,-321.8253968253968
-325.0,325.0,325.0,-198.17460317460316,-305.0,-101.82539682539682,-320.55555555555554,-175.63492063492063,-315.95238095238096,325.0,66.58730158730158,-175.79365079365078,-205.63492063492063,235.3174603174603,316.90476190476187,325.0,325.0,-65.15873015873015,3.571428571428571,325.0,325.0,14.523809523809524,20.07936507936508,-166.26984126984127
-325.0,325.0,325.0,-198.17460317460316,-305.0,-101.82539682539682,-320.55555555555554,-175.63492063492063,-315.95238095238096,325.0,66.58730158730158,-175.79365079365078,-205.63492063492063,235.3174603174603,316.90476190476187,325.0,325.0,-65.15873015873015,3.571428571428571,325.0,325.0,14.523809523809524,20.07936507936508,-166.26984126984127
-325.0,325.0,325.0,-192.3015873015873,-296.74603174603175,-98.80952380952381,-311.5079365079365,-170.87301587301587,-320.55555555555554,232.3015873015873,195.79365079365078,-170.7142857142857,-204.04761904761904,228.17460317460316,307.69841269841265,325.0,325.0,-64.52380952380952,4.2063492063492065,325.0,325.0,23.57142857142857,30.71428571428571,-166.26984126984127
-325.0,325.0,325.0,-192.3015873015873,-296.74603174603175,-98.80952380952381,-311.5079365079365,-170.87301587301587,-320.55555555555554,232.3015873015873,195.79365079365078,-170.7142857142857,-204.04761904761904,228.17460317460316,307.69841269841265,325.0,325.0,-64.52380952380952,4.2063492063492065,325.0,325.0,23.57142857142857,30.71428571428571,-166.26984126984127
-325.0,325.0,325.0,-186.42857142857142,-288.4920634920635,-95.79365079365078,-302.3015873015873,-165.95238095238093,-325.0,139.6031746031746,325.0,-165.63492063492063,-202.46031746031744,221.19047619047618,298.6507936507936,325.0,325.0,-63.888888888888886,5.0,325.0,325.0,32.61904761904762,41.507936507936506,-166.26984126984127
-325.0,325.0,325.0,-186.42857142857142,-288.4920634920635,-95.79365079365078,-302.3015873015873,-165.95238095238093,-325.0,139.6031746031746,325.0,-165.63492063492063,-202.46031746031744,221.19047619047618,298.6507936507936,325.0,325.0,-63.888888888888886,5.0,325.0,325.0,32.61904761904762,41.507936507936506,-166.26984126984127
-325.0,325.0,325.0,-181.03174603174602,-280.23809523809524,-93.25396825396825,-293.57142857142856,-161.5079365079365,-325.0,222.3015873015873,325.0,-160.55555555555554,-278.968253968254,214.36507936507937,290.23809523809524,325.0,320.23809523809524,-59.12698412698413,9.126984126984127,325.0,325.0,10.238095238095237,11.507936507936508,-166.26984126984127
-325.0,325.0,325.0,-181.03174603174602,-280.23809523809524,-93.25396825396825,-293.57142857142856,-161.5079365079365,-325.0,222.3015873015873,325.0,-160.55555555555554,-278.968253968254,214.36507936507937,290.23809523809524,325.0,320.23809523809524,-59.12698412698413,9.126984126984127,325.0,325.0,10.238095238095237,11.507936507936508,-166.26984126984127
-325.0,325.0,325.0,-178.65079365079364,-276.90476190476187,-92.30158730158729,-289.76190476190476,-159.6031746031746,-325.0,281.031746031746,325.0,-158.65079365079364,-269.1269841269841,211.5079365079365,286.4285714285714,325.0,316.1111111111111,3.888888888888889,5.634920634920634,325.0,325.0,-0.3968253968253968,-1.1904761904761905,-166.26984126984127
-325.0,325.0,325.0,-178.65079365079364,-276.90476190476187,-92.30158730158729,-289.76190476190476,-159.6031746031746,-325.0,281.031746031746,325.0,-158.65079365079364,-269.1269841269841,211.5079365079365,286.4285714285714,325.0,316.1111111111111,3.888888888888889,5.634920634920634,325.0,325.0,-0.3968253968253968,-1.1904761904761905,-166.26984126984127
-325.0,325.0,325.0,-174.84126984126982,-271.5079365079365,-90.23809523809523,-283.88888888888886,-156.26984126984127,-325.0,271.8253968253968,325.0,-155.47619047619048,-237.38095238095238,206.9047619047619,280.39682539682536,320.39682539682536,309.2857142857143,222.77777777777777,1.984126984126984,325.0,325.0,10.873015873015872,13.73015873015873,-321.8253968253968
-325.0,325.0,325.0,-174.84126984126982,-271.5079365079365,-90.23809523809523,-283.88888888888886,-156.26984126984127,-325.0,271.8253968253968,325.0,-155.47619047619048,-237.38095238095238,206.9047619047619,280.39682539682536,320.39682539682536,309.2857142857143,222.77777777777777,1.984126984126984,325.0,325.0,10.873015873015872,13.73015873015873,-321.8253968253968
-325.0,325.0,325.0,-172.61904761904762,-268.17460317460313,-89.12698412698413,-280.39682539682536,-154.36507936507937,-325.0,301.8253968253968,325.0,-153.4126984126984,-245.3174603174603,204.04761904761904,276.90476190476187,320.39682539682536,305.3174603174603,200.3968253968254,4.682539682539682,325.0,325.0,-0.07936507936507936,0.07936507936507936,-321.8253968253968
-325.0,325.0,325.0,-172.61904761904762,-268.17460317460313,-89.12698412698413,-280.39682539682536,-154.36507936507937,-325.0,301.8253968253968,325.0,-153.4126984126984,-245.3174603174603,204.04761904761904,276.90476190476187,320.39682539682536,305.3174603174603,200.3968253968254,4.682539682539682,325.0,325.0,-0.07936507936507936,0.07936507936507936,-321.8253968253968
