Fp1[1],Fp2[2],F3[3],F4[4],C3[5],C4[6],P3[7],P4[8],O1[9],O2[10],F7[11],F8[12],T3[13],T4[14],T5[15],T6[16],Fz[17],Pz[18],Cz[19],Pg1[20],Pg2[21],EOGR[22],EOOGL[23],EMG[24]
325.0,-31.349206349206348,-166.11111111111111,-44.84126984126984,325.0,95.0,325.0,14.523809523809524,21.03174603174603,325.0,-325.0,12.142857142857142,-145.15873015873015,-17.698412698412696,-123.57142857142857,325.0,-25.0,325.0,146.11111111111111,-22.619047619047617,-11.19047619047619,24.523809523809522,33.57142857142857,-166.26984126984127
325.0,-31.349206349206348,-166.11111111111111,-44.84126984126984,325.0,95.0,325.0,14.523809523809524,21.03174603174603,325.0,-325.0,12.142857142857142,-145.15873015873015,-17.698412698412696,-123.57142857142857,325.0,-25.0,325.0,146.11111111111111,-22.619047619047617,-11.19047619047619,24.523809523809522,33.57142857142857,-166.26984126984127
325.0,-30.555555555555554,-174.04761904761904,-43.41269841269841,325.0,91.34920634920634,325.0,13.888888888888888,20.238095238095237,325.0,12.777777777777777,11.666666666666666,-158.17460317460316,-17.22222222222222,-136.26984126984127,325.0,-24.047619047619047,325.0,164.2063492063492,-21.984126984126984,-11.031746031746032,23.095238095238095,31.825396825396822,-166.26984126984127
325.0,-30.555555555555554,-174.04761904761904,-43.41269841269841,325.0,91.34920634920634,325.0,13.888888888888888,20.238095238095237,325.0,12.777777777777777,11.666666666666666,-158.17460317460316,-17.22222222222222,-136.26984126984127,325.0,-24.047619047619047,325.0,164.2063492063492,-21.984126984126984,-11.031746031746032,23.095238095238095,31.825396825396822,-166.26984126984127
325.0,-25.476190476190474,49.44444444444444,-35.95238095238095,325.0,71.66666666666666,325.0,11.507936507936508,16.428571428571427,325.0,325.0,9.603174603174603,63.25396825396825,-14.84126984126984,37.22222222222222,-325.0,-20.07936507936508,325.0,236.9047619047619,-18.65079365079365,-9.603174603174603,-3.888888888888889,-4.682539682539682,-166.26984126984127
325.0,-25.476190476190474,49.44444444444444,-35.95238095238095,325.0,71.66666666666666,325.0,11.507936507936508,16.428571428571427,325.0,325.0,9.603174603174603,63.25396825396825,-14.84126984126984,37.22222222222222,-325.0,-20.07936507936508,325.0,236.9047619047619,-18.65079365079365,-9.603174603174603,-3.888888888888889,-4.682539682539682,-166.26984126984127
325.0,-25.158730158730158,48.80952380952381,-35.476190476190474,325.0,70.55555555555556,325.0,11.666666666666666,16.26984126984127,325.0,325.0,9.603174603174603,62.3015873015873,-14.682539682539682,36.74603174603175,-325.0,-19.76190476190476,325.0,236.26984126984127,-18.174603174603174,-9.444444444444445,-19.126984126984127,-27.698412698412696,-166.26984126984127
325.0,-25.158730158730158,48.80952380952381,-35.476190476190474,325.0,70.55555555555556,325.0,11.666666666666666,16.26984126984127,325.0,325.0,9.603174603174603,62.3015873015873,-14.682539682539682,36.74603174603175,-325.0,-19.76190476190476,325.0,236.26984126984127,-18.174603174603174,-9.444444444444445,-19.126984126984127,-27.698412698412696,-166.26984126984127
325.0,-24.84126984126984,47.38095238095238,-34.84126984126984,325.0,69.12698412698413,325.0,11.031746031746032,15.95238095238095,325.0,325.0,9.444444444444445,60.71428571428571,-14.365079365079364,35.79365079365079,-325.0,-19.285714285714285,325.0,247.38095238095238,-18.015873015873016,-9.444444444444445,-4.2063492063492065,-5.0,-166.26984126984127
325.0,-24.84126984126984,47.38095238095238,-34.84126984126984,325.0,69.12698412698413,325.0,11.031746031746032,15.95238095238095,325.0,325.0,9.444444444444445,60.71428571428571,-14.365079365079364,35.79365079365079,-325.0,-19.285714285714285,325.0,247.38095238095238,-18.015873015873016,-9.444444444444445,-4.2063492063492065,-5.0,-166.26984126984127
325.0,-24.523809523809522,46.58730158730158,-34.047619047619044,325.0,67.6984126984127,325.0,10.873015873015872,15.793650793650793,325.0,325.0,9.126984126984127,59.6031746031746,-14.206349206349206,34.84126984126984,-325.0,-18.96825396825397,325.0,247.85714285714283,-17.857142857142858,-9.285714285714285,-5.0,-5.476190476190476,-321.8253968253968
325.0,-24.523809523809522,46.58730158730158,-34.047619047619044,325.0,67.6984126984127,325.0,10.873015873015872,15.793650793650793,325.0,325.0,9.126984126984127,59.6031746031746,-14.206349206349206,34.84126984126984,-325.0,-18.96825396825397,325.0,247.85714285714283,-17.857142857142858,-9.285714285714285,-5.0,-5.476190476190476,-321.8253968253968
325.0,-23.88888888888889,45.476190476190474,-33.41269841269841,325.0,65.95238095238095,325.0,10.714285714285714,15.317460317460316,325.0,325.0,8.809523809523808,58.17460317460317,-13.888888888888888,34.047619047619044,-325.0,-18.49206349206349,325.0,249.60317460317458,-17.539682539682538,-8.968253968253968,-0.5555555555555556,0.3968253968253968,-321.8253968253968
325.0,-23.88888888888889,45.476190476190474,-33.41269841269841,325.0,65.95238095238095,325.0,10.714285714285714,15.317460317460316,325.0,325.0,8.809523809523808,58.17460317460317,-13.888888888888888,34.047619047619044,-325.0,-18.49206349206349,325.0,249.60317460317458,-17.539682539682538,-8.968253968253968,-0.5555555555555556,0.3968253968253968,-321.8253968253968
325.0,-23.57142857142857,44.2063492063492,-32.77777777777778,322.77777777777777,64.52380952380952,325.0,10.396825396825395,15.0,325.0,325.0,8.65079365079365,56.58730158730158,-13.73015873015873,33.25396825396825,-324.2063492063492,-18.333333333333332,325.0,245.79365079365078,-17.22222222222222,-8.809523809523808,21.666666666666664,30.07936507936508,-321.8253968253968
325.0,-23.57142857142857,44.2063492063492,-32.77777777777778,322.77777777777777,64.52380952380952,325.0,10.396825396825395,15.0,325.0,325.0,8.65079365079365,56.58730158730158,-13.73015873015873,33.25396825396825,-324.2063492063492,-18.333333333333332,325.0,245.79365079365078,-17.22222222222222,-8.809523809523808,21.666666666666664,30.07936507936508,-321.8253968253968
321.19047619047615,-23.095238095238095,43.25396825396825,-32.3015873015873,317.38095238095235,63.095238095238095,325.0,10.396825396825395,14.84126984126984,325.0,325.0,8.809523809523808,55.317460317460316,-13.412698412698411,32.61904761904762,-319.2857142857143,-18.015873015873016,325.0,250.87301587301585,-16.904761904761905,-8.968253968253968,-23.57142857142857,-30.71428571428571,-321.8253968253968
321.19047619047615,-23.095238095238095,43.25396825396825,-32.3015873015873,317.38095238095235,63.095238095238095,325.0,10.396825396825395,14.84126984126984,325.0,325.0,8.809523809523808,55.317460317460316,-13.412698412698411,32.61904761904762,-319.2857142857143,-18.015873015873016,325.0,250.87301587301585,-16.904761904761905,-8.968253968253968,-23.57142857142857,-30.71428571428571,-321.8253968253968
315.4761904761905,-22.777777777777775,42.460317460317455,-31.98412698412698,311.984126984127,61.98412698412698,325.0,10.238095238095237,14.682539682539682,325.0,325.0,8.492063492063492,54.36507936507936,-13.253968253968253,31.825396825396822,-313.73015873015873,-17.698412698412696,325.0,249.9206349206349,-16.746031746031743,-8.65079365079365,22.3015873015873,29.920634920634917,-321.8253968253968
315.4761904761905,-22.777777777777775,42.460317460317455,-31.98412698412698,311.984126984127,61.98412698412698,325.0,10.238095238095237,14.682539682539682,325.0,325.0,8.492063492063492,54.36507936507936,-13.253968253968253,31.825396825396822,-313.73015873015873,-17.698412698412696,325.0,249.9206349206349,-16.746031746031743,-8.65079365079365,22.3015873015873,29.920634920634917,-321.8253968253968
309.76190476190476,-22.3015873015873,41.507936507936506,-31.349206349206348,306.74603174603175,60.71428571428571,325.0,10.079365079365079,14.365079365079364,315.3174603174603,325.0,8.65079365079365,53.095238095238095,-12.936507936507935,31.349206349206348,-308.17460317460313,-17.38095238095238,325.0,248.49206349206347,-16.428571428571427,-8.65079365079365,-22.142857142857142,-30.07936507936508,-166.26984126984127
309.76190476190476,-22.3015873015873,41.507936507936506,-31.349206349206348,306.74603174603175,60.71428571428571,325.0,10.079365079365079,14.365079365079364,315.3174603174603,325.0,8.65079365079365,53.095238095238095,-12.936507936507935,31.349206349206348,-308.17460317460313,-17.38095238095238,325.0,248.49206349206347,-16.428571428571427,-8.65079365079365,-22.142857142857142,-30.07936507936508,-166.26984126984127
305.6349206349206,-21.984126984126984,40.87301587301587,-30.87301587301587,303.0952380952381,59.76190476190476,325.0,9.920634920634921,14.206349206349206,153.57142857142856,325.0,8.333333333333332,52.460317460317455,-13.253968253968253,30.87301587301587,-304.2063492063492,-17.063492063492063,325.0,247.69841269841268,-16.26984126984127,-8.492063492063492,28.96825396825397,36.269841269841265,-166.26984126984127
305.6349206349206,-21.984126984126984,40.87301587301587,-30.87301587301587,303.0952380952381,59.76190476190476,325.0,9.920634920634921,14.206349206349206,153.57142857142856,325.0,8.333333333333332,52.460317460317455,-13.253968253968253,30.87301587301587,-304.2063492063492,-17.063492063492063,325.0,247.69841269841268,-16.26984126984127,-8.492063492063492,28.96825396825397,36.269841269841265,-166.26984126984127
294.8412698412698,-21.349206349206348,39.285714285714285,-29.76190476190476,292.6190476190476,57.53968253968254,319.2857142857143,9.285714285714285,13.888888888888888,-325.0,325.0,8.015873015873016,50.39682539682539,-12.46031746031746,29.6031746031746,-293.57142857142856,-16.587301587301585,325.0,246.1111111111111,-15.793650793650793,-8.174603174603174,-0.5555555555555556,-1.0317460317460316,-166.26984126984127
294.8412698412698,-21.349206349206348,39.285714285714285,-29.76190476190476,292.6190476190476,57.53968253968254,319.2857142857143,9.285714285714285,13.888888888888888,-325.0,325.0,8.015873015873016,50.39682539682539,-12.46031746031746,29.6031746031746,-293.57142857142856,-16.587301587301585,325.0,246.1111111111111,-15.793650793650793,-8.174603174603174,-0.5555555555555556,-1.0317460317460316,-166.26984126984127
258.6507936507936,-19.285714285714285,33.73015873015873,-26.746031746031743,258.4920634920635,49.92063492063492,281.19047619047615,8.492063492063492,12.3015873015873,-325.0,325.0,7.222222222222221,43.73015873015873,-11.349206349206348,25.634920634920633,-258.4920634920635,-14.682539682539682,303.25396825396825,31.507936507936506,-14.206349206349206,-7.5396825396825395,10.714285714285714,16.26984126984127,-166.26984126984127
258.6507936507936,-19.285714285714285,33.73015873015873,-26.746031746031743,258.4920634920635,49.92063492063492,281.19047619047615,8.492063492063492,12.3015873015873,-325.0,325.0,7.222222222222221,43.73015873015873,-11.349206349206348,25.634920634920633,-258.4920634920635,-14.682539682539682,303.25396825396825,31.507936507936506,-14.206349206349206,-7.5396825396825395,10.714285714285714,16.26984126984127,-166.26984126984127
142.3015873015873,-11.666666666666666,18.174603174603174,-15.793650793650793,143.57142857142856,-139.9206349206349,155.79365079365078,-158.4920634920635,7.222222222222221,-218.8095238095238,-0.07936507936507936,-159.28571428571428,24.047619047619047,-7.222222222222221,14.047619047619047,-133.0952380952381,155.63492063492063,18.49206349206349,-107.85714285714285,-8.65079365079365,-4.841269841269841,-4.2063492063492065,-5.317460317460317,-166.26984126984127
142.3015873015873,-11.666666666666666,18.174603174603174,-15.793650793650793,143.57142857142856,-139.9206349206349,155.79365079365078,-158.4920634920635,7.222222222222221,-218.8095238095238,-0.07936507936507936,-159.28571428571428,24.047619047619047,-7.222222222222221,14.047619047619047,-133.0952380952381,155.63492063492063,18.49206349206349,-107.85714285714285,-8.65079365079365,-4.841269841269841,-4.2063492063492065,-5.317460317460317,-166.26984126984127
49.285714285714285,-5.476190476190476,5.952380952380952,-7.063492063492063,50.55555555555555,-325.0,55.0,-325.0,3.4126984126984126,-112.46031746031746,-325.0,-325.0,8.809523809523808,-3.888888888888889,5.158730158730158,-30.555555555555554,325.0,-244.52380952380952,-35.0,-4.2063492063492065,-2.7777777777777777,-16.587301587301585,-24.047619047619047,-321.8253968253968
49.285714285714285,-5.476190476190476,5.952380952380952,-7.063492063492063,50.55555555555555,-325.0,55.0,-325.0,3.4126984126984126,-112.46031746031746,-325.0,-325.0,8.809523809523808,-3.888888888888889,5.158730158730158,-30.555555555555554,325.0,-244.52380952380952,-35.0,-4.2063492063492065,-2.7777777777777777,-16.587301587301585,-24.047619047619047,-321.8253968253968
49.285714285714285,-5.476190476190476,5.952380952380952,-7.063492063492063,50.55555555555555,-325.0,55.0,-325.0,3.4126984126984126,-112.46031746031746,-325.0,-325.0,8.809523809523808,-3.888888888888889,5.158730158730158,-30.555555555555554,325.0,-244.52380952380952,-35.0,-4.2063492063492065,-2.7777777777777777,-16.587301587301585,-24.047619047619047,-321.8253968253968
49.285714285714285,-5.476190476190476,5.952380952380952,-7.063492063492063,50.55555555555555,-325.0,55.0,-325.0,3.4126984126984126,-112.46031746031746,-325.0,-325.0,8.809523809523808,-3.888888888888889,5.158730158730158,-30.555555555555554,325.0,-244.52380952380952,-35.0,-4.2063492063492065,-2.7777777777777777,-16.587301587301585,-24.047619047619047,-321.8253968253968
49.285714285714285,-5.476190476190476,5.952380952380952,-7.063492063492063,50.55555555555555,-325.0,55.0,-325.0,3.4126984126984126,-112.46031746031746,-325.0,-325.0,8.809523809523808,-3.888888888888889,5.158730158730158,-30.555555555555554,325.0,-244.52380952380952,-35.0,-4.2063492063492065,-2.7777777777777777,-16.587301587301585,-24.047619047619047,-321.8253968253968
49.285714285714285,-5.476190476190476,5.952380952380952,-7.063492063492063,50.55555555555555,-325.0,55.0,-325.0,3.4126984126984126,-112.46031746031746,-325.0,-325.0,8.809523809523808,-3.888888888888889,5.158730158730158,-30.555555555555554,325.0,-244.52380952380952,-35.0,-4.2063492063492065,-2.7777777777777777,-16.587301587301585,-24.047619047619047,-321.8253968253968
49.285714285714285,-5.476190476190476,5.952380952380952,-7.063492063492063,50.55555555555555,-325.0,55.0,-325.0,3.4126984126984126,-112.46031746031746,-325.0,-325.0,8.809523809523808,-3.888888888888889,5.158730158730158,-30.555555555555554,325.0,-244.52380952380952,-35.0,-4.2063492063492065,-2.7777777777777777,-16.587301587301585,-24.047619047619047,-321.8253968253968
49.285714285714285,-5.476190476190476,5.952380952380952,-7.063492063492063,50.55555555555555,-325.0,55.0,-325.0,3.4126984126984126,-112.46031746031746,-325.0,-325.0,8.809523809523808,-3.888888888888889,5.158730158730158,-30.555555555555554,325.0,-244.52380952380952,-35.0,-4.2063492063492065,-2.7777777777777777,-16.587301587301585,-24.047619047619047,-321.8253968253968
49.285714285714285,-5.476190476190476,5.952380952380952,-7.063492063492063,50.55555555555555,-325.0,55.0,-325.0,3.4126984126984126,-112.46031746031746,-325.0,-325.0,8.809523809523808,-3.888888888888889,5.158730158730158,-30.555555555555554,325.0,-244.52380952380952,-35.0,-4.2063492063492065,-2.7777777777777777,-16.587301587301585,-24.047619047619047,-321.8253968253968
49.285714285714285,-5.476190476190476,5.952380952380952,-7.063492063492063,50.55555555555555,-325.0,55.0,-325.0,3.4126984126984126,-112.46031746031746,-325.0,-325.0,8.809523809523808,-3.888888888888889,5.158730158730158,-30.555555555555554,325.0,-244.52380952380952,-35.0,-4.2063492063492065,-2.7777777777777777,-16.587301587301585,-24.047619047619047,-321.8253968253968
-36.58730158730159,-4.523809523809524,4.365079365079365,-5.634920634920634,-276.58730158730157,-281.66666666666663,-186.74603174603175,-325.0,2.9365079365079363,-83.73015873015872,-114.68253968253967,-325.0,6.587301587301587,23.253968253968253,3.73015873015873,325.0,325.0,-184.36507936507937,-25.317460317460316,-3.888888888888889,-2.46031746031746,-10.079365079365079,-13.571428571428571,-166.26984126984127
-36.58730158730159,-4.523809523809524,4.365079365079365,-5.634920634920634,-276.58730158730157,-281.66666666666663,-186.74603174603175,-325.0,2.9365079365079363,-83.73015873015872,-114.68253968253967,-325.0,6.587301587301587,23.253968253968253,3.73015873015873,325.0,325.0,-184.36507936507937,-25.317460317460316,-3.888888888888889,-2.46031746031746,-10.079365079365079,-13.571428571428571,-166.26984126984127
-41.34920634920635,-4.365079365079365,4.365079365079365,-5.317460317460317,-325.0,-278.015873015873,-325.0,-325.0,2.7777777777777777,-82.46031746031746,-291.031746031746,-325.0,6.746031746031746,95.79365079365078,3.571428571428571,325.0,325.0,-181.984126984127,-24.84126984126984,-3.73015873015873,-2.3015873015873014,-0.5555555555555556,-1.0317460317460316,-166.26984126984127
-41.34920634920635,-4.365079365079365,4.365079365079365,-5.317460317460317,-325.0,-278.015873015873,-325.0,-325.0,2.7777777777777777,-82.46031746031746,-291.031746031746,-325.0,6.746031746031746,95.79365079365078,3.571428571428571,325.0,325.0,-181.984126984127,-24.84126984126984,-3.73015873015873,-2.3015873015873014,-0.5555555555555556,-1.0317460317460316,-166.26984126984127
-197.69841269841268,-4.2063492063492065,4.365079365079365,-5.158730158730158,-325.0,-265.7936507936508,-325.0,-325.0,2.7777777777777777,-78.65079365079364,-289.4444444444444,-325.0,6.428571428571428,325.0,3.571428571428571,325.0,325.0,-106.58730158730158,-23.730158730158728,-3.4126984126984126,-2.142857142857143,-18.49206349206349,-26.26984126984127,-166.26984126984127
-197.69841269841268,-4.2063492063492065,4.365079365079365,-5.158730158730158,-325.0,-265.7936507936508,-325.0,-325.0,2.7777777777777777,-78.65079365079364,-289.4444444444444,-325.0,6.428571428571428,325.0,3.571428571428571,325.0,325.0,-106.58730158730158,-23.730158730158728,-3.4126984126984126,-2.142857142857143,-18.49206349206349,-26.26984126984127,-166.26984126984127
-178.17460317460316,-3.888888888888889,4.365079365079365,-5.158730158730158,-325.0,-260.23809523809524,-325.0,-325.0,2.7777777777777777,-76.58730158730158,-325.0,-325.0,6.26984126984127,325.0,3.73015873015873,325.0,325.0,-172.77777777777777,-22.936507936507937,-3.253968253968254,-1.984126984126984,-6.587301587301587,-11.825396825396824,-166.26984126984127
-178.17460317460316,-3.888888888888889,4.365079365079365,-5.158730158730158,-325.0,-260.23809523809524,-325.0,-325.0,2.7777777777777777,-76.58730158730158,-325.0,-325.0,6.26984126984127,325.0,3.73015873015873,325.0,325.0,-172.77777777777777,-22.936507936507937,-3.253968253968254,-1.984126984126984,-6.587301587301587,-11.825396825396824,-166.26984126984127
-178.17460317460316,-3.888888888888889,4.365079365079365,-5.158730158730158,-325.0,-260.23809523809524,-325.0,-325.0,2.7777777777777777,-76.58730158730158,-325.0,-325.0,6.26984126984127,325.0,3.73015873015873,325.0,325.0,-172.77777777777777,-22.936507936507937,-3.253968253968254,-1.984126984126984,-6.587301587301587,-11.825396825396824,-166.26984126984127
-178.17460317460316,-3.888888888888889,4.365079365079365,-5.158730158730158,-325.0,-260.23809523809524,-325.0,-325.0,2.7777777777777777,-76.58730158730158,-325.0,-325.0,6.26984126984127,325.0,3.73015873015873,325.0,325.0,-172.77777777777777,-22.936507936507937,-3.253968253968254,-1.984126984126984,-6.587301587301587,-11.825396825396824,-166.26984126984127
-325.0,-3.4126984126984126,3.4126984126984126,-4.523809523809524,-325.0,-211.98412698412696,-325.0,-325.0,2.3015873015873014,-61.666666666666664,-194.52380952380952,-325.0,5.317460317460317,325.0,2.7777777777777777,325.0,325.0,-133.73015873015873,-18.49206349206349,325.0,0.873015873015873,31.349206349206348,41.666666666666664,-321.8253968253968
-325.0,-3.4126984126984126,3.4126984126984126,-4.523809523809524,-325.0,-211.98412698412696,-325.0,-325.0,2.3015873015873014,-61.666666666666664,-194.52380952380952,-325.0,5.317460317460317,325.0,2.7777777777777777,325.0,325.0,-133.73015873015873,-18.49206349206349,325.0,0.873015873015873,31.349206349206348,41.666666666666664,-321.8253968253968
-325.0,-3.4126984126984126,3.4126984126984126,-4.523809523809524,-325.0,-211.98412698412696,-325.0,-325.0,2.3015873015873014,-61.666666666666664,-194.52380952380952,-325.0,5.317460317460317,325.0,2.7777777777777777,325.0,325.0,-133.73015873015873,-18.49206349206349,325.0,0.873015873015873,31.349206349206348,41.666666666666664,-321.8253968253968
-325.0,-3.4126984126984126,3.4126984126984126,-4.523809523809524,-325.0,-211.98412698412696,-325.0,-325.0,2.3015873015873014,-61.666666666666664,-194.52380952380952,-325.0,5.317460317460317,325.0,2.7777777777777777,325.0,325.0,-133.73015873015873,-18.49206349206349,325.0,0.873015873015873,31.349206349206348,41.666666666666664,-321.8253968253968
-325.0,-3.4126984126984126,3.4126984126984126,-4.523809523809524,-325.0,-211.98412698412696,-325.0,-325.0,2.3015873015873014,-61.666666666666664,-194.52380952380952,-325.0,5.317460317460317,325.0,2.7777777777777777,325.0,325.0,-133.73015873015873,-18.49206349206349,325.0,0.873015873015873,31.349206349206348,41.666666666666664,-321.8253968253968
-325.0,-3.4126984126984126,3.4126984126984126,-4.523809523809524,-325.0,-211.98412698412696,-325.0,-325.0,2.3015873015873014,-61.666666666666664,-194.52380952380952,-325.0,5.317460317460317,325.0,2.7777777777777777,325.0,325.0,-133.73015873015873,-18.49206349206349,325.0,0.873015873015873,31.349206349206348,41.666666666666664,-321.8253968253968
-325.0,233.09523809523807,5.952380952380952,-3.73015873015873,-325.0,-146.11111111111111,-325.0,-231.5079365079365,-76.1111111111111,-42.460317460317455,126.1111111111111,-228.96825396825395,6.428571428571428,325.0,-1.507936507936508,325.0,237.38095238095238,-104.52380952380952,-12.777777777777777,325.0,325.0,-8.65079365079365,-10.238095238095237,-321.8253968253968
-325.0,233.09523809523807,5.952380952380952,-3.73015873015873,-325.0,-146.11111111111111,-325.0,-231.5079365079365,-76.1111111111111,-42.460317460317455,126.1111111111111,-228.96825396825395,6.428571428571428,325.0,-1.507936507936508,325.0,237.38095238095238,-104.52380952380952,-12.777777777777777,325.0,325.0,-8.65079365079365,-10.238095238095237,-321.8253968253968
-195.95238095238093,293.57142857142856,-325.0,325.0,-167.69841269841268,-45.79365079365079,-174.52380952380952,-74.2063492063492,-325.0,325.0,-23.730158730158728,-69.92063492063491,-325.0,151.5079365079365,-325.0,189.9206349206349,70.23809523809524,325.0,325.0,181.5079365079365,253.09523809523807,-30.396825396825395,-40.87301587301587,-321.8253968253968
-195.95238095238093,293.57142857142856,-325.0,325.0,-167.69841269841268,-45.79365079365079,-174.52380952380952,-74.2063492063492,-325.0,325.0,-23.730158730158728,-69.92063492063491,-325.0,151.5079365079365,-325.0,189.9206349206349,70.23809523809524,325.0,325.0,181.5079365079365,253.09523809523807,-30.396825396825395,-40.87301587301587,-321.8253968253968
-186.74603174603175,280.7142857142857,-325.0,325.0,-160.3968253968254,-43.888888888888886,-166.26984126984127,-70.87301587301587,-325.0,325.0,-204.2063492063492,-66.42857142857143,-325.0,144.36507936507937,-325.0,181.19047619047618,67.06349206349206,325.0,325.0,173.25396825396825,241.19047619047618,11.984126984126984,13.888888888888888,-166.26984126984127
-186.74603174603175,280.7142857142857,-325.0,325.0,-160.3968253968254,-43.888888888888886,-166.26984126984127,-70.87301587301587,-325.0,325.0,-204.2063492063492,-66.42857142857143,-325.0,144.36507936507937,-325.0,181.19047619047618,67.06349206349206,325.0,325.0,173.25396825396825,241.19047619047618,11.984126984126984,13.888888888888888,-166.26984126984127
-180.7142857142857,271.66666666666663,-293.25396825396825,325.0,-155.3174603174603,-42.460317460317455,-161.19047619047618,-68.80952380952381,-325.0,325.0,146.42857142857142,-64.52380952380952,-266.74603174603175,139.12698412698413,-325.0,175.15873015873015,64.84126984126983,325.0,325.0,167.38095238095238,233.09523809523807,-12.142857142857142,-14.682539682539682,-166.26984126984127
-180.7142857142857,271.66666666666663,-293.25396825396825,325.0,-155.3174603174603,-42.460317460317455,-161.19047619047618,-68.80952380952381,-325.0,325.0,146.42857142857142,-64.52380952380952,-266.74603174603175,139.12698412698413,-325.0,175.15873015873015,64.84126984126983,325.0,325.0,167.38095238095238,233.09523809523807,-12.142857142857142,-14.682539682539682,-166.26984126984127
-74.68253968253968,115.31746031746032,-232.3015873015873,183.57142857142856,-67.53968253968253,92.77777777777777,-68.17460317460318,-30.71428571428571,-186.74603174603175,325.0,318.015873015873,-27.698412698412696,-242.77777777777777,56.42857142857142,-210.2380952380952,-110.71428571428571,27.22222222222222,246.42857142857142,216.74603174603175,70.55555555555556,95.31746031746032,-16.11111111111111,-20.396825396825395,-166.26984126984127
-74.68253968253968,115.31746031746032,-232.3015873015873,183.57142857142856,-67.53968253968253,92.77777777777777,-68.17460317460318,-30.71428571428571,-186.74603174603175,325.0,318.015873015873,-27.698412698412696,-242.77777777777777,56.42857142857142,-210.2380952380952,-110.71428571428571,27.22222222222222,246.42857142857142,216.74603174603175,70.55555555555556,95.31746031746032,-16.11111111111111,-20.396825396825395,-166.26984126984127
-74.68253968253968,115.31746031746032,-232.3015873015873,183.57142857142856,-67.53968253968253,92.77777777777777,-68.17460317460318,-30.71428571428571,-186.74603174603175,325.0,318.015873015873,-27.698412698412696,-242.77777777777777,56.42857142857142,-210.2380952380952,-110.71428571428571,27.22222222222222,246.42857142857142,216.74603174603175,70.55555555555556,95.31746031746032,-16.11111111111111,-20.396825396825395,-166.26984126984127
-74.68253968253968,115.31746031746032,-232.3015873015873,183.57142857142856,-67.53968253968253,92.77777777777777,-68.17460317460318,-30.71428571428571,-186.74603174603175,325.0,318.015873015873,-27.698412698412696,-242.77777777777777,56.42857142857142,-210.2380952380952,-110.71428571428571,27.22222222222222,246.42857142857142,216.74603174603175,70.55555555555556,95.31746031746032,-16.11111111111111,-20.396825396825395,-166.26984126984127
-73.09523809523809,112.93650793650794,-227.38095238095238,179.60317460317458,-66.26984126984127,59.12698412698413,-66.74603174603175,-30.238095238095237,-182.93650793650792,307.69841269841265,105.79365079365078,-27.22222222222222,-238.015873015873,55.15873015873016,-206.1111111111111,-92.61904761904762,25.158730158730158,240.2380952380952,212.3015873015873,68.96825396825396,93.25396825396825,-21.507936507936506,-28.96825396825397,-166.26984126984127
-73.09523809523809,112.93650793650794,-227.38095238095238,179.60317460317458,-66.26984126984127,59.12698412698413,-66.74603174603175,-30.238095238095237,-182.93650793650792,307.69841269841265,105.79365079365078,-27.22222222222222,-238.015873015873,55.15873015873016,-206.1111111111111,-92.61904761904762,25.158730158730158,240.2380952380952,212.3015873015873,68.96825396825396,93.25396825396825,-21.507936507936506,-28.96825396825397,-166.26984126984127
-44.047619047619044,68.80952380952381,-138.4920634920635,108.01587301587301,-41.19047619047619,5.952380952380952,-40.714285714285715,-19.126984126984127,-111.98412698412697,27.38095238095238,13.412698412698411,-16.746031746031743,-144.84126984126982,32.77777777777778,-127.53968253968253,207.38095238095238,16.746031746031743,220.2380952380952,129.28571428571428,41.98412698412698,55.317460317460316,-18.49206349206349,-25.0,-321.8253968253968
-44.047619047619044,68.80952380952381,-138.4920634920635,108.01587301587301,-41.19047619047619,5.952380952380952,-40.714285714285715,-19.126984126984127,-111.98412698412697,27.38095238095238,13.412698412698411,-16.746031746031743,-144.84126984126982,32.77777777777778,-127.53968253968253,207.38095238095238,16.746031746031743,220.2380952380952,129.28571428571428,41.98412698412698,55.317460317460316,-18.49206349206349,-25.0,-321.8253968253968
-44.047619047619044,68.80952380952381,-138.4920634920635,108.01587301587301,-41.19047619047619,5.952380952380952,-40.714285714285715,-19.126984126984127,-111.98412698412697,27.38095238095238,13.412698412698411,-16.746031746031743,-144.84126984126982,32.77777777777778,-127.53968253968253,207.38095238095238,16.746031746031743,220.2380952380952,129.28571428571428,41.98412698412698,55.317460317460316,-18.49206349206349,-25.0,-321.8253968253968
-44.047619047619044,68.80952380952381,-138.4920634920635,108.01587301587301,-41.19047619047619,5.952380952380952,-40.714285714285715,-19.126984126984127,-111.98412698412697,27.38095238095238,13.412698412698411,-16.746031746031743,-144.84126984126982,32.77777777777778,-127.53968253968253,207.38095238095238,16.746031746031743,220.2380952380952,129.28571428571428,41.98412698412698,55.317460317460316,-18.49206349206349,-25.0,-321.8253968253968
-44.047619047619044,68.80952380952381,-138.4920634920635,108.01587301587301,-41.19047619047619,5.952380952380952,-40.714285714285715,-19.126984126984127,-111.98412698412697,27.38095238095238,13.412698412698411,-16.746031746031743,-144.84126984126982,32.77777777777778,-127.53968253968253,207.38095238095238,16.746031746031743,220.2380952380952,129.28571428571428,41.98412698412698,55.317460317460316,-18.49206349206349,-25.0,-321.8253968253968
-44.047619047619044,68.80952380952381,-138.4920634920635,108.01587301587301,-41.19047619047619,5.952380952380952,-40.714285714285715,-19.126984126984127,-111.98412698412697,27.38095238095238,13.412698412698411,-16.746031746031743,-144.84126984126982,32.77777777777778,-127.53968253968253,207.38095238095238,16.746031746031743,220.2380952380952,129.28571428571428,41.98412698412698,55.317460317460316,-18.49206349206349,-25.0,-321.8253968253968
-44.047619047619044,68.80952380952381,-138.4920634920635,108.01587301587301,-41.19047619047619,5.952380952380952,-40.714285714285715,-19.126984126984127,-111.98412698412697,27.38095238095238,13.412698412698411,-16.746031746031743,-144.84126984126982,32.77777777777778,-127.53968253968253,207.38095238095238,16.746031746031743,220.2380952380952,129.28571428571428,41.98412698412698,55.317460317460316,-18.49206349206349,-25.0,-321.8253968253968
-44.047619047619044,68.80952380952381,-138.4920634920635,108.01587301587301,-41.19047619047619,5.952380952380952,-40.714285714285715,-19.126984126984127,-111.98412698412697,27.38095238095238,13.412698412698411,-16.746031746031743,-144.84126984126982,32.77777777777778,-127.53968253968253,207.38095238095238,16.746031746031743,220.2380952380952,129.28571428571428,41.98412698412698,55.317460317460316,-18.49206349206349,-25.0,-321.8253968253968
-44.047619047619044,68.80952380952381,-138.4920634920635,108.01587301587301,-41.19047619047619,5.952380952380952,-40.714285714285715,-19.126984126984127,-111.98412698412697,27.38095238095238,13.412698412698411,-16.746031746031743,-144.84126984126982,32.77777777777778,-127.53968253968253,207.38095238095238,16.746031746031743,220.2380952380952,129.28571428571428,41.98412698412698,55.317460317460316,-18.49206349206349,-25.0,-321.8253968253968
-44.047619047619044,68.80952380952381,-138.4920634920635,108.01587301587301,-41.19047619047619,5.952380952380952,-40.714285714285715,-19.126984126984127,-111.98412698412697,27.38095238095238,13.412698412698411,-16.746031746031743,-144.84126984126982,32.77777777777778,-127.53968253968253,207.38095238095238,16.746031746031743,220.2380952380952,129.28571428571428,41.98412698412698,55.317460317460316,-18.49206349206349,-25.0,-321.8253968253968
-44.047619047619044,68.80952380952381,-138.4920634920635,108.01587301587301,-41.19047619047619,5.952380952380952,-40.714285714285715,-19.126984126984127,-111.98412698412697,27.38095238095238,13.412698412698411,-16.746031746031743,-144.84126984126982,32.77777777777778,-127.53968253968253,207.38095238095238,16.746031746031743,220.2380952380952,129.28571428571428,41.98412698412698,55.317460317460316,-18.49206349206349,-25.0,-166.26984126984127
-44.047619047619044,68.80952380952381,-138.4920634920635,108.01587301587301,-41.19047619047619,5.952380952380952,-40.714285714285715,-19.126984126984127,-111.98412698412697,27.38095238095238,13.412698412698411,-16.746031746031743,-144.84126984126982,32.77777777777778,-127.53968253968253,207.38095238095238,16.746031746031743,220.2380952380952,129.28571428571428,41.98412698412698,55.317460317460316,-18.49206349206349,-25.0,-166.26984126984127
-44.047619047619044,68.80952380952381,-138.4920634920635,108.01587301587301,-41.19047619047619,5.952380952380952,-40.714285714285715,-19.126984126984127,-111.98412698412697,27.38095238095238,13.412698412698411,-16.746031746031743,-144.84126984126982,32.77777777777778,-127.53968253968253,207.38095238095238,16.746031746031743,220.2380952380952,129.28571428571428,41.98412698412698,55.317460317460316,-18.49206349206349,-25.0,-166.26984126984127
-44.047619047619044,68.80952380952381,-138.4920634920635,108.01587301587301,-41.19047619047619,5.952380952380952,-40.714285714285715,-19.126984126984127,-111.98412698412697,27.38095238095238,13.412698412698411,-16.746031746031743,-144.84126984126982,32.77777777777778,-127.53968253968253,207.38095238095238,16.746031746031743,220.2380952380952,129.28571428571428,41.98412698412698,55.317460317460316,-18.49206349206349,-25.0,-166.26984126984127
-44.047619047619044,68.80952380952381,-138.4920634920635,108.01587301587301,-41.19047619047619,5.952380952380952,-40.714285714285715,-19.126984126984127,-111.98412698412697,27.38095238095238,13.412698412698411,-16.746031746031743,-144.84126984126982,32.77777777777778,-127.53968253968253,207.38095238095238,16.746031746031743,220.2380952380952,129.28571428571428,41.98412698412698,55.317460317460316,-18.49206349206349,-25.0,-166.26984126984127
-44.047619047619044,68.80952380952381,-138.4920634920635,108.01587301587301,-41.19047619047619,5.952380952380952,-40.714285714285715,-19.126984126984127,-111.98412698412697,27.38095238095238,13.412698412698411,-16.746031746031743,-144.84126984126982,32.77777777777778,-127.53968253968253,207.38095238095238,16.746031746031743,220.2380952380952,129.28571428571428,41.98412698412698,55.317460317460316,-18.49206349206349,-25.0,-166.26984126984127
-44.047619047619044,68.80952380952381,-138.4920634920635,108.01587301587301,-41.19047619047619,5.952380952380952,-40.714285714285715,-19.126984126984127,-111.98412698412697,27.38095238095238,13.412698412698411,-16.746031746031743,-144.84126984126982,32.77777777777778,-127.53968253968253,207.38095238095238,16.746031746031743,220.2380952380952,129.28571428571428,41.98412698412698,55.317460317460316,-18.49206349206349,-25.0,-166.26984126984127
-44.047619047619044,68.80952380952381,-138.4920634920635,108.01587301587301,-41.19047619047619,5.952380952380952,-40.714285714285715,-19.126984126984127,-111.98412698412697,27.38095238095238,13.412698412698411,-16.746031746031743,-144.84126984126982,32.77777777777778,-127.53968253968253,207.38095238095238,16.746031746031743,220.2380952380952,129.28571428571428,41.98412698412698,55.317460317460316,-18.49206349206349,-25.0,-166.26984126984127
-44.047619047619044,68.80952380952381,-138.4920634920635,108.01587301587301,-41.19047619047619,5.952380952380952,-40.714285714285715,-19.126984126984127,-111.98412698412697,27.38095238095238,13.412698412698411,-16.746031746031743,-144.84126984126982,32.77777777777778,-127.53968253968253,207.38095238095238,16.746031746031743,220.2380952380952,129.28571428571428,41.98412698412698,55.317460317460316,-18.49206349206349,-25.0,-166.26984126984127
-44.047619047619044,68.80952380952381,-138.4920634920635,108.01587301587301,-41.19047619047619,5.952380952380952,-40.714285714285715,-19.126984126984127,-111.98412698412697,27.38095238095238,13.412698412698411,-16.746031746031743,-144.84126984126982,32.77777777777778,-127.53968253968253,207.38095238095238,16.746031746031743,220.2380952380952,129.28571428571428,41.98412698412698,55.317460317460316,-18.49206349206349,-25.0,-166.26984126984127
-44.047619047619044,68.80952380952381,-138.4920634920635,108.01587301587301,-41.19047619047619,5.952380952380952,-40.714285714285715,-19.126984126984127,-111.98412698412697,27.38095238095238,13.412698412698411,-16.746031746031743,-144.84126984126982,32.77777777777778,-127.53968253968253,207.38095238095238,16.746031746031743,220.2380952380952,129.28571428571428,41.98412698412698,55.317460317460316,-18.49206349206349,-25.0,-321.8253968253968
-44.047619047619044,68.80952380952381,-138.4920634920635,108.01587301587301,-41.19047619047619,5.952380952380952,-40.714285714285715,-19.126984126984127,-111.98412698412697,27.38095238095238,13.412698412698411,-16.746031746031743,-144.84126984126982,32.77777777777778,-127.53968253968253,207.38095238095238,16.746031746031743,220.2380952380952,129.28571428571428,41.98412698412698,55.317460317460316,-18.49206349206349,-25.0,-321.8253968253968
-44.047619047619044,68.80952380952381,-138.4920634920635,108.01587301587301,-41.19047619047619,5.952380952380952,-40.714285714285715,-19.126984126984127,-111.98412698412697,27.38095238095238,13.412698412698411,-16.746031746031743,-144.84126984126982,32.77777777777778,-127.53968253968253,207.38095238095238,16.746031746031743,220.2380952380952,129.28571428571428,41.98412698412698,55.317460317460316,-18.49206349206349,-25.0,-321.8253968253968
-44.047619047619044,68.80952380952381,-138.4920634920635,108.01587301587301,-41.19047619047619,5.952380952380952,-40.714285714285715,-19.126984126984127,-111.98412698412697,27.38095238095238,13.412698412698411,-16.746031746031743,-144.84126984126982,32.77777777777778,-127.53968253968253,207.38095238095238,16.746031746031743,220.2380952380952,129.28571428571428,41.98412698412698,55.317460317460316,-18.49206349206349,-25.0,-321.8253968253968
-44.047619047619044,68.80952380952381,-138.4920634920635,108.01587301587301,-41.19047619047619,5.952380952380952,-40.714285714285715,-19.126984126984127,-111.98412698412697,27.38095238095238,13.412698412698411,-16.746031746031743,-144.84126984126982,32.77777777777778,-127.53968253968253,207.38095238095238,16.746031746031743,220.2380952380952,129.28571428571428,41.98412698412698,55.317460317460316,-18.49206349206349,-25.0,-321.8253968253968
-44.047619047619044,68.80952380952381,-138.4920634920635,108.01587301587301,-41.19047619047619,5.952380952380952,-40.714285714285715,-19.126984126984127,-111.98412698412697,27.38095238095238,13.412698412698411,-16.746031746031743,-144.84126984126982,32.77777777777778,-127.53968253968253,207.38095238095238,16.746031746031743,220.2380952380952,129.28571428571428,41.98412698412698,55.317460317460316,-18.49206349206349,-25.0,-321.8253968253968
-44.047619047619044,68.80952380952381,-138.4920634920635,108.01587301587301,-41.19047619047619,5.952380952380952,-40.714285714285715,-19.126984126984127,-111.98412698412697,27.38095238095238,13.412698412698411,-16.746031746031743,-144.84126984126982,32.77777777777778,-127.53968253968253,207.38095238095238,16.746031746031743,220.2380952380952,129.28571428571428,41.98412698412698,55.317460317460316,-18.49206349206349,-25.0,-321.8253968253968
-44.047619047619044,68.80952380952381,-138.4920634920635,108.01587301587301,-41.19047619047619,5.952380952380952,-40.714285714285715,-19.126984126984127,-111.98412698412697,27.38095238095238,13.412698412698411,-16.746031746031743,-144.84126984126982,32.77777777777778,-127.53968253968253,207.38095238095238,16.746031746031743,220.2380952380952,129.28571428571428,41.98412698412698,55.317460317460316,-18.49206349206349,-25.0,-321.8253968253968
-21.984126984126984,32.14285714285714,-64.2063492063492,49.12698412698413,-22.936507936507937,257.38095238095235,-7.5396825396825395,85.63492063492063,-52.61904761904761,82.3015873015873,112.14285714285714,44.84126984126984,-66.9047619047619,15.0,-60.71428571428571,97.06349206349206,14.365079365079364,109.6031746031746,60.238095238095234,4.523809523809524,25.317460317460316,-2.619047619047619,-0.7142857142857142,-321.8253968253968
-21.984126984126984,32.14285714285714,-64.2063492063492,49.12698412698413,-22.936507936507937,257.38095238095235,-7.5396825396825395,85.63492063492063,-52.61904761904761,82.3015873015873,112.14285714285714,44.84126984126984,-66.9047619047619,15.0,-60.71428571428571,97.06349206349206,14.365079365079364,109.6031746031746,60.238095238095234,4.523809523809524,25.317460317460316,-2.619047619047619,-0.7142857142857142,-321.8253968253968
-21.984126984126984,32.14285714285714,-64.2063492063492,49.12698412698413,-22.936507936507937,257.38095238095235,-7.5396825396825395,85.63492063492063,-52.61904761904761,82.3015873015873,112.14285714285714,44.84126984126984,-66.9047619047619,15.0,-60.71428571428571,97.06349206349206,14.365079365079364,109.6031746031746,60.238095238095234,4.523809523809524,25.317460317460316,-2.619047619047619,-0.7142857142857142,-166.26984126984127
-21.984126984126984,32.14285714285714,-64.2063492063492,49.12698412698413,-22.936507936507937,257.38095238095235,-7.5396825396825395,85.63492063492063,-52.61904761904761,82.3015873015873,112.14285714285714,44.84126984126984,-66.9047619047619,15.0,-60.71428571428571,97.06349206349206,14.365079365079364,109.6031746031746,60.238095238095234,4.523809523809524,25.317460317460316,-2.619047619047619,-0.7142857142857142,-166.26984126984127
-21.984126984126984,32.14285714285714,-64.2063492063492,49.12698412698413,-22.936507936507937,257.38095238095235,-7.5396825396825395,85.63492063492063,-52.61904761904761,82.3015873015873,112.14285714285714,44.84126984126984,-66.9047619047619,15.0,-60.71428571428571,97.06349206349206,14.365079365079364,109.6031746031746,60.238095238095234,4.523809523809524,25.317460317460316,-2.619047619047619,-0.7142857142857142,-166.26984126984127
-21.984126984126984,32.14285714285714,-64.2063492063492,49.12698412698413,-22.936507936507937,257.38095238095235,-7.5396825396825395,85.63492063492063,-52.61904761904761,82.3015873015873,112.14285714285714,44.84126984126984,-66.9047619047619,15.0,-60.71428571428571,97.06349206349206,14.365079365079364,109.6031746031746,60.238095238095234,4.523809523809524,25.317460317460316,-2.619047619047619,-0.7142857142857142,-166.26984126984127
-15.158730158730158,20.396825396825395,-41.507936507936506,30.71428571428571,-30.07936507936508,155.95238095238093,-13.73015873015873,83.4126984126984,-33.57142857142857,20.238095238095237,-106.42857142857142,56.904761904761905,-43.888888888888886,9.444444444444445,-38.80952380952381,128.65079365079364,-155.3174603174603,-107.6984126984127,38.96825396825397,-160.23809523809524,21.507936507936506,-6.111111111111111,-8.65079365079365,-166.26984126984127
-15.158730158730158,20.396825396825395,-41.507936507936506,30.71428571428571,-30.07936507936508,155.95238095238093,-13.73015873015873,83.4126984126984,-33.57142857142857,20.238095238095237,-106.42857142857142,56.904761904761905,-43.888888888888886,9.444444444444445,-38.80952380952381,128.65079365079364,-155.3174603174603,-107.6984126984127,38.96825396825397,-160.23809523809524,21.507936507936506,-6.111111111111111,-8.65079365079365,-166.26984126984127
24.68253968253968,8.65079365079365,-7.698412698412698,11.984126984126984,62.93650793650793,195.15873015873015,65.79365079365078,210.2380952380952,-6.587301587301587,89.6031746031746,78.17460317460316,214.04761904761904,3.253968253968254,4.0476190476190474,-15.793650793650793,180.7142857142857,6.904761904761904,-325.0,17.539682539682538,-205.0,-19.6031746031746,18.49206349206349,26.587301587301585,-166.26984126984127
24.68253968253968,8.65079365079365,-7.698412698412698,11.984126984126984,62.93650793650793,195.15873015873015,65.79365079365078,210.2380952380952,-6.587301587301587,89.6031746031746,78.17460317460316,214.04761904761904,3.253968253968254,4.0476190476190474,-15.793650793650793,180.7142857142857,6.904761904761904,-325.0,17.539682539682538,-205.0,-19.6031746031746,18.49206349206349,26.587301587301585,-166.26984126984127
7.857142857142857,8.492063492063492,-12.936507936507935,11.825396825396824,3.571428571428571,203.7301587301587,11.349206349206348,212.61904761904762,-11.19047619047619,106.9047619047619,-173.09523809523807,213.25396825396825,-7.222222222222221,3.888888888888889,-16.428571428571427,222.77777777777777,-217.69841269841268,-325.0,17.38095238095238,-325.0,0.873015873015873,-18.96825396825397,-28.015873015873016,-166.26984126984127
7.857142857142857,8.492063492063492,-12.936507936507935,11.825396825396824,3.571428571428571,203.7301587301587,11.349206349206348,212.61904761904762,-11.19047619047619,106.9047619047619,-173.09523809523807,213.25396825396825,-7.222222222222221,3.888888888888889,-16.428571428571427,222.77777777777777,-217.69841269841268,-325.0,17.38095238095238,-325.0,0.873015873015873,-18.96825396825397,-28.015873015873016,-166.26984126984127
27.857142857142854,8.492063492063492,-5.317460317460317,11.666666666666666,59.6031746031746,188.65079365079364,58.650793650793645,171.984126984127,-4.523809523809524,75.63492063492063,-31.349206349206348,183.57142857142856,3.095238095238095,3.73015873015873,-14.523809523809524,198.96825396825395,-71.66666666666666,-325.0,17.063492063492063,-257.85714285714283,-36.74603174603175,-1.0317460317460316,-1.6666666666666665,-321.8253968253968
27.857142857142854,8.492063492063492,-5.317460317460317,11.666666666666666,59.6031746031746,188.65079365079364,58.650793650793645,171.984126984127,-4.523809523809524,75.63492063492063,-31.349206349206348,183.57142857142856,3.095238095238095,3.73015873015873,-14.523809523809524,198.96825396825395,-71.66666666666666,-325.0,17.063492063492063,-257.85714285714283,-36.74603174603175,-1.0317460317460316,-1.6666666666666665,-321.8253968253968
23.88888888888889,8.492063492063492,-6.26984126984127,11.666666666666666,48.33333333333333,273.88888888888886,43.73015873015873,211.5079365079365,-6.746031746031746,103.57142857142857,-13.571428571428571,232.93650793650792,2.9365079365079363,3.888888888888889,-15.158730158730158,204.68253968253967,-97.38095238095238,-325.0,16.904761904761905,-325.0,-32.61904761904762,-29.920634920634917,-40.714285714285715,-321.8253968253968
23.88888888888889,8.492063492063492,-6.26984126984127,11.666666666666666,48.33333333333333,273.88888888888886,43.73015873015873,211.5079365079365,-6.746031746031746,103.57142857142857,-13.571428571428571,232.93650793650792,2.9365079365079363,3.888888888888889,-15.158730158730158,204.68253968253967,-97.38095238095238,-325.0,16.904761904761905,-325.0,-32.61904761904762,-29.920634920634917,-40.714285714285715,-321.8253968253968
37.857142857142854,8.174603174603174,-6.111111111111111,11.19047619047619,71.66666666666666,181.19047619047618,75.47619047619047,187.69841269841268,-6.26984126984127,91.34920634920634,104.68253968253968,203.88888888888889,2.46031746031746,3.73015873015873,-14.365079365079364,168.65079365079364,32.3015873015873,-197.69841269841268,16.587301587301585,-193.7301587301587,-20.07936507936508,17.698412698412696,25.952380952380953,-321.8253968253968
37.857142857142854,8.174603174603174,-6.111111111111111,11.19047619047619,71.66666666666666,181.19047619047618,75.47619047619047,187.69841269841268,-6.26984126984127,91.34920634920634,104.68253968253968,203.88888888888889,2.46031746031746,3.73015873015873,-14.365079365079364,168.65079365079364,32.3015873015873,-197.69841269841268,16.587301587301585,-193.7301587301587,-20.07936507936508,17.698412698412696,25.952380952380953,-321.8253968253968
34.682539682539684,8.015873015873016,-5.158730158730158,11.031746031746032,57.53968253968254,194.84126984126982,57.857142857142854,202.46031746031744,-5.952380952380952,100.07936507936508,-23.41269841269841,204.52380952380952,4.2063492063492065,3.73015873015873,-14.206349206349206,186.74603174603175,-69.44444444444444,-203.88888888888889,16.428571428571427,-275.0,-19.444444444444443,-0.873015873015873,-0.3968253968253968,-321.8253968253968
34.682539682539684,8.015873015873016,-5.158730158730158,11.031746031746032,57.53968253968254,194.84126984126982,57.857142857142854,202.46031746031744,-5.952380952380952,100.07936507936508,-23.41269841269841,204.52380952380952,4.2063492063492065,3.73015873015873,-14.206349206349206,186.74603174603175,-69.44444444444444,-203.88888888888889,16.428571428571427,-275.0,-19.444444444444443,-0.873015873015873,-0.3968253968253968,-321.8253968253968
-0.873015873015873,8.174603174603174,-19.76190476190476,11.031746031746032,-9.603174603174603,60.55555555555555,15.0,82.93650793650794,-14.047619047619047,-8.333333333333332,-55.476190476190474,96.74603174603175,-24.206349206349206,3.73015873015873,-15.476190476190474,125.31746031746032,-128.4920634920635,-325.0,16.11111111111111,-186.74603174603175,14.682539682539682,32.14285714285714,41.03174603174603,-321.8253968253968
-0.873015873015873,8.174603174603174,-19.76190476190476,11.031746031746032,-9.603174603174603,60.55555555555555,15.0,82.93650793650794,-14.047619047619047,-8.333333333333332,-55.476190476190474,96.74603174603175,-24.206349206349206,3.73015873015873,-15.476190476190474,125.31746031746032,-128.4920634920635,-325.0,16.11111111111111,-186.74603174603175,14.682539682539682,32.14285714285714,41.03174603174603,-321.8253968253968
8.333333333333332,7.857142857142857,-11.666666666666666,10.873015873015872,-2.3015873015873014,189.60317460317458,5.476190476190476,183.4126984126984,-10.079365079365079,93.4126984126984,-173.25396825396825,201.5079365079365,-7.3809523809523805,3.571428571428571,-14.682539682539682,185.15873015873015,-224.04761904761904,-259.76190476190476,15.793650793650793,-325.0,1.984126984126984,-18.49206349206349,-26.11111111111111,-166.26984126984127
8.333333333333332,7.857142857142857,-11.666666666666666,10.873015873015872,-2.3015873015873014,189.60317460317458,5.476190476190476,183.4126984126984,-10.079365079365079,93.4126984126984,-173.25396825396825,201.5079365079365,-7.3809523809523805,3.571428571428571,-14.682539682539682,185.15873015873015,-224.04761904761904,-259.76190476190476,15.793650793650793,-325.0,1.984126984126984,-18.49206349206349,-26.11111111111111,-166.26984126984127
5.7936507936507935,7.857142857142857,-19.6031746031746,10.714285714285714,-4.523809523809524,46.58730158730158,18.174603174603174,65.0,-14.047619047619047,-21.03174603174603,-35.476190476190474,88.17460317460316,-24.047619047619047,3.73015873015873,-15.0,84.68253968253968,-111.03174603174602,-298.6507936507936,15.634920634920634,-169.60317460317458,8.174603174603174,31.98412698412698,41.19047619047619,-166.26984126984127
5.7936507936507935,7.857142857142857,-19.6031746031746,10.714285714285714,-4.523809523809524,46.58730158730158,18.174603174603174,65.0,-14.047619047619047,-21.03174603174603,-35.476190476190474,88.17460317460316,-24.047619047619047,3.73015873015873,-15.0,84.68253968253968,-111.03174603174602,-298.6507936507936,15.634920634920634,-169.60317460317458,8.174603174603174,31.98412698412698,41.19047619047619,-166.26984126984127
11.031746031746032,7.698412698412698,-8.492063492063492,10.396825396825395,-0.5555555555555556,122.30158730158729,5.7936507936507935,108.65079365079364,-8.809523809523808,-0.07936507936507936,-160.23809523809524,119.6031746031746,-4.841269841269841,3.571428571428571,-13.73015873015873,103.25396825396825,-221.66666666666666,-200.07936507936506,15.476190476190474,-325.0,-4.682539682539682,-18.015873015873016,-25.634920634920633,-166.26984126984127
11.031746031746032,7.698412698412698,-8.492063492063492,10.396825396825395,-0.5555555555555556,122.30158730158729,5.7936507936507935,108.65079365079364,-8.809523809523808,-0.07936507936507936,-160.23809523809524,119.6031746031746,-4.841269841269841,3.571428571428571,-13.73015873015873,103.25396825396825,-221.66666666666666,-200.07936507936506,15.476190476190474,-325.0,-4.682539682539682,-18.015873015873016,-25.634920634920633,-166.26984126984127
9.761904761904761,7.5396825396825395,-19.76190476190476,10.396825396825395,1.349206349206349,5.0,21.984126984126984,26.428571428571427,-13.73015873015873,-78.80952380952381,-15.793650793650793,43.25396825396825,-24.84126984126984,3.253968253968254,-14.682539682539682,31.98412698412698,-94.04761904761904,-216.74603174603175,15.0,-134.2063492063492,8.65079365079365,31.666666666666664,42.14285714285714,-166.26984126984127
9.761904761904761,7.5396825396825395,-19.76190476190476,10.396825396825395,1.349206349206349,5.0,21.984126984126984,26.428571428571427,-13.73015873015873,-78.80952380952381,-15.793650793650793,43.25396825396825,-24.84126984126984,3.253968253968254,-14.682539682539682,31.98412698412698,-94.04761904761904,-216.74603174603175,15.0,-134.2063492063492,8.65079365079365,31.666666666666664,42.14285714285714,-166.26984126984127
45.0,7.5396825396825395,3.571428571428571,10.238095238095237,53.888888888888886,241.8253968253968,50.39682539682539,177.2222222222222,-1.507936507936508,66.26984126984127,-1.984126984126984,207.38095238095238,9.920634920634921,3.253968253968254,-11.984126984126984,70.55555555555556,-119.92063492063491,137.53968253968253,14.682539682539682,-325.0,-36.11111111111111,-32.3015873015873,-41.82539682539682,-166.26984126984127
45.0,7.5396825396825395,3.571428571428571,10.238095238095237,53.888888888888886,241.8253968253968,50.39682539682539,177.2222222222222,-1.507936507936508,66.26984126984127,-1.984126984126984,207.38095238095238,9.920634920634921,3.253968253968254,-11.984126984126984,70.55555555555556,-119.92063492063491,137.53968253968253,14.682539682539682,-325.0,-36.11111111111111,-32.3015873015873,-41.82539682539682,-166.26984126984127
1.507936507936508,7.5396825396825395,-20.396825396825395,9.761904761904761,38.65079365079365,48.17460317460317,14.206349206349206,40.238095238095234,-14.206349206349206,-74.84126984126983,-25.476190476190474,93.57142857142857,-24.84126984126984,3.253968253968254,-14.682539682539682,-325.0,-87.22222222222221,114.2063492063492,14.365079365079364,-159.9206349206349,11.19047619047619,31.666666666666664,42.460317460317455,-321.8253968253968
1.507936507936508,7.5396825396825395,-20.396825396825395,9.761904761904761,38.65079365079365,48.17460317460317,14.206349206349206,40.238095238095234,-14.206349206349206,-74.84126984126983,-25.476190476190474,93.57142857142857,-24.84126984126984,3.253968253968254,-14.682539682539682,-325.0,-87.22222222222221,114.2063492063492,14.365079365079364,-159.9206349206349,11.19047619047619,31.666666666666664,42.460317460317455,-321.8253968253968
1.507936507936508,7.5396825396825395,-20.396825396825395,9.761904761904761,38.65079365079365,48.17460317460317,14.206349206349206,40.238095238095234,-14.206349206349206,-74.84126984126983,-25.476190476190474,93.57142857142857,-24.84126984126984,3.253968253968254,-14.682539682539682,-325.0,-87.22222222222221,114.2063492063492,14.365079365079364,-159.9206349206349,11.19047619047619,31.666666666666664,42.460317460317455,-321.8253968253968
1.507936507936508,7.5396825396825395,-20.396825396825395,9.761904761904761,38.65079365079365,48.17460317460317,14.206349206349206,40.238095238095234,-14.206349206349206,-74.84126984126983,-25.476190476190474,93.57142857142857,-24.84126984126984,3.253968253968254,-14.682539682539682,-325.0,-87.22222222222221,114.2063492063492,14.365079365079364,-159.9206349206349,11.19047619047619,31.666666666666664,42.460317460317455,-321.8253968253968
2.9365079365079363,7.222222222222221,-20.238095238095237,9.761904761904761,41.98412698412698,193.4126984126984,13.888888888888888,195.79365079365078,-14.206349206349206,54.52380952380952,-24.206349206349206,243.4126984126984,-25.158730158730158,3.253968253968254,-14.365079365079364,-325.0,-91.5079365079365,325.0,14.047619047619047,-223.57142857142856,25.158730158730158,31.19047619047619,41.34920634920635,-321.8253968253968
2.9365079365079363,7.222222222222221,-20.238095238095237,9.761904761904761,41.98412698412698,193.4126984126984,13.888888888888888,195.79365079365078,-14.206349206349206,54.52380952380952,-24.206349206349206,243.4126984126984,-25.158730158730158,3.253968253968254,-14.365079365079364,-325.0,-91.5079365079365,325.0,14.047619047619047,-223.57142857142856,25.158730158730158,31.19047619047619,41.34920634920635,-321.8253968253968
4.2063492063492065,7.063492063492063,-20.555555555555554,9.444444444444445,41.03174603174603,204.68253968253967,14.047619047619047,217.69841269841268,-14.206349206349206,67.53968253968253,-16.587301587301585,258.4920634920635,-25.952380952380953,3.095238095238095,-14.523809523809524,-325.0,-89.6031746031746,325.0,13.888888888888888,-230.7142857142857,24.365079365079364,31.349206349206348,41.34920634920635,-321.8253968253968
4.2063492063492065,7.063492063492063,-20.555555555555554,9.444444444444445,41.03174603174603,204.68253968253967,14.047619047619047,217.69841269841268,-14.206349206349206,67.53968253968253,-16.587301587301585,258.4920634920635,-25.952380952380953,3.095238095238095,-14.523809523809524,-325.0,-89.6031746031746,325.0,13.888888888888888,-230.7142857142857,24.365079365079364,31.349206349206348,41.34920634920635,-321.8253968253968
5.634920634920634,6.904761904761904,-20.873015873015873,9.126984126984127,40.079365079365076,215.95238095238093,14.206349206349206,239.76190476190476,-14.206349206349206,80.55555555555556,-8.968253968253968,273.73015873015873,-26.587301587301585,3.095238095238095,-14.523809523809524,-325.0,-87.6984126984127,325.0,13.73015873015873,-237.85714285714283,23.730158730158728,31.507936507936506,41.34920634920635,-321.8253968253968
5.634920634920634,6.904761904761904,-20.873015873015873,9.126984126984127,40.079365079365076,215.95238095238093,14.206349206349206,239.76190476190476,-14.206349206349206,80.55555555555556,-8.968253968253968,273.73015873015873,-26.587301587301585,3.095238095238095,-14.523809523809524,-325.0,-87.6984126984127,325.0,13.73015873015873,-237.85714285714283,23.730158730158728,31.507936507936506,41.34920634920635,-321.8253968253968
2.7777777777777777,6.746031746031746,-21.03174603174603,9.126984126984127,38.96825396825397,195.15873015873015,10.873015873015872,217.2222222222222,-14.365079365079364,60.55555555555555,-3.095238095238095,254.04761904761904,-26.9047619047619,3.095238095238095,-14.523809523809524,-325.0,-78.80952380952381,325.0,13.571428571428571,-224.2063492063492,22.142857142857142,31.349206349206348,41.507936507936506,-166.26984126984127
2.7777777777777777,6.746031746031746,-21.03174603174603,9.126984126984127,38.96825396825397,195.15873015873015,10.873015873015872,217.2222222222222,-14.365079365079364,60.55555555555555,-3.095238095238095,254.04761904761904,-26.9047619047619,3.095238095238095,-14.523809523809524,-325.0,-78.80952380952381,325.0,13.571428571428571,-224.2063492063492,22.142857142857142,31.349206349206348,41.507936507936506,-166.26984126984127
0.07936507936507936,6.746031746031746,-21.19047619047619,9.126984126984127,37.857142857142854,174.36507936507937,7.5396825396825395,194.84126984126982,-14.365079365079364,40.714285714285715,2.9365079365079363,234.36507936507934,-27.22222222222222,3.095238095238095,-14.365079365079364,-325.0,-69.76190476190476,325.0,13.412698412698411,-210.55555555555554,20.555555555555554,31.349206349206348,41.82539682539682,-166.26984126984127
0.07936507936507936,6.746031746031746,-21.19047619047619,9.126984126984127,37.857142857142854,174.36507936507937,7.5396825396825395,194.84126984126982,-14.365079365079364,40.714285714285715,2.9365079365079363,234.36507936507934,-27.22222222222222,3.095238095238095,-14.365079365079364,-325.0,-69.76190476190476,325.0,13.412698412698411,-210.55555555555554,20.555555555555554,31.349206349206348,41.82539682539682,-166.26984126984127
-8.492063492063492,6.587301587301587,-19.444444444444443,8.809523809523808,-4.841269841269841,105.15873015873015,-12.3015873015873,141.5079365079365,-13.571428571428571,-28.015873015873016,-148.015873015873,169.12698412698413,-24.365079365079364,2.9365079365079363,-13.888888888888888,-325.0,-197.2222222222222,325.0,12.777777777777777,-253.7301587301587,23.88888888888889,14.682539682539682,18.333333333333332,-166.26984126984127
-8.492063492063492,6.587301587301587,-19.444444444444443,8.809523809523808,-4.841269841269841,105.15873015873015,-12.3015873015873,141.5079365079365,-13.571428571428571,-28.015873015873016,-148.015873015873,169.12698412698413,-24.365079365079364,2.9365079365079363,-13.888888888888888,-325.0,-197.2222222222222,325.0,12.777777777777777,-253.7301587301587,23.88888888888889,14.682539682539682,18.333333333333332,-166.26984126984127
6.587301587301587,6.746031746031746,-20.71428571428571,8.809523809523808,49.12698412698413,144.68253968253967,17.698412698412696,174.68253968253967,-14.047619047619047,4.682539682539682,17.857142857142858,210.7142857142857,-26.587301587301585,2.9365079365079363,-14.047619047619047,-325.0,-69.28571428571428,325.0,12.777777777777777,-182.3015873015873,20.396825396825395,31.349206349206348,41.666666666666664,-166.26984126984127
6.587301587301587,6.746031746031746,-20.71428571428571,8.809523809523808,49.12698412698413,144.68253968253967,17.698412698412696,174.68253968253967,-14.047619047619047,4.682539682539682,17.857142857142858,210.7142857142857,-26.587301587301585,2.9365079365079363,-14.047619047619047,-325.0,-69.28571428571428,325.0,12.777777777777777,-182.3015873015873,20.396825396825395,31.349206349206348,41.666666666666664,-166.26984126984127
-8.809523809523808,6.587301587301587,-20.238095238095237,8.65079365079365,-8.968253968253968,78.01587301587301,-15.317460317460316,116.58730158730158,-13.73015873015873,-65.95238095238095,-141.984126984127,132.77777777777777,-26.11111111111111,2.9365079365079363,-13.888888888888888,-325.0,-185.63492063492063,282.6190476190476,12.619047619047619,-238.015873015873,18.80952380952381,16.746031746031743,19.444444444444443,-166.26984126984127
-8.809523809523808,6.587301587301587,-20.238095238095237,8.65079365079365,-8.968253968253968,78.01587301587301,-15.317460317460316,116.58730158730158,-13.73015873015873,-65.95238095238095,-141.984126984127,132.77777777777777,-26.11111111111111,2.9365079365079363,-13.888888888888888,-325.0,-185.63492063492063,282.6190476190476,12.619047619047619,-238.015873015873,18.80952380952381,16.746031746031743,19.444444444444443,-166.26984126984127
8.015873015873016,6.746031746031746,-22.3015873015873,8.65079365079365,45.476190476190474,89.92063492063491,14.365079365079364,120.71428571428571,-14.365079365079364,-61.82539682539682,24.206349206349206,146.58730158730157,-29.126984126984127,2.9365079365079363,-14.206349206349206,-325.0,-46.269841269841265,294.04761904761904,12.619047619047619,-151.03174603174602,9.444444444444445,32.77777777777778,41.82539682539682,-321.8253968253968
8.015873015873016,6.746031746031746,-22.3015873015873,8.65079365079365,45.476190476190474,89.92063492063491,14.365079365079364,120.71428571428571,-14.365079365079364,-61.82539682539682,24.206349206349206,146.58730158730157,-29.126984126984127,2.9365079365079363,-14.206349206349206,-325.0,-46.269841269841265,294.04761904761904,12.619047619047619,-151.03174603174602,9.444444444444445,32.77777777777778,41.82539682539682,-321.8253968253968
14.365079365079364,5.7936507936507935,-22.142857142857142,8.492063492063492,51.19047619047619,55.317460317460316,20.555555555555554,86.74603174603175,-14.365079365079364,-86.26984126984127,35.95238095238095,113.73015873015872,-28.174603174603174,2.7777777777777777,-13.888888888888888,-325.0,-35.476190476190474,258.4920634920635,12.3015873015873,-131.984126984127,5.952380952380952,32.61904761904762,42.14285714285714,-321.8253968253968
14.365079365079364,5.7936507936507935,-22.142857142857142,8.492063492063492,51.19047619047619,55.317460317460316,20.555555555555554,86.74603174603175,-14.365079365079364,-86.26984126984127,35.95238095238095,113.73015873015872,-28.174603174603174,2.7777777777777777,-13.888888888888888,-325.0,-35.476190476190474,258.4920634920635,12.3015873015873,-131.984126984127,5.952380952380952,32.61904761904762,42.14285714285714,-321.8253968253968
32.3015873015873,-5.634920634920634,-5.158730158730158,8.174603174603174,68.17460317460318,124.2063492063492,32.14285714285714,128.33333333333331,-5.158730158730158,-44.36507936507936,13.095238095238095,156.74603174603175,-3.095238095238095,2.7777777777777777,-8.65079365079365,-325.0,-96.26984126984127,246.74603174603172,11.984126984126984,-218.96825396825395,-14.047619047619047,0.23809523809523808,-0.3968253968253968,-321.8253968253968
32.3015873015873,-5.634920634920634,-5.158730158730158,8.174603174603174,68.17460317460318,124.2063492063492,32.14285714285714,128.33333333333331,-5.158730158730158,-44.36507936507936,13.095238095238095,156.74603174603175,-3.095238095238095,2.7777777777777777,-8.65079365079365,-325.0,-96.26984126984127,246.74603174603172,11.984126984126984,-218.96825396825395,-14.047619047619047,0.23809523809523808,-0.3968253968253968,-321.8253968253968
43.888888888888886,-16.11111111111111,11.666666666666666,8.174603174603174,79.6031746031746,227.69841269841268,37.53968253968254,203.7301587301587,4.0476190476190474,21.984126984126984,-21.507936507936506,232.6190476190476,21.19047619047619,2.7777777777777777,-3.571428571428571,-325.0,-167.85714285714286,270.55555555555554,11.984126984126984,-325.0,-30.396825396825395,-31.98412698412698,-43.095238095238095,-321.8253968253968
43.888888888888886,-16.11111111111111,11.666666666666666,8.174603174603174,79.6031746031746,227.69841269841268,37.53968253968254,203.7301587301587,4.0476190476190474,21.984126984126984,-21.507936507936506,232.6190476190476,21.19047619047619,2.7777777777777777,-3.571428571428571,-325.0,-167.85714285714286,270.55555555555554,11.984126984126984,-325.0,-30.396825396825395,-31.98412698412698,-43.095238095238095,-321.8253968253968
109.44444444444444,-5.952380952380952,29.285714285714285,7.857142857142857,191.98412698412696,275.3174603174603,115.31746031746032,252.77777777777777,15.317460317460316,76.1111111111111,156.9047619047619,275.4761904761905,56.58730158730158,2.619047619047619,1.0317460317460316,-325.0,27.539682539682538,221.34920634920633,11.507936507936508,-271.66666666666663,-84.04761904761904,-17.857142857142858,-22.619047619047617,-321.8253968253968
109.44444444444444,-5.952380952380952,29.285714285714285,7.857142857142857,191.98412698412696,275.3174603174603,115.31746031746032,252.77777777777777,15.317460317460316,76.1111111111111,156.9047619047619,275.4761904761905,56.58730158730158,2.619047619047619,1.0317460317460316,-325.0,27.539682539682538,221.34920634920633,11.507936507936508,-271.66666666666663,-84.04761904761904,-17.857142857142858,-22.619047619047617,-321.8253968253968
-2.142857142857143,7.698412698412698,-21.507936507936506,7.857142857142857,-7.222222222222221,-10.873015873015872,-10.555555555555555,30.71428571428571,-14.523809523809524,-134.52380952380952,-86.9047619047619,48.96825396825397,-28.174603174603174,2.619047619047619,-13.73015873015873,-325.0,-156.26984126984127,41.03174603174603,11.349206349206348,-208.65079365079364,14.365079365079364,17.698412698412696,20.555555555555554,-166.26984126984127
-2.142857142857143,7.698412698412698,-21.507936507936506,7.857142857142857,-7.222222222222221,-10.873015873015872,-10.555555555555555,30.71428571428571,-14.523809523809524,-134.52380952380952,-86.9047619047619,48.96825396825397,-28.174603174603174,2.619047619047619,-13.73015873015873,-325.0,-156.26984126984127,41.03174603174603,11.349206349206348,-208.65079365079364,14.365079365079364,17.698412698412696,20.555555555555554,-166.26984126984127
113.4126984126984,-12.142857142857142,29.126984126984127,7.698412698412698,198.65079365079364,234.68253968253967,121.66666666666666,205.79365079365078,15.634920634920634,30.238095238095237,158.17460317460316,241.8253968253968,54.68253968253968,2.619047619047619,1.8253968253968254,-325.0,23.253968253968253,112.46031746031746,11.19047619047619,-261.031746031746,-97.6984126984127,-18.333333333333332,-22.3015873015873,-166.26984126984127
113.4126984126984,-12.142857142857142,29.126984126984127,7.698412698412698,198.65079365079364,234.68253968253967,121.66666666666666,205.79365079365078,15.634920634920634,30.238095238095237,158.17460317460316,241.8253968253968,54.68253968253968,2.619047619047619,1.8253968253968254,-325.0,23.253968253968253,112.46031746031746,11.19047619047619,-261.031746031746,-97.6984126984127,-18.333333333333332,-22.3015873015873,-166.26984126984127
-0.3968253968253968,1.507936507936508,-21.984126984126984,7.5396825396825395,-4.841269841269841,-34.84126984126984,-9.126984126984127,9.285714285714285,-14.682539682539682,-146.74603174603175,-88.96825396825396,26.428571428571427,-28.96825396825397,2.619047619047619,-13.571428571428571,-325.0,-159.76190476190476,-14.84126984126984,11.031746031746032,-210.3968253968254,10.396825396825395,17.38095238095238,23.095238095238095,-166.26984126984127
-0.3968253968253968,1.507936507936508,-21.984126984126984,7.5396825396825395,-4.841269841269841,-34.84126984126984,-9.126984126984127,9.285714285714285,-14.682539682539682,-146.74603174603175,-88.96825396825396,26.428571428571427,-28.96825396825397,2.619047619047619,-13.571428571428571,-325.0,-159.76190476190476,-14.84126984126984,11.031746031746032,-210.3968253968254,10.396825396825395,17.38095238095238,23.095238095238095,-166.26984126984127
180.87301587301587,-8.333333333333332,45.63492063492063,7.5396825396825395,308.968253968254,325.0,196.58730158730157,295.0,22.142857142857142,122.93650793650794,325.0,325.0,80.07936507936508,2.46031746031746,7.222222222222221,-325.0,220.7142857142857,225.95238095238093,10.873015873015872,-230.87301587301587,-134.84126984126982,-8.015873015873016,-4.365079365079365,-166.26984126984127
180.87301587301587,-8.333333333333332,45.63492063492063,7.5396825396825395,308.968253968254,325.0,196.58730158730157,295.0,22.142857142857142,122.93650793650794,325.0,325.0,80.07936507936508,2.46031746031746,7.222222222222221,-325.0,220.7142857142857,225.95238095238093,10.873015873015872,-230.87301587301587,-134.84126984126982,-8.015873015873016,-4.365079365079365,-166.26984126984127
-39.44444444444444,8.015873015873016,-21.19047619047619,7.5396825396825395,-86.42857142857143,-19.285714285714285,-58.650793650793645,44.047619047619044,-14.365079365079364,-100.71428571428571,-259.44444444444446,46.11111111111111,-27.857142857142854,2.619047619047619,-13.412698412698411,-325.0,-325.0,-0.07936507936507936,10.714285714285714,-325.0,38.49206349206349,5.158730158730158,2.9365079365079363,-166.26984126984127
-39.44444444444444,8.015873015873016,-21.19047619047619,7.5396825396825395,-86.42857142857143,-19.285714285714285,-58.650793650793645,44.047619047619044,-14.365079365079364,-100.71428571428571,-259.44444444444446,46.11111111111111,-27.857142857142854,2.619047619047619,-13.412698412698411,-325.0,-325.0,-0.07936507936507936,10.714285714285714,-325.0,38.49206349206349,5.158730158730158,2.9365079365079363,-166.26984126984127
-39.44444444444444,8.015873015873016,-21.19047619047619,7.5396825396825395,-86.42857142857143,-19.285714285714285,-58.650793650793645,44.047619047619044,-14.365079365079364,-100.71428571428571,-259.44444444444446,46.11111111111111,-27.857142857142854,2.619047619047619,-13.412698412698411,-325.0,-325.0,-0.07936507936507936,10.714285714285714,-325.0,38.49206349206349,5.158730158730158,2.9365079365079363,-321.8253968253968
-39.44444444444444,8.015873015873016,-21.19047619047619,7.5396825396825395,-86.42857142857143,-19.285714285714285,-58.650793650793645,44.047619047619044,-14.365079365079364,-100.71428571428571,-259.44444444444446,46.11111111111111,-27.857142857142854,2.619047619047619,-13.412698412698411,-325.0,-325.0,-0.07936507936507936,10.714285714285714,-325.0,38.49206349206349,5.158730158730158,2.9365079365079363,-321.8253968253968
-39.44444444444444,8.015873015873016,-21.19047619047619,7.5396825396825395,-86.42857142857143,-19.285714285714285,-58.650793650793645,44.047619047619044,-14.365079365079364,-100.71428571428571,-259.44444444444446,46.11111111111111,-27.857142857142854,2.619047619047619,-13.412698412698411,-325.0,-325.0,-0.07936507936507936,10.714285714285714,-325.0,38.49206349206349,5.158730158730158,2.9365079365079363,-321.8253968253968
-39.44444444444444,8.015873015873016,-21.19047619047619,7.5396825396825395,-86.42857142857143,-19.285714285714285,-58.650793650793645,44.047619047619044,-14.365079365079364,-100.71428571428571,-259.44444444444446,46.11111111111111,-27.857142857142854,2.619047619047619,-13.412698412698411,-325.0,-325.0,-0.07936507936507936,10.714285714285714,-325.0,38.49206349206349,5.158730158730158,2.9365079365079363,-321.8253968253968
113.57142857142857,-11.825396825396824,27.063492063492063,6.904761904761904,109.28571428571428,297.85714285714283,108.80952380952381,312.77777777777777,19.126984126984127,204.68253968253967,168.8095238095238,296.26984126984127,48.01587301587301,2.3015873015873014,2.619047619047619,163.73015873015873,66.42857142857143,325.0,10.079365079365079,-304.36507936507934,-56.11111111111111,-20.07936507936508,-24.047619047619047,-321.8253968253968
113.57142857142857,-11.825396825396824,27.063492063492063,6.904761904761904,109.28571428571428,297.85714285714283,108.80952380952381,312.77777777777777,19.126984126984127,204.68253968253967,168.8095238095238,296.26984126984127,48.01587301587301,2.3015873015873014,2.619047619047619,163.73015873015873,66.42857142857143,325.0,10.079365079365079,-304.36507936507934,-56.11111111111111,-20.07936507936508,-24.047619047619047,-321.8253968253968
9.444444444444445,6.904761904761904,-21.507936507936506,6.904761904761904,-47.38095238095238,33.095238095238095,-1.0317460317460316,125.63492063492063,-14.523809523809524,4.365079365079365,-26.9047619047619,79.76190476190476,-29.285714285714285,2.3015873015873014,-13.412698412698411,255.0,-112.77777777777777,315.0,10.079365079365079,-205.79365079365078,10.555555555555555,17.698412698412696,23.253968253968253,-321.8253968253968
9.444444444444445,6.904761904761904,-21.507936507936506,6.904761904761904,-47.38095238095238,33.095238095238095,-1.0317460317460316,125.63492063492063,-14.523809523809524,4.365079365079365,-26.9047619047619,79.76190476190476,-29.285714285714285,2.3015873015873014,-13.412698412698411,255.0,-112.77777777777777,315.0,10.079365079365079,-205.79365079365078,10.555555555555555,17.698412698412696,23.253968253968253,-321.8253968253968
131.5079365079365,2.46031746031746,38.96825396825397,6.904761904761904,89.6031746031746,292.3015873015873,123.57142857142857,306.26984126984127,28.333333333333332,194.52380952380952,176.9047619047619,294.2063492063492,54.841269841269835,2.3015873015873014,6.111111111111111,325.0,68.33333333333333,325.0,9.920634920634921,-278.4920634920635,-77.6984126984127,-20.555555555555554,-25.0,-321.8253968253968
131.5079365079365,2.46031746031746,38.96825396825397,6.904761904761904,89.6031746031746,292.3015873015873,123.57142857142857,306.26984126984127,28.333333333333332,194.52380952380952,176.9047619047619,294.2063492063492,54.841269841269835,2.3015873015873014,6.111111111111111,325.0,68.33333333333333,325.0,9.920634920634921,-278.4920634920635,-77.6984126984127,-20.555555555555554,-25.0,-321.8253968253968
-48.80952380952381,7.5396825396825395,-22.777777777777775,6.904761904761904,-97.53968253968253,-27.539682539682538,-65.63492063492063,65.47619047619047,-15.634920634920634,-48.49206349206349,-193.4126984126984,28.49206349206349,-30.396825396825395,2.3015873015873014,-13.73015873015873,291.031746031746,-290.07936507936506,239.60317460317458,9.920634920634921,-304.36507936507934,42.93650793650794,6.746031746031746,6.111111111111111,-166.26984126984127
-48.80952380952381,7.5396825396825395,-22.777777777777775,6.904761904761904,-97.53968253968253,-27.539682539682538,-65.63492063492063,65.47619047619047,-15.634920634920634,-48.49206349206349,-193.4126984126984,28.49206349206349,-30.396825396825395,2.3015873015873014,-13.73015873015873,291.031746031746,-290.07936507936506,239.60317460317458,9.920634920634921,-304.36507936507934,42.93650793650794,6.746031746031746,6.111111111111111,-166.26984126984127
127.06349206349206,-36.269841269841265,37.06349206349206,6.587301587301587,83.73015873015872,265.95238095238096,123.09523809523809,275.3174603174603,28.49206349206349,154.52380952380952,177.38095238095238,251.03174603174602,62.61904761904761,2.3015873015873014,9.444444444444445,325.0,71.03174603174602,301.984126984127,9.603174603174603,-266.74603174603175,-92.46031746031746,-19.6031746031746,-25.317460317460316,-166.26984126984127
127.06349206349206,-36.269841269841265,37.06349206349206,6.587301587301587,83.73015873015872,265.95238095238096,123.09523809523809,275.3174603174603,28.49206349206349,154.52380952380952,177.38095238095238,251.03174603174602,62.61904761904761,2.3015873015873014,9.444444444444445,325.0,71.03174603174602,301.984126984127,9.603174603174603,-266.74603174603175,-92.46031746031746,-19.6031746031746,-25.317460317460316,-166.26984126984127
-52.14285714285714,8.492063492063492,-23.730158730158728,6.587301587301587,-99.12698412698413,-37.38095238095238,-69.92063492063491,56.904761904761905,-16.428571428571427,-44.52380952380952,-189.12698412698413,9.761904761904761,-32.460317460317455,2.3015873015873014,-14.365079365079364,266.1111111111111,-288.8095238095238,58.17460317460317,9.603174603174603,-295.6349206349206,44.84126984126984,7.3809523809523805,7.222222222222221,-166.26984126984127
-52.14285714285714,8.492063492063492,-23.730158730158728,6.587301587301587,-99.12698412698413,-37.38095238095238,-69.92063492063491,56.904761904761905,-16.428571428571427,-44.52380952380952,-189.12698412698413,9.761904761904761,-32.460317460317455,2.3015873015873014,-14.365079365079364,266.1111111111111,-288.8095238095238,58.17460317460317,9.603174603174603,-295.6349206349206,44.84126984126984,7.3809523809523805,7.222222222222221,-166.26984126984127
-14.682539682539682,8.333333333333332,-8.968253968253968,6.428571428571428,-58.17460317460317,65.31746031746032,-30.396825396825395,125.31746031746032,-6.111111111111111,9.920634920634921,-82.77777777777777,79.12698412698413,-10.238095238095237,2.142857142857143,-8.809523809523808,280.07936507936506,-199.44444444444443,-11.825396825396824,9.444444444444445,-310.39682539682536,20.71428571428571,-11.349206349206348,-17.38095238095238,-166.26984126984127
-14.682539682539682,8.333333333333332,-8.968253968253968,6.428571428571428,-58.17460317460317,65.31746031746032,-30.396825396825395,125.31746031746032,-6.111111111111111,9.920634920634921,-82.77777777777777,79.12698412698413,-10.238095238095237,2.142857142857143,-8.809523809523808,280.07936507936506,-199.44444444444443,-11.825396825396824,9.444444444444445,-310.39682539682536,20.71428571428571,-11.349206349206348,-17.38095238095238,-166.26984126984127
22.777777777777775,8.174603174603174,5.7936507936507935,6.428571428571428,-17.22222222222222,168.17460317460316,9.126984126984127,193.7301587301587,4.2063492063492065,64.52380952380952,23.730158730158728,148.4920634920635,11.984126984126984,1.984126984126984,-3.253968253968254,294.2063492063492,-109.92063492063491,-81.82539682539682,9.285714285714285,-325.0,-3.4126984126984126,-29.920634920634917,-41.82539682539682,-166.26984126984127
22.777777777777775,8.174603174603174,5.7936507936507935,6.428571428571428,-17.22222222222222,168.17460317460316,9.126984126984127,193.7301587301587,4.2063492063492065,64.52380952380952,23.730158730158728,148.4920634920635,11.984126984126984,1.984126984126984,-3.253968253968254,294.2063492063492,-109.92063492063491,-81.82539682539682,9.285714285714285,-325.0,-3.4126984126984126,-29.920634920634917,-41.82539682539682,-166.26984126984127
228.96825396825395,-48.650793650793645,77.38095238095238,4.365079365079365,177.69841269841268,235.95238095238093,231.66666666666666,225.95238095238093,63.73015873015873,113.57142857142857,325.0,218.17460317460316,121.34920634920634,-14.047619047619047,24.365079365079364,276.58730158730157,238.015873015873,-196.9047619047619,9.126984126984127,-166.58730158730157,-210.3968253968254,-9.920634920634921,-11.031746031746032,-321.8253968253968
228.96825396825395,-48.650793650793645,77.38095238095238,4.365079365079365,177.69841269841268,235.95238095238093,231.66666666666666,225.95238095238093,63.73015873015873,113.57142857142857,325.0,218.17460317460316,121.34920634920634,-14.047619047619047,24.365079365079364,276.58730158730157,238.015873015873,-196.9047619047619,9.126984126984127,-166.58730158730157,-210.3968253968254,-9.920634920634921,-11.031746031746032,-321.8253968253968
228.96825396825395,-48.650793650793645,77.38095238095238,4.365079365079365,177.69841269841268,235.95238095238093,231.66666666666666,225.95238095238093,63.73015873015873,113.57142857142857,325.0,218.17460317460316,121.34920634920634,-14.047619047619047,24.365079365079364,276.58730158730157,238.015873015873,-196.9047619047619,9.126984126984127,-166.58730158730157,-210.3968253968254,-9.920634920634921,-11.031746031746032,-321.8253968253968
228.96825396825395,-48.650793650793645,77.38095238095238,4.365079365079365,177.69841269841268,235.95238095238093,231.66666666666666,225.95238095238093,63.73015873015873,113.57142857142857,325.0,218.17460317460316,121.34920634920634,-14.047619047619047,24.365079365079364,276.58730158730157,238.015873015873,-196.9047619047619,9.126984126984127,-166.58730158730157,-210.3968253968254,-9.920634920634921,-11.031746031746032,-321.8253968253968
240.3968253968254,-6.746031746031746,85.0,6.26984126984127,187.69841269841268,266.4285714285714,237.53968253968253,253.25396825396825,67.06349206349206,136.11111111111111,325.0,247.38095238095238,109.76190476190476,3.095238095238095,26.587301587301585,305.6349206349206,242.14285714285714,-149.28571428571428,8.968253968253968,-184.84126984126982,-190.3968253968254,-10.238095238095237,-12.142857142857142,-321.8253968253968
240.3968253968254,-6.746031746031746,85.0,6.26984126984127,187.69841269841268,266.4285714285714,237.53968253968253,253.25396825396825,67.06349206349206,136.11111111111111,325.0,247.38095238095238,109.76190476190476,3.095238095238095,26.587301587301585,305.6349206349206,242.14285714285714,-149.28571428571428,8.968253968253968,-184.84126984126982,-190.3968253968254,-10.238095238095237,-12.142857142857142,-321.8253968253968
15.317460317460316,8.968253968253968,-18.80952380952381,6.111111111111111,-31.825396825396822,-38.01587301587301,10.555555555555555,22.3015873015873,-10.714285714285714,-63.888888888888886,38.17460317460317,3.73015873015873,-27.38095238095238,-2.7777777777777777,-11.349206349206348,201.98412698412696,-57.38095238095238,-216.58730158730157,8.65079365079365,-113.09523809523809,-8.492063492063492,19.92063492063492,25.476190476190474,-321.8253968253968
15.317460317460316,8.968253968253968,-18.80952380952381,6.111111111111111,-31.825396825396822,-38.01587301587301,10.555555555555555,22.3015873015873,-10.714285714285714,-63.888888888888886,38.17460317460317,3.73015873015873,-27.38095238095238,-2.7777777777777777,-11.349206349206348,201.98412698412696,-57.38095238095238,-216.58730158730157,8.65079365079365,-113.09523809523809,-8.492063492063492,19.92063492063492,25.476190476190474,-321.8253968253968
118.8095238095238,8.809523809523808,39.285714285714285,5.7936507936507935,75.63492063492063,188.4920634920635,109.76190476190476,194.04761904761904,29.285714285714285,71.66666666666666,256.26984126984127,170.87301587301587,49.285714285714285,1.6666666666666665,11.031746031746032,274.04761904761904,50.39682539682539,-41.666666666666664,8.492063492063492,-257.6984126984127,-93.25396825396825,-21.825396825396822,-28.015873015873016,-321.8253968253968
118.8095238095238,8.809523809523808,39.285714285714285,5.7936507936507935,75.63492063492063,188.4920634920635,109.76190476190476,194.04761904761904,29.285714285714285,71.66666666666666,256.26984126984127,170.87301587301587,49.285714285714285,1.6666666666666665,11.031746031746032,274.04761904761904,50.39682539682539,-41.666666666666664,8.492063492063492,-257.6984126984127,-93.25396825396825,-21.825396825396822,-28.015873015873016,-321.8253968253968
65.47619047619047,8.492063492063492,7.063492063492063,5.0,21.349206349206348,34.2063492063492,66.9047619047619,78.17460317460316,8.809523809523808,-38.96825396825397,256.26984126984127,43.41269841269841,-0.23809523809523808,-20.238095238095237,-2.3015873015873014,206.42857142857142,31.349206349206348,-108.33333333333333,-95.79365079365078,-148.65079365079364,-61.03174603174603,-0.873015873015873,-0.873015873015873,-166.26984126984127
65.47619047619047,8.492063492063492,7.063492063492063,5.0,21.349206349206348,34.2063492063492,66.9047619047619,78.17460317460316,8.809523809523808,-38.96825396825397,256.26984126984127,43.41269841269841,-0.23809523809523808,-20.238095238095237,-2.3015873015873014,206.42857142857142,31.349206349206348,-108.33333333333333,-95.79365079365078,-148.65079365079364,-61.03174603174603,-0.873015873015873,-0.873015873015873,-166.26984126984127
119.28571428571428,8.492063492063492,9.920634920634921,4.365079365079365,67.38095238095238,-26.9047619047619,137.06349206349205,31.19047619047619,15.95238095238095,-75.31746031746032,325.0,1.507936507936508,-4.0476190476190474,-41.666666666666664,-0.7142857142857142,152.77777777777777,196.26984126984127,-117.6984126984127,-200.07936507936506,27.698412698412696,-113.73015873015872,28.96825396825397,40.238095238095234,-166.26984126984127
119.28571428571428,8.492063492063492,9.920634920634921,4.365079365079365,67.38095238095238,-26.9047619047619,137.06349206349205,31.19047619047619,15.95238095238095,-75.31746031746032,325.0,1.507936507936508,-4.0476190476190474,-41.666666666666664,-0.7142857142857142,152.77777777777777,196.26984126984127,-117.6984126984127,-200.07936507936506,27.698412698412696,-113.73015873015872,28.96825396825397,40.238095238095234,-166.26984126984127
121.66666666666666,8.174603174603174,12.619047619047619,0.07936507936507936,68.33333333333333,-55.63492063492063,143.09523809523807,-3.4126984126984126,20.396825396825395,-106.58730158730158,325.0,-27.698412698412696,1.1904761904761905,-74.36507936507937,1.1904761904761905,111.03174603174602,216.58730158730157,84.84126984126983,-262.6190476190476,49.12698412698413,-128.96825396825395,29.920634920634917,40.55555555555555,-166.26984126984127
121.66666666666666,8.174603174603174,12.619047619047619,0.07936507936507936,68.33333333333333,-55.63492063492063,143.09523809523807,-3.4126984126984126,20.396825396825395,-106.58730158730158,325.0,-27.698412698412696,1.1904761904761905,-74.36507936507937,1.1904761904761905,111.03174603174602,216.58730158730157,84.84126984126983,-262.6190476190476,49.12698412698413,-128.96825396825395,29.920634920634917,40.55555555555555,-166.26984126984127
124.04761904761904,8.015873015873016,15.317460317460316,-4.0476190476190474,69.44444444444444,-84.2063492063492,149.28571428571428,-38.01587301587301,24.84126984126984,-137.85714285714286,325.0,-56.904761904761905,6.587301587301587,-107.06349206349206,3.095238095238095,69.44444444444444,236.9047619047619,287.53968253968253,-325.0,70.71428571428571,-144.04761904761904,30.87301587301587,40.87301587301587,-166.26984126984127
124.04761904761904,8.015873015873016,15.317460317460316,-4.0476190476190474,69.44444444444444,-84.2063492063492,149.28571428571428,-38.01587301587301,24.84126984126984,-137.85714285714286,325.0,-56.904761904761905,6.587301587301587,-107.06349206349206,3.095238095238095,69.44444444444444,236.9047619047619,287.53968253968253,-325.0,70.71428571428571,-144.04761904761904,30.87301587301587,40.87301587301587,-166.26984126984127
-73.57142857142857,8.174603174603174,-29.920634920634917,6.587301587301587,-108.65079365079364,-317.85714285714283,-88.96825396825396,-217.69841269841268,-22.3015873015873,-317.85714285714283,-180.55555555555554,-250.3968253968254,-38.96825396825397,-154.2063492063492,-15.793650793650793,-65.31746031746032,-68.4920634920635,-97.38095238095238,-325.0,-89.28571428571428,63.41269841269841,13.412698412698411,14.523809523809524,-166.26984126984127
-73.57142857142857,8.174603174603174,-29.920634920634917,6.587301587301587,-108.65079365079364,-317.85714285714283,-88.96825396825396,-217.69841269841268,-22.3015873015873,-317.85714285714283,-180.55555555555554,-250.3968253968254,-38.96825396825397,-154.2063492063492,-15.793650793650793,-65.31746031746032,-68.4920634920635,-97.38095238095238,-325.0,-89.28571428571428,63.41269841269841,13.412698412698411,14.523809523809524,-166.26984126984127
114.36507936507935,-40.714285714285715,47.22222222222222,-31.666666666666664,76.58730158730158,-36.11111111111111,120.23809523809523,-25.952380952380953,37.698412698412696,-134.68253968253967,131.984126984127,-42.61904761904761,63.25396825396825,-116.1111111111111,12.936507936507935,4.2063492063492065,121.03174603174602,13.571428571428571,-325.0,-174.84126984126982,-153.4126984126984,-21.825396825396822,-28.015873015873016,-321.8253968253968
114.36507936507935,-40.714285714285715,47.22222222222222,-31.666666666666664,76.58730158730158,-36.11111111111111,120.23809523809523,-25.952380952380953,37.698412698412696,-134.68253968253967,131.984126984127,-42.61904761904761,63.25396825396825,-116.1111111111111,12.936507936507935,4.2063492063492065,121.03174603174602,13.571428571428571,-325.0,-174.84126984126982,-153.4126984126984,-21.825396825396822,-28.015873015873016,-321.8253968253968
-76.42857142857143,10.873015873015872,-30.87301587301587,9.126984126984127,-110.07936507936508,-316.26984126984127,-90.87301587301587,-220.55555555555554,-23.095238095238095,-309.2857142857143,-180.55555555555554,-248.17460317460316,-39.92063492063492,-159.9206349206349,-15.793650793650793,-87.06349206349206,-88.96825396825396,-267.38095238095235,-325.0,-96.58730158730158,68.96825396825396,13.571428571428571,14.523809523809524,-321.8253968253968
-76.42857142857143,10.873015873015872,-30.87301587301587,9.126984126984127,-110.07936507936508,-316.26984126984127,-90.87301587301587,-220.55555555555554,-23.095238095238095,-309.2857142857143,-180.55555555555554,-248.17460317460316,-39.92063492063492,-159.9206349206349,-15.793650793650793,-87.06349206349206,-88.96825396825396,-267.38095238095235,-325.0,-96.58730158730158,68.96825396825396,13.571428571428571,14.523809523809524,-321.8253968253968
237.2222222222222,-87.22222222222221,95.31746031746032,-22.619047619047617,184.04761904761904,134.04761904761904,244.2063492063492,120.55555555555554,81.82539682539682,5.7936507936507935,308.968253968254,110.55555555555554,114.2063492063492,-60.55555555555555,30.555555555555554,42.3015873015873,272.9365079365079,-145.63492063492063,-325.0,-139.12698412698413,-241.03174603174602,-15.0,-16.428571428571427,-321.8253968253968
237.2222222222222,-87.22222222222221,95.31746031746032,-22.619047619047617,184.04761904761904,134.04761904761904,244.2063492063492,120.55555555555554,81.82539682539682,5.7936507936507935,308.968253968254,110.55555555555554,114.2063492063492,-60.55555555555555,30.555555555555554,42.3015873015873,272.9365079365079,-145.63492063492063,-325.0,-139.12698412698413,-241.03174603174602,-15.0,-16.428571428571427,-321.8253968253968
237.2222222222222,-87.22222222222221,95.31746031746032,-22.619047619047617,184.04761904761904,134.04761904761904,244.2063492063492,120.55555555555554,81.82539682539682,5.7936507936507935,308.968253968254,110.55555555555554,114.2063492063492,-60.55555555555555,30.555555555555554,42.3015873015873,272.9365079365079,-145.63492063492063,-325.0,-139.12698412698413,-241.03174603174602,-15.0,-16.428571428571427,-321.8253968253968
237.2222222222222,-87.22222222222221,95.31746031746032,-22.619047619047617,184.04761904761904,134.04761904761904,244.2063492063492,120.55555555555554,81.82539682539682,5.7936507936507935,308.968253968254,110.55555555555554,114.2063492063492,-60.55555555555555,30.555555555555554,42.3015873015873,272.9365079365079,-145.63492063492063,-325.0,-139.12698412698413,-241.03174603174602,-15.0,-16.428571428571427,-321.8253968253968
119.92063492063491,-73.88888888888889,55.15873015873016,-15.476190476190474,83.88888888888889,51.98412698412698,112.77777777777777,51.98412698412698,40.39682539682539,-55.63492063492063,102.77777777777777,55.63492063492063,58.17460317460317,-58.01587301587301,15.317460317460316,49.44444444444444,-4.0476190476190474,-325.0,30.555555555555554,-212.93650793650792,-132.61904761904762,-22.777777777777775,-29.76190476190476,-321.8253968253968
119.92063492063491,-73.88888888888889,55.15873015873016,-15.476190476190474,83.88888888888889,51.98412698412698,112.77777777777777,51.98412698412698,40.39682539682539,-55.63492063492063,102.77777777777777,55.63492063492063,58.17460317460317,-58.01587301587301,15.317460317460316,49.44444444444444,-4.0476190476190474,-325.0,30.555555555555554,-212.93650793650792,-132.61904761904762,-22.777777777777775,-29.76190476190476,-321.8253968253968
33.25396825396825,-52.61904761904761,-0.5555555555555556,-1.349206349206349,-3.571428571428571,-141.34920634920636,38.80952380952381,-74.2063492063492,8.968253968253968,-173.25396825396825,22.3015873015873,-97.38095238095238,-6.111111111111111,-126.58730158730158,-4.523809523809524,-54.52380952380952,-75.0,-325.0,78.96825396825396,-9.126984126984127,-38.49206349206349,22.619047619047617,28.015873015873016,-166.26984126984127
33.25396825396825,-52.61904761904761,-0.5555555555555556,-1.349206349206349,-3.571428571428571,-141.34920634920636,38.80952380952381,-74.2063492063492,8.968253968253968,-173.25396825396825,22.3015873015873,-97.38095238095238,-6.111111111111111,-126.58730158730158,-4.523809523809524,-54.52380952380952,-75.0,-325.0,78.96825396825396,-9.126984126984127,-38.49206349206349,22.619047619047617,28.015873015873016,-166.26984126984127
70.23809523809524,-79.28571428571428,17.698412698412696,-7.063492063492063,36.904761904761905,-67.22222222222221,71.98412698412697,-24.523809523809522,21.03174603174603,-142.3015873015873,55.317460317460316,-44.68253968253968,16.428571428571427,-105.63492063492063,1.6666666666666665,-39.92063492063492,-64.52380952380952,-325.0,75.31746031746032,-93.09523809523809,-82.77777777777777,-0.07936507936507936,-1.0317460317460316,-166.26984126984127
70.23809523809524,-79.28571428571428,17.698412698412696,-7.063492063492063,36.904761904761905,-67.22222222222221,71.98412698412697,-24.523809523809522,21.03174603174603,-142.3015873015873,55.317460317460316,-44.68253968253968,16.428571428571427,-105.63492063492063,1.6666666666666665,-39.92063492063492,-64.52380952380952,-325.0,75.31746031746032,-93.09523809523809,-82.77777777777777,-0.07936507936507936,-1.0317460317460316,-166.26984126984127
37.857142857142854,-5.476190476190476,0.873015873015873,-0.23809523809523808,1.1904761904761905,-155.15873015873015,34.36507936507936,-92.46031746031746,10.873015873015872,-201.5079365079365,13.571428571428571,-106.1111111111111,-4.365079365079365,-128.65079365079364,-1.8253968253968254,-77.06349206349206,-81.5079365079365,-325.0,72.93650793650794,6.428571428571428,-39.44444444444444,21.984126984126984,28.809523809523807,-166.26984126984127
37.857142857142854,-5.476190476190476,0.873015873015873,-0.23809523809523808,1.1904761904761905,-155.15873015873015,34.36507936507936,-92.46031746031746,10.873015873015872,-201.5079365079365,13.571428571428571,-106.1111111111111,-4.365079365079365,-128.65079365079364,-1.8253968253968254,-77.06349206349206,-81.5079365079365,-325.0,72.93650793650794,6.428571428571428,-39.44444444444444,21.984126984126984,28.809523809523807,-166.26984126984127
74.52380952380952,-15.476190476190474,20.396825396825395,-4.365079365079365,42.14285714285714,-28.49206349206349,70.23809523809524,12.46031746031746,24.523809523809522,-101.98412698412697,46.11111111111111,-6.587301587301587,19.444444444444443,-70.39682539682539,5.317460317460317,-3.253968253968254,-72.46031746031746,-307.06349206349205,71.66666666666666,-108.33333333333333,-76.42857142857143,-1.8253968253968254,-0.7142857142857142,-166.26984126984127
74.52380952380952,-15.476190476190474,20.396825396825395,-4.365079365079365,42.14285714285714,-28.49206349206349,70.23809523809524,12.46031746031746,24.523809523809522,-101.98412698412697,46.11111111111111,-6.587301587301587,19.444444444444443,-70.39682539682539,5.317460317460317,-3.253968253968254,-72.46031746031746,-307.06349206349205,71.66666666666666,-108.33333333333333,-76.42857142857143,-1.8253968253968254,-0.7142857142857142,-166.26984126984127
38.96825396825397,-18.333333333333332,3.4126984126984126,1.1904761904761905,5.952380952380952,-127.85714285714285,44.047619047619044,-56.74603174603174,10.873015873015872,-172.61904761904762,20.873015873015873,-87.38095238095238,-5.476190476190476,-123.25396825396825,0.07936507936507936,-78.80952380952381,-77.6984126984127,-168.17460317460316,69.92063492063491,4.365079365079365,-32.93650793650794,22.619047619047617,28.809523809523807,-166.26984126984127
38.96825396825397,-18.333333333333332,3.4126984126984126,1.1904761904761905,5.952380952380952,-127.85714285714285,44.047619047619044,-56.74603174603174,10.873015873015872,-172.61904761904762,20.873015873015873,-87.38095238095238,-5.476190476190476,-123.25396825396825,0.07936507936507936,-78.80952380952381,-77.6984126984127,-168.17460317460316,69.92063492063491,4.365079365079365,-32.93650793650794,22.619047619047617,28.809523809523807,-166.26984126984127
75.47619047619047,-37.857142857142854,22.777777777777775,-2.7777777777777777,46.74603174603175,-37.06349206349206,74.04761904761904,8.492063492063492,25.158730158730158,-108.01587301587301,45.15873015873016,-20.873015873015873,17.22222222222222,-85.47619047619047,7.698412698412698,-31.19047619047619,-78.96825396825396,115.31746031746032,68.80952380952381,-97.85714285714285,-71.82539682539682,-1.349206349206349,-0.873015873015873,-321.8253968253968
75.47619047619047,-37.857142857142854,22.777777777777775,-2.7777777777777777,46.74603174603175,-37.06349206349206,74.04761904761904,8.492063492063492,25.158730158730158,-108.01587301587301,45.15873015873016,-20.873015873015873,17.22222222222222,-85.47619047619047,7.698412698412698,-31.19047619047619,-78.96825396825396,115.31746031746032,68.80952380952381,-97.85714285714285,-71.82539682539682,-1.349206349206349,-0.873015873015873,-321.8253968253968
-94.36507936507935,4.2063492063492065,-39.12698412698413,10.079365079365079,-119.44444444444444,-258.3333333333333,-103.25396825396825,-163.4126984126984,-30.07936507936508,-252.77777777777777,-181.984126984127,-191.98412698412696,-48.49206349206349,-131.34920634920636,-18.80952380952381,-95.15873015873015,-298.3333333333333,132.77777777777777,67.6984126984127,-58.96825396825397,84.36507936507937,17.22222222222222,20.71428571428571,-321.8253968253968
-94.36507936507935,4.2063492063492065,-39.12698412698413,10.079365079365079,-119.44444444444444,-258.3333333333333,-103.25396825396825,-163.4126984126984,-30.07936507936508,-252.77777777777777,-181.984126984127,-191.98412698412696,-48.49206349206349,-131.34920634920636,-18.80952380952381,-95.15873015873015,-298.3333333333333,132.77777777777777,67.6984126984127,-58.96825396825397,84.36507936507937,17.22222222222222,20.71428571428571,-321.8253968253968
-58.33333333333333,-17.38095238095238,-19.126984126984127,7.063492063492063,-79.6031746031746,-138.96825396825395,-70.87301587301587,-70.87301587301587,-15.793650793650793,-176.42857142857142,-171.8253968253968,-95.31746031746032,-25.317460317460316,-71.98412698412697,-10.714285714285714,-39.92063492063492,-311.66666666666663,98.96825396825396,66.74603174603175,-184.2063492063492,50.079365079365076,-5.634920634920634,-9.126984126984127,-321.8253968253968
-58.33333333333333,-17.38095238095238,-19.126984126984127,7.063492063492063,-79.6031746031746,-138.96825396825395,-70.87301587301587,-70.87301587301587,-15.793650793650793,-176.42857142857142,-171.8253968253968,-95.31746031746032,-25.317460317460316,-71.98412698412697,-10.714285714285714,-39.92063492063492,-311.66666666666663,98.96825396825396,66.74603174603175,-184.2063492063492,50.079365079365076,-5.634920634920634,-9.126984126984127,-321.8253968253968
-22.142857142857142,-38.80952380952381,0.873015873015873,4.2063492063492065,-39.76190476190476,-19.6031746031746,-38.49206349206349,21.825396825396822,-1.507936507936508,-100.07936507936508,-161.5079365079365,1.507936507936508,-1.984126984126984,-12.619047619047619,-2.46031746031746,15.317460317460316,-325.0,65.31746031746032,65.79365079365078,-309.2857142857143,15.793650793650793,-28.333333333333332,-38.96825396825397,-321.8253968253968
-22.142857142857142,-38.80952380952381,0.873015873015873,4.2063492063492065,-39.76190476190476,-19.6031746031746,-38.49206349206349,21.825396825396822,-1.507936507936508,-100.07936507936508,-161.5079365079365,1.507936507936508,-1.984126984126984,-12.619047619047619,-2.46031746031746,15.317460317460316,-325.0,65.31746031746032,65.79365079365078,-309.2857142857143,15.793650793650793,-28.333333333333332,-38.96825396825397,-321.8253968253968
222.77777777777777,-112.6190476190476,118.17460317460316,-3.253968253968254,207.06349206349205,261.5079365079365,218.4920634920635,251.5079365079365,89.76190476190476,107.38095238095238,258.8095238095238,241.03174603174602,135.79365079365078,12.936507936507935,49.92063492063492,101.19047619047619,120.71428571428571,199.60317460317458,63.57142857142857,-200.7142857142857,-194.52380952380952,-19.444444444444443,-23.41269841269841,-321.8253968253968
222.77777777777777,-112.6190476190476,118.17460317460316,-3.253968253968254,207.06349206349205,261.5079365079365,218.4920634920635,251.5079365079365,89.76190476190476,107.38095238095238,258.8095238095238,241.03174603174602,135.79365079365078,12.936507936507935,49.92063492063492,101.19047619047619,120.71428571428571,199.60317460317458,63.57142857142857,-200.7142857142857,-194.52380952380952,-19.444444444444443,-23.41269841269841,-321.8253968253968
-97.06349206349206,23.57142857142857,-41.98412698412698,9.761904761904761,-119.92063492063491,-147.69841269841268,-88.65079365079364,-58.49206349206349,-32.61904761904762,-166.11111111111111,-159.9206349206349,-82.46031746031746,-51.82539682539682,-56.74603174603174,-20.396825396825395,-41.82539682539682,-285.7936507936508,12.619047619047619,62.3015873015873,-90.71428571428571,91.19047619047619,19.285714285714285,23.41269841269841,-166.26984126984127
-97.06349206349206,23.57142857142857,-41.98412698412698,9.761904761904761,-119.92063492063491,-147.69841269841268,-88.65079365079364,-58.49206349206349,-32.61904761904762,-166.11111111111111,-159.9206349206349,-82.46031746031746,-51.82539682539682,-56.74603174603174,-20.396825396825395,-41.82539682539682,-285.7936507936508,12.619047619047619,62.3015873015873,-90.71428571428571,91.19047619047619,19.285714285714285,23.41269841269841,-166.26984126984127
224.04761904761904,-177.53968253968253,105.79365079365078,-14.206349206349206,205.47619047619045,216.26984126984127,205.15873015873015,197.85714285714283,77.6984126984127,69.76190476190476,260.23809523809524,200.7142857142857,125.95238095238095,-11.825396825396824,48.33333333333333,41.34920634920635,120.87301587301586,157.06349206349205,61.03174603174603,-154.04761904761904,-222.46031746031744,-19.92063492063492,-24.365079365079364,-166.26984126984127
224.04761904761904,-177.53968253968253,105.79365079365078,-14.206349206349206,205.47619047619045,216.26984126984127,205.15873015873015,197.85714285714283,77.6984126984127,69.76190476190476,260.23809523809524,200.7142857142857,125.95238095238095,-11.825396825396824,48.33333333333333,41.34920634920635,120.87301587301586,157.06349206349205,61.03174603174603,-154.04761904761904,-222.46031746031744,-19.92063492063492,-24.365079365079364,-166.26984126984127
36.58730158730159,-76.9047619047619,3.888888888888889,-13.888888888888888,21.666666666666664,-139.6031746031746,51.19047619047619,-71.19047619047619,11.349206349206348,-195.95238095238093,38.49206349206349,-96.42857142857142,-2.3015873015873014,-155.3174603174603,0.5555555555555556,-169.44444444444443,-72.3015873015873,-210.7142857142857,59.6031746031746,36.58730158730159,-60.71428571428571,23.253968253968253,29.444444444444443,-166.26984126984127
36.58730158730159,-76.9047619047619,3.888888888888889,-13.888888888888888,21.666666666666664,-139.6031746031746,51.19047619047619,-71.19047619047619,11.349206349206348,-195.95238095238093,38.49206349206349,-96.42857142857142,-2.3015873015873014,-155.3174603174603,0.5555555555555556,-169.44444444444443,-72.3015873015873,-210.7142857142857,59.6031746031746,36.58730158730159,-60.71428571428571,23.253968253968253,29.444444444444443,-166.26984126984127
173.88888888888889,-180.7142857142857,51.666666666666664,-38.17460317460317,163.25396825396825,-36.904761904761905,198.4920634920635,4.841269841269841,56.269841269841265,-125.0,253.09523809523807,-15.158730158730158,48.33333333333333,-166.74603174603175,22.142857142857142,-155.95238095238093,155.95238095238093,-183.57142857142856,59.285714285714285,116.1111111111111,-208.33333333333331,24.84126984126984,34.682539682539684,-166.26984126984127
173.88888888888889,-180.7142857142857,51.666666666666664,-38.17460317460317,163.25396825396825,-36.904761904761905,198.4920634920635,4.841269841269841,56.269841269841265,-125.0,253.09523809523807,-15.158730158730158,48.33333333333333,-166.74603174603175,22.142857142857142,-155.95238095238093,155.95238095238093,-183.57142857142856,59.285714285714285,116.1111111111111,-208.33333333333331,24.84126984126984,34.682539682539684,-166.26984126984127
61.34920634920635,-85.15873015873015,11.507936507936508,-29.285714285714285,40.714285714285715,-209.12698412698413,74.84126984126983,-137.85714285714286,15.634920634920634,-253.88888888888889,50.238095238095234,-163.57142857142856,6.746031746031746,-237.53968253968253,7.063492063492063,-243.25396825396825,-55.79365079365079,-255.63492063492063,57.22222222222222,78.01587301587301,-81.82539682539682,23.253968253968253,30.238095238095237,-166.26984126984127
61.34920634920635,-85.15873015873015,11.507936507936508,-29.285714285714285,40.714285714285715,-209.12698412698413,74.84126984126983,-137.85714285714286,15.634920634920634,-253.88888888888889,50.238095238095234,-163.57142857142856,6.746031746031746,-237.53968253968253,7.063492063492063,-243.25396825396825,-55.79365079365079,-255.63492063492063,57.22222222222222,78.01587301587301,-81.82539682539682,23.253968253968253,30.238095238095237,-166.26984126984127
89.28571428571428,-101.98412698412697,52.93650793650794,-35.0,79.92063492063491,-25.79365079365079,75.95238095238095,-2.7777777777777777,39.92063492063492,-135.63492063492063,35.476190476190474,-32.3015873015873,59.6031746031746,-126.74603174603173,22.777777777777775,-113.57142857142857,-103.25396825396825,-114.84126984126983,56.11111111111111,-176.74603174603175,-122.6190476190476,-25.0,-30.87301587301587,-321.8253968253968
89.28571428571428,-101.98412698412697,52.93650793650794,-35.0,79.92063492063491,-25.79365079365079,75.95238095238095,-2.7777777777777777,39.92063492063492,-135.63492063492063,35.476190476190474,-32.3015873015873,59.6031746031746,-126.74603174603173,22.777777777777775,-113.57142857142857,-103.25396825396825,-114.84126984126983,56.11111111111111,-176.74603174603175,-122.6190476190476,-25.0,-30.87301587301587,-321.8253968253968
68.4920634920635,-49.6031746031746,18.015873015873016,-19.444444444444443,45.79365079365079,-187.2222222222222,83.4126984126984,-117.22222222222221,21.666666666666664,-237.06349206349205,59.76190476190476,-139.28571428571428,10.555555555555555,-220.55555555555554,10.079365079365079,-192.3015873015873,-41.507936507936506,-109.76190476190476,55.0,76.42857142857143,-74.52380952380952,22.936507936507937,30.555555555555554,-321.8253968253968
68.4920634920635,-49.6031746031746,18.015873015873016,-19.444444444444443,45.79365079365079,-187.2222222222222,83.4126984126984,-117.22222222222221,21.666666666666664,-237.06349206349205,59.76190476190476,-139.28571428571428,10.555555555555555,-220.55555555555554,10.079365079365079,-192.3015873015873,-41.507936507936506,-109.76190476190476,55.0,76.42857142857143,-74.52380952380952,22.936507936507937,30.555555555555554,-321.8253968253968
81.03174603174602,-58.17460317460317,48.17460317460317,-19.76190476190476,69.92063492063491,1.984126984126984,63.095238095238095,19.92063492063492,30.71428571428571,-108.96825396825396,29.6031746031746,-1.8253968253968254,54.047619047619044,-105.63492063492063,20.07936507936508,-96.9047619047619,-107.06349206349206,-11.349206349206348,53.888888888888886,-191.98412698412696,-93.4126984126984,-25.158730158730158,-31.507936507936506,-321.8253968253968
81.03174603174602,-58.17460317460317,48.17460317460317,-19.76190476190476,69.92063492063491,1.984126984126984,63.095238095238095,19.92063492063492,30.71428571428571,-108.96825396825396,29.6031746031746,-1.8253968253968254,54.047619047619044,-105.63492063492063,20.07936507936508,-96.9047619047619,-107.06349206349206,-11.349206349206348,53.888888888888886,-191.98412698412696,-93.4126984126984,-25.158730158730158,-31.507936507936506,-321.8253968253968
74.2063492063492,44.36507936507936,19.126984126984127,-22.619047619047617,50.39682539682539,-142.14285714285714,91.82539682539682,-76.58730158730158,21.666666666666664,-198.015873015873,61.82539682539682,-99.12698412698413,13.412698412698411,-173.09523809523807,12.936507936507935,-204.68253968253967,-39.12698412698413,-306.74603174603175,52.77777777777777,51.666666666666664,-83.57142857142857,22.936507936507937,30.87301587301587,-321.8253968253968
74.2063492063492,44.36507936507936,19.126984126984127,-22.619047619047617,50.39682539682539,-142.14285714285714,91.82539682539682,-76.58730158730158,21.666666666666664,-198.015873015873,61.82539682539682,-99.12698412698413,13.412698412698411,-173.09523809523807,12.936507936507935,-204.68253968253967,-39.12698412698413,-306.74603174603175,52.77777777777777,51.666666666666664,-83.57142857142857,22.936507936507937,30.87301587301587,-321.8253968253968
94.36507936507935,40.238095238095234,33.888888888888886,-28.49206349206349,75.63492063492063,-99.92063492063491,91.82539682539682,-50.39682539682539,30.71428571428571,-181.03174603174602,39.92063492063492,-72.46031746031746,31.507936507936506,-168.015873015873,17.539682539682538,-199.9206349206349,-69.76190476190476,-298.4920634920635,51.98412698412698,-62.61904761904761,-110.87301587301587,-1.1904761904761905,-0.3968253968253968,-321.8253968253968
94.36507936507935,40.238095238095234,33.888888888888886,-28.49206349206349,75.63492063492063,-99.92063492063491,91.82539682539682,-50.39682539682539,30.71428571428571,-181.03174603174602,39.92063492063492,-72.46031746031746,31.507936507936506,-168.015873015873,17.539682539682538,-199.9206349206349,-69.76190476190476,-298.4920634920635,51.98412698412698,-62.61904761904761,-110.87301587301587,-1.1904761904761905,-0.3968253968253968,-321.8253968253968
77.85714285714285,39.76190476190476,25.0,-35.0,52.460317460317455,-194.36507936507937,88.80952380952381,-121.5079365079365,30.07936507936508,-241.34920634920633,64.52380952380952,-136.42857142857142,24.365079365079364,-230.2380952380952,17.22222222222222,-272.77777777777777,-23.730158730158728,21.349206349206348,50.71428571428571,84.2063492063492,-101.82539682539682,22.142857142857142,29.6031746031746,-166.26984126984127
77.85714285714285,39.76190476190476,25.0,-35.0,52.460317460317455,-194.36507936507937,88.80952380952381,-121.5079365079365,30.07936507936508,-241.34920634920633,64.52380952380952,-136.42857142857142,24.365079365079364,-230.2380952380952,17.22222222222222,-272.77777777777777,-23.730158730158728,21.349206349206348,50.71428571428571,84.2063492063492,-101.82539682539682,22.142857142857142,29.6031746031746,-166.26984126984127
68.01587301587301,38.65079365079365,36.42857142857142,-27.539682539682538,56.42857142857142,-1.1904761904761905,50.079365079365076,20.396825396825395,25.634920634920633,-109.28571428571428,9.285714285714285,6.428571428571428,44.36507936507936,-87.53968253968253,14.682539682539682,-164.52380952380952,-108.96825396825396,269.2857142857143,49.76190476190476,-203.7301587301587,-91.19047619047619,-24.68253968253968,-31.825396825396822,-166.26984126984127
68.01587301587301,38.65079365079365,36.42857142857142,-27.539682539682538,56.42857142857142,-1.1904761904761905,50.079365079365076,20.396825396825395,25.634920634920633,-109.28571428571428,9.285714285714285,6.428571428571428,44.36507936507936,-87.53968253968253,14.682539682539682,-164.52380952380952,-108.96825396825396,269.2857142857143,49.76190476190476,-203.7301587301587,-91.19047619047619,-24.68253968253968,-31.825396825396822,-166.26984126984127
95.31746031746032,38.01587301587301,37.06349206349206,-26.587301587301585,70.39682539682539,-145.47619047619048,108.01587301587301,-74.36507936507937,43.57142857142857,-205.15873015873015,77.22222222222221,-91.82539682539682,38.17460317460317,-177.06349206349205,28.96825396825397,-261.8253968253968,-13.412698412698411,219.76190476190476,48.80952380952381,75.31746031746032,-95.63492063492063,22.46031746031746,30.555555555555554,-166.26984126984127
95.31746031746032,38.01587301587301,37.06349206349206,-26.587301587301585,70.39682539682539,-145.47619047619048,108.01587301587301,-74.36507936507937,43.57142857142857,-205.15873015873015,77.22222222222221,-91.82539682539682,38.17460317460317,-177.06349206349205,28.96825396825397,-261.8253968253968,-13.412698412698411,219.76190476190476,48.80952380952381,75.31746031746032,-95.63492063492063,22.46031746031746,30.555555555555554,-166.26984126984127
110.07936507936508,37.38095238095238,49.12698412698413,-31.98412698412698,89.92063492063491,-73.4126984126984,103.4126984126984,-28.809523809523807,48.80952380952381,-158.17460317460316,55.15873015873016,-47.22222222222222,52.93650793650794,-138.015873015873,30.87301587301587,-214.04761904761904,-57.53968253968254,303.73015873015873,48.01587301587301,-50.87301587301587,-113.09523809523809,-1.6666666666666665,-0.5555555555555556,-166.26984126984127
110.07936507936508,37.38095238095238,49.12698412698413,-31.98412698412698,89.92063492063491,-73.4126984126984,103.4126984126984,-28.809523809523807,48.80952380952381,-158.17460317460316,55.15873015873016,-47.22222222222222,52.93650793650794,-138.015873015873,30.87301587301587,-214.04761904761904,-57.53968253968254,303.73015873015873,48.01587301587301,-50.87301587301587,-113.09523809523809,-1.6666666666666665,-0.5555555555555556,-166.26984126984127
108.01587301587301,36.269841269841265,44.2063492063492,-26.11111111111111,83.09523809523809,-130.7142857142857,123.88888888888889,-68.65079365079364,45.95238095238095,-191.66666666666666,97.06349206349206,-86.42857142857143,38.80952380952381,-176.74603174603175,31.03174603174603,-253.7301587301587,14.523809523809524,152.93650793650792,46.904761904761905,80.39682539682539,-104.04761904761904,22.142857142857142,30.555555555555554,-166.26984126984127
108.01587301587301,36.269841269841265,44.2063492063492,-26.11111111111111,83.09523809523809,-130.7142857142857,123.88888888888889,-68.65079365079364,45.95238095238095,-191.66666666666666,97.06349206349206,-86.42857142857143,38.80952380952381,-176.74603174603175,31.03174603174603,-253.7301587301587,14.523809523809524,152.93650793650792,46.904761904761905,80.39682539682539,-104.04761904761904,22.142857142857142,30.555555555555554,-166.26984126984127
66.9047619047619,35.63492063492063,36.11111111111111,-18.174603174603174,61.03174603174603,14.047619047619047,45.95238095238095,41.19047619047619,23.095238095238095,-107.85714285714285,17.539682539682538,15.634920634920634,41.03174603174603,-75.15873015873015,13.253968253968253,-159.76190476190476,-101.66666666666666,262.77777777777777,45.95238095238095,-202.14285714285714,-85.31746031746032,-23.730158730158728,-32.14285714285714,-321.8253968253968
66.9047619047619,35.63492063492063,36.11111111111111,-18.174603174603174,61.03174603174603,14.047619047619047,45.95238095238095,41.19047619047619,23.095238095238095,-107.85714285714285,17.539682539682538,15.634920634920634,41.03174603174603,-75.15873015873015,13.253968253968253,-159.76190476190476,-101.66666666666666,262.77777777777777,45.95238095238095,-202.14285714285714,-85.31746031746032,-23.730158730158728,-32.14285714285714,-321.8253968253968
107.53968253968253,34.84126984126984,47.22222222222222,-6.111111111111111,80.55555555555556,-83.25396825396825,117.06349206349206,-19.285714285714285,48.49206349206349,-152.3015873015873,89.76190476190476,-35.317460317460316,49.44444444444444,-124.04761904761904,36.58730158730159,-210.2380952380952,18.333333333333332,227.53968253968253,45.0,51.03174603174603,-85.47619047619047,21.825396825396822,30.396825396825395,-321.8253968253968
107.53968253968253,34.84126984126984,47.22222222222222,-6.111111111111111,80.55555555555556,-83.25396825396825,117.06349206349206,-19.285714285714285,48.49206349206349,-152.3015873015873,89.76190476190476,-35.317460317460316,49.44444444444444,-124.04761904761904,36.58730158730159,-210.2380952380952,18.333333333333332,227.53968253968253,45.0,51.03174603174603,-85.47619047619047,21.825396825396822,30.396825396825395,-321.8253968253968
310.07936507936506,34.682539682539684,145.47619047619048,-31.507936507936506,273.73015873015873,71.66666666666666,309.1269841269841,103.88888888888889,132.46031746031744,-31.03174603174603,317.06349206349205,96.26984126984127,160.7142857142857,-101.98412698412697,95.31746031746032,-155.3174603174603,229.76190476190476,307.69841269841265,44.84126984126984,96.74603174603175,-258.4920634920635,18.333333333333332,28.49206349206349,-321.8253968253968
310.07936507936506,34.682539682539684,145.47619047619048,-31.507936507936506,273.73015873015873,71.66666666666666,309.1269841269841,103.88888888888889,132.46031746031744,-31.03174603174603,317.06349206349205,96.26984126984127,160.7142857142857,-101.98412698412697,95.31746031746032,-155.3174603174603,229.76190476190476,307.69841269841265,44.84126984126984,96.74603174603175,-258.4920634920635,18.333333333333332,28.49206349206349,-321.8253968253968
315.0,34.047619047619044,150.3968253968254,-46.58730158730158,277.38095238095235,60.079365079365076,308.17460317460313,85.31746031746032,135.47619047619048,-41.507936507936506,317.53968253968253,87.06349206349206,163.09523809523807,-116.9047619047619,96.74603174603175,-170.87301587301587,229.76190476190476,250.07936507936506,43.888888888888886,103.57142857142857,-273.4126984126984,18.333333333333332,28.49206349206349,-321.8253968253968
315.0,34.047619047619044,150.3968253968254,-46.58730158730158,277.38095238095235,60.079365079365076,308.17460317460313,85.31746031746032,135.47619047619048,-41.507936507936506,317.53968253968253,87.06349206349206,163.09523809523807,-116.9047619047619,96.74603174603175,-170.87301587301587,229.76190476190476,250.07936507936506,43.888888888888886,103.57142857142857,-273.4126984126984,18.333333333333332,28.49206349206349,-321.8253968253968
320.07936507936506,33.41269841269841,155.47619047619048,-61.507936507936506,281.19047619047615,48.650793650793645,307.38095238095235,66.74603174603175,138.4920634920635,-51.82539682539682,318.17460317460313,77.85714285714285,165.47619047619045,-131.8253968253968,98.33333333333333,-186.26984126984127,229.9206349206349,192.46031746031744,43.095238095238095,110.55555555555554,-288.17460317460313,18.333333333333332,28.65079365079365,-321.8253968253968
320.07936507936506,33.41269841269841,155.47619047619048,-61.507936507936506,281.19047619047615,48.650793650793645,307.38095238095235,66.74603174603175,138.4920634920635,-51.82539682539682,318.17460317460313,77.85714285714285,165.47619047619045,-131.8253968253968,98.33333333333333,-186.26984126984127,229.9206349206349,192.46031746031744,43.095238095238095,110.55555555555554,-288.17460317460313,18.333333333333332,28.65079365079365,-321.8253968253968
320.07936507936506,33.41269841269841,155.47619047619048,-61.507936507936506,281.19047619047615,48.650793650793645,307.38095238095235,66.74603174603175,138.4920634920635,-51.82539682539682,318.17460317460313,77.85714285714285,165.47619047619045,-131.8253968253968,98.33333333333333,-186.26984126984127,229.9206349206349,192.46031746031744,43.095238095238095,110.55555555555554,-288.17460317460313,18.333333333333332,28.65079365079365,-166.26984126984127
