Fp1[1],Fp2[2],F3[3],F4[4],C3[5],C4[6],P3[7],P4[8],O1[9],O2[10],F7[11],F8[12],T3[13],T4[14],T5[15],T6[16],Fz[17],Pz[18],Cz[19],Pg1[20],Pg2[21],EOGR[22],EOOGL[23],EMG[24]
14.84126984126984,-225.95238095238093,-40.55555555555555,288.6507936507936,-317.85714285714283,142.14285714285714,304.68253968253964,325.0,304.68253968253964,286.90476190476187,-20.396825396825395,-160.07936507936506,40.55555555555555,-302.1428571428571,304.8412698412698,65.95238095238095,121.82539682539682,-195.63492063492063,81.19047619047619,-25.317460317460316,-304.68253968253964,-80.07936507936508,-307.85714285714283,-166.26984126984127
14.84126984126984,-225.95238095238093,-40.55555555555555,288.6507936507936,-317.85714285714283,142.14285714285714,304.68253968253964,325.0,304.68253968253964,286.90476190476187,-20.396825396825395,-160.07936507936506,40.55555555555555,-302.1428571428571,304.8412698412698,65.95238095238095,121.82539682539682,-195.63492063492063,81.19047619047619,-25.317460317460316,-304.68253968253964,-80.07936507936508,-307.85714285714283,-166.26984126984127
14.84126984126984,-225.95238095238093,-40.55555555555555,288.6507936507936,-317.85714285714283,142.14285714285714,304.68253968253964,325.0,304.68253968253964,286.90476190476187,-20.396825396825395,-160.07936507936506,40.55555555555555,-302.1428571428571,304.8412698412698,65.95238095238095,121.82539682539682,-195.63492063492063,81.19047619047619,-25.317460317460316,-304.68253968253964,-80.07936507936508,-307.85714285714283,-166.26984126984127
14.84126984126984,-225.95238095238093,-40.55555555555555,288.6507936507936,-317.85714285714283,142.14285714285714,304.68253968253964,325.0,304.68253968253964,286.90476190476187,-20.396825396825395,-160.07936507936506,40.55555555555555,-302.1428571428571,304.8412698412698,65.95238095238095,121.82539682539682,-195.63492063492063,81.19047619047619,-25.317460317460316,-304.68253968253964,-80.07936507936508,-307.85714285714283,-166.26984126984127
314.36507936507934,-325.0,-294.5238095238095,101.03174603174602,325.0,325.0,325.0,325.0,-316.58730158730157,325.0,-325.0,325.0,-295.7936507936508,-325.0,-293.4126984126984,325.0,-229.9206349206349,325.0,-66.26984126984127,-325.0,-325.0,-28.65079365079365,-39.76190476190476,-166.26984126984127
314.36507936507934,-325.0,-294.5238095238095,101.03174603174602,325.0,325.0,325.0,325.0,-316.58730158730157,325.0,-325.0,325.0,-295.7936507936508,-325.0,-293.4126984126984,325.0,-229.9206349206349,325.0,-66.26984126984127,-325.0,-325.0,-28.65079365079365,-39.76190476190476,-166.26984126984127
307.38095238095235,-325.0,-293.88888888888886,103.57142857142857,325.0,325.0,325.0,325.0,-313.0952380952381,325.0,-325.0,325.0,-292.1428571428571,-325.0,-293.4126984126984,325.0,-225.0,325.0,-53.095238095238095,-325.0,-325.0,-11.825396825396824,-16.26984126984127,-166.26984126984127
307.38095238095235,-325.0,-293.88888888888886,103.57142857142857,325.0,325.0,325.0,325.0,-313.0952380952381,325.0,-325.0,325.0,-292.1428571428571,-325.0,-293.4126984126984,325.0,-225.0,325.0,-53.095238095238095,-325.0,-325.0,-11.825396825396824,-16.26984126984127,-166.26984126984127
300.55555555555554,-325.0,-293.0952380952381,106.26984126984127,325.0,325.0,325.0,325.0,-309.6031746031746,325.0,-325.0,325.0,-288.3333333333333,-325.0,-293.4126984126984,325.0,-220.07936507936506,325.0,-39.76190476190476,-325.0,-325.0,5.158730158730158,7.3809523809523805,-166.26984126984127
300.55555555555554,-325.0,-293.0952380952381,106.26984126984127,325.0,325.0,325.0,325.0,-309.6031746031746,325.0,-325.0,325.0,-288.3333333333333,-325.0,-293.4126984126984,325.0,-220.07936507936506,325.0,-39.76190476190476,-325.0,-325.0,5.158730158730158,7.3809523809523805,-166.26984126984127
300.55555555555554,-325.0,-293.0952380952381,106.26984126984127,325.0,325.0,325.0,325.0,-309.6031746031746,325.0,-325.0,325.0,-288.3333333333333,-325.0,-293.4126984126984,325.0,-220.07936507936506,325.0,-39.76190476190476,-325.0,-325.0,5.158730158730158,7.3809523809523805,-321.8253968253968
300.55555555555554,-325.0,-293.0952380952381,106.26984126984127,325.0,325.0,325.0,325.0,-309.6031746031746,325.0,-325.0,325.0,-288.3333333333333,-325.0,-293.4126984126984,325.0,-220.07936507936506,325.0,-39.76190476190476,-325.0,-325.0,5.158730158730158,7.3809523809523805,-321.8253968253968
300.55555555555554,-325.0,-293.0952380952381,106.26984126984127,325.0,325.0,325.0,325.0,-309.6031746031746,325.0,-325.0,325.0,-288.3333333333333,-325.0,-293.4126984126984,325.0,-220.07936507936506,325.0,-39.76190476190476,-325.0,-325.0,5.158730158730158,7.3809523809523805,-321.8253968253968
300.55555555555554,-325.0,-293.0952380952381,106.26984126984127,325.0,325.0,325.0,325.0,-309.6031746031746,325.0,-325.0,325.0,-288.3333333333333,-325.0,-293.4126984126984,325.0,-220.07936507936506,325.0,-39.76190476190476,-325.0,-325.0,5.158730158730158,7.3809523809523805,-321.8253968253968
245.63492063492063,-325.0,-325.0,97.53968253968253,314.5238095238095,325.0,325.0,325.0,325.0,325.0,325.0,325.0,-325.0,-325.0,-325.0,-325.0,-181.8253968253968,325.0,34.682539682539684,-325.0,-325.0,-12.3015873015873,-14.523809523809524,-321.8253968253968
245.63492063492063,-325.0,-325.0,97.53968253968253,314.5238095238095,325.0,325.0,325.0,325.0,325.0,325.0,325.0,-325.0,-325.0,-325.0,-325.0,-181.8253968253968,325.0,34.682539682539684,-325.0,-325.0,-12.3015873015873,-14.523809523809524,-321.8253968253968
233.57142857142856,-325.0,-325.0,91.19047619047619,300.07936507936506,325.0,325.0,322.77777777777777,325.0,325.0,325.0,325.0,-325.0,-325.0,-325.0,-325.0,-173.57142857142856,325.0,47.22222222222222,-325.0,-325.0,-7.698412698412698,-10.714285714285714,-321.8253968253968
233.57142857142856,-325.0,-325.0,91.19047619047619,300.07936507936506,325.0,325.0,322.77777777777777,325.0,325.0,325.0,325.0,-325.0,-325.0,-325.0,-325.0,-173.57142857142856,325.0,47.22222222222222,-325.0,-325.0,-7.698412698412698,-10.714285714285714,-321.8253968253968
229.12698412698413,-325.0,-325.0,86.74603174603175,295.0,325.0,325.0,317.38095238095235,325.0,325.0,325.0,321.031746031746,-325.0,-325.0,-325.0,-325.0,-170.55555555555554,325.0,48.33333333333333,-325.0,-325.0,5.476190476190476,10.079365079365079,-321.8253968253968
229.12698412698413,-325.0,-325.0,86.74603174603175,295.0,325.0,325.0,317.38095238095235,325.0,325.0,325.0,321.031746031746,-325.0,-325.0,-325.0,-325.0,-170.55555555555554,325.0,48.33333333333333,-325.0,-325.0,5.476190476190476,10.079365079365079,-321.8253968253968
225.0,-325.0,-325.0,81.34920634920634,289.9206349206349,325.0,325.0,311.984126984127,325.0,325.0,325.0,315.6349206349206,-325.0,-325.0,-325.0,-325.0,-167.53968253968253,325.0,50.079365079365076,-325.0,-325.0,-7.5396825396825395,-8.968253968253968,-166.26984126984127
225.0,-325.0,-325.0,81.34920634920634,289.9206349206349,325.0,325.0,311.984126984127,325.0,325.0,325.0,315.6349206349206,-325.0,-325.0,-325.0,-325.0,-167.53968253968253,325.0,50.079365079365076,-325.0,-325.0,-7.5396825396825395,-8.968253968253968,-166.26984126984127
222.14285714285714,-325.0,-325.0,82.93650793650794,286.26984126984127,325.0,325.0,308.015873015873,325.0,325.0,325.0,311.5079365079365,-325.0,-325.0,-325.0,-325.0,-165.47619047619045,325.0,55.79365079365079,-325.0,-325.0,-1.0317460317460316,-0.3968253968253968,-166.26984126984127
222.14285714285714,-325.0,-325.0,82.93650793650794,286.26984126984127,325.0,325.0,308.015873015873,325.0,325.0,325.0,311.5079365079365,-325.0,-325.0,-325.0,-325.0,-165.47619047619045,325.0,55.79365079365079,-325.0,-325.0,-1.0317460317460316,-0.3968253968253968,-166.26984126984127
220.07936507936506,-325.0,-325.0,83.09523809523809,283.88888888888886,325.0,325.0,305.3174603174603,325.0,325.0,325.0,308.8095238095238,-325.0,-325.0,-325.0,-325.0,-164.04761904761904,325.0,58.17460317460317,-325.0,-325.0,-14.206349206349206,-18.65079365079365,-166.26984126984127
220.07936507936506,-325.0,-325.0,83.09523809523809,283.88888888888886,325.0,325.0,305.3174603174603,325.0,325.0,325.0,308.8095238095238,-325.0,-325.0,-325.0,-325.0,-164.04761904761904,325.0,58.17460317460317,-325.0,-325.0,-14.206349206349206,-18.65079365079365,-166.26984126984127
208.17460317460316,-314.2063492063492,-319.4444444444444,-325.0,269.9206349206349,313.57142857142856,322.46031746031747,290.55555555555554,325.0,293.57142857142856,325.0,292.9365079365079,-322.9365079365079,-325.0,-325.0,-325.0,-155.47619047619048,325.0,64.2063492063492,-322.46031746031747,-324.36507936507934,15.95238095238095,19.76190476190476,-166.26984126984127
208.17460317460316,-314.2063492063492,-319.4444444444444,-325.0,269.9206349206349,313.57142857142856,322.46031746031747,290.55555555555554,325.0,293.57142857142856,325.0,292.9365079365079,-322.9365079365079,-325.0,-325.0,-325.0,-155.47619047619048,325.0,64.2063492063492,-322.46031746031747,-324.36507936507934,15.95238095238095,19.76190476190476,-166.26984126984127
42.460317460317455,-70.71428571428571,269.2857142857143,-129.28571428571428,60.55555555555555,-325.0,70.07936507936508,-325.0,105.47619047619047,-183.4126984126984,152.61904761904762,-325.0,325.0,-76.58730158730158,273.57142857142856,-82.93650793650794,209.9206349206349,325.0,-18.49206349206349,-72.77777777777777,-69.28571428571428,-0.3968253968253968,-1.1904761904761905,-166.26984126984127
42.460317460317455,-70.71428571428571,269.2857142857143,-129.28571428571428,60.55555555555555,-325.0,70.07936507936508,-325.0,105.47619047619047,-183.4126984126984,152.61904761904762,-325.0,325.0,-76.58730158730158,273.57142857142856,-82.93650793650794,209.9206349206349,325.0,-18.49206349206349,-72.77777777777777,-69.28571428571428,-0.3968253968253968,-1.1904761904761905,-166.26984126984127
41.03174603174603,-68.4920634920635,261.1904761904762,-125.47619047619047,58.96825396825397,-325.0,67.53968253968253,-325.0,102.14285714285714,-177.69841269841268,44.36507936507936,-325.0,319.76190476190476,-74.2063492063492,265.4761904761905,-80.39682539682539,193.4126984126984,325.0,-29.285714285714285,-70.55555555555556,-67.06349206349206,-5.317460317460317,-8.65079365079365,-321.8253968253968
41.03174603174603,-68.4920634920635,261.1904761904762,-125.47619047619047,58.96825396825397,-325.0,67.53968253968253,-325.0,102.14285714285714,-177.69841269841268,44.36507936507936,-325.0,319.76190476190476,-74.2063492063492,265.4761904761905,-80.39682539682539,193.4126984126984,325.0,-29.285714285714285,-70.55555555555556,-67.06349206349206,-5.317460317460317,-8.65079365079365,-321.8253968253968
40.55555555555555,-67.6984126984127,257.6984126984127,-123.57142857142857,58.17460317460317,-325.0,67.06349206349206,-325.0,100.71428571428571,-175.47619047619045,213.09523809523807,-325.0,315.95238095238096,-73.4126984126984,262.3015873015873,-79.28571428571428,325.0,325.0,-22.777777777777775,-69.6031746031746,-66.11111111111111,22.936507936507937,32.93650793650794,-321.8253968253968
40.55555555555555,-67.6984126984127,257.6984126984127,-123.57142857142857,58.17460317460317,-325.0,67.06349206349206,-325.0,100.71428571428571,-175.47619047619045,213.09523809523807,-325.0,315.95238095238096,-73.4126984126984,262.3015873015873,-79.28571428571428,325.0,325.0,-22.777777777777775,-69.6031746031746,-66.11111111111111,22.936507936507937,32.93650793650794,-321.8253968253968
39.12698412698413,-65.47619047619047,248.96825396825395,-119.6031746031746,55.95238095238095,-325.0,64.36507936507937,-325.0,97.38095238095238,-169.60317460317458,103.57142857142857,-325.0,305.0,-70.87301587301587,253.4126984126984,-76.74603174603175,325.0,325.0,-20.396825396825395,-67.22222222222221,-63.73015873015873,0.3968253968253968,-0.3968253968253968,-321.8253968253968
39.12698412698413,-65.47619047619047,248.96825396825395,-119.6031746031746,55.95238095238095,-325.0,64.36507936507937,-325.0,97.38095238095238,-169.60317460317458,103.57142857142857,-325.0,305.0,-70.87301587301587,253.4126984126984,-76.74603174603175,325.0,325.0,-20.396825396825395,-67.22222222222221,-63.73015873015873,0.3968253968253968,-0.3968253968253968,-321.8253968253968
38.33333333333333,-63.888888888888886,243.4126984126984,-117.06349206349206,54.68253968253968,-325.0,63.095238095238095,-325.0,95.15873015873015,-165.95238095238093,200.23809523809524,-325.0,298.6507936507936,-69.28571428571428,248.015873015873,-58.49206349206349,325.0,325.0,-17.698412698412696,-65.79365079365078,-62.460317460317455,4.2063492063492065,5.476190476190476,-321.8253968253968
38.33333333333333,-63.888888888888886,243.4126984126984,-117.06349206349206,54.68253968253968,-325.0,63.095238095238095,-325.0,95.15873015873015,-165.95238095238093,200.23809523809524,-325.0,298.6507936507936,-69.28571428571428,248.015873015873,-58.49206349206349,325.0,325.0,-17.698412698412696,-65.79365079365078,-62.460317460317455,4.2063492063492065,5.476190476190476,-321.8253968253968
36.74603174603175,-61.666666666666664,236.26984126984127,-113.4126984126984,53.41269841269841,-325.0,61.03174603174603,-325.0,92.14285714285714,-160.87301587301587,-177.06349206349205,-325.0,289.9206349206349,-67.06349206349206,240.87301587301587,-34.2063492063492,325.0,325.0,-16.11111111111111,-63.57142857142857,-60.39682539682539,-21.666666666666664,-32.14285714285714,-321.8253968253968
36.74603174603175,-61.666666666666664,236.26984126984127,-113.4126984126984,53.41269841269841,-325.0,61.03174603174603,-325.0,92.14285714285714,-160.87301587301587,-177.06349206349205,-325.0,289.9206349206349,-67.06349206349206,240.87301587301587,-34.2063492063492,325.0,325.0,-16.11111111111111,-63.57142857142857,-60.39682539682539,-21.666666666666664,-32.14285714285714,-321.8253968253968
32.61904761904762,-55.317460317460316,211.03174603174602,-101.34920634920634,36.11111111111111,-323.4126984126984,54.2063492063492,-325.0,82.46031746031746,-144.2063492063492,-251.03174603174602,-325.0,259.44444444444446,-59.92063492063492,216.1111111111111,145.3174603174603,325.0,325.0,-17.38095238095238,-57.06349206349206,-53.888888888888886,-21.19047619047619,-30.555555555555554,-166.26984126984127
32.61904761904762,-55.317460317460316,211.03174603174602,-101.34920634920634,36.11111111111111,-323.4126984126984,54.2063492063492,-325.0,82.46031746031746,-144.2063492063492,-251.03174603174602,-325.0,259.44444444444446,-59.92063492063492,216.1111111111111,145.3174603174603,325.0,325.0,-17.38095238095238,-57.06349206349206,-53.888888888888886,-21.19047619047619,-30.555555555555554,-166.26984126984127
28.174603174603174,-48.17460317460317,183.4126984126984,-87.85714285714285,20.555555555555554,-317.69841269841265,46.74603174603175,-325.0,71.98412698412697,-125.79365079365078,-325.0,-325.0,226.1111111111111,-51.98412698412698,188.96825396825395,325.0,325.0,325.0,-169.9206349206349,-49.76190476190476,-46.74603174603175,1.349206349206349,1.349206349206349,-166.26984126984127
28.174603174603174,-48.17460317460317,183.4126984126984,-87.85714285714285,20.555555555555554,-317.69841269841265,46.74603174603175,-325.0,71.98412698412697,-125.79365079365078,-325.0,-325.0,226.1111111111111,-51.98412698412698,188.96825396825395,325.0,325.0,325.0,-169.9206349206349,-49.76190476190476,-46.74603174603175,1.349206349206349,1.349206349206349,-166.26984126984127
27.698412698412696,-47.53968253968254,180.23809523809524,-86.42857142857143,4.523809523809524,-312.6190476190476,38.80952380952381,-325.0,70.71428571428571,-123.57142857142857,-325.0,-325.0,222.3015873015873,-51.03174603174603,185.63492063492063,325.0,325.0,325.0,-325.0,-48.96825396825397,-45.79365079365079,-1.507936507936508,-2.46031746031746,-166.26984126984127
27.698412698412696,-47.53968253968254,180.23809523809524,-86.42857142857143,4.523809523809524,-312.6190476190476,38.80952380952381,-325.0,70.71428571428571,-123.57142857142857,-325.0,-325.0,222.3015873015873,-51.03174603174603,185.63492063492063,325.0,325.0,325.0,-325.0,-48.96825396825397,-45.79365079365079,-1.507936507936508,-2.46031746031746,-166.26984126984127
27.22222222222222,-46.269841269841265,176.26984126984127,-84.2063492063492,-1.349206349206349,-305.95238095238096,37.38095238095238,-325.0,69.12698412698413,-120.87301587301586,-325.0,-325.0,217.53968253968253,-16.11111111111111,181.5079365079365,325.0,325.0,325.0,-325.0,-47.857142857142854,-44.68253968253968,-0.3968253968253968,-0.873015873015873,-166.26984126984127
27.22222222222222,-46.269841269841265,176.26984126984127,-84.2063492063492,-1.349206349206349,-305.95238095238096,37.38095238095238,-325.0,69.12698412698413,-120.87301587301586,-325.0,-325.0,217.53968253968253,-16.11111111111111,181.5079365079365,325.0,325.0,325.0,-325.0,-47.857142857142854,-44.68253968253968,-0.3968253968253968,-0.873015873015873,-166.26984126984127
26.9047619047619,-45.79365079365079,174.84126984126982,-83.25396825396825,44.36507936507936,-303.57142857142856,45.95238095238095,-325.0,68.4920634920635,-119.92063492063491,-325.0,-325.0,215.79365079365078,18.015873015873016,180.07936507936506,325.0,325.0,325.0,-325.0,-47.22222222222222,-44.2063492063492,17.22222222222222,24.047619047619047,-166.26984126984127
26.9047619047619,-45.79365079365079,174.84126984126982,-83.25396825396825,44.36507936507936,-303.57142857142856,45.95238095238095,-325.0,68.4920634920635,-119.92063492063491,-325.0,-325.0,215.79365079365078,18.015873015873016,180.07936507936506,325.0,325.0,325.0,-325.0,-47.22222222222222,-44.2063492063492,17.22222222222222,24.047619047619047,-166.26984126984127
26.9047619047619,-45.79365079365079,174.84126984126982,-83.25396825396825,44.36507936507936,-303.57142857142856,45.95238095238095,-325.0,68.4920634920635,-119.92063492063491,-325.0,-325.0,215.79365079365078,18.015873015873016,180.07936507936506,325.0,325.0,325.0,-325.0,-47.22222222222222,-44.2063492063492,17.22222222222222,24.047619047619047,-321.8253968253968
26.9047619047619,-45.79365079365079,174.84126984126982,-83.25396825396825,44.36507936507936,-303.57142857142856,45.95238095238095,-325.0,68.4920634920635,-119.92063492063491,-325.0,-325.0,215.79365079365078,18.015873015873016,180.07936507936506,325.0,325.0,325.0,-325.0,-47.22222222222222,-44.2063492063492,17.22222222222222,24.047619047619047,-321.8253968253968
26.9047619047619,-45.79365079365079,174.84126984126982,-83.25396825396825,44.36507936507936,-303.57142857142856,45.95238095238095,-325.0,68.4920634920635,-119.92063492063491,-325.0,-325.0,215.79365079365078,18.015873015873016,180.07936507936506,325.0,325.0,325.0,-325.0,-47.22222222222222,-44.2063492063492,17.22222222222222,24.047619047619047,-321.8253968253968
26.9047619047619,-45.79365079365079,174.84126984126982,-83.25396825396825,44.36507936507936,-303.57142857142856,45.95238095238095,-325.0,68.4920634920635,-119.92063492063491,-325.0,-325.0,215.79365079365078,18.015873015873016,180.07936507936506,325.0,325.0,325.0,-325.0,-47.22222222222222,-44.2063492063492,17.22222222222222,24.047619047619047,-321.8253968253968
-195.15873015873015,148.96825396825395,81.19047619047619,27.38095238095238,-325.0,-142.14285714285714,-325.0,-248.96825396825395,-142.3015873015873,49.44444444444444,36.904761904761905,-249.9206349206349,96.58730158730158,315.4761904761905,83.4126984126984,236.26984126984127,264.8412698412698,211.8253968253968,-248.33333333333331,325.0,205.0,12.777777777777777,20.07936507936508,-321.8253968253968
-195.15873015873015,148.96825396825395,81.19047619047619,27.38095238095238,-325.0,-142.14285714285714,-325.0,-248.96825396825395,-142.3015873015873,49.44444444444444,36.904761904761905,-249.9206349206349,96.58730158730158,315.4761904761905,83.4126984126984,236.26984126984127,264.8412698412698,211.8253968253968,-248.33333333333331,325.0,205.0,12.777777777777777,20.07936507936508,-321.8253968253968
-325.0,325.0,60.39682539682539,103.73015873015872,-325.0,-99.12698412698413,-325.0,-175.79365079365078,-325.0,170.23809523809524,105.47619047619047,-174.68253968253967,65.95238095238095,305.95238095238096,59.44444444444444,147.69841269841268,204.68253968253967,147.53968253968253,-171.5079365079365,325.0,325.0,23.41269841269841,34.682539682539684,-321.8253968253968
-325.0,325.0,60.39682539682539,103.73015873015872,-325.0,-99.12698412698413,-325.0,-175.79365079365078,-325.0,170.23809523809524,105.47619047619047,-174.68253968253967,65.95238095238095,305.95238095238096,59.44444444444444,147.69841269841268,204.68253968253967,147.53968253968253,-171.5079365079365,325.0,325.0,23.41269841269841,34.682539682539684,-321.8253968253968
-325.0,325.0,60.39682539682539,103.73015873015872,-325.0,-99.12698412698413,-325.0,-175.79365079365078,-325.0,170.23809523809524,105.47619047619047,-174.68253968253967,65.95238095238095,305.95238095238096,59.44444444444444,147.69841269841268,204.68253968253967,147.53968253968253,-171.5079365079365,325.0,325.0,23.41269841269841,34.682539682539684,-321.8253968253968
-325.0,325.0,60.39682539682539,103.73015873015872,-325.0,-99.12698412698413,-325.0,-175.79365079365078,-325.0,170.23809523809524,105.47619047619047,-174.68253968253967,65.95238095238095,305.95238095238096,59.44444444444444,147.69841269841268,204.68253968253967,147.53968253968253,-171.5079365079365,325.0,325.0,23.41269841269841,34.682539682539684,-321.8253968253968
-325.0,325.0,60.39682539682539,103.73015873015872,-325.0,-99.12698412698413,-325.0,-175.79365079365078,-325.0,170.23809523809524,105.47619047619047,-174.68253968253967,65.95238095238095,305.95238095238096,59.44444444444444,147.69841269841268,204.68253968253967,147.53968253968253,-171.5079365079365,325.0,325.0,23.41269841269841,34.682539682539684,-166.26984126984127
-325.0,325.0,60.39682539682539,103.73015873015872,-325.0,-99.12698412698413,-325.0,-175.79365079365078,-325.0,170.23809523809524,105.47619047619047,-174.68253968253967,65.95238095238095,305.95238095238096,59.44444444444444,147.69841269841268,204.68253968253967,147.53968253968253,-171.5079365079365,325.0,325.0,23.41269841269841,34.682539682539684,-166.26984126984127
-325.0,325.0,60.39682539682539,103.73015873015872,-325.0,-99.12698412698413,-325.0,-175.79365079365078,-325.0,170.23809523809524,105.47619047619047,-174.68253968253967,65.95238095238095,305.95238095238096,59.44444444444444,147.69841269841268,204.68253968253967,147.53968253968253,-171.5079365079365,325.0,325.0,23.41269841269841,34.682539682539684,-166.26984126984127
-325.0,325.0,60.39682539682539,103.73015873015872,-325.0,-99.12698412698413,-325.0,-175.79365079365078,-325.0,170.23809523809524,105.47619047619047,-174.68253968253967,65.95238095238095,305.95238095238096,59.44444444444444,147.69841269841268,204.68253968253967,147.53968253968253,-171.5079365079365,325.0,325.0,23.41269841269841,34.682539682539684,-166.26984126984127
-325.0,325.0,-56.58730158730158,270.07936507936506,-325.0,-92.14285714285714,-325.0,-163.09523809523807,-325.0,325.0,134.68253968253967,-161.984126984127,44.84126984126984,282.9365079365079,-92.77777777777777,296.26984126984127,189.44444444444443,136.74603174603175,-158.8095238095238,325.0,325.0,-17.22222222222222,-21.825396825396822,-166.26984126984127
-325.0,325.0,-56.58730158730158,270.07936507936506,-325.0,-92.14285714285714,-325.0,-163.09523809523807,-325.0,325.0,134.68253968253967,-161.984126984127,44.84126984126984,282.9365079365079,-92.77777777777777,296.26984126984127,189.44444444444443,136.74603174603175,-158.8095238095238,325.0,325.0,-17.22222222222222,-21.825396825396822,-166.26984126984127
-325.0,325.0,-38.96825396825397,280.39682539682536,-325.0,-90.23809523809523,-325.0,-159.76190476190476,-325.0,210.87301587301587,-14.682539682539682,-158.33333333333331,55.79365079365079,276.74603174603175,-51.03174603174603,230.55555555555554,185.3174603174603,133.88888888888889,-155.3174603174603,325.0,325.0,18.80952380952381,25.79365079365079,-166.26984126984127
-325.0,325.0,-38.96825396825397,280.39682539682536,-325.0,-90.23809523809523,-325.0,-159.76190476190476,-325.0,210.87301587301587,-14.682539682539682,-158.33333333333331,55.79365079365079,276.74603174603175,-51.03174603174603,230.55555555555554,185.3174603174603,133.88888888888889,-155.3174603174603,325.0,325.0,18.80952380952381,25.79365079365079,-166.26984126984127
-325.0,325.0,-84.52380952380952,325.0,-325.0,-89.28571428571428,-325.0,-158.33333333333331,-325.0,325.0,143.88888888888889,-156.42857142857142,27.857142857142854,273.25396825396825,-118.01587301587301,284.36507936507934,182.93650793650792,132.14285714285714,-153.25396825396825,325.0,325.0,-16.746031746031743,-23.41269841269841,-166.26984126984127
-325.0,325.0,-84.52380952380952,325.0,-325.0,-89.28571428571428,-325.0,-158.33333333333331,-325.0,325.0,143.88888888888889,-156.42857142857142,27.857142857142854,273.25396825396825,-118.01587301587301,284.36507936507934,182.93650793650792,132.14285714285714,-153.25396825396825,325.0,325.0,-16.746031746031743,-23.41269841269841,-166.26984126984127
-325.0,325.0,-74.52380952380952,296.58730158730157,-325.0,-87.38095238095238,-325.0,-154.84126984126982,-325.0,235.95238095238093,-5.317460317460317,-153.09523809523807,53.095238095238095,267.38095238095235,-84.84126984126983,229.44444444444443,178.96825396825395,129.44444444444443,-149.9206349206349,325.0,325.0,17.22222222222222,26.11111111111111,-321.8253968253968
-325.0,325.0,-74.52380952380952,296.58730158730157,-325.0,-87.38095238095238,-325.0,-154.84126984126982,-325.0,235.95238095238093,-5.317460317460317,-153.09523809523807,53.095238095238095,267.38095238095235,-84.84126984126983,229.44444444444443,178.96825396825395,129.44444444444443,-149.9206349206349,325.0,325.0,17.22222222222222,26.11111111111111,-321.8253968253968
-325.0,325.0,-149.28571428571428,296.58730158730157,-325.0,-86.1111111111111,-325.0,-152.77777777777777,-325.0,316.90476190476187,-10.555555555555555,-151.19047619047618,11.349206349206348,263.88888888888886,-142.93650793650792,273.73015873015873,176.58730158730157,128.015873015873,-148.015873015873,325.0,325.0,-0.23809523809523808,1.0317460317460316,-321.8253968253968
-325.0,325.0,-149.28571428571428,296.58730158730157,-325.0,-86.1111111111111,-325.0,-152.77777777777777,-325.0,316.90476190476187,-10.555555555555555,-151.19047619047618,11.349206349206348,263.88888888888886,-142.93650793650792,273.73015873015873,176.58730158730157,128.015873015873,-148.015873015873,325.0,325.0,-0.23809523809523808,1.0317460317460316,-321.8253968253968
-325.0,325.0,-170.3968253968254,325.0,-325.0,-84.52380952380952,-325.0,-150.3968253968254,-325.0,191.19047619047618,-175.79365079365078,-148.33333333333331,30.396825396825395,259.2857142857143,-183.7301587301587,279.76190476190476,173.73015873015873,124.04761904761904,-145.3174603174603,325.0,325.0,15.317460317460316,22.936507936507937,-321.8253968253968
-325.0,325.0,-170.3968253968254,325.0,-325.0,-84.52380952380952,-325.0,-150.3968253968254,-325.0,191.19047619047618,-175.79365079365078,-148.33333333333331,30.396825396825395,259.2857142857143,-183.7301587301587,279.76190476190476,173.73015873015873,124.04761904761904,-145.3174603174603,325.0,325.0,15.317460317460316,22.936507936507937,-321.8253968253968
-325.0,325.0,-225.63492063492063,325.0,-325.0,-82.61904761904762,-325.0,-147.38095238095238,-325.0,310.7142857142857,-28.333333333333332,-145.3174603174603,-41.507936507936506,253.7301587301587,-225.79365079365078,273.57142857142856,169.76190476190476,83.09523809523809,-142.14285714285714,325.0,325.0,-18.015873015873016,-27.22222222222222,-321.8253968253968
-325.0,325.0,-225.63492063492063,325.0,-325.0,-82.61904761904762,-325.0,-147.38095238095238,-325.0,310.7142857142857,-28.333333333333332,-145.3174603174603,-41.507936507936506,253.7301587301587,-225.79365079365078,273.57142857142856,169.76190476190476,83.09523809523809,-142.14285714285714,325.0,325.0,-18.015873015873016,-27.22222222222222,-321.8253968253968
-325.0,325.0,-145.15873015873015,325.0,-325.0,-81.34920634920634,-325.0,-145.0,-325.0,264.5238095238095,20.71428571428571,-142.93650793650792,20.238095238095237,249.28571428571428,-151.66666666666666,269.1269841269841,167.06349206349205,-24.68253968253968,-139.76190476190476,325.0,325.0,18.80952380952381,25.952380952380953,-321.8253968253968
-325.0,325.0,-145.15873015873015,325.0,-325.0,-81.34920634920634,-325.0,-145.0,-325.0,264.5238095238095,20.71428571428571,-142.93650793650792,20.238095238095237,249.28571428571428,-151.66666666666666,269.1269841269841,167.06349206349205,-24.68253968253968,-139.76190476190476,325.0,325.0,18.80952380952381,25.952380952380953,-321.8253968253968
-325.0,325.0,-186.11111111111111,325.0,-325.0,-80.39682539682539,-325.0,-143.09523809523807,-325.0,325.0,141.984126984127,-141.03174603174602,-49.6031746031746,245.95238095238093,-233.57142857142856,265.6349206349206,164.84126984126982,-15.0,-138.33333333333331,325.0,325.0,-20.396825396825395,-25.952380952380953,-166.26984126984127
-325.0,325.0,-186.11111111111111,325.0,-325.0,-80.39682539682539,-325.0,-143.09523809523807,-325.0,325.0,141.984126984127,-141.03174603174602,-49.6031746031746,245.95238095238093,-233.57142857142856,265.6349206349206,164.84126984126982,-15.0,-138.33333333333331,325.0,325.0,-20.396825396825395,-25.952380952380953,-166.26984126984127
-325.0,325.0,-180.07936507936506,325.0,-325.0,-78.65079365079364,-325.0,-140.23809523809524,-325.0,245.15873015873015,35.63492063492063,-138.015873015873,-10.238095238095237,240.7142857142857,-187.53968253968253,260.07936507936506,161.19047619047618,-275.1587301587301,-135.0,323.88888888888886,325.0,18.015873015873016,26.428571428571427,-166.26984126984127
-325.0,325.0,-180.07936507936506,325.0,-325.0,-78.65079365079364,-325.0,-140.23809523809524,-325.0,245.15873015873015,35.63492063492063,-138.015873015873,-10.238095238095237,240.7142857142857,-187.53968253968253,260.07936507936506,161.19047619047618,-275.1587301587301,-135.0,323.88888888888886,325.0,18.015873015873016,26.428571428571427,-166.26984126984127
-325.0,325.0,-217.06349206349205,325.0,-322.9365079365079,-77.85714285714285,-325.0,-138.4920634920635,-325.0,325.0,153.09523809523807,-136.26984126984127,-76.58730158730158,237.53968253968253,-263.57142857142856,256.90476190476187,159.12698412698413,-269.44444444444446,-133.25396825396825,319.9206349206349,325.0,-21.825396825396822,-28.96825396825397,-166.26984126984127
-325.0,325.0,-217.06349206349205,325.0,-322.9365079365079,-77.85714285714285,-325.0,-138.4920634920635,-325.0,325.0,153.09523809523807,-136.26984126984127,-76.58730158730158,237.53968253968253,-263.57142857142856,256.90476190476187,159.12698412698413,-269.44444444444446,-133.25396825396825,319.9206349206349,325.0,-21.825396825396822,-28.96825396825397,-166.26984126984127
-325.0,325.0,-206.42857142857142,325.0,-316.26984126984127,-75.95238095238095,-323.73015873015873,-135.63492063492063,-325.0,238.96825396825395,57.22222222222222,-133.25396825396825,-36.74603174603175,232.46031746031744,-208.015873015873,251.5079365079365,155.63492063492063,-325.0,-130.3968253968254,313.4126984126984,325.0,18.49206349206349,26.9047619047619,-166.26984126984127
-325.0,325.0,-206.42857142857142,325.0,-316.26984126984127,-75.95238095238095,-323.73015873015873,-135.63492063492063,-325.0,238.96825396825395,57.22222222222222,-133.25396825396825,-36.74603174603175,232.46031746031744,-208.015873015873,251.5079365079365,155.63492063492063,-325.0,-130.3968253968254,313.4126984126984,325.0,18.49206349206349,26.9047619047619,-166.26984126984127
-325.0,325.0,-287.38095238095235,325.0,-311.19047619047615,-74.68253968253968,-318.4920634920635,-133.4126984126984,-325.0,243.7301587301587,-22.142857142857142,-131.03174603174602,-130.87301587301587,228.33333333333331,-318.4920634920635,245.3174603174603,153.09523809523807,-325.0,-128.015873015873,308.4920634920635,325.0,-19.444444444444443,-26.9047619047619,-166.26984126984127
-325.0,325.0,-287.38095238095235,325.0,-311.19047619047615,-74.68253968253968,-318.4920634920635,-133.4126984126984,-325.0,243.7301587301587,-22.142857142857142,-131.03174603174602,-130.87301587301587,228.33333333333331,-318.4920634920635,245.3174603174603,153.09523809523807,-325.0,-128.015873015873,308.4920634920635,325.0,-19.444444444444443,-26.9047619047619,-166.26984126984127
-325.0,325.0,-234.52380952380952,325.0,-306.26984126984127,-73.4126984126984,-313.0952380952381,-131.19047619047618,-325.0,218.17460317460316,62.61904761904761,-128.8095238095238,-72.93650793650794,224.36507936507934,-236.74603174603175,237.06349206349205,150.3968253968254,-325.0,-125.79365079365078,303.0952380952381,325.0,18.174603174603174,26.428571428571427,-321.8253968253968
-325.0,325.0,-234.52380952380952,325.0,-306.26984126984127,-73.4126984126984,-313.0952380952381,-131.19047619047618,-325.0,218.17460317460316,62.61904761904761,-128.8095238095238,-72.93650793650794,224.36507936507934,-236.74603174603175,237.06349206349205,150.3968253968254,-325.0,-125.79365079365078,303.0952380952381,325.0,18.174603174603174,26.428571428571427,-321.8253968253968
-325.0,325.0,-308.17460317460313,325.0,-301.3492063492063,-72.3015873015873,-307.85714285714283,-129.12698412698413,-325.0,285.95238095238096,-23.57142857142857,-126.74603174603173,-167.38095238095238,220.3968253968254,-325.0,239.60317460317458,147.85714285714286,-325.0,-123.73015873015872,298.17460317460313,325.0,-19.126984126984127,-27.063492063492063,-321.8253968253968
-325.0,325.0,-308.17460317460313,325.0,-301.3492063492063,-72.3015873015873,-307.85714285714283,-129.12698412698413,-325.0,285.95238095238096,-23.57142857142857,-126.74603174603173,-167.38095238095238,220.3968253968254,-325.0,239.60317460317458,147.85714285714286,-325.0,-123.73015873015872,298.17460317460313,325.0,-19.126984126984127,-27.063492063492063,-321.8253968253968
-325.0,325.0,-325.0,325.0,-297.6984126984127,-71.19047619047619,-304.04761904761904,-127.6984126984127,-325.0,238.33333333333331,-87.85714285714285,-125.0,-178.4920634920635,217.53968253968253,-325.0,236.42857142857142,145.95238095238093,-325.0,-121.82539682539682,294.5238095238095,325.0,19.285714285714285,27.22222222222222,-321.8253968253968
-325.0,325.0,-325.0,325.0,-297.6984126984127,-71.19047619047619,-304.04761904761904,-127.6984126984127,-325.0,238.33333333333331,-87.85714285714285,-125.0,-178.4920634920635,217.53968253968253,-325.0,236.42857142857142,145.95238095238093,-325.0,-121.82539682539682,294.5238095238095,325.0,19.285714285714285,27.22222222222222,-321.8253968253968
-325.0,325.0,-324.5238095238095,325.0,-291.8253968253968,-69.92063492063491,-297.85714285714283,-125.0,-325.0,258.17460317460313,-16.746031746031743,-122.30158730158729,-201.8253968253968,212.93650793650792,-325.0,220.87301587301587,142.77777777777777,-325.0,-119.44444444444444,288.3333333333333,325.0,-18.49206349206349,-26.26984126984127,-321.8253968253968
-325.0,325.0,-324.5238095238095,325.0,-291.8253968253968,-69.92063492063491,-297.85714285714283,-125.0,-325.0,258.17460317460313,-16.746031746031743,-122.30158730158729,-201.8253968253968,212.93650793650792,-325.0,220.87301587301587,142.77777777777777,-325.0,-119.44444444444444,288.3333333333333,325.0,-18.49206349206349,-26.26984126984127,-321.8253968253968
-325.0,325.0,-325.0,325.0,-288.015873015873,-68.80952380952381,-293.88888888888886,-123.25396825396825,-325.0,105.31746031746032,-72.3015873015873,-120.55555555555554,-229.60317460317458,210.07936507936506,-325.0,145.3174603174603,140.87301587301587,-325.0,-117.6984126984127,284.8412698412698,325.0,21.349206349206348,28.65079365079365,-321.8253968253968
-325.0,325.0,-325.0,325.0,-288.015873015873,-68.80952380952381,-293.88888888888886,-123.25396825396825,-325.0,105.31746031746032,-72.3015873015873,-120.55555555555554,-229.60317460317458,210.07936507936506,-325.0,145.3174603174603,140.87301587301587,-325.0,-117.6984126984127,284.8412698412698,325.0,21.349206349206348,28.65079365079365,-321.8253968253968
-325.0,325.0,-325.0,325.0,-282.46031746031747,-67.53968253968253,-288.17460317460313,-121.03174603174602,-325.0,275.3174603174603,-14.84126984126984,-118.17460317460316,-222.77777777777777,205.47619047619045,-325.0,225.79365079365078,137.85714285714286,-325.0,-115.31746031746032,278.8095238095238,325.0,-19.444444444444443,-27.22222222222222,-166.26984126984127
-325.0,325.0,-325.0,325.0,-282.46031746031747,-67.53968253968253,-288.17460317460313,-121.03174603174602,-325.0,275.3174603174603,-14.84126984126984,-118.17460317460316,-222.77777777777777,205.47619047619045,-325.0,225.79365079365078,137.85714285714286,-325.0,-115.31746031746032,278.8095238095238,325.0,-19.444444444444443,-27.22222222222222,-166.26984126984127
-325.0,325.0,-258.6507936507936,325.0,-277.85714285714283,-66.42857142857143,-283.25396825396825,-118.96825396825396,-324.2063492063492,256.4285714285714,128.17460317460316,-116.42857142857142,-171.5079365079365,201.8253968253968,-258.6507936507936,221.5079365079365,135.63492063492063,-325.0,-113.25396825396825,274.36507936507934,325.0,18.80952380952381,26.746031746031743,-166.26984126984127
-325.0,325.0,-258.6507936507936,325.0,-277.85714285714283,-66.42857142857143,-283.25396825396825,-118.96825396825396,-324.2063492063492,256.4285714285714,128.17460317460316,-116.42857142857142,-171.5079365079365,201.8253968253968,-258.6507936507936,221.5079365079365,135.63492063492063,-325.0,-113.25396825396825,274.36507936507934,325.0,18.80952380952381,26.746031746031743,-166.26984126984127
-325.0,325.0,-325.0,325.0,-274.68253968253964,-65.79365079365078,-279.76190476190476,-117.6984126984127,-325.0,325.0,155.3174603174603,-114.84126984126983,-266.4285714285714,199.28571428571428,-325.0,218.17460317460316,133.73015873015873,-325.0,-111.82539682539682,270.87301587301585,325.0,-22.619047619047617,-32.14285714285714,-166.26984126984127
-325.0,325.0,-325.0,325.0,-274.68253968253964,-65.79365079365078,-279.76190476190476,-117.6984126984127,-325.0,325.0,155.3174603174603,-114.84126984126983,-266.4285714285714,199.28571428571428,-325.0,218.17460317460316,133.73015873015873,-325.0,-111.82539682539682,270.87301587301585,325.0,-22.619047619047617,-32.14285714285714,-166.26984126984127
-325.0,325.0,-267.38095238095235,325.0,-268.968253968254,-64.2063492063492,-273.88888888888886,-115.15873015873015,-315.3174603174603,243.7301587301587,129.28571428571428,-112.30158730158729,-204.84126984126982,194.84126984126982,-264.36507936507934,178.4920634920635,130.87301587301587,-325.0,-109.44444444444444,265.3174603174603,325.0,18.015873015873016,25.476190476190474,-166.26984126984127
-325.0,325.0,-267.38095238095235,325.0,-268.968253968254,-64.2063492063492,-273.88888888888886,-115.15873015873015,-315.3174603174603,243.7301587301587,129.28571428571428,-112.30158730158729,-204.84126984126982,194.84126984126982,-264.36507936507934,178.4920634920635,130.87301587301587,-325.0,-109.44444444444444,265.3174603174603,325.0,18.015873015873016,25.476190476190474,-166.26984126984127
-325.0,325.0,-325.0,325.0,-264.8412698412698,-63.095238095238095,-269.2857142857143,-113.4126984126984,-325.0,244.84126984126982,-8.015873015873016,-110.39682539682539,-290.07936507936506,191.5079365079365,-325.0,212.61904761904762,128.65079365079364,-325.0,-107.53968253968253,260.87301587301585,325.0,-18.49206349206349,-27.063492063492063,-166.26984126984127
-325.0,325.0,-325.0,325.0,-264.8412698412698,-63.095238095238095,-269.2857142857143,-113.4126984126984,-325.0,244.84126984126982,-8.015873015873016,-110.39682539682539,-290.07936507936506,191.5079365079365,-325.0,212.61904761904762,128.65079365079364,-325.0,-107.53968253968253,260.87301587301585,325.0,-18.49206349206349,-27.063492063492063,-166.26984126984127
-325.0,325.0,-271.3492063492063,325.0,-260.55555555555554,-61.98412698412698,-264.8412698412698,-111.5079365079365,-308.17460317460313,240.87301587301587,141.984126984127,-108.49206349206348,-214.52380952380952,188.17460317460316,-265.4761904761905,207.53968253968253,126.42857142857142,-325.0,-105.63492063492063,256.58730158730157,325.0,17.698412698412696,25.476190476190474,-321.8253968253968
-325.0,325.0,-271.3492063492063,325.0,-260.55555555555554,-61.98412698412698,-264.8412698412698,-111.5079365079365,-308.17460317460313,240.87301587301587,141.984126984127,-108.49206349206348,-214.52380952380952,188.17460317460316,-265.4761904761905,207.53968253968253,126.42857142857142,-325.0,-105.63492063492063,256.58730158730157,325.0,17.698412698412696,25.476190476190474,-321.8253968253968
-325.0,325.0,-271.3492063492063,325.0,-257.53968253968253,-61.34920634920635,-261.3492063492063,-110.23809523809523,-308.17460317460313,318.015873015873,65.31746031746032,-106.9047619047619,-202.14285714285714,185.79365079365078,-265.4761904761905,204.68253968253967,124.84126984126983,-325.0,-104.2063492063492,253.4126984126984,325.0,0.873015873015873,-0.07936507936507936,-321.8253968253968
-325.0,325.0,-271.3492063492063,325.0,-257.53968253968253,-61.34920634920635,-261.3492063492063,-110.23809523809523,-308.17460317460313,318.015873015873,65.31746031746032,-106.9047619047619,-202.14285714285714,185.79365079365078,-265.4761904761905,204.68253968253967,124.84126984126983,-325.0,-104.2063492063492,253.4126984126984,325.0,0.873015873015873,-0.07936507936507936,-321.8253968253968
-325.0,325.0,-270.55555555555554,325.0,-252.14285714285714,-59.92063492063492,-256.1111111111111,-107.85714285714285,-300.07936507936506,291.984126984127,153.73015873015873,-104.84126984126983,-221.98412698412696,181.66666666666666,-265.95238095238096,200.7142857142857,122.14285714285714,-325.0,-101.98412698412697,248.17460317460316,325.0,17.22222222222222,26.11111111111111,-321.8253968253968
-325.0,325.0,-270.55555555555554,325.0,-252.14285714285714,-59.92063492063492,-256.1111111111111,-107.85714285714285,-300.07936507936506,291.984126984127,153.73015873015873,-104.84126984126983,-221.98412698412696,181.66666666666666,-265.95238095238096,200.7142857142857,122.14285714285714,-325.0,-101.98412698412697,248.17460317460316,325.0,17.22222222222222,26.11111111111111,-321.8253968253968
-325.0,325.0,-325.0,325.0,-248.17460317460316,-59.12698412698413,-251.98412698412696,-106.1111111111111,-325.0,245.3174603174603,-24.68253968253968,-103.09523809523809,-325.0,178.33333333333331,-325.0,197.2222222222222,119.92063492063491,-325.0,-100.23809523809523,244.04761904761904,325.0,-19.285714285714285,-26.428571428571427,-321.8253968253968
-325.0,325.0,-325.0,325.0,-248.17460317460316,-59.12698412698413,-251.98412698412696,-106.1111111111111,-325.0,245.3174603174603,-24.68253968253968,-103.09523809523809,-325.0,178.33333333333331,-325.0,197.2222222222222,119.92063492063491,-325.0,-100.23809523809523,244.04761904761904,325.0,-19.285714285714285,-26.428571428571427,-321.8253968253968
-325.0,325.0,-269.44444444444446,325.0,-244.2063492063492,-58.01587301587301,-247.69841269841268,-104.36507936507935,-295.1587301587301,239.9206349206349,154.2063492063492,-101.19047619047619,-228.17460317460316,175.3174603174603,-265.0,193.88888888888889,118.01587301587301,-325.0,-98.49206349206348,239.9206349206349,325.0,17.539682539682538,25.158730158730158,-321.8253968253968
-325.0,325.0,-269.44444444444446,325.0,-244.2063492063492,-58.01587301587301,-247.69841269841268,-104.36507936507935,-295.1587301587301,239.9206349206349,154.2063492063492,-101.19047619047619,-228.17460317460316,175.3174603174603,-265.0,193.88888888888889,118.01587301587301,-325.0,-98.49206349206348,239.9206349206349,325.0,17.539682539682538,25.158730158730158,-321.8253968253968
-325.0,325.0,-213.88888888888889,325.0,-243.09523809523807,-57.698412698412696,-246.58730158730157,-103.88888888888889,-265.3174603174603,325.0,311.66666666666663,-100.71428571428571,-131.19047619047618,174.52380952380952,-205.0,193.09523809523807,117.53968253968253,-325.0,-98.17460317460316,238.96825396825395,325.0,11.507936507936508,17.539682539682538,-166.26984126984127
-325.0,325.0,-213.88888888888889,325.0,-243.09523809523807,-57.698412698412696,-246.58730158730157,-103.88888888888889,-265.3174603174603,325.0,311.66666666666663,-100.71428571428571,-131.19047619047618,174.52380952380952,-205.0,193.09523809523807,117.53968253968253,-325.0,-98.17460317460316,238.96825396825395,325.0,11.507936507936508,17.539682539682538,-166.26984126984127
-325.0,325.0,-212.3015873015873,325.0,-239.28571428571428,-56.74603174603174,-242.6190476190476,-102.30158730158729,-263.0952380952381,325.0,318.3333333333333,-99.28571428571428,-138.4920634920635,171.5079365079365,-208.33333333333331,189.9206349206349,115.31746031746032,-325.0,-96.58730158730158,235.0,322.9365079365079,10.873015873015872,17.38095238095238,-166.26984126984127
-325.0,325.0,-212.3015873015873,325.0,-239.28571428571428,-56.74603174603174,-242.6190476190476,-102.30158730158729,-263.0952380952381,325.0,318.3333333333333,-99.28571428571428,-138.4920634920635,171.5079365079365,-208.33333333333331,189.9206349206349,115.31746031746032,-325.0,-96.58730158730158,235.0,322.9365079365079,10.873015873015872,17.38095238095238,-166.26984126984127
-325.0,325.0,-267.85714285714283,325.0,-233.4126984126984,-55.317460317460316,-236.58730158730157,-99.76190476190476,-292.9365079365079,242.77777777777777,83.09523809523809,-96.9047619047619,-235.3174603174603,166.9047619047619,-268.3333333333333,182.3015873015873,107.6984126984127,-325.0,-94.04761904761904,229.12698412698413,318.015873015873,0.07936507936507936,0.5555555555555556,-166.26984126984127
-325.0,325.0,-267.85714285714283,325.0,-233.4126984126984,-55.317460317460316,-236.58730158730157,-99.76190476190476,-292.9365079365079,242.77777777777777,83.09523809523809,-96.9047619047619,-235.3174603174603,166.9047619047619,-268.3333333333333,182.3015873015873,107.6984126984127,-325.0,-94.04761904761904,229.12698412698413,318.015873015873,0.07936507936507936,0.5555555555555556,-166.26984126984127
-325.0,325.0,-265.0,193.4126984126984,-229.76190476190476,-54.36507936507936,-232.46031746031744,-98.01587301587301,-283.57142857142856,127.6984126984127,83.09523809523809,-95.15873015873015,-237.69841269841268,164.04761904761904,-266.26984126984127,175.79365079365078,105.95238095238095,-325.0,-92.30158730158729,225.15873015873015,312.46031746031747,0.07936507936507936,-0.07936507936507936,-166.26984126984127
-325.0,325.0,-265.0,193.4126984126984,-229.76190476190476,-54.36507936507936,-232.46031746031744,-98.01587301587301,-283.57142857142856,127.6984126984127,83.09523809523809,-95.15873015873015,-237.69841269841268,164.04761904761904,-266.26984126984127,175.79365079365078,105.95238095238095,-325.0,-92.30158730158729,225.15873015873015,312.46031746031747,0.07936507936507936,-0.07936507936507936,-166.26984126984127
-323.25396825396825,325.0,-265.0,75.0,-226.1111111111111,-53.41269841269841,-228.65079365079364,-96.42857142857142,-283.57142857142856,-65.47619047619047,146.58730158730157,-93.4126984126984,-237.69841269841268,161.19047619047618,-266.26984126984127,156.74603174603175,104.52380952380952,-325.0,-90.71428571428571,221.34920634920633,307.06349206349205,0.7142857142857142,0.23809523809523808,-166.26984126984127
-323.25396825396825,325.0,-265.0,75.0,-226.1111111111111,-53.41269841269841,-228.65079365079364,-96.42857142857142,-283.57142857142856,-65.47619047619047,146.58730158730157,-93.4126984126984,-237.69841269841268,161.19047619047618,-266.26984126984127,156.74603174603175,104.52380952380952,-325.0,-90.71428571428571,221.34920634920633,307.06349206349205,0.7142857142857142,0.23809523809523808,-166.26984126984127
-317.53968253968253,323.57142857142856,-255.15873015873015,19.92063492063492,-221.34920634920633,-52.460317460317455,-223.7301587301587,-94.52380952380952,-253.7301587301587,-20.396825396825395,250.7142857142857,-91.5079365079365,-229.60317460317458,157.53968253968253,-254.2063492063492,165.3174603174603,104.84126984126983,-325.0,-88.96825396825396,217.06349206349205,300.55555555555554,16.428571428571427,24.206349206349206,-321.8253968253968
-317.53968253968253,323.57142857142856,-255.15873015873015,19.92063492063492,-221.34920634920633,-52.460317460317455,-223.7301587301587,-94.52380952380952,-253.7301587301587,-20.396825396825395,250.7142857142857,-91.5079365079365,-229.60317460317458,157.53968253968253,-254.2063492063492,165.3174603174603,104.84126984126983,-325.0,-88.96825396825396,217.06349206349205,300.55555555555554,16.428571428571427,24.206349206349206,-321.8253968253968
-312.1428571428571,318.17460317460313,-325.0,180.23809523809524,-217.85714285714283,-51.666666666666664,-219.9206349206349,-93.09523809523809,-325.0,-14.84126984126984,84.04761904761904,-89.92063492063491,-325.0,154.84126984126982,-325.0,132.3015873015873,95.79365079365078,-325.0,-87.38095238095238,213.4126984126984,295.4761904761905,-18.80952380952381,-26.428571428571427,-321.8253968253968
-312.1428571428571,318.17460317460313,-325.0,180.23809523809524,-217.85714285714283,-51.666666666666664,-219.9206349206349,-93.09523809523809,-325.0,-14.84126984126984,84.04761904761904,-89.92063492063491,-325.0,154.84126984126982,-325.0,132.3015873015873,95.79365079365078,-325.0,-87.38095238095238,213.4126984126984,295.4761904761905,-18.80952380952381,-26.428571428571427,-321.8253968253968
-306.90476190476187,313.0952380952381,-253.7301587301587,28.809523809523807,-214.36507936507937,-50.71428571428571,-216.42857142857142,-91.5079365079365,-251.8253968253968,-2.9365079365079363,246.9047619047619,-88.01587301587301,-231.98412698412696,152.14285714285714,-254.2063492063492,65.0,99.44444444444444,-325.0,-85.63492063492063,209.76190476190476,290.23809523809524,17.38095238095238,23.730158730158728,-321.8253968253968
-306.90476190476187,313.0952380952381,-253.7301587301587,28.809523809523807,-214.36507936507937,-50.71428571428571,-216.42857142857142,-91.5079365079365,-251.8253968253968,-2.9365079365079363,246.9047619047619,-88.01587301587301,-231.98412698412696,152.14285714285714,-254.2063492063492,65.0,99.44444444444444,-325.0,-85.63492063492063,209.76190476190476,290.23809523809524,17.38095238095238,23.730158730158728,-321.8253968253968
-301.66666666666663,307.69841269841265,-325.0,244.52380952380952,-211.03174603174602,-49.76190476190476,-212.77777777777777,-90.07936507936508,-325.0,51.666666666666664,-7.222222222222221,-86.74603174603175,-325.0,149.44444444444443,-325.0,127.38095238095238,77.22222222222221,-325.0,-84.04761904761904,206.1111111111111,285.4761904761905,-18.174603174603174,-26.587301587301585,-321.8253968253968
-301.66666666666663,307.69841269841265,-325.0,244.52380952380952,-211.03174603174602,-49.76190476190476,-212.77777777777777,-90.07936507936508,-325.0,51.666666666666664,-7.222222222222221,-86.74603174603175,-325.0,149.44444444444443,-325.0,127.38095238095238,77.22222222222221,-325.0,-84.04761904761904,206.1111111111111,285.4761904761905,-18.174603174603174,-26.587301587301585,-321.8253968253968
-295.1587301587301,301.3492063492063,-325.0,297.85714285714283,-206.9047619047619,-48.80952380952381,-208.4920634920635,-88.17460317460316,-325.0,166.74603174603175,128.015873015873,-85.15873015873015,-325.0,146.26984126984127,-325.0,119.76190476190476,90.71428571428571,-325.0,-82.3015873015873,201.8253968253968,279.2857142857143,-2.7777777777777777,-1.6666666666666665,-321.8253968253968
-295.1587301587301,301.3492063492063,-325.0,297.85714285714283,-206.9047619047619,-48.80952380952381,-208.4920634920635,-88.17460317460316,-325.0,166.74603174603175,128.015873015873,-85.15873015873015,-325.0,146.26984126984127,-325.0,119.76190476190476,90.71428571428571,-325.0,-82.3015873015873,201.8253968253968,279.2857142857143,-2.7777777777777777,-1.6666666666666665,-321.8253968253968
-286.58730158730157,292.77777777777777,-252.46031746031744,169.44444444444443,-201.03174603174602,-47.38095238095238,-202.3015873015873,-85.79365079365078,-248.49206349206347,215.15873015873015,235.79365079365078,-82.46031746031746,-236.1111111111111,141.8253968253968,-259.2857142857143,155.0,90.55555555555556,-325.0,-79.76190476190476,195.95238095238093,270.87301587301585,16.11111111111111,23.095238095238095,-166.26984126984127
-286.58730158730157,292.77777777777777,-252.46031746031744,169.44444444444443,-201.03174603174602,-47.38095238095238,-202.3015873015873,-85.79365079365078,-248.49206349206347,215.15873015873015,235.79365079365078,-82.46031746031746,-236.1111111111111,141.8253968253968,-259.2857142857143,155.0,90.55555555555556,-325.0,-79.76190476190476,195.95238095238093,270.87301587301585,16.11111111111111,23.095238095238095,-166.26984126984127
-281.8253968253968,288.17460317460313,-325.0,315.1587301587301,-197.69841269841268,-46.74603174603175,-198.96825396825395,-84.36507936507937,-325.0,189.60317460317458,3.253968253968254,-81.19047619047619,-325.0,139.28571428571428,-325.0,131.984126984127,79.6031746031746,-325.0,-78.4920634920635,192.93650793650792,266.26984126984127,-16.904761904761905,-25.317460317460316,-166.26984126984127
-281.8253968253968,288.17460317460313,-325.0,315.1587301587301,-197.69841269841268,-46.74603174603175,-198.96825396825395,-84.36507936507937,-325.0,189.60317460317458,3.253968253968254,-81.19047619047619,-325.0,139.28571428571428,-325.0,131.984126984127,79.6031746031746,-325.0,-78.4920634920635,192.93650793650792,266.26984126984127,-16.904761904761905,-25.317460317460316,-166.26984126984127
-276.90476190476187,283.4126984126984,-252.46031746031744,193.7301587301587,-194.52380952380952,-46.11111111111111,-195.63492063492063,-82.93650793650794,-247.38095238095238,232.6190476190476,229.44444444444443,-79.76190476190476,-237.53968253968253,136.9047619047619,-261.031746031746,78.33333333333333,88.17460317460316,-325.0,-77.06349206349206,189.60317460317458,261.5079365079365,15.95238095238095,22.777777777777775,-166.26984126984127
-276.90476190476187,283.4126984126984,-252.46031746031744,193.7301587301587,-194.52380952380952,-46.11111111111111,-195.63492063492063,-82.93650793650794,-247.38095238095238,232.6190476190476,229.44444444444443,-79.76190476190476,-237.53968253968253,136.9047619047619,-261.031746031746,78.33333333333333,88.17460317460316,-325.0,-77.06349206349206,189.60317460317458,261.5079365079365,15.95238095238095,22.777777777777775,-166.26984126984127
-272.3015873015873,278.6507936507936,-325.0,325.0,-191.34920634920633,-45.15873015873016,-192.46031746031744,-81.66666666666666,-325.0,177.06349206349205,2.619047619047619,-78.33333333333333,-325.0,134.52380952380952,-325.0,63.57142857142857,79.28571428571428,-325.0,-75.63492063492063,186.42857142857142,257.22222222222223,-16.746031746031743,-24.047619047619047,-166.26984126984127
-272.3015873015873,278.6507936507936,-325.0,325.0,-191.34920634920633,-45.15873015873016,-192.46031746031744,-81.66666666666666,-325.0,177.06349206349205,2.619047619047619,-78.33333333333333,-325.0,134.52380952380952,-325.0,63.57142857142857,79.28571428571428,-325.0,-75.63492063492063,186.42857142857142,257.22222222222223,-16.746031746031743,-24.047619047619047,-166.26984126984127
-267.53968253968253,274.04761904761904,-252.77777777777777,226.58730158730157,-188.33333333333331,-44.36507936507936,-189.12698412698413,-80.39682539682539,-249.28571428571428,221.19047619047618,243.57142857142856,-77.06349206349206,-240.55555555555554,131.984126984127,-262.77777777777777,56.58730158730158,86.58730158730158,-325.0,-74.52380952380952,183.4126984126984,252.77777777777777,15.634920634920634,22.3015873015873,-166.26984126984127
-267.53968253968253,274.04761904761904,-252.77777777777777,226.58730158730157,-188.33333333333331,-44.36507936507936,-189.12698412698413,-80.39682539682539,-249.28571428571428,221.19047619047618,243.57142857142856,-77.06349206349206,-240.55555555555554,131.984126984127,-262.77777777777777,56.58730158730158,86.58730158730158,-325.0,-74.52380952380952,183.4126984126984,252.77777777777777,15.634920634920634,22.3015873015873,-166.26984126984127
-263.25396825396825,269.44444444444446,-325.0,325.0,-185.3174603174603,-43.57142857142857,-185.95238095238093,-78.96825396825396,-325.0,233.09523809523807,4.0476190476190474,-75.79365079365078,-325.0,129.6031746031746,-325.0,145.0,77.38095238095238,-325.0,-73.25396825396825,180.07936507936506,248.49206349206347,-16.26984126984127,-24.047619047619047,-321.8253968253968
-263.25396825396825,269.44444444444446,-325.0,325.0,-185.3174603174603,-43.57142857142857,-185.95238095238093,-78.96825396825396,-325.0,233.09523809523807,4.0476190476190474,-75.79365079365078,-325.0,129.6031746031746,-325.0,145.0,77.38095238095238,-325.0,-73.25396825396825,180.07936507936506,248.49206349206347,-16.26984126984127,-24.047619047619047,-321.8253968253968
-258.6507936507936,265.0,-249.28571428571428,303.73015873015873,-182.46031746031744,-42.93650793650794,-182.93650793650792,-77.6984126984127,-252.46031746031744,280.7142857142857,247.2222222222222,-74.36507936507937,-241.66666666666666,127.38095238095238,-261.1904761904762,143.4126984126984,84.04761904761904,-325.0,-71.82539682539682,177.06349206349205,243.88888888888889,15.0,22.46031746031746,-321.8253968253968
-258.6507936507936,265.0,-249.28571428571428,303.73015873015873,-182.46031746031744,-42.93650793650794,-182.93650793650792,-77.6984126984127,-252.46031746031744,280.7142857142857,247.2222222222222,-74.36507936507937,-241.66666666666666,127.38095238095238,-261.1904761904762,143.4126984126984,84.04761904761904,-325.0,-71.82539682539682,177.06349206349205,243.88888888888889,15.0,22.46031746031746,-321.8253968253968
-255.3174603174603,261.8253968253968,-249.28571428571428,303.73015873015873,-180.07936507936506,-42.61904761904761,-180.55555555555554,-76.74603174603175,-252.46031746031744,232.6190476190476,91.34920634920634,-73.4126984126984,-241.66666666666666,125.79365079365078,-261.1904761904762,132.61904761904762,70.39682539682539,-325.0,-70.87301587301587,175.0,240.7142857142857,0.5555555555555556,-0.23809523809523808,-321.8253968253968
-255.3174603174603,261.8253968253968,-249.28571428571428,303.73015873015873,-180.07936507936506,-42.61904761904761,-180.55555555555554,-76.74603174603175,-252.46031746031744,232.6190476190476,91.34920634920634,-73.4126984126984,-241.66666666666666,125.79365079365078,-261.1904761904762,132.61904761904762,70.39682539682539,-325.0,-70.87301587301587,175.0,240.7142857142857,0.5555555555555556,-0.23809523809523808,-321.8253968253968
-250.07936507936506,256.4285714285714,-246.58730158730157,280.39682539682536,-176.42857142857142,-41.507936507936506,-176.9047619047619,-75.31746031746032,-255.15873015873015,245.47619047619045,246.1111111111111,-71.98412698412697,-244.52380952380952,122.93650793650794,-264.2063492063492,122.14285714285714,80.07936507936508,-325.0,-69.44444444444444,171.5079365079365,235.63492063492063,15.317460317460316,21.19047619047619,-321.8253968253968
-250.07936507936506,256.4285714285714,-246.58730158730157,280.39682539682536,-176.42857142857142,-41.507936507936506,-176.9047619047619,-75.31746031746032,-255.15873015873015,245.47619047619045,246.1111111111111,-71.98412698412697,-244.52380952380952,122.93650793650794,-264.2063492063492,122.14285714285714,80.07936507936508,-325.0,-69.44444444444444,171.5079365079365,235.63492063492063,15.317460317460316,21.19047619047619,-321.8253968253968
-246.9047619047619,253.25396825396825,-246.58730158730157,280.39682539682536,-174.36507936507937,-41.03174603174603,-174.52380952380952,-74.36507936507937,-255.15873015873015,187.2222222222222,83.73015873015872,-71.03174603174602,-244.52380952380952,121.19047619047619,-264.2063492063492,136.26984126984127,69.6031746031746,-325.0,-68.65079365079364,169.28571428571428,232.6190476190476,0.23809523809523808,0.23809523809523808,-321.8253968253968
-246.9047619047619,253.25396825396825,-246.58730158730157,280.39682539682536,-174.36507936507937,-41.03174603174603,-174.52380952380952,-74.36507936507937,-255.15873015873015,187.2222222222222,83.73015873015872,-71.03174603174602,-244.52380952380952,121.19047619047619,-264.2063492063492,136.26984126984127,69.6031746031746,-325.0,-68.65079365079364,169.28571428571428,232.6190476190476,0.23809523809523808,0.23809523809523808,-321.8253968253968
-241.5079365079365,248.015873015873,-246.9047619047619,325.0,-171.03174603174602,-40.238095238095234,-171.03174603174602,-72.93650793650794,-272.3015873015873,239.9206349206349,245.0,-69.6031746031746,-247.06349206349205,118.65079365079364,-270.55555555555554,140.55555555555554,78.65079365079364,-325.0,-67.06349206349206,165.63492063492063,227.53968253968253,14.365079365079364,20.396825396825395,-166.26984126984127
-241.5079365079365,248.015873015873,-246.9047619047619,325.0,-171.03174603174602,-40.238095238095234,-171.03174603174602,-72.93650793650794,-272.3015873015873,239.9206349206349,245.0,-69.6031746031746,-247.06349206349205,118.65079365079364,-270.55555555555554,140.55555555555554,78.65079365079364,-325.0,-67.06349206349206,165.63492063492063,227.53968253968253,14.365079365079364,20.396825396825395,-166.26984126984127
-240.55555555555554,247.06349206349205,-168.65079365079364,325.0,-170.23809523809524,-40.079365079365076,-170.23809523809524,-72.46031746031746,-219.44444444444443,325.0,325.0,-69.28571428571428,-168.96825396825395,118.01587301587301,-215.95238095238093,143.09523809523807,83.25396825396825,-325.0,-66.9047619047619,165.0,226.58730158730157,1.349206349206349,3.73015873015873,-166.26984126984127
-240.55555555555554,247.06349206349205,-168.65079365079364,325.0,-170.23809523809524,-40.079365079365076,-170.23809523809524,-72.46031746031746,-219.44444444444443,325.0,325.0,-69.28571428571428,-168.96825396825395,118.01587301587301,-215.95238095238093,143.09523809523807,83.25396825396825,-325.0,-66.9047619047619,165.0,226.58730158730157,1.349206349206349,3.73015873015873,-166.26984126984127
-233.25396825396825,239.60317460317458,-247.53968253968253,325.0,-165.47619047619045,-38.80952380952381,-165.3174603174603,-70.55555555555556,-297.6984126984127,228.96825396825395,253.7301587301587,-67.22222222222221,-248.96825396825395,114.52380952380952,-285.6349206349206,129.9206349206349,78.33333333333333,-325.0,-64.68253968253968,160.07936507936506,219.9206349206349,13.412698412698411,20.07936507936508,-166.26984126984127
-233.25396825396825,239.60317460317458,-247.53968253968253,325.0,-165.47619047619045,-38.80952380952381,-165.3174603174603,-70.55555555555556,-297.6984126984127,228.96825396825395,253.7301587301587,-67.22222222222221,-248.96825396825395,114.52380952380952,-285.6349206349206,129.9206349206349,78.33333333333333,-325.0,-64.68253968253968,160.07936507936506,219.9206349206349,13.412698412698411,20.07936507936508,-166.26984126984127
-229.28571428571428,235.79365079365078,-325.0,325.0,-162.93650793650792,-38.49206349206349,-162.61904761904762,-69.44444444444444,-325.0,191.19047619047618,-48.650793650793645,-66.11111111111111,-325.0,112.46031746031746,-325.0,127.85714285714285,73.57142857142857,-325.0,-63.73015873015873,157.2222222222222,215.95238095238093,-15.158730158730158,-20.873015873015873,-166.26984126984127
-229.28571428571428,235.79365079365078,-325.0,325.0,-162.93650793650792,-38.49206349206349,-162.61904761904762,-69.44444444444444,-325.0,191.19047619047618,-48.650793650793645,-66.11111111111111,-325.0,112.46031746031746,-325.0,127.85714285714285,73.57142857142857,-325.0,-63.73015873015873,157.2222222222222,215.95238095238093,-15.158730158730158,-20.873015873015873,-166.26984126984127
-225.63492063492063,231.8253968253968,-245.79365079365078,325.0,-160.07936507936506,-37.857142857142854,-159.76190476190476,-68.33333333333333,-300.7142857142857,253.4126984126984,251.8253968253968,-65.0,-253.57142857142856,110.55555555555554,-293.73015873015873,130.55555555555554,76.58730158730158,-325.0,-62.460317460317455,154.84126984126982,212.3015873015873,13.888888888888888,19.76190476190476,-166.26984126984127
-225.63492063492063,231.8253968253968,-245.79365079365078,325.0,-160.07936507936506,-37.857142857142854,-159.76190476190476,-68.33333333333333,-300.7142857142857,253.4126984126984,251.8253968253968,-65.0,-253.57142857142856,110.55555555555554,-293.73015873015873,130.55555555555554,76.58730158730158,-325.0,-62.460317460317455,154.84126984126982,212.3015873015873,13.888888888888888,19.76190476190476,-166.26984126984127
-221.8253968253968,228.015873015873,-325.0,325.0,-157.53968253968253,-37.22222222222222,-157.06349206349205,-67.22222222222221,-325.0,173.73015873015873,-58.33333333333333,-63.888888888888886,-325.0,108.49206349206348,-325.0,104.2063492063492,71.19047619047619,-325.0,-61.507936507936506,152.3015873015873,208.65079365079364,-14.206349206349206,-19.76190476190476,-321.8253968253968
-221.8253968253968,228.015873015873,-325.0,325.0,-157.53968253968253,-37.22222222222222,-157.06349206349205,-67.22222222222221,-325.0,173.73015873015873,-58.33333333333333,-63.888888888888886,-325.0,108.49206349206348,-325.0,104.2063492063492,71.19047619047619,-325.0,-61.507936507936506,152.3015873015873,208.65079365079364,-14.206349206349206,-19.76190476190476,-321.8253968253968
-218.8095238095238,225.15873015873015,-245.47619047619045,325.0,-155.63492063492063,-36.58730158730159,-155.0,-66.58730158730158,-305.3174603174603,197.06349206349205,76.58730158730158,-63.095238095238095,-253.4126984126984,107.22222222222221,-300.39682539682536,90.55555555555556,70.23809523809524,-325.0,-60.55555555555555,150.3968253968254,205.95238095238093,-1.0317460317460316,-0.873015873015873,-321.8253968253968
-218.8095238095238,225.15873015873015,-245.47619047619045,325.0,-155.63492063492063,-36.58730158730159,-155.0,-66.58730158730158,-305.3174603174603,197.06349206349205,76.58730158730158,-63.095238095238095,-253.4126984126984,107.22222222222221,-300.39682539682536,90.55555555555556,70.23809523809524,-325.0,-60.55555555555555,150.3968253968254,205.95238095238093,-1.0317460317460316,-0.873015873015873,-321.8253968253968
-215.0,221.5079365079365,-245.47619047619045,325.0,-153.09523809523807,-36.11111111111111,-152.46031746031744,-65.31746031746032,-305.3174603174603,214.2063492063492,80.39682539682539,-61.82539682539682,-253.4126984126984,105.31746031746032,-300.39682539682536,60.079365079365076,68.65079365079364,-325.0,-59.6031746031746,147.69841269841268,202.3015873015873,0.07936507936507936,-0.5555555555555556,-321.8253968253968
-215.0,221.5079365079365,-245.47619047619045,325.0,-153.09523809523807,-36.11111111111111,-152.46031746031744,-65.31746031746032,-305.3174603174603,214.2063492063492,80.39682539682539,-61.82539682539682,-253.4126984126984,105.31746031746032,-300.39682539682536,60.079365079365076,68.65079365079364,-325.0,-59.6031746031746,147.69841269841268,202.3015873015873,0.07936507936507936,-0.5555555555555556,-321.8253968253968
-211.5079365079365,217.85714285714283,-241.66666666666666,325.0,-150.55555555555554,-35.63492063492063,-149.9206349206349,-64.2063492063492,-297.85714285714283,214.2063492063492,80.39682539682539,-60.71428571428571,-251.03174603174602,103.4126984126984,-303.57142857142856,56.58730158730158,67.53968253968253,-325.0,-58.49206349206349,145.3174603174603,198.65079365079364,-0.7142857142857142,-0.3968253968253968,-321.8253968253968
-211.5079365079365,217.85714285714283,-241.66666666666666,325.0,-150.55555555555554,-35.63492063492063,-149.9206349206349,-64.2063492063492,-297.85714285714283,214.2063492063492,80.39682539682539,-60.71428571428571,-251.03174603174602,103.4126984126984,-303.57142857142856,56.58730158730158,67.53968253968253,-325.0,-58.49206349206349,145.3174603174603,198.65079365079364,-0.7142857142857142,-0.3968253968253968,-321.8253968253968
-209.76190476190476,215.95238095238093,-158.33333333333331,325.0,-149.28571428571428,-35.317460317460316,-148.65079365079364,-63.73015873015873,-270.55555555555554,325.0,325.0,-60.238095238095234,-177.06349206349205,102.46031746031746,-281.984126984127,100.07936507936508,73.09523809523809,-325.0,-58.01587301587301,144.2063492063492,197.06349206349205,-4.365079365079365,-1.6666666666666665,-321.8253968253968
-209.76190476190476,215.95238095238093,-158.33333333333331,325.0,-149.28571428571428,-35.317460317460316,-148.65079365079364,-63.73015873015873,-270.55555555555554,325.0,325.0,-60.238095238095234,-177.06349206349205,102.46031746031746,-281.984126984127,100.07936507936508,73.09523809523809,-325.0,-58.01587301587301,144.2063492063492,197.06349206349205,-4.365079365079365,-1.6666666666666665,-321.8253968253968
-203.25396825396825,209.60317460317458,-241.03174603174602,325.0,-145.0,-34.2063492063492,-144.52380952380952,-61.82539682539682,-313.25396825396825,253.57142857142856,278.17460317460313,-58.650793650793645,-250.3968253968254,99.28571428571428,-307.69841269841265,17.22222222222222,69.76190476190476,-325.0,-56.269841269841265,139.6031746031746,191.03174603174602,11.825396825396824,16.587301587301585,-166.26984126984127
-203.25396825396825,209.60317460317458,-241.03174603174602,325.0,-145.0,-34.2063492063492,-144.52380952380952,-61.82539682539682,-313.25396825396825,253.57142857142856,278.17460317460313,-58.650793650793645,-250.3968253968254,99.28571428571428,-307.69841269841265,17.22222222222222,69.76190476190476,-325.0,-56.269841269841265,139.6031746031746,191.03174603174602,11.825396825396824,16.587301587301585,-166.26984126984127
-199.9206349206349,206.26984126984127,-325.0,325.0,-142.93650793650792,-33.73015873015873,-141.984126984127,-61.03174603174603,-325.0,200.23809523809524,-40.714285714285715,-58.01587301587301,-325.0,97.53968253968253,-325.0,19.126984126984127,65.47619047619047,-325.0,-55.476190476190474,137.38095238095238,187.85714285714283,-12.3015873015873,-18.174603174603174,-166.26984126984127
-199.9206349206349,206.26984126984127,-325.0,325.0,-142.93650793650792,-33.73015873015873,-141.984126984127,-61.03174603174603,-325.0,200.23809523809524,-40.714285714285715,-58.01587301587301,-325.0,97.53968253968253,-325.0,19.126984126984127,65.47619047619047,-325.0,-55.476190476190474,137.38095238095238,187.85714285714283,-12.3015873015873,-18.174603174603174,-166.26984126984127
-198.96825396825395,205.3174603174603,-325.0,325.0,-142.14285714285714,-33.41269841269841,-141.5079365079365,-60.55555555555555,-325.0,116.1111111111111,-148.015873015873,-57.698412698412696,-325.0,97.06349206349206,-325.0,-14.047619047619047,61.507936507936506,-325.0,-55.15873015873016,136.9047619047619,187.06349206349205,3.73015873015873,3.73015873015873,-166.26984126984127
-198.96825396825395,205.3174603174603,-325.0,325.0,-142.14285714285714,-33.41269841269841,-141.5079365079365,-60.55555555555555,-325.0,116.1111111111111,-148.015873015873,-57.698412698412696,-325.0,97.06349206349206,-325.0,-14.047619047619047,61.507936507936506,-325.0,-55.15873015873016,136.9047619047619,187.06349206349205,3.73015873015873,3.73015873015873,-166.26984126984127
-195.63492063492063,201.8253968253968,-325.0,325.0,-140.07936507936506,-32.93650793650794,-139.12698412698413,-59.6031746031746,-325.0,101.34920634920634,-154.84126984126982,-56.74603174603174,-325.0,95.47619047619047,-325.0,-28.65079365079365,58.8095238095238,-325.0,-54.2063492063492,134.52380952380952,183.88888888888889,4.682539682539682,4.2063492063492065,-166.26984126984127
-195.63492063492063,201.8253968253968,-325.0,325.0,-140.07936507936506,-32.93650793650794,-139.12698412698413,-59.6031746031746,-325.0,101.34920634920634,-154.84126984126982,-56.74603174603174,-325.0,95.47619047619047,-325.0,-28.65079365079365,58.8095238095238,-325.0,-54.2063492063492,134.52380952380952,183.88888888888889,4.682539682539682,4.2063492063492065,-166.26984126984127
-190.55555555555554,196.74603174603175,-242.3015873015873,325.0,-136.74603174603175,-32.14285714285714,-135.47619047619048,-58.33333333333333,-321.19047619047615,176.58730158730157,81.66666666666666,-55.15873015873016,-250.87301587301585,93.09523809523809,-316.58730158730157,-17.38095238095238,61.19047619047619,-325.0,-52.77777777777777,131.03174603174602,179.12698412698413,-0.873015873015873,-0.5555555555555556,-166.26984126984127
-190.55555555555554,196.74603174603175,-242.3015873015873,325.0,-136.74603174603175,-32.14285714285714,-135.47619047619048,-58.33333333333333,-321.19047619047615,176.58730158730157,81.66666666666666,-55.15873015873016,-250.87301587301585,93.09523809523809,-316.58730158730157,-17.38095238095238,61.19047619047619,-325.0,-52.77777777777777,131.03174603174602,179.12698412698413,-0.873015873015873,-0.5555555555555556,-166.26984126984127
-186.58730158730157,192.77777777777777,-325.0,325.0,-133.88888888888889,-31.507936507936506,-132.61904761904762,-57.22222222222222,-325.0,95.63492063492063,-68.4920634920635,-53.73015873015873,-325.0,90.71428571428571,-325.0,-94.84126984126983,56.269841269841265,-325.0,-51.82539682539682,128.33333333333331,175.0,-10.396825396825395,-15.793650793650793,-321.8253968253968
-186.58730158730157,192.77777777777777,-325.0,325.0,-133.88888888888889,-31.507936507936506,-132.61904761904762,-57.22222222222222,-325.0,95.63492063492063,-68.4920634920635,-53.73015873015873,-325.0,90.71428571428571,-325.0,-94.84126984126983,56.269841269841265,-325.0,-51.82539682539682,128.33333333333331,175.0,-10.396825396825395,-15.793650793650793,-321.8253968253968
-184.2063492063492,190.3968253968254,-325.0,325.0,-131.984126984127,-31.03174603174603,-130.87301587301587,-56.11111111111111,-325.0,144.2063492063492,210.3968253968254,-53.095238095238095,-325.0,89.6031746031746,-325.0,-122.46031746031746,60.71428571428571,-325.0,-50.87301587301587,126.74603174603173,172.77777777777777,27.857142857142854,38.65079365079365,-321.8253968253968
-184.2063492063492,190.3968253968254,-325.0,325.0,-131.984126984127,-31.03174603174603,-130.87301587301587,-56.11111111111111,-325.0,144.2063492063492,210.3968253968254,-53.095238095238095,-325.0,89.6031746031746,-325.0,-122.46031746031746,60.71428571428571,-325.0,-50.87301587301587,126.74603174603173,172.77777777777777,27.857142857142854,38.65079365079365,-321.8253968253968
-178.8095238095238,184.84126984126982,-325.0,325.0,-128.4920634920635,-30.238095238095237,-127.06349206349206,-54.841269841269835,-325.0,42.14285714285714,29.444444444444443,-51.507936507936506,-325.0,86.9047619047619,-325.0,-23.88888888888889,50.55555555555555,-325.0,-49.44444444444444,122.93650793650794,167.38095238095238,18.174603174603174,23.730158730158728,-321.8253968253968
-178.8095238095238,184.84126984126982,-325.0,325.0,-128.4920634920635,-30.238095238095237,-127.06349206349206,-54.841269841269835,-325.0,42.14285714285714,29.444444444444443,-51.507936507936506,-325.0,86.9047619047619,-325.0,-23.88888888888889,50.55555555555555,-325.0,-49.44444444444444,122.93650793650794,167.38095238095238,18.174603174603174,23.730158730158728,-321.8253968253968
-175.95238095238093,181.8253968253968,-236.26984126984127,325.0,-126.58730158730158,-29.920634920634917,-125.15873015873015,-54.2063492063492,-322.46031746031747,272.6190476190476,163.57142857142856,-50.87301587301587,-243.25396825396825,85.31746031746032,-315.95238095238096,114.2063492063492,59.44444444444444,-325.0,-48.80952380952381,121.03174603174602,164.52380952380952,-17.539682539682538,-23.57142857142857,-321.8253968253968
-175.95238095238093,181.8253968253968,-236.26984126984127,325.0,-126.58730158730158,-29.920634920634917,-125.15873015873015,-54.2063492063492,-322.46031746031747,272.6190476190476,163.57142857142856,-50.87301587301587,-243.25396825396825,85.31746031746032,-315.95238095238096,114.2063492063492,59.44444444444444,-325.0,-48.80952380952381,121.03174603174602,164.52380952380952,-17.539682539682538,-23.57142857142857,-321.8253968253968
-172.77777777777777,178.65079365079364,-325.0,325.0,-124.36507936507935,-29.126984126984127,-122.93650793650794,-53.25396825396825,-325.0,146.26984126984127,33.095238095238095,-49.92063492063492,-325.0,83.73015873015872,-325.0,61.507936507936506,51.34920634920635,-321.3492063492063,-47.857142857142854,118.8095238095238,161.66666666666666,17.539682539682538,23.41269841269841,-321.8253968253968
-172.77777777777777,178.65079365079364,-325.0,325.0,-124.36507936507935,-29.126984126984127,-122.93650793650794,-53.25396825396825,-325.0,146.26984126984127,33.095238095238095,-49.92063492063492,-325.0,83.73015873015872,-325.0,61.507936507936506,51.34920634920635,-321.3492063492063,-47.857142857142854,118.8095238095238,161.66666666666666,17.539682539682538,23.41269841269841,-321.8253968253968
-170.07936507936506,175.79365079365078,-236.1111111111111,325.0,-122.30158730158729,-28.96825396825397,-121.03174603174602,-52.460317460317455,-318.968253968254,250.87301587301585,175.15873015873015,-49.285714285714285,-239.60317460317458,82.3015873015873,-312.6190476190476,42.77777777777778,58.96825396825397,-316.4285714285714,-47.22222222222222,116.9047619047619,158.96825396825395,-18.015873015873016,-24.047619047619047,-166.26984126984127
-170.07936507936506,175.79365079365078,-236.1111111111111,325.0,-122.30158730158729,-28.96825396825397,-121.03174603174602,-52.460317460317455,-318.968253968254,250.87301587301585,175.15873015873015,-49.285714285714285,-239.60317460317458,82.3015873015873,-312.6190476190476,42.77777777777778,58.96825396825397,-316.4285714285714,-47.22222222222222,116.9047619047619,158.96825396825395,-18.015873015873016,-24.047619047619047,-166.26984126984127
-166.9047619047619,172.77777777777777,-325.0,325.0,-120.39682539682539,-28.333333333333332,-118.96825396825396,-51.507936507936506,-325.0,88.17460317460316,62.14285714285714,-48.17460317460317,-325.0,80.87301587301587,-325.0,-132.61904761904762,55.95238095238095,-311.031746031746,-46.11111111111111,114.84126984126983,156.11111111111111,18.333333333333332,23.41269841269841,-166.26984126984127
-166.9047619047619,172.77777777777777,-325.0,325.0,-120.39682539682539,-28.333333333333332,-118.96825396825396,-51.507936507936506,-325.0,88.17460317460316,62.14285714285714,-48.17460317460317,-325.0,80.87301587301587,-325.0,-132.61904761904762,55.95238095238095,-311.031746031746,-46.11111111111111,114.84126984126983,156.11111111111111,18.333333333333332,23.41269841269841,-166.26984126984127
-164.84126984126982,170.55555555555554,-137.85714285714286,325.0,-118.8095238095238,-28.015873015873016,-117.6984126984127,-50.71428571428571,-309.76190476190476,317.53968253968253,325.0,-48.01587301587301,-143.4126984126984,79.76190476190476,-298.17460317460313,-46.74603174603175,57.857142857142854,-307.38095238095235,-45.63492063492063,113.25396825396825,154.2063492063492,-11.666666666666666,-12.46031746031746,-166.26984126984127
-164.84126984126982,170.55555555555554,-137.85714285714286,325.0,-118.8095238095238,-28.015873015873016,-117.6984126984127,-50.71428571428571,-309.76190476190476,317.53968253968253,325.0,-48.01587301587301,-143.4126984126984,79.76190476190476,-298.17460317460313,-46.74603174603175,57.857142857142854,-307.38095238095235,-45.63492063492063,113.25396825396825,154.2063492063492,-11.666666666666666,-12.46031746031746,-166.26984126984127
-162.77777777777777,168.33333333333331,-231.5079365079365,325.0,-117.38095238095238,-27.857142857142854,-116.1111111111111,-50.238095238095234,-317.38095238095235,231.34920634920633,284.8412698412698,-47.22222222222222,-234.2063492063492,78.65079365079364,-311.66666666666663,-98.49206349206348,56.58730158730158,-303.73015873015873,-45.0,111.98412698412697,152.14285714285714,8.174603174603174,12.142857142857142,-166.26984126984127
-162.77777777777777,168.33333333333331,-231.5079365079365,325.0,-117.38095238095238,-27.857142857142854,-116.1111111111111,-50.238095238095234,-317.38095238095235,231.34920634920633,284.8412698412698,-47.22222222222222,-234.2063492063492,78.65079365079364,-311.66666666666663,-98.49206349206348,56.58730158730158,-303.73015873015873,-45.0,111.98412698412697,152.14285714285714,8.174603174603174,12.142857142857142,-166.26984126984127
-158.8095238095238,164.2063492063492,-228.49206349206347,325.0,-114.84126984126983,-27.063492063492063,-113.25396825396825,-49.285714285714285,-319.2857142857143,244.2063492063492,161.34920634920633,-45.95238095238095,-228.8095238095238,76.74603174603175,-315.6349206349206,-7.698412698412698,55.95238095238095,-296.58730158730157,-44.047619047619044,108.96825396825396,148.17460317460316,-18.96825396825397,-25.952380952380953,-166.26984126984127
-158.8095238095238,164.2063492063492,-228.49206349206347,325.0,-114.84126984126983,-27.063492063492063,-113.25396825396825,-49.285714285714285,-319.2857142857143,244.2063492063492,161.34920634920633,-45.95238095238095,-228.8095238095238,76.74603174603175,-315.6349206349206,-7.698412698412698,55.95238095238095,-296.58730158730157,-44.047619047619044,108.96825396825396,148.17460317460316,-18.96825396825397,-25.952380952380953,-166.26984126984127
-156.74603174603175,162.14285714285714,-325.0,325.0,-113.25396825396825,-26.9047619047619,-111.82539682539682,-48.49206349206349,-325.0,166.74603174603175,114.84126984126983,-45.317460317460316,-325.0,75.63492063492063,-325.0,-58.96825396825397,55.0,-292.9365079365079,-43.41269841269841,107.6984126984127,146.11111111111111,0.3968253968253968,-0.5555555555555556,-321.8253968253968
-156.74603174603175,162.14285714285714,-325.0,325.0,-113.25396825396825,-26.9047619047619,-111.82539682539682,-48.49206349206349,-325.0,166.74603174603175,114.84126984126983,-45.317460317460316,-325.0,75.63492063492063,-325.0,-58.96825396825397,55.0,-292.9365079365079,-43.41269841269841,107.6984126984127,146.11111111111111,0.3968253968253968,-0.5555555555555556,-321.8253968253968
-153.25396825396825,158.65079365079364,-221.03174603174602,325.0,-111.19047619047619,-26.26984126984127,-109.44444444444444,-47.698412698412696,-314.04761904761904,268.8095238095238,174.68253968253967,-44.52380952380952,-223.25396825396825,73.88888888888889,-315.3174603174603,-11.825396825396824,53.888888888888886,-287.06349206349205,90.07936507936508,105.47619047619047,142.93650793650792,-18.80952380952381,-24.84126984126984,-321.8253968253968
-153.25396825396825,158.65079365079364,-221.03174603174602,325.0,-111.19047619047619,-26.26984126984127,-109.44444444444444,-47.698412698412696,-314.04761904761904,268.8095238095238,174.68253968253967,-44.52380952380952,-223.25396825396825,73.88888888888889,-315.3174603174603,-11.825396825396824,53.888888888888886,-287.06349206349205,90.07936507936508,105.47619047619047,142.93650793650792,-18.80952380952381,-24.84126984126984,-321.8253968253968
-150.55555555555554,156.11111111111111,-325.0,325.0,-109.28571428571428,-25.952380952380953,-107.53968253968253,-46.904761904761905,-325.0,109.12698412698413,69.92063492063491,-43.57142857142857,-325.0,72.61904761904762,-325.0,-241.19047619047618,52.93650793650794,-282.46031746031747,95.79365079365078,103.73015873015872,140.3968253968254,18.96825396825397,25.0,-321.8253968253968
-150.55555555555554,156.11111111111111,-325.0,325.0,-109.28571428571428,-25.952380952380953,-107.53968253968253,-46.904761904761905,-325.0,109.12698412698413,69.92063492063491,-43.57142857142857,-325.0,72.61904761904762,-325.0,-241.19047619047618,52.93650793650794,-282.46031746031747,95.79365079365078,103.73015873015872,140.3968253968254,18.96825396825397,25.0,-321.8253968253968
-148.65079365079364,154.2063492063492,-325.0,325.0,-107.85714285714285,-25.634920634920633,-106.26984126984127,-46.11111111111111,-325.0,255.15873015873015,-62.14285714285714,-43.095238095238095,-325.0,71.66666666666666,-325.0,-195.47619047619045,38.17460317460317,-278.968253968254,187.69841269841268,102.30158730158729,138.4920634920635,0.5555555555555556,-0.3968253968253968,-321.8253968253968
-148.65079365079364,154.2063492063492,-325.0,325.0,-107.85714285714285,-25.634920634920633,-106.26984126984127,-46.11111111111111,-325.0,255.15873015873015,-62.14285714285714,-43.095238095238095,-325.0,71.66666666666666,-325.0,-195.47619047619045,38.17460317460317,-278.968253968254,187.69841269841268,102.30158730158729,138.4920634920635,0.5555555555555556,-0.3968253968253968,-321.8253968253968
-145.95238095238093,151.5079365079365,-325.0,325.0,-106.1111111111111,-24.365079365079364,-104.52380952380952,-45.317460317460316,-325.0,325.0,-325.0,-42.460317460317455,-325.0,70.39682539682539,-325.0,-87.6984126984127,27.857142857142854,-274.5238095238095,325.0,100.71428571428571,136.26984126984127,-1.1904761904761905,-0.873015873015873,-321.8253968253968
-145.95238095238093,151.5079365079365,-325.0,325.0,-106.1111111111111,-24.365079365079364,-104.52380952380952,-45.317460317460316,-325.0,325.0,-325.0,-42.460317460317455,-325.0,70.39682539682539,-325.0,-87.6984126984127,27.857142857142854,-274.5238095238095,325.0,100.71428571428571,136.26984126984127,-1.1904761904761905,-0.873015873015873,-321.8253968253968
-142.77777777777777,148.4920634920635,-325.0,325.0,-104.2063492063492,-22.46031746031746,-102.14285714285714,-44.68253968253968,-325.0,325.0,-325.0,-41.507936507936506,-325.0,68.96825396825396,-325.0,-3.4126984126984126,22.936507936507937,-269.1269841269841,325.0,98.33333333333333,133.0952380952381,-18.174603174603174,-25.952380952380953,-166.26984126984127
-142.77777777777777,148.4920634920635,-325.0,325.0,-104.2063492063492,-22.46031746031746,-102.14285714285714,-44.68253968253968,-325.0,325.0,-325.0,-41.507936507936506,-325.0,68.96825396825396,-325.0,-3.4126984126984126,22.936507936507937,-269.1269841269841,325.0,98.33333333333333,133.0952380952381,-18.174603174603174,-25.952380952380953,-166.26984126984127
-140.3968253968254,145.95238095238093,-325.0,325.0,-102.30158730158729,-12.46031746031746,-100.39682539682539,-43.73015873015873,-325.0,325.0,-325.0,-40.87301587301587,-325.0,67.6984126984127,-325.0,9.761904761904761,1.6666666666666665,-264.68253968253964,122.30158730158729,96.9047619047619,130.87301587301587,16.904761904761905,24.047619047619047,-166.26984126984127
-140.3968253968254,145.95238095238093,-325.0,325.0,-102.30158730158729,-12.46031746031746,-100.39682539682539,-43.73015873015873,-325.0,325.0,-325.0,-40.87301587301587,-325.0,67.6984126984127,-325.0,9.761904761904761,1.6666666666666665,-264.68253968253964,122.30158730158729,96.9047619047619,130.87301587301587,16.904761904761905,24.047619047619047,-166.26984126984127
-138.65079365079364,144.04761904761904,-325.0,325.0,-101.19047619047619,56.42857142857142,-99.12698412698413,-43.25396825396825,-325.0,325.0,-325.0,-40.55555555555555,-325.0,66.74603174603175,-325.0,147.85714285714286,55.0,-261.5079365079365,-94.84126984126983,95.79365079365078,129.28571428571428,-13.73015873015873,-18.96825396825397,-166.26984126984127
-138.65079365079364,144.04761904761904,-325.0,325.0,-101.19047619047619,56.42857142857142,-99.12698412698413,-43.25396825396825,-325.0,325.0,-325.0,-40.55555555555555,-325.0,66.74603174603175,-325.0,147.85714285714286,55.0,-261.5079365079365,-94.84126984126983,95.79365079365078,129.28571428571428,-13.73015873015873,-18.96825396825397,-166.26984126984127
-136.11111111111111,141.8253968253968,-325.0,325.0,-99.44444444444444,-25.79365079365079,-97.38095238095238,-42.61904761904761,-325.0,325.0,-325.0,-39.76190476190476,-325.0,65.63492063492063,-325.0,142.61904761904762,36.269841269841265,-257.06349206349205,-75.47619047619047,94.2063492063492,126.9047619047619,13.73015873015873,17.063492063492063,-166.26984126984127
-136.11111111111111,141.8253968253968,-325.0,325.0,-99.44444444444444,-25.79365079365079,-97.38095238095238,-42.61904761904761,-325.0,325.0,-325.0,-39.76190476190476,-325.0,65.63492063492063,-325.0,142.61904761904762,36.269841269841265,-257.06349206349205,-75.47619047619047,94.2063492063492,126.9047619047619,13.73015873015873,17.063492063492063,-166.26984126984127
-136.11111111111111,141.8253968253968,-325.0,325.0,-99.44444444444444,-25.79365079365079,-97.38095238095238,-42.61904761904761,-325.0,325.0,-325.0,-39.76190476190476,-325.0,65.63492063492063,-325.0,142.61904761904762,36.269841269841265,-257.06349206349205,-75.47619047619047,94.2063492063492,126.9047619047619,13.73015873015873,17.063492063492063,-166.26984126984127
-136.11111111111111,141.8253968253968,-325.0,325.0,-99.44444444444444,-25.79365079365079,-97.38095238095238,-42.61904761904761,-325.0,325.0,-325.0,-39.76190476190476,-325.0,65.63492063492063,-325.0,142.61904761904762,36.269841269841265,-257.06349206349205,-75.47619047619047,94.2063492063492,126.9047619047619,13.73015873015873,17.063492063492063,-166.26984126984127
-131.19047619047618,136.42857142857142,-325.0,325.0,-95.63492063492063,-8.015873015873016,-93.88888888888889,-41.03174603174603,-322.1428571428571,325.0,-325.0,-38.17460317460317,-325.0,62.93650793650793,-325.0,-197.69841269841268,36.42857142857142,-248.17460317460316,-71.5079365079365,90.71428571428571,121.98412698412697,18.49206349206349,25.317460317460316,-321.8253968253968
-131.19047619047618,136.42857142857142,-325.0,325.0,-95.63492063492063,-8.015873015873016,-93.88888888888889,-41.03174603174603,-322.1428571428571,325.0,-325.0,-38.17460317460317,-325.0,62.93650793650793,-325.0,-197.69841269841268,36.42857142857142,-248.17460317460316,-71.5079365079365,90.71428571428571,121.98412698412697,18.49206349206349,25.317460317460316,-321.8253968253968
-129.6031746031746,134.68253968253967,-325.0,325.0,-94.52380952380952,2.7777777777777777,-92.61904761904762,-40.55555555555555,-318.3333333333333,325.0,-325.0,-37.857142857142854,-325.0,62.14285714285714,-325.0,-145.47619047619048,37.22222222222222,-245.15873015873015,-70.55555555555556,89.44444444444444,120.39682539682539,0.7142857142857142,-0.873015873015873,-321.8253968253968
-129.6031746031746,134.68253968253967,-325.0,325.0,-94.52380952380952,2.7777777777777777,-92.61904761904762,-40.55555555555555,-318.3333333333333,325.0,-325.0,-37.857142857142854,-325.0,62.14285714285714,-325.0,-145.47619047619048,37.22222222222222,-245.15873015873015,-70.55555555555556,89.44444444444444,120.39682539682539,0.7142857142857142,-0.873015873015873,-321.8253968253968
-126.58730158730158,131.8253968253968,-325.0,324.04761904761904,-92.93650793650794,26.26984126984127,-90.87301587301587,-40.079365079365076,-311.66666666666663,325.0,-325.0,-37.06349206349206,-325.0,60.873015873015866,-325.0,-58.650793650793645,33.888888888888886,-240.3968253968254,-68.80952380952381,87.53968253968253,117.6984126984127,18.333333333333332,25.634920634920633,-321.8253968253968
-126.58730158730158,131.8253968253968,-325.0,324.04761904761904,-92.93650793650794,26.26984126984127,-90.87301587301587,-40.079365079365076,-311.66666666666663,325.0,-325.0,-37.06349206349206,-325.0,60.873015873015866,-325.0,-58.650793650793645,33.888888888888886,-240.3968253968254,-68.80952380952381,87.53968253968253,117.6984126984127,18.333333333333332,25.634920634920633,-321.8253968253968
-124.52380952380952,129.44444444444443,-325.0,318.968253968254,-91.34920634920634,126.58730158730158,-89.44444444444444,-39.44444444444444,-306.74603174603175,325.0,-325.0,-36.58730158730159,-325.0,59.76190476190476,-325.0,-14.047619047619047,37.857142857142854,-236.58730158730157,-67.38095238095238,85.95238095238095,115.79365079365078,-18.96825396825397,-26.428571428571427,-321.8253968253968
-124.52380952380952,129.44444444444443,-325.0,318.968253968254,-91.34920634920634,126.58730158730158,-89.44444444444444,-39.44444444444444,-306.74603174603175,325.0,-325.0,-36.58730158730159,-325.0,59.76190476190476,-325.0,-14.047619047619047,37.857142857142854,-236.58730158730157,-67.38095238095238,85.95238095238095,115.79365079365078,-18.96825396825397,-26.428571428571427,-321.8253968253968
-122.46031746031746,127.53968253968253,-325.0,313.4126984126984,-89.92063492063491,26.11111111111111,-87.6984126984127,-38.65079365079365,-301.5079365079365,325.0,-325.0,-35.79365079365079,-325.0,58.650793650793645,-325.0,-191.98412698412696,34.047619047619044,-232.6190476190476,-66.11111111111111,84.52380952380952,113.57142857142857,18.015873015873016,25.158730158730158,-321.8253968253968
-122.46031746031746,127.53968253968253,-325.0,313.4126984126984,-89.92063492063491,26.11111111111111,-87.6984126984127,-38.65079365079365,-301.5079365079365,325.0,-325.0,-35.79365079365079,-325.0,58.650793650793645,-325.0,-191.98412698412696,34.047619047619044,-232.6190476190476,-66.11111111111111,84.52380952380952,113.57142857142857,18.015873015873016,25.158730158730158,-321.8253968253968
-120.39682539682539,125.31746031746032,-325.0,308.17460317460313,-88.4920634920635,116.1111111111111,-86.42857142857143,-38.17460317460317,-296.58730158730157,325.0,-325.0,-35.317460317460316,-325.0,57.698412698412696,-325.0,-12.46031746031746,36.42857142857142,-228.96825396825395,-34.84126984126984,82.93650793650794,111.66666666666666,-19.285714285714285,-27.22222222222222,-166.26984126984127
-120.39682539682539,125.31746031746032,-325.0,308.17460317460313,-88.4920634920635,116.1111111111111,-86.42857142857143,-38.17460317460317,-296.58730158730157,325.0,-325.0,-35.317460317460316,-325.0,57.698412698412696,-325.0,-12.46031746031746,36.42857142857142,-228.96825396825395,-34.84126984126984,82.93650793650794,111.66666666666666,-19.285714285714285,-27.22222222222222,-166.26984126984127
-118.8095238095238,123.73015873015872,-325.0,304.36507936507934,-87.22222222222221,-28.65079365079365,-85.31746031746032,-37.53968253968254,-292.77777777777777,325.0,-325.0,-34.682539682539684,-325.0,56.58730158730158,-325.0,-83.25396825396825,23.57142857142857,-226.1111111111111,8.968253968253968,81.82539682539682,110.07936507936508,16.11111111111111,21.19047619047619,-166.26984126984127
-118.8095238095238,123.73015873015872,-325.0,304.36507936507934,-87.22222222222221,-28.65079365079365,-85.31746031746032,-37.53968253968254,-292.77777777777777,325.0,-325.0,-34.682539682539684,-325.0,56.58730158730158,-325.0,-83.25396825396825,23.57142857142857,-226.1111111111111,8.968253968253968,81.82539682539682,110.07936507936508,16.11111111111111,21.19047619047619,-166.26984126984127
-117.22222222222221,122.14285714285714,-325.0,300.55555555555554,-86.26984126984127,4.682539682539682,-84.2063492063492,-37.22222222222222,-289.2857142857143,325.0,-325.0,-34.2063492063492,-325.0,55.95238095238095,-325.0,-110.71428571428571,23.57142857142857,-223.57142857142856,-18.65079365079365,80.71428571428571,108.65079365079364,-2.46031746031746,-4.682539682539682,-166.26984126984127
-117.22222222222221,122.14285714285714,-325.0,300.55555555555554,-86.26984126984127,4.682539682539682,-84.2063492063492,-37.22222222222222,-289.2857142857143,325.0,-325.0,-34.2063492063492,-325.0,55.95238095238095,-325.0,-110.71428571428571,23.57142857142857,-223.57142857142856,-18.65079365079365,80.71428571428571,108.65079365079364,-2.46031746031746,-4.682539682539682,-166.26984126984127
-115.63492063492063,120.71428571428571,-325.0,296.74603174603175,-85.31746031746032,38.01587301587301,-83.09523809523809,-36.904761904761905,-285.6349206349206,325.0,-325.0,-33.73015873015873,-325.0,55.476190476190474,-325.0,-138.015873015873,23.730158730158728,-220.87301587301587,-46.269841269841265,79.76190476190476,107.22222222222221,-20.873015873015873,-30.555555555555554,-166.26984126984127
-115.63492063492063,120.71428571428571,-325.0,296.74603174603175,-85.31746031746032,38.01587301587301,-83.09523809523809,-36.904761904761905,-285.6349206349206,325.0,-325.0,-33.73015873015873,-325.0,55.476190476190474,-325.0,-138.015873015873,23.730158730158728,-220.87301587301587,-46.269841269841265,79.76190476190476,107.22222222222221,-20.873015873015873,-30.555555555555554,-166.26984126984127
-115.63492063492063,120.71428571428571,-325.0,296.74603174603175,-85.31746031746032,38.01587301587301,-83.09523809523809,-36.904761904761905,-285.6349206349206,325.0,-325.0,-33.73015873015873,-325.0,55.476190476190474,-325.0,-138.015873015873,23.730158730158728,-220.87301587301587,-46.269841269841265,79.76190476190476,107.22222222222221,-20.873015873015873,-30.555555555555554,-166.26984126984127
-115.63492063492063,120.71428571428571,-325.0,296.74603174603175,-85.31746031746032,38.01587301587301,-83.09523809523809,-36.904761904761905,-285.6349206349206,325.0,-325.0,-33.73015873015873,-325.0,55.476190476190474,-325.0,-138.015873015873,23.730158730158728,-220.87301587301587,-46.269841269841265,79.76190476190476,107.22222222222221,-20.873015873015873,-30.555555555555554,-166.26984126984127
-110.39682539682539,115.0,-325.0,283.0952380952381,-81.66666666666666,49.92063492063492,-79.44444444444444,-35.15873015873016,-273.0952380952381,325.0,-325.0,-32.460317460317455,-325.0,52.61904761904761,-325.0,-134.36507936507937,5.7936507936507935,-211.19047619047618,325.0,76.1111111111111,102.14285714285714,16.904761904761905,25.476190476190474,-321.8253968253968
-110.39682539682539,115.0,-325.0,283.0952380952381,-81.66666666666666,49.92063492063492,-79.44444444444444,-35.15873015873016,-273.0952380952381,325.0,-325.0,-32.460317460317455,-325.0,52.61904761904761,-325.0,-134.36507936507937,5.7936507936507935,-211.19047619047618,325.0,76.1111111111111,102.14285714285714,16.904761904761905,25.476190476190474,-321.8253968253968
-108.65079365079364,113.09523809523809,-325.0,278.17460317460313,-80.39682539682539,108.33333333333333,-78.17460317460316,-34.52380952380952,-268.968253968254,325.0,-325.0,-31.98412698412698,-325.0,51.82539682539682,-325.0,-32.61904761904762,-40.714285714285715,-207.69841269841268,325.0,75.0,100.39682539682539,-19.92063492063492,-27.698412698412696,-321.8253968253968
-108.65079365079364,113.09523809523809,-325.0,278.17460317460313,-80.39682539682539,108.33333333333333,-78.17460317460316,-34.52380952380952,-268.968253968254,325.0,-325.0,-31.98412698412698,-325.0,51.82539682539682,-325.0,-32.61904761904762,-40.714285714285715,-207.69841269841268,325.0,75.0,100.39682539682539,-19.92063492063492,-27.698412698412696,-321.8253968253968
-106.58730158730158,111.19047619047619,-325.0,273.73015873015873,-78.96825396825396,30.238095238095237,-76.74603174603175,-34.36507936507936,-264.2063492063492,320.23809523809524,-325.0,-31.349206349206348,-325.0,50.87301587301587,-325.0,-82.46031746031746,-21.507936507936506,-204.36507936507937,325.0,73.73015873015872,98.49206349206348,18.49206349206349,25.317460317460316,-321.8253968253968
-106.58730158730158,111.19047619047619,-325.0,273.73015873015873,-78.96825396825396,30.238095238095237,-76.74603174603175,-34.36507936507936,-264.2063492063492,320.23809523809524,-325.0,-31.349206349206348,-325.0,50.87301587301587,-325.0,-82.46031746031746,-21.507936507936506,-204.36507936507937,325.0,73.73015873015872,98.49206349206348,18.49206349206349,25.317460317460316,-321.8253968253968
-105.0,109.44444444444444,-325.0,268.968253968254,-77.6984126984127,90.71428571428571,-75.79365079365078,-33.73015873015873,-259.9206349206349,319.76190476190476,-325.0,-31.03174603174603,-325.0,50.079365079365076,-325.0,-60.71428571428571,-64.84126984126983,-201.19047619047618,325.0,72.61904761904762,96.9047619047619,-19.6031746031746,-27.38095238095238,-321.8253968253968
-105.0,109.44444444444444,-325.0,268.968253968254,-77.6984126984127,90.71428571428571,-75.79365079365078,-33.73015873015873,-259.9206349206349,319.76190476190476,-325.0,-31.03174603174603,-325.0,50.079365079365076,-325.0,-60.71428571428571,-64.84126984126983,-201.19047619047618,325.0,72.61904761904762,96.9047619047619,-19.6031746031746,-27.38095238095238,-321.8253968253968
-104.36507936507935,108.96825396825396,-325.0,267.85714285714283,-77.38095238095238,17.22222222222222,-75.47619047619047,-33.41269841269841,-258.8095238095238,314.5238095238095,-325.0,-30.87301587301587,-325.0,49.76190476190476,-325.0,-158.33333333333331,-169.12698412698413,-200.23809523809524,325.0,72.3015873015873,96.58730158730158,-18.96825396825397,-27.698412698412696,-321.8253968253968
-104.36507936507935,108.96825396825396,-325.0,267.85714285714283,-77.38095238095238,17.22222222222222,-75.47619047619047,-33.41269841269841,-258.8095238095238,314.5238095238095,-325.0,-30.87301587301587,-325.0,49.76190476190476,-325.0,-158.33333333333331,-169.12698412698413,-200.23809523809524,325.0,72.3015873015873,96.58730158730158,-18.96825396825397,-27.698412698412696,-321.8253968253968
-101.19047619047619,105.79365079365078,-325.0,259.9206349206349,-75.31746031746032,37.38095238095238,-73.09523809523809,-32.61904761904762,-251.34920634920633,268.8095238095238,-325.0,-29.920634920634917,-325.0,48.17460317460317,-325.0,-317.06349206349205,-82.14285714285714,-194.84126984126982,325.0,69.92063492063491,93.57142857142857,-19.444444444444443,-28.174603174603174,-166.26984126984127
-101.19047619047619,105.79365079365078,-325.0,259.9206349206349,-75.31746031746032,37.38095238095238,-73.09523809523809,-32.61904761904762,-251.34920634920633,268.8095238095238,-325.0,-29.920634920634917,-325.0,48.17460317460317,-325.0,-317.06349206349205,-82.14285714285714,-194.84126984126982,325.0,69.92063492063491,93.57142857142857,-19.444444444444443,-28.174603174603174,-166.26984126984127
-99.92063492063491,104.36507936507935,-325.0,256.74603174603175,-74.2063492063492,-48.17460317460317,-71.82539682539682,-32.14285714285714,-248.17460317460316,158.33333333333331,-325.0,-29.444444444444443,-325.0,47.53968253968254,-325.0,-325.0,-117.22222222222221,-192.14285714285714,325.0,69.28571428571428,92.30158730158729,21.03174603174603,26.11111111111111,-166.26984126984127
-99.92063492063491,104.36507936507935,-325.0,256.74603174603175,-74.2063492063492,-48.17460317460317,-71.82539682539682,-32.14285714285714,-248.17460317460316,158.33333333333331,-325.0,-29.444444444444443,-325.0,47.53968253968254,-325.0,-325.0,-117.22222222222221,-192.14285714285714,325.0,69.28571428571428,92.30158730158729,21.03174603174603,26.11111111111111,-166.26984126984127
-97.85714285714285,102.14285714285714,-325.0,251.03174603174602,-72.93650793650794,28.65079365079365,-70.55555555555556,-31.666666666666664,-243.4126984126984,250.07936507936506,-325.0,-28.96825396825397,-325.0,46.58730158730158,-325.0,-301.66666666666663,-73.09523809523809,-188.65079365079364,325.0,67.6984126984127,90.23809523809523,-18.49206349206349,-27.539682539682538,-166.26984126984127
-97.85714285714285,102.14285714285714,-325.0,251.03174603174602,-72.93650793650794,28.65079365079365,-70.55555555555556,-31.666666666666664,-243.4126984126984,250.07936507936506,-325.0,-28.96825396825397,-325.0,46.58730158730158,-325.0,-301.66666666666663,-73.09523809523809,-188.65079365079364,325.0,67.6984126984127,90.23809523809523,-18.49206349206349,-27.539682539682538,-166.26984126984127
-97.38095238095238,101.82539682539682,-325.0,250.07936507936506,-72.61904761904762,-18.80952380952381,-70.23809523809524,-31.666666666666664,-241.98412698412696,175.15873015873015,-325.0,-28.65079365079365,-325.0,46.42857142857142,-325.0,-325.0,-180.3968253968254,-188.015873015873,325.0,67.38095238095238,89.92063492063491,-16.11111111111111,-26.11111111111111,-166.26984126984127
-97.38095238095238,101.82539682539682,-325.0,250.07936507936506,-72.61904761904762,-18.80952380952381,-70.23809523809524,-31.666666666666664,-241.98412698412696,175.15873015873015,-325.0,-28.65079365079365,-325.0,46.42857142857142,-325.0,-325.0,-180.3968253968254,-188.015873015873,325.0,67.38095238095238,89.92063492063491,-16.11111111111111,-26.11111111111111,-166.26984126984127
-97.38095238095238,101.82539682539682,-325.0,250.07936507936506,-72.61904761904762,-18.80952380952381,-70.23809523809524,-31.666666666666664,-241.98412698412696,175.15873015873015,-325.0,-28.65079365079365,-325.0,46.42857142857142,-325.0,-325.0,-180.3968253968254,-188.015873015873,325.0,67.38095238095238,89.92063492063491,-16.11111111111111,-26.11111111111111,-166.26984126984127
-97.38095238095238,101.82539682539682,-325.0,250.07936507936506,-72.61904761904762,-18.80952380952381,-70.23809523809524,-31.666666666666664,-241.98412698412696,175.15873015873015,-325.0,-28.65079365079365,-325.0,46.42857142857142,-325.0,-325.0,-180.3968253968254,-188.015873015873,325.0,67.38095238095238,89.92063492063491,-16.11111111111111,-26.11111111111111,-166.26984126984127
-95.0,99.28571428571428,-325.0,243.88888888888889,-70.87301587301587,44.2063492063492,-68.4920634920635,-30.87301587301587,-236.26984126984127,250.07936507936506,-317.06349206349205,-28.174603174603174,-325.0,45.15873015873016,-325.0,-269.1269841269841,-68.65079365079364,-183.4126984126984,325.0,65.79365079365078,87.53968253968253,-0.07936507936507936,-1.8253968253968254,-321.8253968253968
-95.0,99.28571428571428,-325.0,243.88888888888889,-70.87301587301587,44.2063492063492,-68.4920634920635,-30.87301587301587,-236.26984126984127,250.07936507936506,-317.06349206349205,-28.174603174603174,-325.0,45.15873015873016,-325.0,-269.1269841269841,-68.65079365079364,-183.4126984126984,325.0,65.79365079365078,87.53968253968253,-0.07936507936507936,-1.8253968253968254,-321.8253968253968
-91.34920634920634,95.47619047619047,-325.0,234.36507936507934,-68.4920634920635,81.03174603174602,-66.11111111111111,-29.920634920634917,-227.69841269841268,258.4920634920635,-315.6349206349206,-27.22222222222222,-325.0,43.25396825396825,-325.0,-186.42857142857142,-31.349206349206348,-176.74603174603175,325.0,63.095238095238095,84.04761904761904,-19.126984126984127,-27.857142857142854,-321.8253968253968
-91.34920634920634,95.47619047619047,-325.0,234.36507936507934,-68.4920634920635,81.03174603174602,-66.11111111111111,-29.920634920634917,-227.69841269841268,258.4920634920635,-315.6349206349206,-27.22222222222222,-325.0,43.25396825396825,-325.0,-186.42857142857142,-31.349206349206348,-176.74603174603175,325.0,63.095238095238095,84.04761904761904,-19.126984126984127,-27.857142857142854,-321.8253968253968
-89.76190476190476,93.88888888888889,-325.0,230.3968253968254,-67.22222222222221,30.555555555555554,-65.0,-29.285714285714285,-223.88888888888889,235.47619047619045,-291.5079365079365,-26.746031746031743,-325.0,42.61904761904761,-321.984126984127,-320.7142857142857,2.46031746031746,-173.73015873015873,325.0,62.14285714285714,82.61904761904762,18.96825396825397,25.634920634920633,-321.8253968253968
-89.76190476190476,93.88888888888889,-325.0,230.3968253968254,-67.22222222222221,30.555555555555554,-65.0,-29.285714285714285,-223.88888888888889,235.47619047619045,-291.5079365079365,-26.746031746031743,-325.0,42.61904761904761,-321.984126984127,-320.7142857142857,2.46031746031746,-173.73015873015873,325.0,62.14285714285714,82.61904761904762,18.96825396825397,25.634920634920633,-321.8253968253968
-88.33333333333333,92.14285714285714,-323.73015873015873,226.42857142857142,-66.26984126984127,54.36507936507936,-64.04761904761905,-28.96825396825397,-220.2380952380952,276.4285714285714,-297.6984126984127,-26.428571428571427,-325.0,41.82539682539682,-316.90476190476187,-237.53968253968253,-28.015873015873016,-171.03174603174602,325.0,60.873015873015866,81.19047619047619,-20.07936507936508,-28.015873015873016,-321.8253968253968
-88.33333333333333,92.14285714285714,-323.73015873015873,226.42857142857142,-66.26984126984127,54.36507936507936,-64.04761904761905,-28.96825396825397,-220.2380952380952,276.4285714285714,-297.6984126984127,-26.428571428571427,-325.0,41.82539682539682,-316.90476190476187,-237.53968253968253,-28.015873015873016,-171.03174603174602,325.0,60.873015873015866,81.19047619047619,-20.07936507936508,-28.015873015873016,-321.8253968253968
-86.74603174603175,90.71428571428571,-318.6507936507936,222.77777777777777,-65.15873015873015,37.698412698412696,-62.77777777777777,-28.49206349206349,-216.58730158730157,270.55555555555554,-262.6190476190476,-25.952380952380953,-325.0,41.19047619047619,-311.8253968253968,21.825396825396822,7.063492063492063,-168.33333333333331,325.0,60.079365079365076,79.76190476190476,17.38095238095238,25.317460317460316,-321.8253968253968
-86.74603174603175,90.71428571428571,-318.6507936507936,222.77777777777777,-65.15873015873015,37.698412698412696,-62.77777777777777,-28.49206349206349,-216.58730158730157,270.55555555555554,-262.6190476190476,-25.952380952380953,-325.0,41.19047619047619,-311.8253968253968,21.825396825396822,7.063492063492063,-168.33333333333331,325.0,60.079365079365076,79.76190476190476,17.38095238095238,25.317460317460316,-321.8253968253968
-85.47619047619047,89.12698412698413,-313.4126984126984,218.8095238095238,-64.04761904761905,60.873015873015866,-61.98412698412698,-28.015873015873016,-213.09523809523807,231.8253968253968,-280.55555555555554,-25.634920634920633,-325.0,40.39682539682539,-306.90476190476187,204.68253968253967,-31.825396825396822,-165.63492063492063,325.0,58.96825396825397,78.17460317460316,-19.444444444444443,-27.698412698412696,-166.26984126984127
-85.47619047619047,89.12698412698413,-313.4126984126984,218.8095238095238,-64.04761904761905,60.873015873015866,-61.98412698412698,-28.015873015873016,-213.09523809523807,231.8253968253968,-280.55555555555554,-25.634920634920633,-325.0,40.39682539682539,-306.90476190476187,204.68253968253967,-31.825396825396822,-165.63492063492063,325.0,58.96825396825397,78.17460317460316,-19.444444444444443,-27.698412698412696,-166.26984126984127
-83.73015873015872,87.6984126984127,-308.015873015873,215.15873015873015,-63.25396825396825,35.317460317460316,-60.873015873015866,-27.698412698412696,-209.44444444444443,208.8095238095238,-229.60317460317458,-25.0,-325.0,39.76190476190476,-301.8253968253968,191.03174603174602,10.873015873015872,-162.93650793650792,325.0,58.01587301587301,76.9047619047619,17.857142857142858,25.79365079365079,-166.26984126984127
-83.73015873015872,87.6984126984127,-308.015873015873,215.15873015873015,-63.25396825396825,35.317460317460316,-60.873015873015866,-27.698412698412696,-209.44444444444443,208.8095238095238,-229.60317460317458,-25.0,-325.0,39.76190476190476,-301.8253968253968,191.03174603174602,10.873015873015872,-162.93650793650792,325.0,58.01587301587301,76.9047619047619,17.857142857142858,25.79365079365079,-166.26984126984127
-82.77777777777777,86.42857142857143,-304.2063492063492,212.46031746031744,-62.61904761904761,51.19047619047619,-60.238095238095234,-27.38095238095238,-206.9047619047619,215.15873015873015,-229.12698412698413,-24.68253968253968,-325.0,39.285714285714285,-298.17460317460313,208.17460317460316,-21.666666666666664,-160.87301587301587,325.0,57.06349206349206,75.95238095238095,-0.23809523809523808,-0.5555555555555556,-166.26984126984127
-82.77777777777777,86.42857142857143,-304.2063492063492,212.46031746031744,-62.61904761904761,51.19047619047619,-60.238095238095234,-27.38095238095238,-206.9047619047619,215.15873015873015,-229.12698412698413,-24.68253968253968,-325.0,39.285714285714285,-298.17460317460313,208.17460317460316,-21.666666666666664,-160.87301587301587,325.0,57.06349206349206,75.95238095238095,-0.23809523809523808,-0.5555555555555556,-166.26984126984127
-81.03174603174602,84.68253968253968,-297.85714285714283,207.69841269841268,-61.19047619047619,30.71428571428571,-58.96825396825397,-26.746031746031743,-202.77777777777777,191.98412698412696,-192.61904761904762,-24.365079365079364,-325.0,38.33333333333333,-292.1428571428571,206.58730158730157,17.857142857142858,-157.69841269841268,325.0,55.95238095238095,74.2063492063492,18.174603174603174,25.158730158730158,-166.26984126984127
-81.03174603174602,84.68253968253968,-297.85714285714283,207.69841269841268,-61.19047619047619,30.71428571428571,-58.96825396825397,-26.746031746031743,-202.77777777777777,191.98412698412696,-192.61904761904762,-24.365079365079364,-325.0,38.33333333333333,-292.1428571428571,206.58730158730157,17.857142857142858,-157.69841269841268,325.0,55.95238095238095,74.2063492063492,18.174603174603174,25.158730158730158,-166.26984126984127
-80.07936507936508,83.57142857142857,-294.2063492063492,205.3174603174603,-60.39682539682539,46.904761904761905,-58.17460317460317,-26.746031746031743,-200.07936507936506,200.07936507936506,-197.53968253968253,-23.88888888888889,-325.0,37.857142857142854,-288.6507936507936,207.38095238095238,24.206349206349206,-155.79365079365078,325.0,55.317460317460316,73.25396825396825,-0.07936507936507936,-0.873015873015873,-166.26984126984127
-80.07936507936508,83.57142857142857,-294.2063492063492,205.3174603174603,-60.39682539682539,46.904761904761905,-58.17460317460317,-26.746031746031743,-200.07936507936506,200.07936507936506,-197.53968253968253,-23.88888888888889,-325.0,37.857142857142854,-288.6507936507936,207.38095238095238,24.206349206349206,-155.79365079365078,325.0,55.317460317460316,73.25396825396825,-0.07936507936507936,-0.873015873015873,-166.26984126984127
-78.4920634920635,81.98412698412697,-288.015873015873,200.7142857142857,-59.285714285714285,63.73015873015873,-57.06349206349206,-26.11111111111111,-196.11111111111111,220.55555555555554,-140.7142857142857,-23.57142857142857,-319.4444444444444,37.06349206349206,-282.77777777777777,202.61904761904762,36.58730158730159,-152.61904761904762,325.0,54.047619047619044,71.66666666666666,17.539682539682538,24.68253968253968,-321.8253968253968
-78.4920634920635,81.98412698412697,-288.015873015873,200.7142857142857,-59.285714285714285,63.73015873015873,-57.06349206349206,-26.11111111111111,-196.11111111111111,220.55555555555554,-140.7142857142857,-23.57142857142857,-319.4444444444444,37.06349206349206,-282.77777777777777,202.61904761904762,36.58730158730159,-152.61904761904762,325.0,54.047619047619044,71.66666666666666,17.539682539682538,24.68253968253968,-321.8253968253968
-77.38095238095238,81.03174603174602,-284.5238095238095,198.17460317460316,-58.650793650793645,85.31746031746032,-56.269841269841265,-25.79365079365079,-193.7301587301587,242.46031746031744,-157.38095238095238,-23.253968253968253,-315.3174603174603,36.58730158730159,-279.2857142857143,198.17460317460316,28.174603174603174,-150.87301587301587,325.0,53.57142857142857,70.55555555555556,-0.23809523809523808,-1.1904761904761905,-321.8253968253968
-77.38095238095238,81.03174603174602,-284.5238095238095,198.17460317460316,-58.650793650793645,85.31746031746032,-56.269841269841265,-25.79365079365079,-193.7301587301587,242.46031746031744,-157.38095238095238,-23.253968253968253,-315.3174603174603,36.58730158730159,-279.2857142857143,198.17460317460316,28.174603174603174,-150.87301587301587,325.0,53.57142857142857,70.55555555555556,-0.23809523809523808,-1.1904761904761905,-321.8253968253968
-75.63492063492063,79.28571428571428,-278.4920634920635,194.04761904761904,-57.38095238095238,55.15873015873016,-55.15873015873016,-25.158730158730158,-189.76190476190476,226.42857142857142,-95.15873015873015,-22.936507936507937,-307.22222222222223,35.79365079365079,-273.88888888888886,184.2063492063492,42.3015873015873,-147.85714285714286,325.0,52.460317460317455,69.12698412698413,18.333333333333332,25.317460317460316,-321.8253968253968
-75.63492063492063,79.28571428571428,-278.4920634920635,194.04761904761904,-57.38095238095238,55.15873015873016,-55.15873015873016,-25.158730158730158,-189.76190476190476,226.42857142857142,-95.15873015873015,-22.936507936507937,-307.22222222222223,35.79365079365079,-273.88888888888886,184.2063492063492,42.3015873015873,-147.85714285714286,325.0,52.460317460317455,69.12698412698413,18.333333333333332,25.317460317460316,-321.8253968253968
-74.84126984126983,78.33333333333333,-275.0,191.34920634920633,-56.58730158730158,64.2063492063492,-54.52380952380952,-24.84126984126984,-187.53968253968253,167.2222222222222,-122.6190476190476,-22.46031746031746,-303.25396825396825,35.15873015873016,-270.39682539682536,173.57142857142856,27.857142857142854,-145.95238095238093,325.0,51.82539682539682,68.17460317460318,-0.07936507936507936,-0.5555555555555556,-321.8253968253968
-74.84126984126983,78.33333333333333,-275.0,191.34920634920633,-56.58730158730158,64.2063492063492,-54.52380952380952,-24.84126984126984,-187.53968253968253,167.2222222222222,-122.6190476190476,-22.46031746031746,-303.25396825396825,35.15873015873016,-270.39682539682536,173.57142857142856,27.857142857142854,-145.95238095238093,325.0,51.82539682539682,68.17460317460318,-0.07936507936507936,-0.5555555555555556,-321.8253968253968
-73.4126984126984,76.9047619047619,-270.23809523809524,188.17460317460316,-55.79365079365079,-65.0,-53.41269841269841,-24.68253968253968,-184.04761904761904,-8.968253968253968,-163.25396825396825,-22.3015873015873,-301.984126984127,34.682539682539684,-265.95238095238096,142.61904761904762,32.3015873015873,-143.57142857142856,325.0,50.87301587301587,67.06349206349206,24.523809523809522,34.2063492063492,-321.8253968253968
-73.4126984126984,76.9047619047619,-270.23809523809524,188.17460317460316,-55.79365079365079,-65.0,-53.41269841269841,-24.68253968253968,-184.04761904761904,-8.968253968253968,-163.25396825396825,-22.3015873015873,-301.984126984127,34.682539682539684,-265.95238095238096,142.61904761904762,32.3015873015873,-143.57142857142856,325.0,50.87301587301587,67.06349206349206,24.523809523809522,34.2063492063492,-321.8253968253968
-73.4126984126984,76.9047619047619,-270.23809523809524,188.17460317460316,-55.79365079365079,-65.0,-53.41269841269841,-24.68253968253968,-184.04761904761904,-8.968253968253968,-163.25396825396825,-22.3015873015873,-301.984126984127,34.682539682539684,-265.95238095238096,142.61904761904762,32.3015873015873,-143.57142857142856,325.0,50.87301587301587,67.06349206349206,24.523809523809522,34.2063492063492,-166.26984126984127
-73.4126984126984,76.9047619047619,-270.23809523809524,188.17460317460316,-55.79365079365079,-65.0,-53.41269841269841,-24.68253968253968,-184.04761904761904,-8.968253968253968,-163.25396825396825,-22.3015873015873,-301.984126984127,34.682539682539684,-265.95238095238096,142.61904761904762,32.3015873015873,-143.57142857142856,325.0,50.87301587301587,67.06349206349206,24.523809523809522,34.2063492063492,-166.26984126984127
-70.71428571428571,74.04761904761904,-260.23809523809524,181.03174603174602,-53.888888888888886,13.73015873015873,-51.666666666666664,-23.730158730158728,-177.53968253968253,108.01587301587301,10.555555555555555,-21.507936507936506,-285.1587301587301,33.25396825396825,-256.4285714285714,168.8095238095238,40.238095238095234,-138.33333333333331,325.0,48.80952380952381,64.52380952380952,16.428571428571427,23.88888888888889,-166.26984126984127
-70.71428571428571,74.04761904761904,-260.23809523809524,181.03174603174602,-53.888888888888886,13.73015873015873,-51.666666666666664,-23.730158730158728,-177.53968253968253,108.01587301587301,10.555555555555555,-21.507936507936506,-285.1587301587301,33.25396825396825,-256.4285714285714,168.8095238095238,40.238095238095234,-138.33333333333331,325.0,48.80952380952381,64.52380952380952,16.428571428571427,23.88888888888889,-166.26984126984127
-69.76190476190476,72.93650793650794,-257.06349206349205,178.8095238095238,-53.41269841269841,25.0,-51.03174603174603,-23.57142857142857,-175.47619047619045,108.01587301587301,-48.650793650793645,-21.349206349206348,-281.3492063492063,32.93650793650794,-253.57142857142856,166.9047619047619,25.317460317460316,-136.74603174603175,325.0,48.17460317460317,63.73015873015873,-0.5555555555555556,-0.7142857142857142,-166.26984126984127
-69.76190476190476,72.93650793650794,-257.06349206349205,178.8095238095238,-53.41269841269841,25.0,-51.03174603174603,-23.57142857142857,-175.47619047619045,108.01587301587301,-48.650793650793645,-21.349206349206348,-281.3492063492063,32.93650793650794,-253.57142857142856,166.9047619047619,25.317460317460316,-136.74603174603175,325.0,48.17460317460317,63.73015873015873,-0.5555555555555556,-0.7142857142857142,-166.26984126984127
-68.17460317460318,71.5079365079365,-251.66666666666666,175.0,-52.14285714285714,19.285714285714285,-49.92063492063492,-23.095238095238095,-171.66666666666666,106.74603174603175,86.9047619047619,-20.873015873015873,-275.6349206349206,31.98412698412698,-248.17460317460316,164.68253968253967,40.079365079365076,-133.88888888888889,325.0,47.22222222222222,62.3015873015873,16.904761904761905,24.047619047619047,-166.26984126984127
-68.17460317460318,71.5079365079365,-251.66666666666666,175.0,-52.14285714285714,19.285714285714285,-49.92063492063492,-23.095238095238095,-171.66666666666666,106.74603174603175,86.9047619047619,-20.873015873015873,-275.6349206349206,31.98412698412698,-248.17460317460316,164.68253968253967,40.079365079365076,-133.88888888888889,325.0,47.22222222222222,62.3015873015873,16.904761904761905,24.047619047619047,-166.26984126984127
-67.22222222222221,70.23809523809524,-247.53968253968253,171.8253968253968,-51.34920634920635,10.555555555555555,-49.12698412698413,-22.777777777777775,-168.96825396825395,51.82539682539682,-115.47619047619047,-20.555555555555554,-273.73015873015873,31.507936507936506,-244.2063492063492,147.85714285714286,26.9047619047619,-131.8253968253968,325.0,46.42857142857142,61.03174603174603,-18.015873015873016,-25.634920634920633,-166.26984126984127
