Fp1[1],Fp2[2],F3[3],F4[4],C3[5],C4[6],P3[7],P4[8],O1[9],O2[10],F7[11],F8[12],T3[13],T4[14],T5[15],T6[16],Fz[17],Pz[18],Cz[19],Pg1[20],Pg2[21],EOGR[22],EOOGL[23],EMG[24]
-325.0,325.0,325.0,56.42857142857142,-325.0,-57.06349206349206,325.0,-325.0,325.0,-325.0,-2.46031746031746,325.0,325.0,-325.0,325.0,-325.0,59.6031746031746,-56.74603174603174,325.0,-325.0,-325.0,-0.3968253968253968,-1.0317460317460316,-166.26984126984127
-325.0,325.0,325.0,56.42857142857142,-325.0,-57.06349206349206,325.0,-325.0,325.0,-325.0,-2.46031746031746,325.0,325.0,-325.0,325.0,-325.0,59.6031746031746,-56.74603174603174,325.0,-325.0,-325.0,-0.3968253968253968,-1.0317460317460316,-166.26984126984127
-325.0,325.0,325.0,65.63492063492063,-323.25396825396825,-36.42857142857142,325.0,-325.0,325.0,-325.0,23.57142857142857,325.0,325.0,-325.0,325.0,-325.0,78.65079365079364,-33.888888888888886,325.0,-325.0,-325.0,-0.3968253968253968,-0.7142857142857142,-166.26984126984127
-325.0,325.0,325.0,65.63492063492063,-323.25396825396825,-36.42857142857142,325.0,-325.0,325.0,-325.0,23.57142857142857,325.0,325.0,-325.0,325.0,-325.0,78.65079365079364,-33.888888888888886,325.0,-325.0,-325.0,-0.3968253968253968,-0.7142857142857142,-166.26984126984127
-325.0,325.0,325.0,75.47619047619047,-314.5238095238095,-13.888888888888888,325.0,-325.0,325.0,-325.0,48.96825396825397,325.0,325.0,-325.0,325.0,-325.0,90.55555555555556,-10.555555555555555,325.0,-325.0,-325.0,-0.873015873015873,-0.873015873015873,-166.26984126984127
-325.0,325.0,325.0,75.47619047619047,-314.5238095238095,-13.888888888888888,325.0,-325.0,325.0,-325.0,48.96825396825397,325.0,325.0,-325.0,325.0,-325.0,90.55555555555556,-10.555555555555555,325.0,-325.0,-325.0,-0.873015873015873,-0.873015873015873,-166.26984126984127
-325.0,325.0,325.0,84.36507936507937,-310.7142857142857,-3.571428571428571,325.0,-325.0,325.0,-325.0,59.285714285714285,325.0,325.0,-325.0,325.0,-325.0,98.01587301587301,-0.07936507936507936,325.0,-325.0,-325.0,-0.3968253968253968,-1.0317460317460316,-166.26984126984127
-325.0,325.0,325.0,84.36507936507937,-310.7142857142857,-3.571428571428571,325.0,-325.0,325.0,-325.0,59.285714285714285,325.0,325.0,-325.0,325.0,-325.0,98.01587301587301,-0.07936507936507936,325.0,-325.0,-325.0,-0.3968253968253968,-1.0317460317460316,-166.26984126984127
-325.0,325.0,325.0,81.19047619047619,-299.1269841269841,1.984126984126984,325.0,-325.0,325.0,-325.0,62.3015873015873,325.0,325.0,-323.73015873015873,325.0,-325.0,94.52380952380952,4.523809523809524,325.0,-325.0,-325.0,-0.23809523809523808,-1.0317460317460316,-166.26984126984127
-325.0,325.0,325.0,81.19047619047619,-299.1269841269841,1.984126984126984,325.0,-325.0,325.0,-325.0,62.3015873015873,325.0,325.0,-323.73015873015873,325.0,-325.0,94.52380952380952,4.523809523809524,325.0,-325.0,-325.0,-0.23809523809523808,-1.0317460317460316,-166.26984126984127
-325.0,325.0,325.0,79.92063492063491,-283.73015873015873,15.634920634920634,325.0,-325.0,325.0,-325.0,71.34920634920634,325.0,325.0,-318.17460317460313,325.0,-325.0,95.31746031746032,16.587301587301585,325.0,-325.0,-325.0,-0.873015873015873,-0.23809523809523808,-321.8253968253968
-325.0,325.0,325.0,79.92063492063491,-283.73015873015873,15.634920634920634,325.0,-325.0,325.0,-325.0,71.34920634920634,325.0,325.0,-318.17460317460313,325.0,-325.0,95.31746031746032,16.587301587301585,325.0,-325.0,-325.0,-0.873015873015873,-0.23809523809523808,-321.8253968253968
-325.0,325.0,325.0,73.4126984126984,-278.6507936507936,17.857142857142858,325.0,-325.0,325.0,-325.0,70.87301587301587,325.0,325.0,-312.3015873015873,325.0,-325.0,92.46031746031746,17.539682539682538,325.0,-325.0,-325.0,0.07936507936507936,-0.873015873015873,-321.8253968253968
-325.0,325.0,325.0,73.4126984126984,-278.6507936507936,17.857142857142858,325.0,-325.0,325.0,-325.0,70.87301587301587,325.0,325.0,-312.3015873015873,325.0,-325.0,92.46031746031746,17.539682539682538,325.0,-325.0,-325.0,0.07936507936507936,-0.873015873015873,-321.8253968253968
-325.0,325.0,325.0,65.15873015873015,-274.2063492063492,17.38095238095238,325.0,-325.0,325.0,-325.0,67.85714285714285,325.0,325.0,-306.74603174603175,325.0,-325.0,86.9047619047619,15.95238095238095,325.0,-325.0,-325.0,0.23809523809523808,-1.0317460317460316,-321.8253968253968
-325.0,325.0,325.0,65.15873015873015,-274.2063492063492,17.38095238095238,325.0,-325.0,325.0,-325.0,67.85714285714285,325.0,325.0,-306.74603174603175,325.0,-325.0,86.9047619047619,15.95238095238095,325.0,-325.0,-325.0,0.23809523809523808,-1.0317460317460316,-321.8253968253968
-325.0,325.0,323.88888888888886,62.14285714285714,-269.44444444444446,19.76190476190476,325.0,-325.0,325.0,-325.0,67.53968253968253,325.0,323.73015873015873,-301.3492063492063,325.0,-325.0,84.36507936507937,16.746031746031743,325.0,-325.0,-325.0,0.3968253968253968,-0.873015873015873,-321.8253968253968
-325.0,325.0,323.88888888888886,62.14285714285714,-269.44444444444446,19.76190476190476,325.0,-325.0,325.0,-325.0,67.53968253968253,325.0,323.73015873015873,-301.3492063492063,325.0,-325.0,84.36507936507937,16.746031746031743,325.0,-325.0,-325.0,0.3968253968253968,-0.873015873015873,-321.8253968253968
-325.0,325.0,318.3333333333333,61.98412698412698,-264.68253968253964,22.777777777777775,325.0,-322.77777777777777,325.0,-325.0,68.65079365079364,325.0,317.85714285714283,-295.95238095238096,324.04761904761904,-325.0,82.77777777777777,19.126984126984127,325.0,-325.0,-325.0,-0.5555555555555556,-1.0317460317460316,-321.8253968253968
-325.0,325.0,318.3333333333333,61.98412698412698,-264.68253968253964,22.777777777777775,325.0,-322.77777777777777,325.0,-325.0,68.65079365079364,325.0,317.85714285714283,-295.95238095238096,324.04761904761904,-325.0,82.77777777777777,19.126984126984127,325.0,-325.0,-325.0,-0.5555555555555556,-1.0317460317460316,-321.8253968253968
-325.0,325.0,312.77777777777777,63.095238095238095,-260.07936507936506,29.444444444444443,324.5238095238095,-317.53968253968253,325.0,-325.0,72.61904761904762,325.0,312.46031746031747,-290.7142857142857,319.4444444444444,-325.0,85.0,24.84126984126984,324.5238095238095,-325.0,-325.0,0.23809523809523808,-0.23809523809523808,-166.26984126984127
-325.0,325.0,312.77777777777777,63.095238095238095,-260.07936507936506,29.444444444444443,324.5238095238095,-317.53968253968253,325.0,-325.0,72.61904761904762,325.0,312.46031746031747,-290.7142857142857,319.4444444444444,-325.0,85.0,24.84126984126984,324.5238095238095,-325.0,-325.0,0.23809523809523808,-0.23809523809523808,-166.26984126984127
-325.0,322.1428571428571,303.4126984126984,62.14285714285714,-252.77777777777777,35.63492063492063,315.6349206349206,-308.4920634920635,324.68253968253964,-322.9365079365079,74.52380952380952,317.69841269841265,303.0952380952381,-281.66666666666663,310.07936507936506,-323.57142857142856,82.93650793650794,29.285714285714285,315.7936507936508,-322.46031746031747,-320.55555555555554,-0.7142857142857142,-0.3968253968253968,-166.26984126984127
-325.0,322.1428571428571,303.4126984126984,62.14285714285714,-252.77777777777777,35.63492063492063,315.6349206349206,-308.4920634920635,324.68253968253964,-322.9365079365079,74.52380952380952,317.69841269841265,303.0952380952381,-281.66666666666663,310.07936507936506,-323.57142857142856,82.93650793650794,29.285714285714285,315.7936507936508,-322.46031746031747,-320.55555555555554,-0.7142857142857142,-0.3968253968253968,-166.26984126984127
-325.0,310.07936507936506,288.8095238095238,50.238095238095234,-240.87301587301587,33.73015873015873,300.87301587301585,-294.5238095238095,315.1587301587301,-310.87301587301585,66.11111111111111,302.77777777777777,288.8095238095238,-268.17460317460313,295.95238095238096,-312.9365079365079,70.07936507936508,25.634920634920633,301.19047619047615,-310.55555555555554,-306.4285714285714,0.23809523809523808,-1.0317460317460316,-166.26984126984127
-325.0,310.07936507936506,288.8095238095238,50.238095238095234,-240.87301587301587,33.73015873015873,300.87301587301585,-294.5238095238095,315.1587301587301,-310.87301587301585,66.11111111111111,302.77777777777777,288.8095238095238,-268.17460317460313,295.95238095238096,-312.9365079365079,70.07936507936508,25.634920634920633,301.19047619047615,-310.55555555555554,-306.4285714285714,0.23809523809523808,-1.0317460317460316,-166.26984126984127
-325.0,303.57142857142856,282.46031746031747,44.36507936507936,-235.47619047619045,32.14285714285714,294.36507936507934,-288.4920634920635,308.4920634920635,-304.04761904761904,61.666666666666664,296.1111111111111,282.6190476190476,-261.984126984127,289.6031746031746,-306.26984126984127,63.57142857142857,23.41269841269841,294.8412698412698,-303.73015873015873,-299.6031746031746,0.3968253968253968,-1.1904761904761905,-166.26984126984127
-325.0,303.57142857142856,282.46031746031747,44.36507936507936,-235.47619047619045,32.14285714285714,294.36507936507934,-288.4920634920635,308.4920634920635,-304.04761904761904,61.666666666666664,296.1111111111111,282.6190476190476,-261.984126984127,289.6031746031746,-306.26984126984127,63.57142857142857,23.41269841269841,294.8412698412698,-303.73015873015873,-299.6031746031746,0.3968253968253968,-1.1904761904761905,-166.26984126984127
-325.0,303.57142857142856,282.46031746031747,44.36507936507936,-235.47619047619045,32.14285714285714,294.36507936507934,-288.4920634920635,308.4920634920635,-304.04761904761904,61.666666666666664,296.1111111111111,282.6190476190476,-261.984126984127,289.6031746031746,-306.26984126984127,63.57142857142857,23.41269841269841,294.8412698412698,-303.73015873015873,-299.6031746031746,0.3968253968253968,-1.1904761904761905,-166.26984126984127
-325.0,303.57142857142856,282.46031746031747,44.36507936507936,-235.47619047619045,32.14285714285714,294.36507936507934,-288.4920634920635,308.4920634920635,-304.04761904761904,61.666666666666664,296.1111111111111,282.6190476190476,-261.984126984127,289.6031746031746,-306.26984126984127,63.57142857142857,23.41269841269841,294.8412698412698,-303.73015873015873,-299.6031746031746,0.3968253968253968,-1.1904761904761905,-166.26984126984127
-325.0,303.57142857142856,282.46031746031747,44.36507936507936,-235.47619047619045,32.14285714285714,294.36507936507934,-288.4920634920635,308.4920634920635,-304.04761904761904,61.666666666666664,296.1111111111111,282.6190476190476,-261.984126984127,289.6031746031746,-306.26984126984127,63.57142857142857,23.41269841269841,294.8412698412698,-303.73015873015873,-299.6031746031746,0.3968253968253968,-1.1904761904761905,-321.8253968253968
-325.0,303.57142857142856,282.46031746031747,44.36507936507936,-235.47619047619045,32.14285714285714,294.36507936507934,-288.4920634920635,308.4920634920635,-304.04761904761904,61.666666666666664,296.1111111111111,282.6190476190476,-261.984126984127,289.6031746031746,-306.26984126984127,63.57142857142857,23.41269841269841,294.8412698412698,-303.73015873015873,-299.6031746031746,0.3968253968253968,-1.1904761904761905,-321.8253968253968
-235.0,-10.714285714285714,195.3174603174603,10.714285714285714,-164.52380952380952,21.03174603174603,204.2063492063492,18.174603174603174,215.47619047619045,-82.14285714285714,22.619047619047617,-14.523809523809524,195.95238095238093,-180.87301587301587,202.14285714285714,-215.0,-97.53968253968253,14.682539682539682,-15.158730158730158,-212.3015873015873,-207.2222222222222,0.3968253968253968,-0.7142857142857142,-321.8253968253968
-235.0,-10.714285714285714,195.3174603174603,10.714285714285714,-164.52380952380952,21.03174603174603,204.2063492063492,18.174603174603174,215.47619047619045,-82.14285714285714,22.619047619047617,-14.523809523809524,195.95238095238093,-180.87301587301587,202.14285714285714,-215.0,-97.53968253968253,14.682539682539682,-15.158730158730158,-212.3015873015873,-207.2222222222222,0.3968253968253968,-0.7142857142857142,-321.8253968253968
-143.09523809523807,-325.0,106.74603174603175,-22.777777777777775,-92.46031746031746,10.396825396825395,112.93650793650794,325.0,121.19047619047619,171.34920634920633,-16.428571428571427,-325.0,107.85714285714285,-98.01587301587301,113.25396825396825,-122.14285714285714,-255.15873015873015,6.26984126984127,-325.0,-119.12698412698413,-113.4126984126984,-0.07936507936507936,-0.07936507936507936,-321.8253968253968
-143.09523809523807,-325.0,106.74603174603175,-22.777777777777775,-92.46031746031746,10.396825396825395,112.93650793650794,325.0,121.19047619047619,171.34920634920633,-16.428571428571427,-325.0,107.85714285714285,-98.01587301587301,113.25396825396825,-122.14285714285714,-255.15873015873015,6.26984126984127,-325.0,-119.12698412698413,-113.4126984126984,-0.07936507936507936,-0.07936507936507936,-321.8253968253968
-115.0,-325.0,-110.39682539682539,-174.84126984126982,-74.52380952380952,-3.253968253968254,-108.01587301587301,325.0,-103.73015873015872,261.8253968253968,-28.174603174603174,-325.0,-109.92063492063491,114.52380952380952,-107.22222222222221,-52.460317460317455,-205.47619047619045,-4.682539682539682,-325.0,-96.1111111111111,-90.55555555555556,0.07936507936507936,-0.07936507936507936,-321.8253968253968
-115.0,-325.0,-110.39682539682539,-174.84126984126982,-74.52380952380952,-3.253968253968254,-108.01587301587301,325.0,-103.73015873015872,261.8253968253968,-28.174603174603174,-325.0,-109.92063492063491,114.52380952380952,-107.22222222222221,-52.460317460317455,-205.47619047619045,-4.682539682539682,-325.0,-96.1111111111111,-90.55555555555556,0.07936507936507936,-0.07936507936507936,-321.8253968253968
-72.14285714285714,-171.66666666666666,-314.8412698412698,-10.238095238095237,-186.74603174603175,142.61904761904762,-162.46031746031744,-0.07936507936507936,-325.0,314.8412698412698,-325.0,-53.888888888888886,-240.7142857142857,152.3015873015873,-325.0,88.80952380952381,-106.58730158730158,-18.96825396825397,-173.09523809523807,-29.76190476190476,-187.53968253968253,-0.07936507936507936,-162.93650793650792,-321.8253968253968
-72.14285714285714,-171.66666666666666,-314.8412698412698,-10.238095238095237,-186.74603174603175,142.61904761904762,-162.46031746031744,-0.07936507936507936,-325.0,314.8412698412698,-325.0,-53.888888888888886,-240.7142857142857,152.3015873015873,-325.0,88.80952380952381,-106.58730158730158,-18.96825396825397,-173.09523809523807,-29.76190476190476,-187.53968253968253,-0.07936507936507936,-162.93650793650792,-321.8253968253968
-73.09523809523809,-315.3174603174603,-325.0,-325.0,-47.53968253968254,-17.38095238095238,-325.0,325.0,-325.0,325.0,-325.0,-325.0,-325.0,325.0,-325.0,325.0,-130.87301587301587,-15.0,-325.0,-61.19047619047619,-56.74603174603174,-0.7142857142857142,-0.3968253968253968,-166.26984126984127
-73.09523809523809,-315.3174603174603,-325.0,-325.0,-47.53968253968254,-17.38095238095238,-325.0,325.0,-325.0,325.0,-325.0,-325.0,-325.0,325.0,-325.0,325.0,-130.87301587301587,-15.0,-325.0,-61.19047619047619,-56.74603174603174,-0.7142857142857142,-0.3968253968253968,-166.26984126984127
-71.98412698412697,-310.23809523809524,-325.0,-325.0,-46.58730158730158,-14.523809523809524,-325.0,325.0,-325.0,325.0,-325.0,-325.0,-325.0,325.0,-325.0,325.0,-128.65079365079364,-12.46031746031746,-325.0,-60.079365079365076,-55.79365079365079,-0.873015873015873,-0.5555555555555556,-166.26984126984127
-71.98412698412697,-310.23809523809524,-325.0,-325.0,-46.58730158730158,-14.523809523809524,-325.0,325.0,-325.0,325.0,-325.0,-325.0,-325.0,325.0,-325.0,325.0,-128.65079365079364,-12.46031746031746,-325.0,-60.079365079365076,-55.79365079365079,-0.873015873015873,-0.5555555555555556,-166.26984126984127
-70.55555555555556,-305.1587301587301,-325.0,-325.0,-45.79365079365079,-16.26984126984127,-325.0,325.0,-325.0,325.0,-325.0,-325.0,-325.0,325.0,-325.0,325.0,-126.42857142857142,-14.365079365079364,-325.0,-58.96825396825397,-54.68253968253968,-1.1904761904761905,-0.7142857142857142,-166.26984126984127
-70.55555555555556,-305.1587301587301,-325.0,-325.0,-45.79365079365079,-16.26984126984127,-325.0,325.0,-325.0,325.0,-325.0,-325.0,-325.0,325.0,-325.0,325.0,-126.42857142857142,-14.365079365079364,-325.0,-58.96825396825397,-54.68253968253968,-1.1904761904761905,-0.7142857142857142,-166.26984126984127
-69.44444444444444,-300.07936507936506,-325.0,-325.0,-45.317460317460316,-15.634920634920634,-325.0,325.0,-325.0,325.0,-325.0,-325.0,-325.0,325.0,-325.0,325.0,-124.2063492063492,-13.253968253968253,-325.0,-58.17460317460317,-53.73015873015873,-0.7142857142857142,-0.7142857142857142,-166.26984126984127
-69.44444444444444,-300.07936507936506,-325.0,-325.0,-45.317460317460316,-15.634920634920634,-325.0,325.0,-325.0,325.0,-325.0,-325.0,-325.0,325.0,-325.0,325.0,-124.2063492063492,-13.253968253968253,-325.0,-58.17460317460317,-53.73015873015873,-0.7142857142857142,-0.7142857142857142,-166.26984126984127
-68.33333333333333,-295.3174603174603,-325.0,-325.0,-44.36507936507936,-9.920634920634921,-325.0,325.0,-325.0,325.0,-325.0,-325.0,-325.0,325.0,-325.0,325.0,-121.98412698412697,-7.3809523809523805,-325.0,-57.22222222222222,-52.77777777777777,-1.349206349206349,-0.873015873015873,-166.26984126984127
-68.33333333333333,-295.3174603174603,-325.0,-325.0,-44.36507936507936,-9.920634920634921,-325.0,325.0,-325.0,325.0,-325.0,-325.0,-325.0,325.0,-325.0,325.0,-121.98412698412697,-7.3809523809523805,-325.0,-57.22222222222222,-52.77777777777777,-1.349206349206349,-0.873015873015873,-166.26984126984127
-67.06349206349206,-290.55555555555554,-325.0,-325.0,-43.57142857142857,-7.698412698412698,-325.0,325.0,-325.0,325.0,-325.0,-325.0,-325.0,325.0,-325.0,325.0,-119.92063492063491,-5.317460317460317,-325.0,-56.269841269841265,-51.98412698412698,-0.23809523809523808,0.3968253968253968,-321.8253968253968
-67.06349206349206,-290.55555555555554,-325.0,-325.0,-43.57142857142857,-7.698412698412698,-325.0,325.0,-325.0,325.0,-325.0,-325.0,-325.0,325.0,-325.0,325.0,-119.92063492063491,-5.317460317460317,-325.0,-56.269841269841265,-51.98412698412698,-0.23809523809523808,0.3968253968253968,-321.8253968253968
-66.11111111111111,-285.7936507936508,-325.0,-325.0,-42.77777777777778,-4.841269841269841,-325.0,325.0,-325.0,325.0,-325.0,-325.0,-325.0,325.0,-325.0,325.0,-117.85714285714285,-2.3015873015873014,-325.0,-55.15873015873016,-51.03174603174603,0.23809523809523808,-1.1904761904761905,-321.8253968253968
-66.11111111111111,-285.7936507936508,-325.0,-325.0,-42.77777777777778,-4.841269841269841,-325.0,325.0,-325.0,325.0,-325.0,-325.0,-325.0,325.0,-325.0,325.0,-117.85714285714285,-2.3015873015873014,-325.0,-55.15873015873016,-51.03174603174603,0.23809523809523808,-1.1904761904761905,-321.8253968253968
-64.84126984126983,-281.19047619047615,-325.0,-325.0,-42.14285714285714,-6.746031746031746,-325.0,325.0,-325.0,325.0,-325.0,-325.0,-325.0,325.0,-325.0,325.0,-115.79365079365078,-4.0476190476190474,-325.0,-54.2063492063492,-50.079365079365076,-0.5555555555555556,-0.5555555555555556,-321.8253968253968
-64.84126984126983,-281.19047619047615,-325.0,-325.0,-42.14285714285714,-6.746031746031746,-325.0,325.0,-325.0,325.0,-325.0,-325.0,-325.0,325.0,-325.0,325.0,-115.79365079365078,-4.0476190476190474,-325.0,-54.2063492063492,-50.079365079365076,-0.5555555555555556,-0.5555555555555556,-321.8253968253968
-62.3015873015873,-271.19047619047615,-325.0,-325.0,-40.714285714285715,-11.031746031746032,-325.0,325.0,-325.0,325.0,-325.0,-325.0,-325.0,325.0,-325.0,325.0,-111.34920634920634,-8.65079365079365,-325.0,-52.3015873015873,-48.17460317460317,-0.7142857142857142,-0.873015873015873,-321.8253968253968
-62.3015873015873,-271.19047619047615,-325.0,-325.0,-40.714285714285715,-11.031746031746032,-325.0,325.0,-325.0,325.0,-325.0,-325.0,-325.0,325.0,-325.0,325.0,-111.34920634920634,-8.65079365079365,-325.0,-52.3015873015873,-48.17460317460317,-0.7142857142857142,-0.873015873015873,-321.8253968253968
325.0,-73.25396825396825,-124.2063492063492,-95.0,325.0,0.23809523809523808,-123.73015873015872,105.63492063492063,-179.12698412698413,139.6031746031746,-119.28571428571428,-98.17460317460316,-132.61904761904762,161.19047619047618,-136.11111111111111,218.17460317460316,-28.333333333333332,-0.07936507936507936,-99.6031746031746,325.0,325.0,-0.5555555555555556,-1.0317460317460316,-321.8253968253968
325.0,-73.25396825396825,-124.2063492063492,-95.0,325.0,0.23809523809523808,-123.73015873015872,105.63492063492063,-179.12698412698413,139.6031746031746,-119.28571428571428,-98.17460317460316,-132.61904761904762,161.19047619047618,-136.11111111111111,218.17460317460316,-28.333333333333332,-0.07936507936507936,-99.6031746031746,325.0,325.0,-0.5555555555555556,-1.0317460317460316,-321.8253968253968
325.0,-53.888888888888886,-90.39682539682539,325.0,325.0,1.984126984126984,-90.55555555555556,77.53968253968253,-131.19047619047618,100.87301587301587,-87.06349206349206,-71.5079365079365,-96.58730158730158,115.79365079365078,-100.23809523809523,159.28571428571428,-20.873015873015873,2.142857142857143,-72.77777777777777,325.0,258.8095238095238,-0.23809523809523808,-1.0317460317460316,-166.26984126984127
325.0,-53.888888888888886,-90.39682539682539,325.0,325.0,1.984126984126984,-90.55555555555556,77.53968253968253,-131.19047619047618,100.87301587301587,-87.06349206349206,-71.5079365079365,-96.58730158730158,115.79365079365078,-100.23809523809523,159.28571428571428,-20.873015873015873,2.142857142857143,-72.77777777777777,325.0,258.8095238095238,-0.23809523809523808,-1.0317460317460316,-166.26984126984127
325.0,-52.61904761904761,-88.33333333333333,325.0,325.0,6.111111111111111,-88.17460317460316,75.63492063492063,-127.85714285714285,98.17460317460316,-84.84126984126983,-69.6031746031746,-94.2063492063492,112.77777777777777,-98.01587301587301,155.3174603174603,-20.396825396825395,5.476190476190476,-71.03174603174602,325.0,252.14285714285714,-0.07936507936507936,-0.7142857142857142,-166.26984126984127
325.0,-52.61904761904761,-88.33333333333333,325.0,325.0,6.111111111111111,-88.17460317460316,75.63492063492063,-127.85714285714285,98.17460317460316,-84.84126984126983,-69.6031746031746,-94.2063492063492,112.77777777777777,-98.01587301587301,155.3174603174603,-20.396825396825395,5.476190476190476,-71.03174603174602,325.0,252.14285714285714,-0.07936507936507936,-0.7142857142857142,-166.26984126984127
325.0,-51.98412698412698,-87.06349206349206,325.0,325.0,6.746031746031746,-87.06349206349206,74.68253968253968,-126.1111111111111,96.9047619047619,-83.73015873015872,-68.65079365079364,-92.93650793650794,111.5079365079365,-96.74603174603175,153.25396825396825,-20.07936507936508,6.111111111111111,-70.07936507936508,325.0,248.96825396825395,-0.3968253968253968,-0.873015873015873,-166.26984126984127
325.0,-51.98412698412698,-87.06349206349206,325.0,325.0,6.746031746031746,-87.06349206349206,74.68253968253968,-126.1111111111111,96.9047619047619,-83.73015873015872,-68.65079365079364,-92.93650793650794,111.5079365079365,-96.74603174603175,153.25396825396825,-20.07936507936508,6.111111111111111,-70.07936507936508,325.0,248.96825396825395,-0.3968253968253968,-0.873015873015873,-166.26984126984127
325.0,-49.285714285714285,-82.61904761904762,325.0,325.0,5.158730158730158,-82.61904761904762,70.87301587301587,-119.92063492063491,91.82539682539682,-79.44444444444444,-65.31746031746032,-88.01587301587301,105.31746031746032,-91.82539682539682,145.3174603174603,6.587301587301587,5.158730158730158,-66.74603174603175,325.0,235.63492063492063,-0.5555555555555556,-0.5555555555555556,-166.26984126984127
325.0,-49.285714285714285,-82.61904761904762,325.0,325.0,5.158730158730158,-82.61904761904762,70.87301587301587,-119.92063492063491,91.82539682539682,-79.44444444444444,-65.31746031746032,-88.01587301587301,105.31746031746032,-91.82539682539682,145.3174603174603,6.587301587301587,5.158730158730158,-66.74603174603175,325.0,235.63492063492063,-0.5555555555555556,-0.5555555555555556,-166.26984126984127
325.0,-46.58730158730158,-78.01587301587301,325.0,325.0,3.73015873015873,-78.01587301587301,67.22222222222221,-113.57142857142857,86.9047619047619,-75.15873015873015,-61.82539682539682,-82.93650793650794,99.28571428571428,-86.9047619047619,137.53968253968253,33.25396825396825,4.2063492063492065,-63.25396825396825,325.0,222.46031746031744,-0.7142857142857142,-0.07936507936507936,-166.26984126984127
325.0,-46.58730158730158,-78.01587301587301,325.0,325.0,3.73015873015873,-78.01587301587301,67.22222222222221,-113.57142857142857,86.9047619047619,-75.15873015873015,-61.82539682539682,-82.93650793650794,99.28571428571428,-86.9047619047619,137.53968253968253,33.25396825396825,4.2063492063492065,-63.25396825396825,325.0,222.46031746031744,-0.7142857142857142,-0.07936507936507936,-166.26984126984127
325.0,-45.95238095238095,-76.74603174603175,325.0,325.0,1.349206349206349,-76.9047619047619,65.95238095238095,-111.66666666666666,85.31746031746032,-73.88888888888889,-60.71428571428571,-81.82539682539682,97.53968253968253,-85.63492063492063,135.15873015873015,41.507936507936506,1.8253968253968254,-62.14285714285714,324.5238095238095,218.65079365079364,-0.5555555555555556,-0.3968253968253968,-321.8253968253968
325.0,-45.95238095238095,-76.74603174603175,325.0,325.0,1.349206349206349,-76.9047619047619,65.95238095238095,-111.66666666666666,85.31746031746032,-73.88888888888889,-60.71428571428571,-81.82539682539682,97.53968253968253,-85.63492063492063,135.15873015873015,41.507936507936506,1.8253968253968254,-62.14285714285714,324.5238095238095,218.65079365079364,-0.5555555555555556,-0.3968253968253968,-321.8253968253968
325.0,-43.888888888888886,-73.73015873015872,325.0,325.0,1.349206349206349,-73.57142857142857,63.095238095238095,-106.74603174603175,81.66666666666666,-70.87301587301587,-58.33333333333333,-78.4920634920635,93.25396825396825,-82.3015873015873,129.44444444444443,97.85714285714285,2.3015873015873014,-59.6031746031746,316.4285714285714,209.28571428571428,-0.3968253968253968,-0.5555555555555556,-321.8253968253968
325.0,-43.888888888888886,-73.73015873015872,325.0,325.0,1.349206349206349,-73.57142857142857,63.095238095238095,-106.74603174603175,81.66666666666666,-70.87301587301587,-58.33333333333333,-78.4920634920635,93.25396825396825,-82.3015873015873,129.44444444444443,97.85714285714285,2.3015873015873014,-59.6031746031746,316.4285714285714,209.28571428571428,-0.3968253968253968,-0.5555555555555556,-321.8253968253968
325.0,-43.095238095238095,-72.46031746031746,325.0,325.0,0.3968253968253968,-72.46031746031746,62.14285714285714,-105.15873015873015,80.23809523809523,-69.76190476190476,-57.22222222222222,-77.06349206349206,91.66666666666666,-80.87301587301587,127.22222222222221,156.74603174603175,1.507936507936508,-58.49206349206349,311.3492063492063,205.63492063492063,-0.07936507936507936,-0.873015873015873,-321.8253968253968
325.0,-43.095238095238095,-72.46031746031746,325.0,325.0,0.3968253968253968,-72.46031746031746,62.14285714285714,-105.15873015873015,80.23809523809523,-69.76190476190476,-57.22222222222222,-77.06349206349206,91.66666666666666,-80.87301587301587,127.22222222222221,156.74603174603175,1.507936507936508,-58.49206349206349,311.3492063492063,205.63492063492063,-0.07936507936507936,-0.873015873015873,-321.8253968253968
325.0,-42.77777777777778,-71.82539682539682,325.0,325.0,-0.873015873015873,-71.98412698412697,61.666666666666664,-104.2063492063492,79.6031746031746,-69.28571428571428,-56.74603174603174,-76.42857142857143,90.87301587301587,-80.07936507936508,126.26984126984127,191.8253968253968,0.07936507936507936,-58.01587301587301,308.8095238095238,203.88888888888889,-0.3968253968253968,-0.873015873015873,-321.8253968253968
325.0,-42.77777777777778,-71.82539682539682,325.0,325.0,-0.873015873015873,-71.98412698412697,61.666666666666664,-104.2063492063492,79.6031746031746,-69.28571428571428,-56.74603174603174,-76.42857142857143,90.87301587301587,-80.07936507936508,126.26984126984127,191.8253968253968,0.07936507936507936,-58.01587301587301,308.8095238095238,203.88888888888889,-0.3968253968253968,-0.873015873015873,-321.8253968253968
325.0,-42.77777777777778,-71.82539682539682,325.0,325.0,-0.873015873015873,-71.98412698412697,61.666666666666664,-104.2063492063492,79.6031746031746,-69.28571428571428,-56.74603174603174,-76.42857142857143,90.87301587301587,-80.07936507936508,126.26984126984127,191.8253968253968,0.07936507936507936,-58.01587301587301,308.8095238095238,203.88888888888889,-0.3968253968253968,-0.873015873015873,-321.8253968253968
325.0,-42.77777777777778,-71.82539682539682,325.0,325.0,-0.873015873015873,-71.98412698412697,61.666666666666664,-104.2063492063492,79.6031746031746,-69.28571428571428,-56.74603174603174,-76.42857142857143,90.87301587301587,-80.07936507936508,126.26984126984127,191.8253968253968,0.07936507936507936,-58.01587301587301,308.8095238095238,203.88888888888889,-0.3968253968253968,-0.873015873015873,-321.8253968253968
325.0,-38.01587301587301,-63.095238095238095,325.0,324.36507936507934,0.07936507936507936,-63.095238095238095,54.2063492063492,-91.5079365079365,69.6031746031746,-60.71428571428571,-49.92063492063492,-67.22222222222221,79.12698412698413,-70.71428571428571,110.87301587301587,325.0,3.095238095238095,-51.03174603174603,271.5079365079365,178.17460317460316,-0.7142857142857142,-1.0317460317460316,-166.26984126984127
325.0,-38.01587301587301,-63.095238095238095,325.0,324.36507936507934,0.07936507936507936,-63.095238095238095,54.2063492063492,-91.5079365079365,69.6031746031746,-60.71428571428571,-49.92063492063492,-67.22222222222221,79.12698412698413,-70.71428571428571,110.87301587301587,325.0,3.095238095238095,-51.03174603174603,271.5079365079365,178.17460317460316,-0.7142857142857142,-1.0317460317460316,-166.26984126984127
325.0,-37.22222222222222,-61.98412698412698,325.0,319.6031746031746,1.507936507936508,-62.14285714285714,53.41269841269841,-90.07936507936508,68.4920634920635,-59.76190476190476,-48.96825396825397,-65.95238095238095,77.85714285714285,-69.44444444444444,108.80952380952381,325.0,5.0,-50.238095238095234,266.90476190476187,175.0,0.07936507936507936,-1.1904761904761905,-166.26984126984127
325.0,-37.22222222222222,-61.98412698412698,325.0,319.6031746031746,1.507936507936508,-62.14285714285714,53.41269841269841,-90.07936507936508,68.4920634920635,-59.76190476190476,-48.96825396825397,-65.95238095238095,77.85714285714285,-69.44444444444444,108.80952380952381,325.0,5.0,-50.238095238095234,266.90476190476187,175.0,0.07936507936507936,-1.1904761904761905,-166.26984126984127
325.0,-36.58730158730159,-60.873015873015866,325.0,314.68253968253964,-0.3968253968253968,-61.19047619047619,52.460317460317455,-88.65079365079364,67.38095238095238,-58.8095238095238,-48.33333333333333,-64.84126984126983,76.42857142857143,-68.4920634920635,107.22222222222221,325.0,3.095238095238095,-49.44444444444444,262.6190476190476,171.984126984127,0.07936507936507936,-1.1904761904761905,-166.26984126984127
325.0,-36.58730158730159,-60.873015873015866,325.0,314.68253968253964,-0.3968253968253968,-61.19047619047619,52.460317460317455,-88.65079365079364,67.38095238095238,-58.8095238095238,-48.33333333333333,-64.84126984126983,76.42857142857143,-68.4920634920635,107.22222222222221,325.0,3.095238095238095,-49.44444444444444,262.6190476190476,171.984126984127,0.07936507936507936,-1.1904761904761905,-166.26984126984127
325.0,-36.42857142857142,-60.55555555555555,325.0,313.4126984126984,-0.3968253968253968,-60.873015873015866,52.14285714285714,-88.17460317460316,67.06349206349206,-58.49206349206349,-48.17460317460317,-64.68253968253968,76.26984126984127,-68.17460317460318,106.74603174603175,325.0,2.9365079365079363,-49.12698412698413,261.5079365079365,171.34920634920633,-0.23809523809523808,-1.6666666666666665,-166.26984126984127
325.0,-36.42857142857142,-60.55555555555555,325.0,313.4126984126984,-0.3968253968253968,-60.873015873015866,52.14285714285714,-88.17460317460316,67.06349206349206,-58.49206349206349,-48.17460317460317,-64.68253968253968,76.26984126984127,-68.17460317460318,106.74603174603175,325.0,2.9365079365079363,-49.12698412698413,261.5079365079365,171.34920634920633,-0.23809523809523808,-1.6666666666666665,-166.26984126984127
325.0,-35.79365079365079,-59.12698412698413,325.0,305.95238095238096,-3.73015873015873,-59.44444444444444,51.19047619047619,-85.95238095238095,65.31746031746032,-56.74603174603174,-46.904761904761905,-62.93650793650793,74.2063492063492,-66.42857142857143,104.04761904761904,325.0,-0.23809523809523808,-48.01587301587301,255.0,166.9047619047619,-0.5555555555555556,-0.07936507936507936,-166.26984126984127
325.0,-35.79365079365079,-59.12698412698413,325.0,305.95238095238096,-3.73015873015873,-59.44444444444444,51.19047619047619,-85.95238095238095,65.31746031746032,-56.74603174603174,-46.904761904761905,-62.93650793650793,74.2063492063492,-66.42857142857143,104.04761904761904,325.0,-0.23809523809523808,-48.01587301587301,255.0,166.9047619047619,-0.5555555555555556,-0.07936507936507936,-166.26984126984127
322.46031746031747,-35.0,-57.857142857142854,325.0,299.76190476190476,-2.7777777777777777,-58.17460317460317,50.079365079365076,-84.36507936507937,63.73015873015873,-55.79365079365079,-45.79365079365079,-61.507936507936506,72.46031746031746,-65.15873015873015,101.82539682539682,325.0,1.507936507936508,-46.904761904761905,249.76190476190476,163.25396825396825,-0.07936507936507936,-1.0317460317460316,-321.8253968253968
322.46031746031747,-35.0,-57.857142857142854,325.0,299.76190476190476,-2.7777777777777777,-58.17460317460317,50.079365079365076,-84.36507936507937,63.73015873015873,-55.79365079365079,-45.79365079365079,-61.507936507936506,72.46031746031746,-65.15873015873015,101.82539682539682,325.0,1.507936507936508,-46.904761904761905,249.76190476190476,163.25396825396825,-0.07936507936507936,-1.0317460317460316,-321.8253968253968
316.90476190476187,-34.36507936507936,-57.06349206349206,325.0,295.1587301587301,6.26984126984127,-57.22222222222222,49.285714285714285,-82.93650793650794,62.77777777777777,-54.68253968253968,-45.15873015873016,-60.39682539682539,71.19047619047619,-64.04761904761905,100.23809523809523,325.0,10.396825396825395,-46.269841269841265,245.79365079365078,160.3968253968254,-0.7142857142857142,-1.0317460317460316,-321.8253968253968
316.90476190476187,-34.36507936507936,-57.06349206349206,325.0,295.1587301587301,6.26984126984127,-57.22222222222222,49.285714285714285,-82.93650793650794,62.77777777777777,-54.68253968253968,-45.15873015873016,-60.39682539682539,71.19047619047619,-64.04761904761905,100.23809523809523,325.0,10.396825396825395,-46.269841269841265,245.79365079365078,160.3968253968254,-0.7142857142857142,-1.0317460317460316,-321.8253968253968
312.9365079365079,-34.047619047619044,-56.269841269841265,325.0,291.66666666666663,7.3809523809523805,-56.42857142857142,48.650793650793645,-81.82539682539682,61.82539682539682,-54.047619047619044,-44.68253968253968,-59.6031746031746,70.23809523809524,-63.41269841269841,98.96825396825396,325.0,11.507936507936508,-45.63492063492063,242.6190476190476,158.33333333333331,-0.5555555555555556,-0.873015873015873,-321.8253968253968
312.9365079365079,-34.047619047619044,-56.269841269841265,325.0,291.66666666666663,7.3809523809523805,-56.42857142857142,48.650793650793645,-81.82539682539682,61.82539682539682,-54.047619047619044,-44.68253968253968,-59.6031746031746,70.23809523809524,-63.41269841269841,98.96825396825396,325.0,11.507936507936508,-45.63492063492063,242.6190476190476,158.33333333333331,-0.5555555555555556,-0.873015873015873,-321.8253968253968
306.26984126984127,-33.25396825396825,-55.15873015873016,325.0,285.6349206349206,7.698412698412698,-55.317460317460316,47.53968253968254,-80.23809523809523,60.71428571428571,-53.095238095238095,-43.57142857142857,-58.33333333333333,68.65079365079364,-62.14285714285714,96.74603174603175,325.0,12.142857142857142,-44.84126984126984,237.53968253968253,154.84126984126982,-0.873015873015873,-1.0317460317460316,-321.8253968253968
306.26984126984127,-33.25396825396825,-55.15873015873016,325.0,285.6349206349206,7.698412698412698,-55.317460317460316,47.53968253968254,-80.23809523809523,60.71428571428571,-53.095238095238095,-43.57142857142857,-58.33333333333333,68.65079365079364,-62.14285714285714,96.74603174603175,325.0,12.142857142857142,-44.84126984126984,237.53968253968253,154.84126984126982,-0.873015873015873,-1.0317460317460316,-321.8253968253968
300.87301587301585,-32.77777777777778,-54.36507936507936,325.0,281.19047619047615,12.619047619047619,-54.36507936507936,46.74603174603175,-78.80952380952381,59.6031746031746,-52.3015873015873,-42.93650793650794,-57.53968253968254,67.53968253968253,-61.03174603174603,95.31746031746032,325.0,17.063492063492063,-44.047619047619044,233.7301587301587,152.14285714285714,0.07936507936507936,-0.23809523809523808,-321.8253968253968
300.87301587301585,-32.77777777777778,-54.36507936507936,325.0,281.19047619047615,12.619047619047619,-54.36507936507936,46.74603174603175,-78.80952380952381,59.6031746031746,-52.3015873015873,-42.93650793650794,-57.53968253968254,67.53968253968253,-61.03174603174603,95.31746031746032,325.0,17.063492063492063,-44.047619047619044,233.7301587301587,152.14285714285714,0.07936507936507936,-0.23809523809523808,-321.8253968253968
297.06349206349205,-32.14285714285714,-53.41269841269841,325.0,277.6984126984127,9.285714285714285,-53.73015873015873,46.42857142857142,-77.85714285714285,58.650793650793645,-51.507936507936506,-42.460317460317455,-56.74603174603174,66.9047619047619,-60.39682539682539,94.04761904761904,325.0,13.73015873015873,-43.25396825396825,230.7142857142857,150.23809523809524,-0.7142857142857142,0.07936507936507936,-166.26984126984127
297.06349206349205,-32.14285714285714,-53.41269841269841,325.0,277.6984126984127,9.285714285714285,-53.73015873015873,46.42857142857142,-77.85714285714285,58.650793650793645,-51.507936507936506,-42.460317460317455,-56.74603174603174,66.9047619047619,-60.39682539682539,94.04761904761904,325.0,13.73015873015873,-43.25396825396825,230.7142857142857,150.23809523809524,-0.7142857142857142,0.07936507936507936,-166.26984126984127
290.7142857142857,-31.666666666666664,-52.61904761904761,325.0,272.3015873015873,5.952380952380952,-52.61904761904761,45.317460317460316,-76.26984126984127,57.698412698412696,-50.39682539682539,-41.507936507936506,-55.63492063492063,65.31746031746032,-59.285714285714285,92.14285714285714,325.0,10.396825396825395,-42.61904761904761,225.95238095238093,147.06349206349205,-0.873015873015873,-0.5555555555555556,-166.26984126984127
290.7142857142857,-31.666666666666664,-52.61904761904761,325.0,272.3015873015873,5.952380952380952,-52.61904761904761,45.317460317460316,-76.26984126984127,57.698412698412696,-50.39682539682539,-41.507936507936506,-55.63492063492063,65.31746031746032,-59.285714285714285,92.14285714285714,325.0,10.396825396825395,-42.61904761904761,225.95238095238093,147.06349206349205,-0.873015873015873,-0.5555555555555556,-166.26984126984127
286.90476190476187,-31.349206349206348,-51.82539682539682,325.0,268.968253968254,6.904761904761904,-51.98412698412698,44.84126984126984,-75.31746031746032,56.904761904761905,-49.76190476190476,-41.19047619047619,-54.841269841269835,64.36507936507937,-58.49206349206349,91.03174603174602,325.0,11.507936507936508,-42.14285714285714,223.09523809523807,145.0,-1.0317460317460316,-0.7142857142857142,-166.26984126984127
286.90476190476187,-31.349206349206348,-51.82539682539682,325.0,268.968253968254,6.904761904761904,-51.98412698412698,44.84126984126984,-75.31746031746032,56.904761904761905,-49.76190476190476,-41.19047619047619,-54.841269841269835,64.36507936507937,-58.49206349206349,91.03174603174602,325.0,11.507936507936508,-42.14285714285714,223.09523809523807,145.0,-1.0317460317460316,-0.7142857142857142,-166.26984126984127
280.87301587301585,-30.71428571428571,-50.87301587301587,325.0,263.57142857142856,4.682539682539682,-50.87301587301587,43.888888888888886,-73.88888888888889,55.63492063492063,-48.80952380952381,-40.079365079365076,-53.73015873015873,62.77777777777777,-57.38095238095238,88.96825396825396,325.0,9.444444444444445,-41.34920634920635,218.4920634920635,141.984126984127,-0.23809523809523808,-0.873015873015873,-166.26984126984127
280.87301587301585,-30.71428571428571,-50.87301587301587,325.0,263.57142857142856,4.682539682539682,-50.87301587301587,43.888888888888886,-73.88888888888889,55.63492063492063,-48.80952380952381,-40.079365079365076,-53.73015873015873,62.77777777777777,-57.38095238095238,88.96825396825396,325.0,9.444444444444445,-41.34920634920635,218.4920634920635,141.984126984127,-0.23809523809523808,-0.873015873015873,-166.26984126984127
275.95238095238096,-30.238095238095237,-49.92063492063492,325.0,259.2857142857143,4.682539682539682,-50.079365079365076,43.095238095238095,-72.61904761904762,54.68253968253968,-48.01587301587301,-39.44444444444444,-52.93650793650794,61.82539682539682,-56.269841269841265,87.53968253968253,325.0,9.126984126984127,-40.714285714285715,215.0,139.44444444444443,-0.7142857142857142,-1.1904761904761905,-166.26984126984127
275.95238095238096,-30.238095238095237,-49.92063492063492,325.0,259.2857142857143,4.682539682539682,-50.079365079365076,43.095238095238095,-72.61904761904762,54.68253968253968,-48.01587301587301,-39.44444444444444,-52.93650793650794,61.82539682539682,-56.269841269841265,87.53968253968253,325.0,9.126984126984127,-40.714285714285715,215.0,139.44444444444443,-0.7142857142857142,-1.1904761904761905,-166.26984126984127
271.19047619047615,-29.6031746031746,-49.12698412698413,325.0,255.0,-0.3968253968253968,-49.44444444444444,42.460317460317455,-71.34920634920634,53.57142857142857,-47.22222222222222,-38.96825396825397,-51.82539682539682,60.71428571428571,-55.476190476190474,85.95238095238095,325.0,4.2063492063492065,-39.92063492063492,211.34920634920633,137.06349206349205,-0.7142857142857142,-0.3968253968253968,-321.8253968253968
271.19047619047615,-29.6031746031746,-49.12698412698413,325.0,255.0,-0.3968253968253968,-49.44444444444444,42.460317460317455,-71.34920634920634,53.57142857142857,-47.22222222222222,-38.96825396825397,-51.82539682539682,60.71428571428571,-55.476190476190474,85.95238095238095,325.0,4.2063492063492065,-39.92063492063492,211.34920634920633,137.06349206349205,-0.7142857142857142,-0.3968253968253968,-321.8253968253968
266.58730158730157,-29.444444444444443,-48.33333333333333,325.0,251.03174603174602,1.0317460317460316,-48.49206349206349,41.666666666666664,-70.23809523809524,52.77777777777777,-46.42857142857142,-38.17460317460317,-51.03174603174603,59.6031746031746,-54.68253968253968,84.68253968253968,325.0,5.634920634920634,-39.44444444444444,207.69841269841268,134.68253968253967,-0.3968253968253968,-0.7142857142857142,-321.8253968253968
266.58730158730157,-29.444444444444443,-48.33333333333333,325.0,251.03174603174602,1.0317460317460316,-48.49206349206349,41.666666666666664,-70.23809523809524,52.77777777777777,-46.42857142857142,-38.17460317460317,-51.03174603174603,59.6031746031746,-54.68253968253968,84.68253968253968,325.0,5.634920634920634,-39.44444444444444,207.69841269841268,134.68253968253967,-0.3968253968253968,-0.7142857142857142,-321.8253968253968
262.1428571428571,-28.809523809523807,-47.53968253968254,325.0,247.06349206349205,4.2063492063492065,-47.698412698412696,41.03174603174603,-68.80952380952381,51.666666666666664,-45.79365079365079,-37.53968253968254,-50.238095238095234,58.8095238095238,-53.73015873015873,83.09523809523809,325.0,9.126984126984127,-38.65079365079365,204.36507936507937,132.3015873015873,-0.7142857142857142,-0.23809523809523808,-321.8253968253968
262.1428571428571,-28.809523809523807,-47.53968253968254,325.0,247.06349206349205,4.2063492063492065,-47.698412698412696,41.03174603174603,-68.80952380952381,51.666666666666664,-45.79365079365079,-37.53968253968254,-50.238095238095234,58.8095238095238,-53.73015873015873,83.09523809523809,325.0,9.126984126984127,-38.65079365079365,204.36507936507937,132.3015873015873,-0.7142857142857142,-0.23809523809523808,-321.8253968253968
257.53968253968253,-28.174603174603174,-46.74603174603175,325.0,242.93650793650792,-1.349206349206349,-46.904761904761905,40.238095238095234,-67.85714285714285,51.19047619047619,-45.0,-36.904761904761905,-49.44444444444444,57.53968253968254,-52.77777777777777,81.66666666666666,325.0,3.4126984126984126,-38.17460317460317,200.87301587301587,129.9206349206349,0.07936507936507936,-1.0317460317460316,-321.8253968253968
257.53968253968253,-28.174603174603174,-46.74603174603175,325.0,242.93650793650792,-1.349206349206349,-46.904761904761905,40.238095238095234,-67.85714285714285,51.19047619047619,-45.0,-36.904761904761905,-49.44444444444444,57.53968253968254,-52.77777777777777,81.66666666666666,325.0,3.4126984126984126,-38.17460317460317,200.87301587301587,129.9206349206349,0.07936507936507936,-1.0317460317460316,-321.8253968253968
253.25396825396825,-27.857142857142854,-45.79365079365079,325.0,238.96825396825395,0.5555555555555556,-46.269841269841265,39.76190476190476,-66.74603174603175,50.238095238095234,-44.36507936507936,-36.58730158730159,-48.650793650793645,56.58730158730158,-51.82539682539682,80.39682539682539,325.0,5.476190476190476,-37.38095238095238,197.69841269841268,127.6984126984127,-0.7142857142857142,-1.349206349206349,-321.8253968253968
253.25396825396825,-27.857142857142854,-45.79365079365079,325.0,238.96825396825395,0.5555555555555556,-46.269841269841265,39.76190476190476,-66.74603174603175,50.238095238095234,-44.36507936507936,-36.58730158730159,-48.650793650793645,56.58730158730158,-51.82539682539682,80.39682539682539,325.0,5.476190476190476,-37.38095238095238,197.69841269841268,127.6984126984127,-0.7142857142857142,-1.349206349206349,-321.8253968253968
249.9206349206349,-27.539682539682538,-45.317460317460316,325.0,235.79365079365078,-1.1904761904761905,-45.63492063492063,39.12698412698413,-65.95238095238095,49.6031746031746,-43.57142857142857,-35.95238095238095,-47.857142857142854,55.79365079365079,-51.507936507936506,79.44444444444444,325.0,3.4126984126984126,-36.904761904761905,195.0,126.1111111111111,-1.349206349206349,-0.07936507936507936,-166.26984126984127
249.9206349206349,-27.539682539682538,-45.317460317460316,325.0,235.79365079365078,-1.1904761904761905,-45.63492063492063,39.12698412698413,-65.95238095238095,49.6031746031746,-43.57142857142857,-35.95238095238095,-47.857142857142854,55.79365079365079,-51.507936507936506,79.44444444444444,325.0,3.4126984126984126,-36.904761904761905,195.0,126.1111111111111,-1.349206349206349,-0.07936507936507936,-166.26984126984127
245.63492063492063,-27.22222222222222,-44.52380952380952,325.0,232.14285714285714,-5.952380952380952,-44.84126984126984,38.33333333333333,-64.68253968253968,48.80952380952381,-42.77777777777778,-35.317460317460316,-47.38095238095238,54.841269841269835,-50.55555555555555,78.01587301587301,325.0,-2.142857142857143,-36.42857142857142,191.8253968253968,124.04761904761904,0.07936507936507936,-0.23809523809523808,-166.26984126984127
245.63492063492063,-27.22222222222222,-44.52380952380952,325.0,232.14285714285714,-5.952380952380952,-44.84126984126984,38.33333333333333,-64.68253968253968,48.80952380952381,-42.77777777777778,-35.317460317460316,-47.38095238095238,54.841269841269835,-50.55555555555555,78.01587301587301,325.0,-2.142857142857143,-36.42857142857142,191.8253968253968,124.04761904761904,0.07936507936507936,-0.23809523809523808,-166.26984126984127
240.2380952380952,-26.587301587301585,-43.57142857142857,325.0,227.38095238095238,-11.031746031746032,-43.888888888888886,37.698412698412696,-63.41269841269841,47.698412698412696,-30.238095238095237,-34.52380952380952,-46.269841269841265,53.57142857142857,-49.6031746031746,76.26984126984127,325.0,-6.26984126984127,-35.63492063492063,187.53968253968253,121.19047619047619,-0.23809523809523808,-0.5555555555555556,-166.26984126984127
240.2380952380952,-26.587301587301585,-43.57142857142857,325.0,227.38095238095238,-11.031746031746032,-43.888888888888886,37.698412698412696,-63.41269841269841,47.698412698412696,-30.238095238095237,-34.52380952380952,-46.269841269841265,53.57142857142857,-49.6031746031746,76.26984126984127,325.0,-6.26984126984127,-35.63492063492063,187.53968253968253,121.19047619047619,-0.23809523809523808,-0.5555555555555556,-166.26984126984127
236.1111111111111,-26.11111111111111,-42.93650793650794,325.0,223.88888888888889,-3.4126984126984126,-43.25396825396825,37.22222222222222,-61.34920634920635,46.904761904761905,-1.984126984126984,-34.047619047619044,-45.63492063492063,52.61904761904761,-48.80952380952381,74.84126984126983,325.0,1.0317460317460316,-35.15873015873016,184.84126984126982,119.12698412698413,-0.23809523809523808,-1.1904761904761905,-166.26984126984127
236.1111111111111,-26.11111111111111,-42.93650793650794,325.0,223.88888888888889,-3.4126984126984126,-43.25396825396825,37.22222222222222,-61.34920634920635,46.904761904761905,-1.984126984126984,-34.047619047619044,-45.63492063492063,52.61904761904761,-48.80952380952381,74.84126984126983,325.0,1.0317460317460316,-35.15873015873016,184.84126984126982,119.12698412698413,-0.23809523809523808,-1.1904761904761905,-166.26984126984127
232.14285714285714,-25.634920634920633,-42.3015873015873,325.0,220.2380952380952,-11.666666666666666,-42.61904761904761,36.58730158730159,-55.0,45.95238095238095,36.74603174603175,-33.57142857142857,-44.68253968253968,51.82539682539682,-48.01587301587301,57.22222222222222,325.0,-6.746031746031746,-34.52380952380952,181.66666666666666,116.9047619047619,0.07936507936507936,-0.5555555555555556,-166.26984126984127
232.14285714285714,-25.634920634920633,-42.3015873015873,325.0,220.2380952380952,-11.666666666666666,-42.61904761904761,36.58730158730159,-55.0,45.95238095238095,36.74603174603175,-33.57142857142857,-44.68253968253968,51.82539682539682,-48.01587301587301,57.22222222222222,325.0,-6.746031746031746,-34.52380952380952,181.66666666666666,116.9047619047619,0.07936507936507936,-0.5555555555555556,-166.26984126984127
228.17460317460316,-25.317460317460316,-41.507936507936506,325.0,216.58730158730157,-10.873015873015872,-41.82539682539682,36.11111111111111,-53.25396825396825,45.317460317460316,73.57142857142857,-32.93650793650794,-43.888888888888886,50.71428571428571,-47.38095238095238,73.09523809523809,325.0,-6.111111111111111,-34.047619047619044,178.65079365079364,114.84126984126983,0.23809523809523808,-1.6666666666666665,-321.8253968253968
228.17460317460316,-25.317460317460316,-41.507936507936506,325.0,216.58730158730157,-10.873015873015872,-41.82539682539682,36.11111111111111,-53.25396825396825,45.317460317460316,73.57142857142857,-32.93650793650794,-43.888888888888886,50.71428571428571,-47.38095238095238,73.09523809523809,325.0,-6.111111111111111,-34.047619047619044,178.65079365079364,114.84126984126983,0.23809523809523808,-1.6666666666666665,-321.8253968253968
224.04761904761904,-25.0,-40.87301587301587,325.0,213.25396825396825,-2.46031746031746,-41.19047619047619,35.317460317460316,-50.238095238095234,44.52380952380952,107.53968253968253,-32.3015873015873,-43.25396825396825,49.92063492063492,-46.58730158730158,71.82539682539682,325.0,2.3015873015873014,-33.41269841269841,175.63492063492063,112.93650793650794,-1.1904761904761905,-1.0317460317460316,-321.8253968253968
224.04761904761904,-25.0,-40.87301587301587,325.0,213.25396825396825,-2.46031746031746,-41.19047619047619,35.317460317460316,-50.238095238095234,44.52380952380952,107.53968253968253,-32.3015873015873,-43.25396825396825,49.92063492063492,-46.58730158730158,71.82539682539682,325.0,2.3015873015873014,-33.41269841269841,175.63492063492063,112.93650793650794,-1.1904761904761905,-1.0317460317460316,-321.8253968253968
220.3968253968254,-24.523809523809522,-40.238095238095234,325.0,209.76190476190476,-2.9365079365079363,-40.39682539682539,34.84126984126984,-45.476190476190474,43.73015873015873,146.26984126984127,-31.825396825396822,-42.61904761904761,49.12698412698413,-45.79365079365079,70.55555555555556,325.0,1.8253968253968254,-32.77777777777778,172.77777777777777,110.87301587301587,-0.7142857142857142,0.07936507936507936,-321.8253968253968
220.3968253968254,-24.523809523809522,-40.238095238095234,325.0,209.76190476190476,-2.9365079365079363,-40.39682539682539,34.84126984126984,-45.476190476190474,43.73015873015873,146.26984126984127,-31.825396825396822,-42.61904761904761,49.12698412698413,-45.79365079365079,70.55555555555556,325.0,1.8253968253968254,-32.77777777777778,172.77777777777777,110.87301587301587,-0.7142857142857142,0.07936507936507936,-321.8253968253968
216.42857142857142,-24.206349206349206,-39.6031746031746,325.0,206.26984126984127,-1.507936507936508,-39.92063492063492,34.047619047619044,-40.714285714285715,43.095238095238095,175.79365079365078,-31.349206349206348,-41.82539682539682,48.17460317460317,-45.0,69.28571428571428,325.0,3.253968253968254,-32.3015873015873,169.76190476190476,109.12698412698413,0.3968253968253968,-1.349206349206349,-321.8253968253968
216.42857142857142,-24.206349206349206,-39.6031746031746,325.0,206.26984126984127,-1.507936507936508,-39.92063492063492,34.047619047619044,-40.714285714285715,43.095238095238095,175.79365079365078,-31.349206349206348,-41.82539682539682,48.17460317460317,-45.0,69.28571428571428,325.0,3.253968253968254,-32.3015873015873,169.76190476190476,109.12698412698413,0.3968253968253968,-1.349206349206349,-321.8253968253968
212.77777777777777,-23.730158730158728,-38.96825396825397,325.0,202.93650793650792,-3.253968253968254,-39.12698412698413,33.73015873015873,-41.82539682539682,42.3015873015873,198.4920634920635,-30.71428571428571,-41.03174603174603,47.53968253968254,-44.36507936507936,68.17460317460318,325.0,1.6666666666666665,-31.825396825396822,167.06349206349205,107.06349206349206,-0.873015873015873,-1.507936507936508,-321.8253968253968
212.77777777777777,-23.730158730158728,-38.96825396825397,325.0,202.93650793650792,-3.253968253968254,-39.12698412698413,33.73015873015873,-41.82539682539682,42.3015873015873,198.4920634920635,-30.71428571428571,-41.03174603174603,47.53968253968254,-44.36507936507936,68.17460317460318,325.0,1.6666666666666665,-31.825396825396822,167.06349206349205,107.06349206349206,-0.873015873015873,-1.507936507936508,-321.8253968253968
209.9206349206349,-23.57142857142857,-38.49206349206349,325.0,200.7142857142857,1.6666666666666665,-38.80952380952381,33.57142857142857,-38.01587301587301,41.666666666666664,218.96825396825395,-30.396825396825395,-40.55555555555555,46.904761904761905,-43.73015873015873,67.53968253968253,325.0,6.26984126984127,-31.507936507936506,165.15873015873015,105.79365079365078,-0.873015873015873,-0.3968253968253968,-166.26984126984127
209.9206349206349,-23.57142857142857,-38.49206349206349,325.0,200.7142857142857,1.6666666666666665,-38.80952380952381,33.57142857142857,-38.01587301587301,41.666666666666664,218.96825396825395,-30.396825396825395,-40.55555555555555,46.904761904761905,-43.73015873015873,67.53968253968253,325.0,6.26984126984127,-31.507936507936506,165.15873015873015,105.79365079365078,-0.873015873015873,-0.3968253968253968,-166.26984126984127
205.47619047619045,-23.095238095238095,-37.698412698412696,325.0,196.42857142857142,6.746031746031746,-38.01587301587301,32.77777777777778,-33.888888888888886,40.714285714285715,258.015873015873,-29.76190476190476,-39.76190476190476,45.95238095238095,-42.93650793650794,65.95238095238095,325.0,11.507936507936508,-30.71428571428571,161.5079365079365,103.4126984126984,-0.07936507936507936,-0.5555555555555556,-166.26984126984127
205.47619047619045,-23.095238095238095,-37.698412698412696,325.0,196.42857142857142,6.746031746031746,-38.01587301587301,32.77777777777778,-33.888888888888886,40.714285714285715,258.015873015873,-29.76190476190476,-39.76190476190476,45.95238095238095,-42.93650793650794,65.95238095238095,325.0,11.507936507936508,-30.71428571428571,161.5079365079365,103.4126984126984,-0.07936507936507936,-0.5555555555555556,-166.26984126984127
201.98412698412696,-22.777777777777775,-37.22222222222222,325.0,193.25396825396825,7.3809523809523805,-37.38095238095238,31.98412698412698,-29.76190476190476,40.238095238095234,280.87301587301585,-29.444444444444443,-39.12698412698413,45.0,-42.3015873015873,65.0,325.0,11.666666666666666,-30.396825396825395,158.96825396825395,101.66666666666666,-0.3968253968253968,-0.3968253968253968,-166.26984126984127
201.98412698412696,-22.777777777777775,-37.22222222222222,325.0,193.25396825396825,7.3809523809523805,-37.38095238095238,31.98412698412698,-29.76190476190476,40.238095238095234,280.87301587301585,-29.444444444444443,-39.12698412698413,45.0,-42.3015873015873,65.0,325.0,11.666666666666666,-30.396825396825395,158.96825396825395,101.66666666666666,-0.3968253968253968,-0.3968253968253968,-166.26984126984127
199.44444444444443,-22.46031746031746,-36.58730158730159,325.0,190.7142857142857,5.7936507936507935,-37.06349206349206,31.666666666666664,-22.777777777777775,39.76190476190476,299.1269841269841,-29.126984126984127,-38.49206349206349,44.52380952380952,-41.82539682539682,64.2063492063492,325.0,10.079365079365079,-29.920634920634917,156.9047619047619,100.39682539682539,-0.07936507936507936,-0.3968253968253968,-166.26984126984127
199.44444444444443,-22.46031746031746,-36.58730158730159,325.0,190.7142857142857,5.7936507936507935,-37.06349206349206,31.666666666666664,-22.777777777777775,39.76190476190476,299.1269841269841,-29.126984126984127,-38.49206349206349,44.52380952380952,-41.82539682539682,64.2063492063492,325.0,10.079365079365079,-29.920634920634917,156.9047619047619,100.39682539682539,-0.07936507936507936,-0.3968253968253968,-166.26984126984127
195.0,-21.984126984126984,-35.79365079365079,325.0,186.9047619047619,-0.7142857142857142,-36.11111111111111,31.19047619047619,-18.80952380952381,38.80952380952381,325.0,-28.49206349206349,-38.01587301587301,43.41269841269841,-40.87301587301587,62.61904761904761,325.0,3.571428571428571,-29.444444444444443,153.4126984126984,98.17460317460316,0.23809523809523808,-0.873015873015873,-166.26984126984127
195.0,-21.984126984126984,-35.79365079365079,325.0,186.9047619047619,-0.7142857142857142,-36.11111111111111,31.19047619047619,-18.80952380952381,38.80952380952381,325.0,-28.49206349206349,-38.01587301587301,43.41269841269841,-40.87301587301587,62.61904761904761,325.0,3.571428571428571,-29.444444444444443,153.4126984126984,98.17460317460316,0.23809523809523808,-0.873015873015873,-166.26984126984127
191.66666666666666,-21.507936507936506,-35.317460317460316,325.0,183.88888888888889,-2.9365079365079363,-35.63492063492063,30.555555555555554,-20.07936507936508,38.17460317460317,325.0,-28.015873015873016,-37.22222222222222,42.77777777777778,-40.238095238095234,61.666666666666664,325.0,1.8253968253968254,-28.809523809523807,151.03174603174602,96.42857142857142,-0.3968253968253968,-1.0317460317460316,-321.8253968253968
191.66666666666666,-21.507936507936506,-35.317460317460316,325.0,183.88888888888889,-2.9365079365079363,-35.63492063492063,30.555555555555554,-20.07936507936508,38.17460317460317,325.0,-28.015873015873016,-37.22222222222222,42.77777777777778,-40.238095238095234,61.666666666666664,325.0,1.8253968253968254,-28.809523809523807,151.03174603174602,96.42857142857142,-0.3968253968253968,-1.0317460317460316,-321.8253968253968
188.33333333333331,-21.349206349206348,-34.84126984126984,325.0,181.03174603174602,-0.07936507936507936,-35.0,30.07936507936508,-18.80952380952381,37.53968253968254,325.0,-27.539682539682538,-36.58730158730159,41.82539682539682,-39.76190476190476,60.55555555555555,325.0,4.0476190476190474,-28.333333333333332,148.33333333333331,94.68253968253968,-1.1904761904761905,-0.7142857142857142,-321.8253968253968
188.33333333333331,-21.349206349206348,-34.84126984126984,325.0,181.03174603174602,-0.07936507936507936,-35.0,30.07936507936508,-18.80952380952381,37.53968253968254,325.0,-27.539682539682538,-36.58730158730159,41.82539682539682,-39.76190476190476,60.55555555555555,325.0,4.0476190476190474,-28.333333333333332,148.33333333333331,94.68253968253968,-1.1904761904761905,-0.7142857142857142,-321.8253968253968
187.53968253968253,-21.19047619047619,-34.682539682539684,325.0,180.3968253968254,0.5555555555555556,-34.84126984126984,30.07936507936508,-18.015873015873016,37.38095238095238,325.0,-27.22222222222222,-36.42857142857142,41.507936507936506,-39.44444444444444,60.238095238095234,325.0,5.158730158730158,-28.174603174603174,147.85714285714286,94.2063492063492,-0.7142857142857142,-0.7142857142857142,-321.8253968253968
187.53968253968253,-21.19047619047619,-34.682539682539684,325.0,180.3968253968254,0.5555555555555556,-34.84126984126984,30.07936507936508,-18.015873015873016,37.38095238095238,325.0,-27.22222222222222,-36.42857142857142,41.507936507936506,-39.44444444444444,60.238095238095234,325.0,5.158730158730158,-28.174603174603174,147.85714285714286,94.2063492063492,-0.7142857142857142,-0.7142857142857142,-321.8253968253968
184.36507936507937,-21.03174603174603,-34.047619047619044,322.6190476190476,177.38095238095238,2.7777777777777777,-34.36507936507936,29.6031746031746,-10.873015873015872,36.74603174603175,325.0,-26.9047619047619,-35.79365079365079,40.87301587301587,-38.96825396825397,59.285714285714285,325.0,7.222222222222221,-27.857142857142854,145.3174603174603,92.61904761904762,-0.23809523809523808,-0.873015873015873,-321.8253968253968
184.36507936507937,-21.03174603174603,-34.047619047619044,322.6190476190476,177.38095238095238,2.7777777777777777,-34.36507936507936,29.6031746031746,-10.873015873015872,36.74603174603175,325.0,-26.9047619047619,-35.79365079365079,40.87301587301587,-38.96825396825397,59.285714285714285,325.0,7.222222222222221,-27.857142857142854,145.3174603174603,92.61904761904762,-0.23809523809523808,-0.873015873015873,-321.8253968253968
177.2222222222222,-20.238095238095237,-32.77777777777778,313.88888888888886,170.7142857142857,5.158730158730158,-33.095238095238095,28.333333333333332,-8.174603174603174,35.476190476190474,325.0,-25.952380952380953,-34.52380952380952,39.44444444444444,-37.53968253968254,57.22222222222222,325.0,9.603174603174603,-26.9047619047619,139.9206349206349,88.96825396825396,-0.5555555555555556,-0.873015873015873,-321.8253968253968
177.2222222222222,-20.238095238095237,-32.77777777777778,313.88888888888886,170.7142857142857,5.158730158730158,-33.095238095238095,28.333333333333332,-8.174603174603174,35.476190476190474,325.0,-25.952380952380953,-34.52380952380952,39.44444444444444,-37.53968253968254,57.22222222222222,325.0,9.603174603174603,-26.9047619047619,139.9206349206349,88.96825396825396,-0.5555555555555556,-0.873015873015873,-321.8253968253968
174.04761904761904,-19.92063492063492,-32.3015873015873,308.3333333333333,168.015873015873,11.825396825396824,-32.61904761904762,27.857142857142854,-6.428571428571428,34.84126984126984,325.0,-25.476190476190474,-34.047619047619044,38.80952380952381,-36.904761904761905,56.269841269841265,325.0,15.793650793650793,-26.428571428571427,137.53968253968253,87.53968253968253,-0.5555555555555556,-1.1904761904761905,-166.26984126984127
174.04761904761904,-19.92063492063492,-32.3015873015873,308.3333333333333,168.015873015873,11.825396825396824,-32.61904761904762,27.857142857142854,-6.428571428571428,34.84126984126984,325.0,-25.476190476190474,-34.047619047619044,38.80952380952381,-36.904761904761905,56.269841269841265,325.0,15.793650793650793,-26.428571428571427,137.53968253968253,87.53968253968253,-0.5555555555555556,-1.1904761904761905,-166.26984126984127
171.8253968253968,-19.6031746031746,-31.825396825396822,304.36507936507934,165.95238095238093,9.603174603174603,-32.14285714285714,27.698412698412696,-1.6666666666666665,34.36507936507936,325.0,-25.158730158730158,-33.41269841269841,38.33333333333333,-36.42857142857142,55.317460317460316,325.0,13.571428571428571,-26.11111111111111,135.79365079365078,86.42857142857143,-0.3968253968253968,-1.0317460317460316,-166.26984126984127
171.8253968253968,-19.6031746031746,-31.825396825396822,304.36507936507934,165.95238095238093,9.603174603174603,-32.14285714285714,27.698412698412696,-1.6666666666666665,34.36507936507936,325.0,-25.158730158730158,-33.41269841269841,38.33333333333333,-36.42857142857142,55.317460317460316,325.0,13.571428571428571,-26.11111111111111,135.79365079365078,86.42857142857143,-0.3968253968253968,-1.0317460317460316,-166.26984126984127
168.17460317460316,-19.285714285714285,-31.19047619047619,298.015873015873,162.61904761904762,2.46031746031746,-31.666666666666664,27.22222222222222,2.9365079365079363,33.57142857142857,325.0,-24.68253968253968,-32.93650793650794,37.38095238095238,-35.79365079365079,54.2063492063492,325.0,6.428571428571428,-25.634920634920633,132.77777777777777,84.52380952380952,0.23809523809523808,-0.873015873015873,-166.26984126984127
168.17460317460316,-19.285714285714285,-31.19047619047619,298.015873015873,162.61904761904762,2.46031746031746,-31.666666666666664,27.22222222222222,2.9365079365079363,33.57142857142857,325.0,-24.68253968253968,-32.93650793650794,37.38095238095238,-35.79365079365079,54.2063492063492,325.0,6.428571428571428,-25.634920634920633,132.77777777777777,84.52380952380952,0.23809523809523808,-0.873015873015873,-166.26984126984127
165.3174603174603,-18.80952380952381,-30.87301587301587,293.0952380952381,160.07936507936506,1.507936507936508,-31.19047619047619,26.587301587301585,7.222222222222221,33.095238095238095,325.0,-24.365079365079364,-32.3015873015873,36.74603174603175,-35.15873015873016,53.41269841269841,325.0,5.476190476190476,-25.317460317460316,130.87301587301587,82.93650793650794,-0.3968253968253968,-0.873015873015873,-166.26984126984127
165.3174603174603,-18.80952380952381,-30.87301587301587,293.0952380952381,160.07936507936506,1.507936507936508,-31.19047619047619,26.587301587301585,7.222222222222221,33.095238095238095,325.0,-24.365079365079364,-32.3015873015873,36.74603174603175,-35.15873015873016,53.41269841269841,325.0,5.476190476190476,-25.317460317460316,130.87301587301587,82.93650793650794,-0.3968253968253968,-0.873015873015873,-166.26984126984127
162.46031746031744,-18.65079365079365,-30.396825396825395,288.3333333333333,157.2222222222222,-2.9365079365079363,-30.555555555555554,26.11111111111111,8.968253968253968,32.460317460317455,325.0,-23.88888888888889,-31.666666666666664,36.11111111111111,-34.84126984126984,52.61904761904761,325.0,1.0317460317460316,-25.0,128.4920634920635,81.5079365079365,-1.0317460317460316,-1.349206349206349,-166.26984126984127
162.46031746031744,-18.65079365079365,-30.396825396825395,288.3333333333333,157.2222222222222,-2.9365079365079363,-30.555555555555554,26.11111111111111,8.968253968253968,32.460317460317455,325.0,-23.88888888888889,-31.666666666666664,36.11111111111111,-34.84126984126984,52.61904761904761,325.0,1.0317460317460316,-25.0,128.4920634920635,81.5079365079365,-1.0317460317460316,-1.349206349206349,-166.26984126984127
159.44444444444443,-18.333333333333332,-29.6031746031746,283.25396825396825,154.68253968253967,-7.222222222222221,-30.238095238095237,25.634920634920633,0.7142857142857142,31.98412698412698,325.0,-23.41269841269841,-31.349206349206348,35.476190476190474,-34.047619047619044,51.666666666666664,325.0,-3.4126984126984126,-24.365079365079364,126.26984126984127,80.07936507936508,-0.07936507936507936,-0.5555555555555556,-321.8253968253968
159.44444444444443,-18.333333333333332,-29.6031746031746,283.25396825396825,154.68253968253967,-7.222222222222221,-30.238095238095237,25.634920634920633,0.7142857142857142,31.98412698412698,325.0,-23.41269841269841,-31.349206349206348,35.476190476190474,-34.047619047619044,51.666666666666664,325.0,-3.4126984126984126,-24.365079365079364,126.26984126984127,80.07936507936508,-0.07936507936507936,-0.5555555555555556,-321.8253968253968
156.74603174603175,-18.015873015873016,-29.444444444444443,278.4920634920635,152.14285714285714,-1.0317460317460316,-29.6031746031746,25.476190476190474,-9.603174603174603,31.507936507936506,325.0,-23.095238095238095,-30.71428571428571,35.0,-33.73015873015873,50.71428571428571,325.0,2.7777777777777777,-24.206349206349206,124.2063492063492,78.4920634920635,-0.07936507936507936,-0.873015873015873,-321.8253968253968
156.74603174603175,-18.015873015873016,-29.444444444444443,278.4920634920635,152.14285714285714,-1.0317460317460316,-29.6031746031746,25.476190476190474,-9.603174603174603,31.507936507936506,325.0,-23.095238095238095,-30.71428571428571,35.0,-33.73015873015873,50.71428571428571,325.0,2.7777777777777777,-24.206349206349206,124.2063492063492,78.4920634920635,-0.07936507936507936,-0.873015873015873,-321.8253968253968
154.52380952380952,-17.857142857142858,-28.809523809523807,275.0,150.3968253968254,2.46031746031746,-29.285714285714285,25.158730158730158,-10.873015873015872,31.349206349206348,322.6190476190476,-22.936507936507937,-30.238095238095237,34.2063492063492,-33.25396825396825,50.238095238095234,325.0,5.7936507936507935,-23.730158730158728,122.77777777777777,77.85714285714285,0.3968253968253968,0.07936507936507936,-321.8253968253968
154.52380952380952,-17.857142857142858,-28.809523809523807,275.0,150.3968253968254,2.46031746031746,-29.285714285714285,25.158730158730158,-10.873015873015872,31.349206349206348,322.6190476190476,-22.936507936507937,-30.238095238095237,34.2063492063492,-33.25396825396825,50.238095238095234,325.0,5.7936507936507935,-23.730158730158728,122.77777777777777,77.85714285714285,0.3968253968253968,0.07936507936507936,-321.8253968253968
152.61904761904762,-17.698412698412696,-28.65079365079365,271.66666666666663,148.4920634920635,2.3015873015873014,-28.809523809523807,24.84126984126984,-9.920634920634921,30.71428571428571,319.9206349206349,-22.619047619047617,-29.920634920634917,33.888888888888886,-32.93650793650794,49.44444444444444,325.0,5.634920634920634,-23.57142857142857,121.19047619047619,76.74603174603175,-0.3968253968253968,-0.7142857142857142,-321.8253968253968
152.61904761904762,-17.698412698412696,-28.65079365079365,271.66666666666663,148.4920634920635,2.3015873015873014,-28.809523809523807,24.84126984126984,-9.920634920634921,30.71428571428571,319.9206349206349,-22.619047619047617,-29.920634920634917,33.888888888888886,-32.93650793650794,49.44444444444444,325.0,5.634920634920634,-23.57142857142857,121.19047619047619,76.74603174603175,-0.3968253968253968,-0.7142857142857142,-321.8253968253968
150.87301587301587,-17.38095238095238,-28.333333333333332,268.3333333333333,146.58730158730157,2.142857142857143,-28.333333333333332,24.523809523809522,-8.968253968253968,30.238095238095237,317.22222222222223,-22.3015873015873,-29.444444444444443,33.57142857142857,-32.460317460317455,48.80952380952381,325.0,5.476190476190476,-23.253968253968253,119.76190476190476,75.63492063492063,-1.0317460317460316,-1.349206349206349,-321.8253968253968
150.87301587301587,-17.38095238095238,-28.333333333333332,268.3333333333333,146.58730158730157,2.142857142857143,-28.333333333333332,24.523809523809522,-8.968253968253968,30.238095238095237,317.22222222222223,-22.3015873015873,-29.444444444444443,33.57142857142857,-32.460317460317455,48.80952380952381,325.0,5.476190476190476,-23.253968253968253,119.76190476190476,75.63492063492063,-1.0317460317460316,-1.349206349206349,-321.8253968253968
146.26984126984127,-17.063492063492063,-27.539682539682538,260.23809523809524,142.3015873015873,3.4126984126984126,-27.698412698412696,23.88888888888889,-12.777777777777777,29.285714285714285,325.0,-21.825396825396822,-28.49206349206349,32.61904761904762,-31.666666666666664,47.698412698412696,325.0,7.063492063492063,-22.619047619047617,116.26984126984127,73.25396825396825,-0.3968253968253968,-0.23809523809523808,-166.26984126984127
146.26984126984127,-17.063492063492063,-27.539682539682538,260.23809523809524,142.3015873015873,3.4126984126984126,-27.698412698412696,23.88888888888889,-12.777777777777777,29.285714285714285,325.0,-21.825396825396822,-28.49206349206349,32.61904761904762,-31.666666666666664,47.698412698412696,325.0,7.063492063492063,-22.619047619047617,116.26984126984127,73.25396825396825,-0.3968253968253968,-0.23809523809523808,-166.26984126984127
143.57142857142856,-16.746031746031743,-27.22222222222222,255.79365079365078,140.23809523809524,1.6666666666666665,-27.38095238095238,23.57142857142857,6.904761904761904,28.96825396825397,325.0,-21.507936507936506,-28.333333333333332,31.98412698412698,-31.03174603174603,46.904761904761905,325.0,4.841269841269841,-22.3015873015873,114.2063492063492,72.14285714285714,-0.07936507936507936,-1.0317460317460316,-166.26984126984127
143.57142857142856,-16.746031746031743,-27.22222222222222,255.79365079365078,140.23809523809524,1.6666666666666665,-27.38095238095238,23.57142857142857,6.904761904761904,28.96825396825397,325.0,-21.507936507936506,-28.333333333333332,31.98412698412698,-31.03174603174603,46.904761904761905,325.0,4.841269841269841,-22.3015873015873,114.2063492063492,72.14285714285714,-0.07936507936507936,-1.0317460317460316,-166.26984126984127
141.03174603174602,-16.428571428571427,-26.587301587301585,251.5079365079365,137.69841269841268,2.9365079365079363,-26.9047619047619,23.095238095238095,15.793650793650793,28.333333333333332,325.0,-21.19047619047619,-27.698412698412696,31.507936507936506,-30.71428571428571,45.95238095238095,325.0,6.26984126984127,-21.984126984126984,112.30158730158729,70.87301587301587,-0.5555555555555556,-0.873015873015873,-166.26984126984127
141.03174603174602,-16.428571428571427,-26.587301587301585,251.5079365079365,137.69841269841268,2.9365079365079363,-26.9047619047619,23.095238095238095,15.793650793650793,28.333333333333332,325.0,-21.19047619047619,-27.698412698412696,31.507936507936506,-30.71428571428571,45.95238095238095,325.0,6.26984126984127,-21.984126984126984,112.30158730158729,70.87301587301587,-0.5555555555555556,-0.873015873015873,-166.26984126984127
139.28571428571428,-16.26984126984127,-26.26984126984127,248.015873015873,136.11111111111111,5.634920634920634,-26.428571428571427,23.095238095238095,18.96825396825397,28.015873015873016,325.0,-20.71428571428571,-27.38095238095238,31.03174603174603,-30.238095238095237,45.476190476190474,325.0,9.126984126984127,-21.825396825396822,110.87301587301587,69.92063492063491,-0.07936507936507936,-0.7142857142857142,-166.26984126984127
139.28571428571428,-16.26984126984127,-26.26984126984127,248.015873015873,136.11111111111111,5.634920634920634,-26.428571428571427,23.095238095238095,18.96825396825397,28.015873015873016,325.0,-20.71428571428571,-27.38095238095238,31.03174603174603,-30.238095238095237,45.476190476190474,325.0,9.126984126984127,-21.825396825396822,110.87301587301587,69.92063492063491,-0.07936507936507936,-0.7142857142857142,-166.26984126984127
139.28571428571428,-16.26984126984127,-26.26984126984127,248.015873015873,136.11111111111111,5.634920634920634,-26.428571428571427,23.095238095238095,18.96825396825397,28.015873015873016,325.0,-20.71428571428571,-27.38095238095238,31.03174603174603,-30.238095238095237,45.476190476190474,325.0,9.126984126984127,-21.825396825396822,110.87301587301587,69.92063492063491,-0.07936507936507936,-0.7142857142857142,-166.26984126984127
139.28571428571428,-16.26984126984127,-26.26984126984127,248.015873015873,136.11111111111111,5.634920634920634,-26.428571428571427,23.095238095238095,18.96825396825397,28.015873015873016,325.0,-20.71428571428571,-27.38095238095238,31.03174603174603,-30.238095238095237,45.476190476190474,325.0,9.126984126984127,-21.825396825396822,110.87301587301587,69.92063492063491,-0.07936507936507936,-0.7142857142857142,-166.26984126984127
136.11111111111111,-15.95238095238095,-25.79365079365079,242.93650793650792,133.4126984126984,-1.349206349206349,-26.11111111111111,22.46031746031746,25.634920634920633,27.539682539682538,325.0,-20.396825396825395,-26.9047619047619,30.238095238095237,-29.6031746031746,44.52380952380952,325.0,1.984126984126984,-21.349206349206348,108.65079365079364,68.33333333333333,0.07936507936507936,-0.07936507936507936,-321.8253968253968
136.11111111111111,-15.95238095238095,-25.79365079365079,242.93650793650792,133.4126984126984,-1.349206349206349,-26.11111111111111,22.46031746031746,25.634920634920633,27.539682539682538,325.0,-20.396825396825395,-26.9047619047619,30.238095238095237,-29.6031746031746,44.52380952380952,325.0,1.984126984126984,-21.349206349206348,108.65079365079364,68.33333333333333,0.07936507936507936,-0.07936507936507936,-321.8253968253968
133.0952380952381,-15.634920634920634,-25.317460317460316,237.85714285714283,130.7142857142857,-8.174603174603174,-25.634920634920633,21.984126984126984,32.3015873015873,27.22222222222222,325.0,-19.92063492063492,-26.26984126984127,29.444444444444443,-28.96825396825397,43.73015873015873,325.0,-5.158730158730158,-20.873015873015873,106.42857142857142,66.9047619047619,0.23809523809523808,0.5555555555555556,-321.8253968253968
133.0952380952381,-15.634920634920634,-25.317460317460316,237.85714285714283,130.7142857142857,-8.174603174603174,-25.634920634920633,21.984126984126984,32.3015873015873,27.22222222222222,325.0,-19.92063492063492,-26.26984126984127,29.444444444444443,-28.96825396825397,43.73015873015873,325.0,-5.158730158730158,-20.873015873015873,106.42857142857142,66.9047619047619,0.23809523809523808,0.5555555555555556,-321.8253968253968
129.28571428571428,-15.317460317460316,-24.523809523809522,231.03174603174602,126.74603174603173,-4.841269841269841,-24.84126984126984,21.349206349206348,30.396825396825395,26.11111111111111,325.0,-19.285714285714285,-25.634920634920633,28.809523809523807,-28.333333333333332,42.3015873015873,325.0,-1.507936507936508,-20.238095238095237,103.09523809523809,64.84126984126983,-0.07936507936507936,-0.23809523809523808,-321.8253968253968
129.28571428571428,-15.317460317460316,-24.523809523809522,231.03174603174602,126.74603174603173,-4.841269841269841,-24.84126984126984,21.349206349206348,30.396825396825395,26.11111111111111,325.0,-19.285714285714285,-25.634920634920633,28.809523809523807,-28.333333333333332,42.3015873015873,325.0,-1.507936507936508,-20.238095238095237,103.09523809523809,64.84126984126983,-0.07936507936507936,-0.23809523809523808,-321.8253968253968
126.9047619047619,-15.0,-24.206349206349206,227.06349206349205,124.68253968253967,-2.142857142857143,-24.523809523809522,20.873015873015873,37.38095238095238,25.79365079365079,325.0,-18.96825396825397,-25.317460317460316,28.333333333333332,-27.857142857142854,41.666666666666664,325.0,1.349206349206349,-20.07936507936508,101.5079365079365,63.57142857142857,-0.5555555555555556,0.23809523809523808,-321.8253968253968
126.9047619047619,-15.0,-24.206349206349206,227.06349206349205,124.68253968253967,-2.142857142857143,-24.523809523809522,20.873015873015873,37.38095238095238,25.79365079365079,325.0,-18.96825396825397,-25.317460317460316,28.333333333333332,-27.857142857142854,41.666666666666664,325.0,1.349206349206349,-20.07936507936508,101.5079365079365,63.57142857142857,-0.5555555555555556,0.23809523809523808,-321.8253968253968
124.68253968253967,-14.682539682539682,-23.88888888888889,223.09523809523807,122.6190476190476,3.73015873015873,-24.206349206349206,20.555555555555554,39.76190476190476,25.476190476190474,325.0,-18.80952380952381,-24.68253968253968,27.698412698412696,-27.539682539682538,40.87301587301587,325.0,6.746031746031746,-19.6031746031746,99.76190476190476,62.61904761904761,-0.3968253968253968,-0.07936507936507936,-321.8253968253968
124.68253968253967,-14.682539682539682,-23.88888888888889,223.09523809523807,122.6190476190476,3.73015873015873,-24.206349206349206,20.555555555555554,39.76190476190476,25.476190476190474,325.0,-18.80952380952381,-24.68253968253968,27.698412698412696,-27.539682539682538,40.87301587301587,325.0,6.746031746031746,-19.6031746031746,99.76190476190476,62.61904761904761,-0.3968253968253968,-0.07936507936507936,-321.8253968253968
123.09523809523809,-14.523809523809524,-23.730158730158728,220.3968253968254,121.34920634920634,2.9365079365079363,-23.88888888888889,20.396825396825395,38.80952380952381,25.0,325.0,-18.49206349206349,-24.523809523809522,27.38095238095238,-27.063492063492063,39.92063492063492,325.0,5.7936507936507935,-19.285714285714285,98.49206349206348,61.666666666666664,0.3968253968253968,-0.5555555555555556,-166.26984126984127
123.09523809523809,-14.523809523809524,-23.730158730158728,220.3968253968254,121.34920634920634,2.9365079365079363,-23.88888888888889,20.396825396825395,38.80952380952381,25.0,325.0,-18.49206349206349,-24.523809523809522,27.38095238095238,-27.063492063492063,39.92063492063492,325.0,5.7936507936507935,-19.285714285714285,98.49206349206348,61.666666666666664,0.3968253968253968,-0.5555555555555556,-166.26984126984127
120.55555555555554,-14.365079365079364,-23.095238095238095,215.63492063492063,118.49206349206348,-1.8253968253968254,-23.41269841269841,20.07936507936508,41.507936507936506,24.365079365079364,325.0,-18.174603174603174,-24.047619047619047,26.9047619047619,-26.587301587301585,39.6031746031746,325.0,0.873015873015873,-19.126984126984127,96.42857142857142,60.39682539682539,0.3968253968253968,-0.23809523809523808,-166.26984126984127
120.55555555555554,-14.365079365079364,-23.095238095238095,215.63492063492063,118.49206349206348,-1.8253968253968254,-23.41269841269841,20.07936507936508,41.507936507936506,24.365079365079364,325.0,-18.174603174603174,-24.047619047619047,26.9047619047619,-26.587301587301585,39.6031746031746,325.0,0.873015873015873,-19.126984126984127,96.42857142857142,60.39682539682539,0.3968253968253968,-0.23809523809523808,-166.26984126984127
118.33333333333333,-14.206349206349206,-22.777777777777775,211.98412698412696,116.9047619047619,-4.2063492063492065,-22.936507936507937,19.76190476190476,47.06349206349206,24.206349206349206,325.0,-18.015873015873016,-23.57142857142857,26.428571428571427,-26.26984126984127,39.12698412698413,321.66666666666663,-1.6666666666666665,-18.65079365079365,94.68253968253968,59.6031746031746,-0.07936507936507936,-0.5555555555555556,-166.26984126984127
118.33333333333333,-14.206349206349206,-22.777777777777775,211.98412698412696,116.9047619047619,-4.2063492063492065,-22.936507936507937,19.76190476190476,47.06349206349206,24.206349206349206,325.0,-18.015873015873016,-23.57142857142857,26.428571428571427,-26.26984126984127,39.12698412698413,321.66666666666663,-1.6666666666666665,-18.65079365079365,94.68253968253968,59.6031746031746,-0.07936507936507936,-0.5555555555555556,-166.26984126984127
116.26984126984127,-13.888888888888888,-22.46031746031746,208.4920634920635,114.68253968253967,-1.1904761904761905,-22.777777777777775,19.444444444444443,51.507936507936506,23.730158730158728,325.0,-17.698412698412696,-23.253968253968253,25.952380952380953,-25.952380952380953,38.33333333333333,316.4285714285714,1.6666666666666665,-18.49206349206349,93.09523809523809,58.33333333333333,0.07936507936507936,-0.3968253968253968,-166.26984126984127
116.26984126984127,-13.888888888888888,-22.46031746031746,208.4920634920635,114.68253968253967,-1.1904761904761905,-22.777777777777775,19.444444444444443,51.507936507936506,23.730158730158728,325.0,-17.698412698412696,-23.253968253968253,25.952380952380953,-25.952380952380953,38.33333333333333,316.4285714285714,1.6666666666666665,-18.49206349206349,93.09523809523809,58.33333333333333,0.07936507936507936,-0.3968253968253968,-166.26984126984127
114.2063492063492,-13.73015873015873,-22.142857142857142,204.84126984126982,112.93650793650794,5.158730158730158,-22.3015873015873,18.96825396825397,49.285714285714285,23.41269841269841,325.0,-17.539682539682538,-22.777777777777775,25.476190476190474,-25.476190476190474,30.396825396825395,311.19047619047615,7.698412698412698,-18.333333333333332,91.66666666666666,57.38095238095238,-0.3968253968253968,-0.07936507936507936,-166.26984126984127
114.2063492063492,-13.73015873015873,-22.142857142857142,204.84126984126982,112.93650793650794,5.158730158730158,-22.3015873015873,18.96825396825397,49.285714285714285,23.41269841269841,325.0,-17.539682539682538,-22.777777777777775,25.476190476190474,-25.476190476190474,30.396825396825395,311.19047619047615,7.698412698412698,-18.333333333333332,91.66666666666666,57.38095238095238,-0.3968253968253968,-0.07936507936507936,-166.26984126984127
110.55555555555554,-13.253968253968253,-21.507936507936506,198.8095238095238,109.76190476190476,-4.523809523809524,-21.666666666666664,17.857142857142858,48.96825396825397,18.015873015873016,325.0,-16.746031746031743,-21.984126984126984,24.84126984126984,-24.84126984126984,-56.904761904761905,302.1428571428571,-1.984126984126984,-17.698412698412696,88.96825396825396,55.476190476190474,0.07936507936507936,-0.7142857142857142,-321.8253968253968
110.55555555555554,-13.253968253968253,-21.507936507936506,198.8095238095238,109.76190476190476,-4.523809523809524,-21.666666666666664,17.857142857142858,48.96825396825397,18.015873015873016,325.0,-16.746031746031743,-21.984126984126984,24.84126984126984,-24.84126984126984,-56.904761904761905,302.1428571428571,-1.984126984126984,-17.698412698412696,88.96825396825396,55.476190476190474,0.07936507936507936,-0.7142857142857142,-321.8253968253968
108.33333333333333,-13.095238095238095,-20.873015873015873,194.68253968253967,107.38095238095238,-7.698412698412698,-21.19047619047619,15.158730158730158,54.68253968253968,4.365079365079365,325.0,-16.587301587301585,-21.507936507936506,24.206349206349206,-24.365079365079364,-7.698412698412698,295.7936507936508,-5.317460317460317,-17.22222222222222,87.06349206349206,54.36507936507936,-0.3968253968253968,-0.873015873015873,-321.8253968253968
108.33333333333333,-13.095238095238095,-20.873015873015873,194.68253968253967,107.38095238095238,-7.698412698412698,-21.19047619047619,15.158730158730158,54.68253968253968,4.365079365079365,325.0,-16.587301587301585,-21.507936507936506,24.206349206349206,-24.365079365079364,-7.698412698412698,295.7936507936508,-5.317460317460317,-17.22222222222222,87.06349206349206,54.36507936507936,-0.3968253968253968,-0.873015873015873,-321.8253968253968
106.9047619047619,-12.777777777777777,-20.873015873015873,192.14285714285714,106.26984126984127,-4.841269841269841,-21.03174603174603,15.317460317460316,53.095238095238095,-4.365079365079365,325.0,-16.11111111111111,-21.666666666666664,23.88888888888889,-24.047619047619047,44.047619047619044,292.1428571428571,-2.619047619047619,-17.063492063492063,86.1111111111111,53.73015873015873,0.7142857142857142,-0.23809523809523808,-321.8253968253968
106.9047619047619,-12.777777777777777,-20.873015873015873,192.14285714285714,106.26984126984127,-4.841269841269841,-21.03174603174603,15.317460317460316,53.095238095238095,-4.365079365079365,325.0,-16.11111111111111,-21.666666666666664,23.88888888888889,-24.047619047619047,44.047619047619044,292.1428571428571,-2.619047619047619,-17.063492063492063,86.1111111111111,53.73015873015873,0.7142857142857142,-0.23809523809523808,-321.8253968253968
104.84126984126983,-12.619047619047619,-20.555555555555554,188.8095238095238,104.52380952380952,-9.444444444444445,-20.71428571428571,10.396825396825395,52.3015873015873,-0.7142857142857142,325.0,-16.11111111111111,-21.03174603174603,23.41269841269841,-23.57142857142857,39.76190476190476,287.06349206349205,-6.587301587301587,-16.746031746031743,84.68253968253968,52.61904761904761,-1.0317460317460316,-0.07936507936507936,-321.8253968253968
104.84126984126983,-12.619047619047619,-20.555555555555554,188.8095238095238,104.52380952380952,-9.444444444444445,-20.71428571428571,10.396825396825395,52.3015873015873,-0.7142857142857142,325.0,-16.11111111111111,-21.03174603174603,23.41269841269841,-23.57142857142857,39.76190476190476,287.06349206349205,-6.587301587301587,-16.746031746031743,84.68253968253968,52.61904761904761,-1.0317460317460316,-0.07936507936507936,-321.8253968253968
103.57142857142857,-11.349206349206348,-20.396825396825395,186.42857142857142,103.09523809523809,-2.7777777777777777,-20.396825396825395,11.507936507936508,56.58730158730158,10.873015873015872,325.0,-15.95238095238095,-20.873015873015873,23.095238095238095,-23.41269841269841,39.12698412698413,283.4126984126984,-0.5555555555555556,-16.587301587301585,83.4126984126984,52.14285714285714,-0.5555555555555556,-0.5555555555555556,-321.8253968253968
103.57142857142857,-11.349206349206348,-20.396825396825395,186.42857142857142,103.09523809523809,-2.7777777777777777,-20.396825396825395,11.507936507936508,56.58730158730158,10.873015873015872,325.0,-15.95238095238095,-20.873015873015873,23.095238095238095,-23.41269841269841,39.12698412698413,283.4126984126984,-0.5555555555555556,-16.587301587301585,83.4126984126984,52.14285714285714,-0.5555555555555556,-0.5555555555555556,-321.8253968253968
100.87301587301587,-5.952380952380952,-19.76190476190476,181.8253968253968,100.55555555555554,-0.07936507936507936,-20.07936507936508,12.3015873015873,68.96825396825396,22.46031746031746,325.0,-15.476190476190474,-20.555555555555554,22.619047619047617,-22.777777777777775,37.857142857142854,276.26984126984127,2.3015873015873014,-16.26984126984127,81.34920634920634,50.87301587301587,-0.23809523809523808,-0.23809523809523808,-166.26984126984127
100.87301587301587,-5.952380952380952,-19.76190476190476,181.8253968253968,100.55555555555554,-0.07936507936507936,-20.07936507936508,12.3015873015873,68.96825396825396,22.46031746031746,325.0,-15.476190476190474,-20.555555555555554,22.619047619047617,-22.777777777777775,37.857142857142854,276.26984126984127,2.3015873015873014,-16.26984126984127,81.34920634920634,50.87301587301587,-0.23809523809523808,-0.23809523809523808,-166.26984126984127
99.12698412698413,-5.0,-19.444444444444443,178.4920634920635,98.65079365079364,2.46031746031746,-19.92063492063492,7.5396825396825395,70.71428571428571,17.857142857142858,325.0,-15.317460317460316,-19.92063492063492,22.3015873015873,-22.619047619047617,37.22222222222222,271.66666666666663,4.523809523809524,-15.95238095238095,79.92063492063491,49.76190476190476,-0.23809523809523808,-1.0317460317460316,-166.26984126984127
99.12698412698413,-5.0,-19.444444444444443,178.4920634920635,98.65079365079364,2.46031746031746,-19.92063492063492,7.5396825396825395,70.71428571428571,17.857142857142858,325.0,-15.317460317460316,-19.92063492063492,22.3015873015873,-22.619047619047617,37.22222222222222,271.66666666666663,4.523809523809524,-15.95238095238095,79.92063492063491,49.76190476190476,-0.23809523809523808,-1.0317460317460316,-166.26984126984127
97.85714285714285,-2.3015873015873014,-19.444444444444443,176.42857142857142,97.53968253968253,6.746031746031746,-19.285714285714285,2.46031746031746,69.76190476190476,0.873015873015873,325.0,-15.0,-19.92063492063492,21.984126984126984,-22.3015873015873,36.904761904761905,268.3333333333333,8.333333333333332,-15.95238095238095,78.80952380952381,49.44444444444444,0.07936507936507936,-0.3968253968253968,-166.26984126984127
97.85714285714285,-2.3015873015873014,-19.444444444444443,176.42857142857142,97.53968253968253,6.746031746031746,-19.285714285714285,2.46031746031746,69.76190476190476,0.873015873015873,325.0,-15.0,-19.92063492063492,21.984126984126984,-22.3015873015873,36.904761904761905,268.3333333333333,8.333333333333332,-15.95238095238095,78.80952380952381,49.44444444444444,0.07936507936507936,-0.3968253968253968,-166.26984126984127
95.63492063492063,0.3968253968253968,-18.96825396825397,172.77777777777777,95.63492063492063,-1.6666666666666665,-19.126984126984127,-8.333333333333332,70.07936507936508,0.7142857142857142,325.0,-14.84126984126984,-19.444444444444443,21.507936507936506,-21.825396825396822,35.95238095238095,262.6190476190476,0.5555555555555556,-15.476190476190474,77.38095238095238,48.17460317460317,0.3968253968253968,-0.3968253968253968,-166.26984126984127
95.63492063492063,0.3968253968253968,-18.96825396825397,172.77777777777777,95.63492063492063,-1.6666666666666665,-19.126984126984127,-8.333333333333332,70.07936507936508,0.7142857142857142,325.0,-14.84126984126984,-19.444444444444443,21.507936507936506,-21.825396825396822,35.95238095238095,262.6190476190476,0.5555555555555556,-15.476190476190474,77.38095238095238,48.17460317460317,0.3968253968253968,-0.3968253968253968,-166.26984126984127
94.2063492063492,11.19047619047619,-18.80952380952381,169.76190476190476,93.88888888888889,-1.349206349206349,-18.65079365079365,-12.777777777777777,69.12698412698413,13.095238095238095,325.0,-14.523809523809524,-19.126984126984127,21.03174603174603,-21.507936507936506,35.476190476190474,258.3333333333333,0.7142857142857142,-15.317460317460316,75.95238095238095,47.22222222222222,0.23809523809523808,0.07936507936507936,-166.26984126984127
94.2063492063492,11.19047619047619,-18.80952380952381,169.76190476190476,93.88888888888889,-1.349206349206349,-18.65079365079365,-12.777777777777777,69.12698412698413,13.095238095238095,325.0,-14.523809523809524,-19.126984126984127,21.03174603174603,-21.507936507936506,35.476190476190474,258.3333333333333,0.7142857142857142,-15.317460317460316,75.95238095238095,47.22222222222222,0.23809523809523808,0.07936507936507936,-166.26984126984127
92.46031746031746,18.49206349206349,-18.333333333333332,166.9047619047619,92.46031746031746,3.253968253968254,-18.65079365079365,-22.46031746031746,64.68253968253968,-18.333333333333332,325.0,-14.523809523809524,-18.65079365079365,20.71428571428571,-21.19047619047619,34.84126984126984,254.04761904761904,5.634920634920634,-15.158730158730158,74.84126984126983,46.42857142857142,0.07936507936507936,-1.1904761904761905,-321.8253968253968
92.46031746031746,18.49206349206349,-18.333333333333332,166.9047619047619,92.46031746031746,3.253968253968254,-18.65079365079365,-22.46031746031746,64.68253968253968,-18.333333333333332,325.0,-14.523809523809524,-18.65079365079365,20.71428571428571,-21.19047619047619,34.84126984126984,254.04761904761904,5.634920634920634,-15.158730158730158,74.84126984126983,46.42857142857142,0.07936507936507936,-1.1904761904761905,-321.8253968253968
90.87301587301587,22.46031746031746,-18.015873015873016,163.88888888888889,90.87301587301587,8.333333333333332,-18.333333333333332,-30.396825396825395,65.15873015873015,-39.6031746031746,325.0,-14.206349206349206,-18.333333333333332,20.396825396825395,-21.03174603174603,34.36507936507936,249.60317460317458,10.555555555555555,-15.0,73.57142857142857,45.63492063492063,-0.07936507936507936,0.07936507936507936,-321.8253968253968
90.87301587301587,22.46031746031746,-18.015873015873016,163.88888888888889,90.87301587301587,8.333333333333332,-18.333333333333332,-30.396825396825395,65.15873015873015,-39.6031746031746,325.0,-14.206349206349206,-18.333333333333332,20.396825396825395,-21.03174603174603,34.36507936507936,249.60317460317458,10.555555555555555,-15.0,73.57142857142857,45.63492063492063,-0.07936507936507936,0.07936507936507936,-321.8253968253968
89.12698412698413,24.84126984126984,-17.857142857142858,161.03174603174602,89.28571428571428,3.888888888888889,-18.015873015873016,-30.555555555555554,68.4920634920635,-47.38095238095238,325.0,-14.047619047619047,-18.174603174603174,20.07936507936508,-20.71428571428571,33.73015873015873,245.3174603174603,5.634920634920634,-14.682539682539682,72.14285714285714,45.0,-0.7142857142857142,-0.23809523809523808,-321.8253968253968
89.12698412698413,24.84126984126984,-17.857142857142858,161.03174603174602,89.28571428571428,3.888888888888889,-18.015873015873016,-30.555555555555554,68.4920634920635,-47.38095238095238,325.0,-14.047619047619047,-18.174603174603174,20.07936507936508,-20.71428571428571,33.73015873015873,245.3174603174603,5.634920634920634,-14.682539682539682,72.14285714285714,45.0,-0.7142857142857142,-0.23809523809523808,-321.8253968253968
87.6984126984127,27.698412698412696,-17.539682539682538,158.4920634920635,87.85714285714285,4.523809523809524,-17.698412698412696,-32.93650793650794,71.5079365079365,-42.61904761904761,325.0,-13.73015873015873,-17.857142857142858,19.92063492063492,-20.238095238095237,33.095238095238095,241.34920634920633,6.587301587301587,-14.365079365079364,71.19047619047619,44.047619047619044,-0.5555555555555556,-0.07936507936507936,-321.8253968253968
87.6984126984127,27.698412698412696,-17.539682539682538,158.4920634920635,87.85714285714285,4.523809523809524,-17.698412698412696,-32.93650793650794,71.5079365079365,-42.61904761904761,325.0,-13.73015873015873,-17.857142857142858,19.92063492063492,-20.238095238095237,33.095238095238095,241.34920634920633,6.587301587301587,-14.365079365079364,71.19047619047619,44.047619047619044,-0.5555555555555556,-0.07936507936507936,-321.8253968253968
85.95238095238095,38.01587301587301,-17.38095238095238,155.47619047619048,86.58730158730158,1.6666666666666665,-17.38095238095238,-34.36507936507936,72.93650793650794,-12.46031746031746,325.0,-13.571428571428571,-17.698412698412696,19.285714285714285,-20.07936507936508,32.460317460317455,237.2222222222222,3.253968253968254,-14.365079365079364,69.76190476190476,43.41269841269841,-0.3968253968253968,0.23809523809523808,-321.8253968253968
85.95238095238095,38.01587301587301,-17.38095238095238,155.47619047619048,86.58730158730158,1.6666666666666665,-17.38095238095238,-34.36507936507936,72.93650793650794,-12.46031746031746,325.0,-13.571428571428571,-17.698412698412696,19.285714285714285,-20.07936507936508,32.460317460317455,237.2222222222222,3.253968253968254,-14.365079365079364,69.76190476190476,43.41269841269841,-0.3968253968253968,0.23809523809523808,-321.8253968253968
84.68253968253968,39.44444444444444,-16.904761904761905,153.09523809523807,85.0,3.095238095238095,-17.38095238095238,-38.17460317460317,74.68253968253968,-11.984126984126984,325.0,-13.412698412698411,-17.38095238095238,19.126984126984127,-19.6031746031746,31.825396825396822,233.09523809523807,5.0,-14.047619047619047,68.4920634920635,42.61904761904761,-0.5555555555555556,-0.07936507936507936,-166.26984126984127
84.68253968253968,39.44444444444444,-16.904761904761905,153.09523809523807,85.0,3.095238095238095,-17.38095238095238,-38.17460317460317,74.68253968253968,-11.984126984126984,325.0,-13.412698412698411,-17.38095238095238,19.126984126984127,-19.6031746031746,31.825396825396822,233.09523809523807,5.0,-14.047619047619047,68.4920634920635,42.61904761904761,-0.5555555555555556,-0.07936507936507936,-166.26984126984127
83.57142857142857,42.61904761904761,-16.904761904761905,151.03174603174602,84.04761904761904,5.634920634920634,-17.063492063492063,-37.38095238095238,76.1111111111111,-3.571428571428571,325.0,-13.095238095238095,-17.22222222222222,18.80952380952381,-19.444444444444443,31.507936507936506,230.07936507936506,7.698412698412698,-13.888888888888888,67.6984126984127,41.98412698412698,-0.3968253968253968,0.3968253968253968,-166.26984126984127
83.57142857142857,42.61904761904761,-16.904761904761905,151.03174603174602,84.04761904761904,5.634920634920634,-17.063492063492063,-37.38095238095238,76.1111111111111,-3.571428571428571,325.0,-13.095238095238095,-17.22222222222222,18.80952380952381,-19.444444444444443,31.507936507936506,230.07936507936506,7.698412698412698,-13.888888888888888,67.6984126984127,41.98412698412698,-0.3968253968253968,0.3968253968253968,-166.26984126984127
81.66666666666666,45.95238095238095,-16.428571428571427,147.85714285714286,82.3015873015873,2.619047619047619,-16.904761904761905,-33.73015873015873,80.55555555555556,10.714285714285714,325.0,-13.095238095238095,-16.746031746031743,18.333333333333332,-19.285714285714285,31.03174603174603,225.47619047619045,4.523809523809524,-13.571428571428571,66.42857142857143,41.19047619047619,-0.23809523809523808,-0.07936507936507936,-166.26984126984127
81.66666666666666,45.95238095238095,-16.428571428571427,147.85714285714286,82.3015873015873,2.619047619047619,-16.904761904761905,-33.73015873015873,80.55555555555556,10.714285714285714,325.0,-13.095238095238095,-16.746031746031743,18.333333333333332,-19.285714285714285,31.03174603174603,225.47619047619045,4.523809523809524,-13.571428571428571,66.42857142857143,41.19047619047619,-0.23809523809523808,-0.07936507936507936,-166.26984126984127
80.23809523809523,51.34920634920635,-16.26984126984127,145.3174603174603,80.71428571428571,4.2063492063492065,-16.428571428571427,-34.52380952380952,80.55555555555556,-1.349206349206349,325.0,-12.777777777777777,-16.428571428571427,18.015873015873016,-18.96825396825397,30.396825396825395,221.66666666666666,5.952380952380952,-13.412698412698411,65.15873015873015,40.238095238095234,0.07936507936507936,-1.1904761904761905,-166.26984126984127
80.23809523809523,51.34920634920635,-16.26984126984127,145.3174603174603,80.71428571428571,4.2063492063492065,-16.428571428571427,-34.52380952380952,80.55555555555556,-1.349206349206349,325.0,-12.777777777777777,-16.428571428571427,18.015873015873016,-18.96825396825397,30.396825396825395,221.66666666666666,5.952380952380952,-13.412698412698411,65.15873015873015,40.238095238095234,0.07936507936507936,-1.1904761904761905,-166.26984126984127
80.07936507936508,51.666666666666664,-16.11111111111111,144.84126984126982,80.39682539682539,5.634920634920634,-16.26984126984127,-35.15873015873016,78.96825396825396,-7.063492063492063,325.0,-12.777777777777777,-16.26984126984127,18.015873015873016,-18.96825396825397,30.396825396825395,220.7142857142857,7.222222222222221,-13.412698412698411,64.84126984126983,40.238095238095234,0.3968253968253968,-1.1904761904761905,-166.26984126984127
80.07936507936508,51.666666666666664,-16.11111111111111,144.84126984126982,80.39682539682539,5.634920634920634,-16.26984126984127,-35.15873015873016,78.96825396825396,-7.063492063492063,325.0,-12.777777777777777,-16.26984126984127,18.015873015873016,-18.96825396825397,30.396825396825395,220.7142857142857,7.222222222222221,-13.412698412698411,64.84126984126983,40.238095238095234,0.3968253968253968,-1.1904761904761905,-166.26984126984127
77.85714285714285,64.36507936507937,-15.634920634920634,140.87301587301587,78.65079365079364,3.73015873015873,-16.428571428571427,-38.49206349206349,78.01587301587301,-24.365079365079364,325.0,-12.619047619047619,-16.11111111111111,17.539682539682538,-18.333333333333332,29.6031746031746,215.0,5.158730158730158,-13.095238095238095,63.25396825396825,39.44444444444444,-0.23809523809523808,-1.349206349206349,-321.8253968253968
77.85714285714285,64.36507936507937,-15.634920634920634,140.87301587301587,78.65079365079364,3.73015873015873,-16.428571428571427,-38.49206349206349,78.01587301587301,-24.365079365079364,325.0,-12.619047619047619,-16.11111111111111,17.539682539682538,-18.333333333333332,29.6031746031746,215.0,5.158730158730158,-13.095238095238095,63.25396825396825,39.44444444444444,-0.23809523809523808,-1.349206349206349,-321.8253968253968
73.57142857142857,73.09523809523809,-15.0,133.4126984126984,74.52380952380952,0.5555555555555556,-15.476190476190474,-45.0,82.14285714285714,-52.14285714285714,325.0,-11.984126984126984,-15.158730158730158,16.587301587301585,-17.539682539682538,28.015873015873016,203.7301587301587,1.8253968253968254,-12.619047619047619,60.079365079365076,37.22222222222222,-0.7142857142857142,-0.5555555555555556,-321.8253968253968
73.57142857142857,73.09523809523809,-15.0,133.4126984126984,74.52380952380952,0.5555555555555556,-15.476190476190474,-45.0,82.14285714285714,-52.14285714285714,325.0,-11.984126984126984,-15.158730158730158,16.587301587301585,-17.539682539682538,28.015873015873016,203.7301587301587,1.8253968253968254,-12.619047619047619,60.079365079365076,37.22222222222222,-0.7142857142857142,-0.5555555555555556,-321.8253968253968
69.44444444444444,81.82539682539682,-14.206349206349206,126.1111111111111,70.55555555555556,-2.619047619047619,-14.365079365079364,-51.507936507936506,86.42857142857143,-79.92063492063491,325.0,-11.349206349206348,-14.206349206349206,15.793650793650793,-16.746031746031743,26.587301587301585,192.61904761904762,-1.349206349206349,-11.984126984126984,56.904761904761905,35.15873015873016,-1.0317460317460316,0.3968253968253968,-321.8253968253968
69.44444444444444,81.82539682539682,-14.206349206349206,126.1111111111111,70.55555555555556,-2.619047619047619,-14.365079365079364,-51.507936507936506,86.42857142857143,-79.92063492063491,325.0,-11.349206349206348,-14.206349206349206,15.793650793650793,-16.746031746031743,26.587301587301585,192.61904761904762,-1.349206349206349,-11.984126984126984,56.904761904761905,35.15873015873016,-1.0317460317460316,0.3968253968253968,-321.8253968253968
69.44444444444444,81.82539682539682,-14.206349206349206,126.1111111111111,70.55555555555556,-2.619047619047619,-14.365079365079364,-51.507936507936506,86.42857142857143,-79.92063492063491,325.0,-11.349206349206348,-14.206349206349206,15.793650793650793,-16.746031746031743,26.587301587301585,192.61904761904762,-1.349206349206349,-11.984126984126984,56.904761904761905,35.15873015873016,-1.0317460317460316,0.3968253968253968,-321.8253968253968
69.44444444444444,81.82539682539682,-14.206349206349206,126.1111111111111,70.55555555555556,-2.619047619047619,-14.365079365079364,-51.507936507936506,86.42857142857143,-79.92063492063491,325.0,-11.349206349206348,-14.206349206349206,15.793650793650793,-16.746031746031743,26.587301587301585,192.61904761904762,-1.349206349206349,-11.984126984126984,56.904761904761905,35.15873015873016,-1.0317460317460316,0.3968253968253968,-321.8253968253968
67.38095238095238,89.28571428571428,-13.888888888888888,122.30158730158729,68.4920634920635,-4.365079365079365,-14.206349206349206,-60.55555555555555,87.53968253968253,-100.71428571428571,325.0,-11.031746031746032,-13.888888888888888,15.317460317460316,-16.428571428571427,25.79365079365079,186.9047619047619,-3.571428571428571,-11.666666666666666,55.0,34.047619047619044,-0.7142857142857142,-0.07936507936507936,-321.8253968253968
67.38095238095238,89.28571428571428,-13.888888888888888,122.30158730158729,68.4920634920635,-4.365079365079365,-14.206349206349206,-60.55555555555555,87.53968253968253,-100.71428571428571,325.0,-11.031746031746032,-13.888888888888888,15.317460317460316,-16.428571428571427,25.79365079365079,186.9047619047619,-3.571428571428571,-11.666666666666666,55.0,34.047619047619044,-0.7142857142857142,-0.07936507936507936,-321.8253968253968
65.31746031746032,96.9047619047619,-13.571428571428571,118.49206349206348,66.42857142857143,-6.111111111111111,-13.888888888888888,-69.6031746031746,88.80952380952381,-121.34920634920634,325.0,-10.714285714285714,-13.571428571428571,14.84126984126984,-16.11111111111111,25.158730158730158,181.19047619047618,-5.634920634920634,-11.19047619047619,53.25396825396825,33.095238095238095,-0.3968253968253968,-0.5555555555555556,-166.26984126984127
65.31746031746032,96.9047619047619,-13.571428571428571,118.49206349206348,66.42857142857143,-6.111111111111111,-13.888888888888888,-69.6031746031746,88.80952380952381,-121.34920634920634,325.0,-10.714285714285714,-13.571428571428571,14.84126984126984,-16.11111111111111,25.158730158730158,181.19047619047618,-5.634920634920634,-11.19047619047619,53.25396825396825,33.095238095238095,-0.3968253968253968,-0.5555555555555556,-166.26984126984127
65.31746031746032,96.9047619047619,-13.571428571428571,118.49206349206348,66.42857142857143,-6.111111111111111,-13.888888888888888,-69.6031746031746,88.80952380952381,-121.34920634920634,325.0,-10.714285714285714,-13.571428571428571,14.84126984126984,-16.11111111111111,25.158730158730158,181.19047619047618,-5.634920634920634,-11.19047619047619,53.25396825396825,33.095238095238095,-0.3968253968253968,-0.5555555555555556,-166.26984126984127
65.31746031746032,96.9047619047619,-13.571428571428571,118.49206349206348,66.42857142857143,-6.111111111111111,-13.888888888888888,-69.6031746031746,88.80952380952381,-121.34920634920634,325.0,-10.714285714285714,-13.571428571428571,14.84126984126984,-16.11111111111111,25.158730158730158,181.19047619047618,-5.634920634920634,-11.19047619047619,53.25396825396825,33.095238095238095,-0.3968253968253968,-0.5555555555555556,-166.26984126984127
65.31746031746032,96.9047619047619,-13.571428571428571,118.49206349206348,66.42857142857143,-6.111111111111111,-13.888888888888888,-69.6031746031746,88.80952380952381,-121.34920634920634,325.0,-10.714285714285714,-13.571428571428571,14.84126984126984,-16.11111111111111,25.158730158730158,181.19047619047618,-5.634920634920634,-11.19047619047619,53.25396825396825,33.095238095238095,-0.3968253968253968,-0.5555555555555556,-166.26984126984127
65.31746031746032,96.9047619047619,-13.571428571428571,118.49206349206348,66.42857142857143,-6.111111111111111,-13.888888888888888,-69.6031746031746,88.80952380952381,-121.34920634920634,325.0,-10.714285714285714,-13.571428571428571,14.84126984126984,-16.11111111111111,25.158730158730158,181.19047619047618,-5.634920634920634,-11.19047619047619,53.25396825396825,33.095238095238095,-0.3968253968253968,-0.5555555555555556,-166.26984126984127
65.31746031746032,96.9047619047619,-13.571428571428571,118.49206349206348,66.42857142857143,-6.111111111111111,-13.888888888888888,-69.6031746031746,88.80952380952381,-121.34920634920634,325.0,-10.714285714285714,-13.571428571428571,14.84126984126984,-16.11111111111111,25.158730158730158,181.19047619047618,-5.634920634920634,-11.19047619047619,53.25396825396825,33.095238095238095,-0.3968253968253968,-0.5555555555555556,-166.26984126984127
65.31746031746032,96.9047619047619,-13.571428571428571,118.49206349206348,66.42857142857143,-6.111111111111111,-13.888888888888888,-69.6031746031746,88.80952380952381,-121.34920634920634,325.0,-10.714285714285714,-13.571428571428571,14.84126984126984,-16.11111111111111,25.158730158730158,181.19047619047618,-5.634920634920634,-11.19047619047619,53.25396825396825,33.095238095238095,-0.3968253968253968,-0.5555555555555556,-166.26984126984127
68.17460317460318,201.03174603174602,-158.96825396825395,-77.38095238095238,-105.0,-59.76190476190476,150.55555555555554,-66.26984126984127,-69.12698412698413,-55.15873015873016,325.0,-8.968253968253968,-11.984126984126984,12.619047619047619,-24.047619047619047,11.19047619047619,154.04761904761904,1.6666666666666665,152.77777777777777,55.63492063492063,-145.0,0.07936507936507936,-11.19047619047619,-166.26984126984127
68.17460317460318,201.03174603174602,-158.96825396825395,-77.38095238095238,-105.0,-59.76190476190476,150.55555555555554,-66.26984126984127,-69.12698412698413,-55.15873015873016,325.0,-8.968253968253968,-11.984126984126984,12.619047619047619,-24.047619047619047,11.19047619047619,154.04761904761904,1.6666666666666665,152.77777777777777,55.63492063492063,-145.0,0.07936507936507936,-11.19047619047619,-166.26984126984127
81.34920634920634,285.6349206349206,-305.95238095238096,-262.9365079365079,-266.58730158730157,-120.71428571428571,313.0952380952381,-56.11111111111111,-231.66666666666666,-55.15873015873016,325.0,-8.968253968253968,-11.984126984126984,12.619047619047619,-34.2063492063492,1.0317460317460316,154.04761904761904,1.6666666666666665,315.3174603174603,65.79365079365078,-317.69841269841265,0.07936507936507936,-21.349206349206348,-321.8253968253968
81.34920634920634,285.6349206349206,-305.95238095238096,-262.9365079365079,-266.58730158730157,-120.71428571428571,313.0952380952381,-56.11111111111111,-231.66666666666666,-55.15873015873016,325.0,-8.968253968253968,-11.984126984126984,12.619047619047619,-34.2063492063492,1.0317460317460316,154.04761904761904,1.6666666666666665,315.3174603174603,65.79365079365078,-317.69841269841265,0.07936507936507936,-21.349206349206348,-321.8253968253968
66.74603174603175,204.2063492063492,-158.65079365079364,-246.9047619047619,-106.42857142857142,-62.77777777777777,150.7142857142857,-71.03174603174602,-73.88888888888889,-68.80952380952381,325.0,-8.809523809523808,-11.666666666666666,12.3015873015873,-23.88888888888889,10.714285714285714,150.07936507936506,-1.507936507936508,152.93650793650792,54.36507936507936,-145.63492063492063,-0.23809523809523808,-10.873015873015872,-321.8253968253968
66.74603174603175,204.2063492063492,-158.65079365079364,-246.9047619047619,-106.42857142857142,-62.77777777777777,150.7142857142857,-71.03174603174602,-73.88888888888889,-68.80952380952381,325.0,-8.809523809523808,-11.666666666666666,12.3015873015873,-23.88888888888889,10.714285714285714,150.07936507936506,-1.507936507936508,152.93650793650792,54.36507936507936,-145.63492063492063,-0.23809523809523808,-10.873015873015872,-321.8253968253968
52.3015873015873,122.93650793650794,-11.19047619047619,-230.7142857142857,53.888888888888886,-4.682539682539682,-11.666666666666666,-85.79365079365078,83.88888888888889,-82.3015873015873,325.0,-8.65079365079365,-11.19047619047619,11.984126984126984,-13.412698412698411,20.396825396825395,146.11111111111111,-4.523809523809524,-9.444444444444445,43.095238095238095,26.587301587301585,-0.5555555555555556,-0.3968253968253968,-321.8253968253968
52.3015873015873,122.93650793650794,-11.19047619047619,-230.7142857142857,53.888888888888886,-4.682539682539682,-11.666666666666666,-85.79365079365078,83.88888888888889,-82.3015873015873,325.0,-8.65079365079365,-11.19047619047619,11.984126984126984,-13.412698412698411,20.396825396825395,146.11111111111111,-4.523809523809524,-9.444444444444445,43.095238095238095,26.587301587301585,-0.5555555555555556,-0.3968253968253968,-321.8253968253968
52.3015873015873,122.93650793650794,-11.19047619047619,-230.7142857142857,53.888888888888886,-4.682539682539682,-11.666666666666666,-85.79365079365078,83.88888888888889,-82.3015873015873,325.0,-8.65079365079365,-11.19047619047619,11.984126984126984,-13.412698412698411,20.396825396825395,146.11111111111111,-4.523809523809524,-9.444444444444445,43.095238095238095,26.587301587301585,-0.5555555555555556,-0.3968253968253968,-321.8253968253968
52.3015873015873,122.93650793650794,-11.19047619047619,-230.7142857142857,53.888888888888886,-4.682539682539682,-11.666666666666666,-85.79365079365078,83.88888888888889,-82.3015873015873,325.0,-8.65079365079365,-11.19047619047619,11.984126984126984,-13.412698412698411,20.396825396825395,146.11111111111111,-4.523809523809524,-9.444444444444445,43.095238095238095,26.587301587301585,-0.5555555555555556,-0.3968253968253968,-321.8253968253968
52.3015873015873,122.93650793650794,-11.19047619047619,-230.7142857142857,53.888888888888886,-4.682539682539682,-11.666666666666666,-85.79365079365078,83.88888888888889,-82.3015873015873,325.0,-8.65079365079365,-11.19047619047619,11.984126984126984,-13.412698412698411,20.396825396825395,146.11111111111111,-4.523809523809524,-9.444444444444445,43.095238095238095,26.587301587301585,-0.5555555555555556,-0.3968253968253968,-321.8253968253968
52.3015873015873,122.93650793650794,-11.19047619047619,-230.7142857142857,53.888888888888886,-4.682539682539682,-11.666666666666666,-85.79365079365078,83.88888888888889,-82.3015873015873,325.0,-8.65079365079365,-11.19047619047619,11.984126984126984,-13.412698412698411,20.396825396825395,146.11111111111111,-4.523809523809524,-9.444444444444445,43.095238095238095,26.587301587301585,-0.5555555555555556,-0.3968253968253968,-321.8253968253968
52.3015873015873,122.93650793650794,-11.19047619047619,-230.7142857142857,53.888888888888886,-4.682539682539682,-11.666666666666666,-85.79365079365078,83.88888888888889,-82.3015873015873,325.0,-8.65079365079365,-11.19047619047619,11.984126984126984,-13.412698412698411,20.396825396825395,146.11111111111111,-4.523809523809524,-9.444444444444445,43.095238095238095,26.587301587301585,-0.5555555555555556,-0.3968253968253968,-166.26984126984127
52.3015873015873,122.93650793650794,-11.19047619047619,-230.7142857142857,53.888888888888886,-4.682539682539682,-11.666666666666666,-85.79365079365078,83.88888888888889,-82.3015873015873,325.0,-8.65079365079365,-11.19047619047619,11.984126984126984,-13.412698412698411,20.396825396825395,146.11111111111111,-4.523809523809524,-9.444444444444445,43.095238095238095,26.587301587301585,-0.5555555555555556,-0.3968253968253968,-166.26984126984127
50.079365079365076,124.68253968253967,-10.714285714285714,-277.85714285714283,51.666666666666664,-5.7936507936507935,-11.349206349206348,-94.52380952380952,82.61904761904762,-82.14285714285714,325.0,-8.492063492063492,-10.714285714285714,11.507936507936508,-12.936507936507935,19.76190476190476,140.07936507936506,-5.476190476190476,-9.126984126984127,41.507936507936506,25.476190476190474,-0.873015873015873,-0.23809523809523808,-166.26984126984127
50.079365079365076,124.68253968253967,-10.714285714285714,-277.85714285714283,51.666666666666664,-5.7936507936507935,-11.349206349206348,-94.52380952380952,82.61904761904762,-82.14285714285714,325.0,-8.492063492063492,-10.714285714285714,11.507936507936508,-12.936507936507935,19.76190476190476,140.07936507936506,-5.476190476190476,-9.126984126984127,41.507936507936506,25.476190476190474,-0.873015873015873,-0.23809523809523808,-166.26984126984127
47.53968253968254,131.19047619047618,-10.238095238095237,-325.0,48.96825396825397,-6.26984126984127,-10.873015873015872,-105.63492063492063,82.3015873015873,-75.79365079365078,325.0,-8.174603174603174,-10.238095238095237,10.873015873015872,-12.3015873015873,18.80952380952381,132.93650793650792,-5.952380952380952,-8.174603174603174,39.285714285714285,24.206349206349206,-0.873015873015873,-0.23809523809523808,-166.26984126984127
47.53968253968254,131.19047619047618,-10.238095238095237,-325.0,48.96825396825397,-6.26984126984127,-10.873015873015872,-105.63492063492063,82.3015873015873,-75.79365079365078,325.0,-8.174603174603174,-10.238095238095237,10.873015873015872,-12.3015873015873,18.80952380952381,132.93650793650792,-5.952380952380952,-8.174603174603174,39.285714285714285,24.206349206349206,-0.873015873015873,-0.23809523809523808,-166.26984126984127
46.42857142857142,132.14285714285714,-10.238095238095237,-325.0,48.17460317460317,-1.1904761904761905,-10.555555555555555,-107.06349206349206,87.22222222222221,-65.79365079365078,325.0,-7.3809523809523805,-10.238095238095237,10.714285714285714,-11.984126984126984,18.333333333333332,130.07936507936506,-0.873015873015873,-4.682539682539682,38.65079365079365,23.57142857142857,-0.3968253968253968,-0.3968253968253968,-166.26984126984127
46.42857142857142,132.14285714285714,-10.238095238095237,-325.0,48.17460317460317,-1.1904761904761905,-10.555555555555555,-107.06349206349206,87.22222222222221,-65.79365079365078,325.0,-7.3809523809523805,-10.238095238095237,10.714285714285714,-11.984126984126984,18.333333333333332,130.07936507936506,-0.873015873015873,-4.682539682539682,38.65079365079365,23.57142857142857,-0.3968253968253968,-0.3968253968253968,-166.26984126984127
41.98412698412698,121.66666666666666,-10.079365079365079,-325.0,47.38095238095238,-3.253968253968254,-10.396825396825395,-109.92063492063491,88.4920634920635,-53.57142857142857,325.0,-5.317460317460317,-9.920634920634921,10.555555555555555,-11.825396825396824,18.015873015873016,128.015873015873,-2.9365079365079363,1.1904761904761905,38.01587301587301,23.253968253968253,-0.873015873015873,-0.7142857142857142,-166.26984126984127
41.98412698412698,121.66666666666666,-10.079365079365079,-325.0,47.38095238095238,-3.253968253968254,-10.396825396825395,-109.92063492063491,88.4920634920635,-53.57142857142857,325.0,-5.317460317460317,-9.920634920634921,10.555555555555555,-11.825396825396824,18.015873015873016,128.015873015873,-2.9365079365079363,1.1904761904761905,38.01587301587301,23.253968253968253,-0.873015873015873,-0.7142857142857142,-166.26984126984127
39.285714285714285,123.57142857142857,-10.079365079365079,-325.0,46.74603174603175,-9.761904761904761,-10.238095238095237,-113.09523809523809,89.76190476190476,-31.507936507936506,325.0,-3.4126984126984126,-9.603174603174603,10.396825396825395,-11.825396825396824,18.015873015873016,126.1111111111111,-9.761904761904761,-0.23809523809523808,37.53968253968254,23.095238095238095,-1.1904761904761905,-0.07936507936507936,-321.8253968253968
39.285714285714285,123.57142857142857,-10.079365079365079,-325.0,46.74603174603175,-9.761904761904761,-10.238095238095237,-113.09523809523809,89.76190476190476,-31.507936507936506,325.0,-3.4126984126984126,-9.603174603174603,10.396825396825395,-11.825396825396824,18.015873015873016,126.1111111111111,-9.761904761904761,-0.23809523809523808,37.53968253968254,23.095238095238095,-1.1904761904761905,-0.07936507936507936,-321.8253968253968
