Fp1[1],Fp2[2],F3[3],F4[4],C3[5],C4[6],P3[7],P4[8],O1[9],O2[10],F7[11],F8[12],T3[13],T4[14],T5[15],T6[16],Fz[17],Pz[18],Cz[19],Pg1[20],Pg2[21],EOGR[22],EOOGL[23],EMG[24]
-324.8412698412698,325.0,325.0,-325.0,-197.85714285714283,-65.79365079365078,325.0,-325.0,325.0,-325.0,85.0,325.0,325.0,-317.38095238095235,325.0,-325.0,-325.0,-59.6031746031746,325.0,-325.0,-325.0,-0.3968253968253968,0.07936507936507936,-166.26984126984127
-324.8412698412698,325.0,325.0,-325.0,-197.85714285714283,-65.79365079365078,325.0,-325.0,325.0,-325.0,85.0,325.0,325.0,-317.38095238095235,325.0,-325.0,-325.0,-59.6031746031746,325.0,-325.0,-325.0,-0.3968253968253968,0.07936507936507936,-166.26984126984127
-324.5238095238095,325.0,325.0,-325.0,-193.4126984126984,-67.22222222222221,325.0,-325.0,325.0,-325.0,80.07936507936508,325.0,325.0,-309.9206349206349,325.0,-325.0,-325.0,-61.19047619047619,325.0,-325.0,-325.0,-1.349206349206349,-0.07936507936507936,-166.26984126984127
-324.5238095238095,325.0,325.0,-325.0,-193.4126984126984,-67.22222222222221,325.0,-325.0,325.0,-325.0,80.07936507936508,325.0,325.0,-309.9206349206349,325.0,-325.0,-325.0,-61.19047619047619,325.0,-325.0,-325.0,-1.349206349206349,-0.07936507936507936,-166.26984126984127
-324.5238095238095,325.0,325.0,-325.0,-193.4126984126984,-67.22222222222221,325.0,-325.0,325.0,-325.0,80.07936507936508,325.0,325.0,-309.9206349206349,325.0,-325.0,-325.0,-61.19047619047619,325.0,-325.0,-325.0,-1.349206349206349,-0.07936507936507936,-166.26984126984127
-324.5238095238095,325.0,325.0,-325.0,-193.4126984126984,-67.22222222222221,325.0,-325.0,325.0,-325.0,80.07936507936508,325.0,325.0,-309.9206349206349,325.0,-325.0,-325.0,-61.19047619047619,325.0,-325.0,-325.0,-1.349206349206349,-0.07936507936507936,-166.26984126984127
-288.3333333333333,325.0,325.0,-325.0,-171.34920634920633,-30.87301587301587,325.0,-325.0,325.0,-325.0,81.5079365079365,325.0,325.0,-272.1428571428571,325.0,-325.0,-325.0,-28.015873015873016,325.0,-325.0,-325.0,-1.0317460317460316,-0.7142857142857142,-166.26984126984127
-288.3333333333333,325.0,325.0,-325.0,-171.34920634920633,-30.87301587301587,325.0,-325.0,325.0,-325.0,81.5079365079365,325.0,325.0,-272.1428571428571,325.0,-325.0,-325.0,-28.015873015873016,325.0,-325.0,-325.0,-1.0317460317460316,-0.7142857142857142,-166.26984126984127
-276.26984126984127,325.0,325.0,-325.0,-164.04761904761904,-13.253968253968253,325.0,-321.8253968253968,325.0,-325.0,82.93650793650794,325.0,325.0,-259.9206349206349,325.0,-325.0,-325.0,-15.0,325.0,-325.0,-325.0,-0.7142857142857142,-0.5555555555555556,-166.26984126984127
-276.26984126984127,325.0,325.0,-325.0,-164.04761904761904,-13.253968253968253,325.0,-321.8253968253968,325.0,-325.0,82.93650793650794,325.0,325.0,-259.9206349206349,325.0,-325.0,-325.0,-15.0,325.0,-325.0,-325.0,-0.7142857142857142,-0.5555555555555556,-166.26984126984127
-265.6349206349206,325.0,325.0,-325.0,-158.015873015873,6.428571428571428,325.0,-309.9206349206349,325.0,-325.0,88.33333333333333,325.0,325.0,-249.44444444444443,325.0,-325.0,-325.0,0.7142857142857142,325.0,-325.0,-325.0,-1.507936507936508,-1.0317460317460316,-321.8253968253968
-265.6349206349206,325.0,325.0,-325.0,-158.015873015873,6.428571428571428,325.0,-309.9206349206349,325.0,-325.0,88.33333333333333,325.0,325.0,-249.44444444444443,325.0,-325.0,-325.0,0.7142857142857142,325.0,-325.0,-325.0,-1.507936507936508,-1.0317460317460316,-321.8253968253968
-261.031746031746,325.0,325.0,-325.0,-155.15873015873015,5.476190476190476,325.0,-304.68253968253964,325.0,-324.8412698412698,81.19047619047619,325.0,325.0,-244.84126984126982,325.0,-320.87301587301585,-325.0,-1.6666666666666665,325.0,-325.0,-325.0,-2.142857142857143,-0.5555555555555556,-321.8253968253968
-261.031746031746,325.0,325.0,-325.0,-155.15873015873015,5.476190476190476,325.0,-304.68253968253964,325.0,-324.8412698412698,81.19047619047619,325.0,325.0,-244.84126984126982,325.0,-320.87301587301585,-325.0,-1.6666666666666665,325.0,-325.0,-325.0,-2.142857142857143,-0.5555555555555556,-321.8253968253968
-256.74603174603175,325.0,325.0,-325.0,-152.61904761904762,13.888888888888888,325.0,-299.76190476190476,325.0,-320.39682539682536,83.73015873015872,325.0,324.04761904761904,-240.2380952380952,325.0,-315.3174603174603,-325.0,5.634920634920634,325.0,-325.0,-325.0,-0.873015873015873,-0.23809523809523808,-321.8253968253968
-256.74603174603175,325.0,325.0,-325.0,-152.61904761904762,13.888888888888888,325.0,-299.76190476190476,325.0,-320.39682539682536,83.73015873015872,325.0,324.04761904761904,-240.2380952380952,325.0,-315.3174603174603,-325.0,5.634920634920634,325.0,-325.0,-325.0,-0.873015873015873,-0.23809523809523808,-321.8253968253968
-252.3015873015873,325.0,325.0,-325.0,-150.07936507936506,21.666666666666664,325.0,-294.5238095238095,325.0,-314.68253968253964,86.1111111111111,325.0,319.1269841269841,-235.95238095238093,325.0,-309.76190476190476,-325.0,12.142857142857142,325.0,-325.0,-325.0,0.3968253968253968,-0.5555555555555556,-321.8253968253968
-252.3015873015873,325.0,325.0,-325.0,-150.07936507936506,21.666666666666664,325.0,-294.5238095238095,325.0,-314.68253968253964,86.1111111111111,325.0,319.1269841269841,-235.95238095238093,325.0,-309.76190476190476,-325.0,12.142857142857142,325.0,-325.0,-325.0,0.3968253968253968,-0.5555555555555556,-321.8253968253968
-249.12698412698413,325.0,325.0,-325.0,-148.015873015873,25.158730158730158,325.0,-290.87301587301585,325.0,-310.55555555555554,85.47619047619047,325.0,315.0,-232.6190476190476,324.68253968253964,-305.6349206349206,-325.0,15.0,325.0,-325.0,-325.0,-0.7142857142857142,-1.0317460317460316,-321.8253968253968
-249.12698412698413,325.0,325.0,-325.0,-148.015873015873,25.158730158730158,325.0,-290.87301587301585,325.0,-310.55555555555554,85.47619047619047,325.0,315.0,-232.6190476190476,324.68253968253964,-305.6349206349206,-325.0,15.0,325.0,-325.0,-325.0,-0.7142857142857142,-1.0317460317460316,-321.8253968253968
-243.88888888888889,325.0,319.4444444444444,-325.0,-144.84126984126982,29.444444444444443,321.3492063492063,-284.8412698412698,325.0,-303.57142857142856,83.09523809523809,325.0,308.015873015873,-227.38095238095238,317.53968253968253,-299.2857142857143,-325.0,17.539682539682538,325.0,-325.0,-325.0,-0.23809523809523808,-0.7142857142857142,-166.26984126984127
-243.88888888888889,325.0,319.4444444444444,-325.0,-144.84126984126982,29.444444444444443,321.3492063492063,-284.8412698412698,325.0,-303.57142857142856,83.09523809523809,325.0,308.015873015873,-227.38095238095238,317.53968253968253,-299.2857142857143,-325.0,17.539682539682538,325.0,-325.0,-325.0,-0.23809523809523808,-0.7142857142857142,-166.26984126984127
-240.7142857142857,325.0,315.1587301587301,-325.0,-142.77777777777777,30.07936507936508,317.06349206349205,-281.19047619047615,325.0,-299.6031746031746,79.6031746031746,325.0,303.73015873015873,-224.2063492063492,313.4126984126984,-295.1587301587301,-325.0,17.539682539682538,325.0,-325.0,-325.0,-1.0317460317460316,-0.873015873015873,-166.26984126984127
-240.7142857142857,325.0,315.1587301587301,-325.0,-142.77777777777777,30.07936507936508,317.06349206349205,-281.19047619047615,325.0,-299.6031746031746,79.6031746031746,325.0,303.73015873015873,-224.2063492063492,313.4126984126984,-295.1587301587301,-325.0,17.539682539682538,325.0,-325.0,-325.0,-1.0317460317460316,-0.873015873015873,-166.26984126984127
-232.6190476190476,325.0,304.2063492063492,-325.0,-138.33333333333331,38.49206349206349,306.26984126984127,-272.1428571428571,323.0952380952381,-289.6031746031746,78.80952380952381,325.0,293.25396825396825,-216.26984126984127,302.9365079365079,-285.3174603174603,-325.0,24.523809523809522,325.0,-325.0,-324.36507936507934,-0.5555555555555556,-0.5555555555555556,-166.26984126984127
-232.6190476190476,325.0,304.2063492063492,-325.0,-138.33333333333331,38.49206349206349,306.26984126984127,-272.1428571428571,323.0952380952381,-289.6031746031746,78.80952380952381,325.0,293.25396825396825,-216.26984126984127,302.9365079365079,-285.3174603174603,-325.0,24.523809523809522,325.0,-325.0,-324.36507936507934,-0.5555555555555556,-0.5555555555555556,-166.26984126984127
-218.96825396825395,325.0,285.4761904761905,-325.0,-130.23809523809524,49.6031746031746,287.6984126984127,-256.74603174603175,312.9365079365079,-271.984126984127,74.52380952380952,325.0,275.3174603174603,-202.61904761904762,284.8412698412698,-268.3333333333333,-325.0,33.25396825396825,325.0,-318.8095238095238,-315.1587301587301,-0.3968253968253968,0.07936507936507936,-166.26984126984127
-218.96825396825395,325.0,285.4761904761905,-325.0,-130.23809523809524,49.6031746031746,287.6984126984127,-256.74603174603175,312.9365079365079,-271.984126984127,74.52380952380952,325.0,275.3174603174603,-202.61904761904762,284.8412698412698,-268.3333333333333,-325.0,33.25396825396825,325.0,-318.8095238095238,-315.1587301587301,-0.3968253968253968,0.07936507936507936,-166.26984126984127
-211.8253968253968,325.0,275.3174603174603,-325.0,-125.63492063492063,51.19047619047619,277.53968253968253,-248.015873015873,302.46031746031747,-262.46031746031747,68.17460317460318,325.0,265.7936507936508,-195.3174603174603,275.1587301587301,-259.44444444444446,-325.0,34.2063492063492,323.0952380952381,-308.015873015873,-304.5238095238095,-0.3968253968253968,-0.5555555555555556,-166.26984126984127
-211.8253968253968,325.0,275.3174603174603,-325.0,-125.63492063492063,51.19047619047619,277.53968253968253,-248.015873015873,302.46031746031747,-262.46031746031747,68.17460317460318,325.0,265.7936507936508,-195.3174603174603,275.1587301587301,-259.44444444444446,-325.0,34.2063492063492,323.0952380952381,-308.015873015873,-304.5238095238095,-0.3968253968253968,-0.5555555555555556,-166.26984126984127
-207.2222222222222,325.0,269.2857142857143,-325.0,-123.09523809523809,55.15873015873016,271.5079365079365,-242.77777777777777,295.95238095238096,-256.74603174603175,67.6984126984127,323.73015873015873,259.9206349206349,-191.03174603174602,269.1269841269841,-253.57142857142856,-325.0,37.857142857142854,317.06349206349205,-301.19047619047615,-297.38095238095235,-0.07936507936507936,0.23809523809523808,-321.8253968253968
-207.2222222222222,325.0,269.2857142857143,-325.0,-123.09523809523809,55.15873015873016,271.5079365079365,-242.77777777777777,295.95238095238096,-256.74603174603175,67.6984126984127,323.73015873015873,259.9206349206349,-191.03174603174602,269.1269841269841,-253.57142857142856,-325.0,37.857142857142854,317.06349206349205,-301.19047619047615,-297.38095238095235,-0.07936507936507936,0.23809523809523808,-321.8253968253968
-173.25396825396825,278.968253968254,223.4126984126984,-278.4920634920635,-102.46031746031746,45.476190476190474,225.47619047619045,-203.7301587301587,247.53968253968253,-213.4126984126984,-325.0,270.39682539682536,215.95238095238093,-157.85714285714286,224.68253968253967,-211.5079365079365,-277.06349206349205,28.015873015873016,265.0,-251.98412698412696,-247.06349206349205,0.23809523809523808,-0.07936507936507936,-321.8253968253968
-173.25396825396825,278.968253968254,223.4126984126984,-278.4920634920635,-102.46031746031746,45.476190476190474,225.47619047619045,-203.7301587301587,247.53968253968253,-213.4126984126984,-325.0,270.39682539682536,215.95238095238093,-157.85714285714286,224.68253968253967,-211.5079365079365,-277.06349206349205,28.015873015873016,265.0,-251.98412698412696,-247.06349206349205,0.23809523809523808,-0.07936507936507936,-321.8253968253968
-143.4126984126984,232.93650793650792,183.57142857142856,-231.98412698412696,-84.84126984126983,41.98412698412698,185.47619047619045,-169.60317460317458,205.3174603174603,-175.95238095238093,-325.0,223.4126984126984,177.69841269841268,-129.12698412698413,185.63492063492063,-174.84126984126982,-228.96825396825395,25.158730158730158,219.60317460317458,-208.96825396825395,-203.25396825396825,-0.07936507936507936,-0.07936507936507936,-321.8253968253968
-143.4126984126984,232.93650793650792,183.57142857142856,-231.98412698412696,-84.84126984126983,41.98412698412698,185.47619047619045,-169.60317460317458,205.3174603174603,-175.95238095238093,-325.0,223.4126984126984,177.69841269841268,-129.12698412698413,185.63492063492063,-174.84126984126982,-228.96825396825395,25.158730158730158,219.60317460317458,-208.96825396825395,-203.25396825396825,-0.07936507936507936,-0.07936507936507936,-321.8253968253968
-143.4126984126984,232.93650793650792,183.57142857142856,-231.98412698412696,-84.84126984126983,41.98412698412698,185.47619047619045,-169.60317460317458,205.3174603174603,-175.95238095238093,-325.0,223.4126984126984,177.69841269841268,-129.12698412698413,185.63492063492063,-174.84126984126982,-228.96825396825395,25.158730158730158,219.60317460317458,-208.96825396825395,-203.25396825396825,-0.07936507936507936,-0.07936507936507936,-321.8253968253968
-143.4126984126984,232.93650793650792,183.57142857142856,-231.98412698412696,-84.84126984126983,41.98412698412698,185.47619047619045,-169.60317460317458,205.3174603174603,-175.95238095238093,-325.0,223.4126984126984,177.69841269841268,-129.12698412698413,185.63492063492063,-174.84126984126982,-228.96825396825395,25.158730158730158,219.60317460317458,-208.96825396825395,-203.25396825396825,-0.07936507936507936,-0.07936507936507936,-321.8253968253968
-143.4126984126984,232.93650793650792,183.57142857142856,-231.98412698412696,-84.84126984126983,41.98412698412698,185.47619047619045,-169.60317460317458,205.3174603174603,-175.95238095238093,-325.0,223.4126984126984,177.69841269841268,-129.12698412698413,185.63492063492063,-174.84126984126982,-228.96825396825395,25.158730158730158,219.60317460317458,-208.96825396825395,-203.25396825396825,-0.07936507936507936,-0.07936507936507936,-321.8253968253968
-143.4126984126984,232.93650793650792,183.57142857142856,-231.98412698412696,-84.84126984126983,41.98412698412698,185.47619047619045,-169.60317460317458,205.3174603174603,-175.95238095238093,-325.0,223.4126984126984,177.69841269841268,-129.12698412698413,185.63492063492063,-174.84126984126982,-228.96825396825395,25.158730158730158,219.60317460317458,-208.96825396825395,-203.25396825396825,-0.07936507936507936,-0.07936507936507936,-321.8253968253968
-131.984126984127,-46.11111111111111,168.17460317460316,-213.7301587301587,-78.01587301587301,34.36507936507936,170.23809523809524,-156.26984126984127,189.12698412698413,-161.66666666666666,-325.0,205.47619047619045,162.93650793650792,-118.17460317460316,170.7142857142857,-160.87301587301587,-210.55555555555554,17.698412698412696,202.14285714285714,-192.46031746031744,-186.74603174603175,-0.23809523809523808,-0.23809523809523808,-166.26984126984127
-131.984126984127,-46.11111111111111,168.17460317460316,-213.7301587301587,-78.01587301587301,34.36507936507936,170.23809523809524,-156.26984126984127,189.12698412698413,-161.66666666666666,-325.0,205.47619047619045,162.93650793650792,-118.17460317460316,170.7142857142857,-160.87301587301587,-210.55555555555554,17.698412698412696,202.14285714285714,-192.46031746031744,-186.74603174603175,-0.23809523809523808,-0.23809523809523808,-166.26984126984127
-119.44444444444444,-325.0,151.5079365079365,-193.88888888888889,-70.71428571428571,26.428571428571427,153.73015873015873,-141.8253968253968,171.5079365079365,-145.95238095238093,-325.0,185.95238095238093,146.9047619047619,-106.26984126984127,154.52380952380952,-145.47619047619048,-190.3968253968254,10.714285714285714,183.09523809523807,-174.36507936507937,-168.4920634920635,-0.23809523809523808,-0.3968253968253968,-166.26984126984127
-119.44444444444444,-325.0,151.5079365079365,-193.88888888888889,-70.71428571428571,26.428571428571427,153.73015873015873,-141.8253968253968,171.5079365079365,-145.95238095238093,-325.0,185.95238095238093,146.9047619047619,-106.26984126984127,154.52380952380952,-145.47619047619048,-190.3968253968254,10.714285714285714,183.09523809523807,-174.36507936507937,-168.4920634920635,-0.23809523809523808,-0.3968253968253968,-166.26984126984127
-118.33333333333333,-325.0,150.07936507936506,-192.14285714285714,-70.07936507936508,26.26984126984127,152.46031746031744,-140.7142857142857,170.07936507936506,-144.68253968253967,-325.0,184.36507936507937,145.63492063492063,-105.31746031746032,153.25396825396825,-144.04761904761904,-188.65079365079364,11.19047619047619,181.5079365079365,-172.61904761904762,-166.9047619047619,-0.23809523809523808,-0.23809523809523808,-166.26984126984127
-118.33333333333333,-325.0,150.07936507936506,-192.14285714285714,-70.07936507936508,26.26984126984127,152.46031746031744,-140.7142857142857,170.07936507936506,-144.68253968253967,-325.0,184.36507936507937,145.63492063492063,-105.31746031746032,153.25396825396825,-144.04761904761904,-188.65079365079364,11.19047619047619,181.5079365079365,-172.61904761904762,-166.9047619047619,-0.23809523809523808,-0.23809523809523808,-166.26984126984127
-118.33333333333333,-325.0,150.07936507936506,-192.14285714285714,-70.07936507936508,26.26984126984127,152.46031746031744,-140.7142857142857,170.07936507936506,-144.68253968253967,-325.0,184.36507936507937,145.63492063492063,-105.31746031746032,153.25396825396825,-144.04761904761904,-188.65079365079364,11.19047619047619,181.5079365079365,-172.61904761904762,-166.9047619047619,-0.23809523809523808,-0.23809523809523808,-166.26984126984127
-118.33333333333333,-325.0,150.07936507936506,-192.14285714285714,-70.07936507936508,26.26984126984127,152.46031746031744,-140.7142857142857,170.07936507936506,-144.68253968253967,-325.0,184.36507936507937,145.63492063492063,-105.31746031746032,153.25396825396825,-144.04761904761904,-188.65079365079364,11.19047619047619,181.5079365079365,-172.61904761904762,-166.9047619047619,-0.23809523809523808,-0.23809523809523808,-166.26984126984127
-118.33333333333333,-325.0,150.07936507936506,-192.14285714285714,-70.07936507936508,26.26984126984127,152.46031746031744,-140.7142857142857,170.07936507936506,-144.68253968253967,-325.0,184.36507936507937,145.63492063492063,-105.31746031746032,153.25396825396825,-144.04761904761904,-188.65079365079364,11.19047619047619,181.5079365079365,-172.61904761904762,-166.9047619047619,-0.23809523809523808,-0.23809523809523808,-166.26984126984127
-118.33333333333333,-325.0,150.07936507936506,-192.14285714285714,-70.07936507936508,26.26984126984127,152.46031746031744,-140.7142857142857,170.07936507936506,-144.68253968253967,-325.0,184.36507936507937,145.63492063492063,-105.31746031746032,153.25396825396825,-144.04761904761904,-188.65079365079364,11.19047619047619,181.5079365079365,-172.61904761904762,-166.9047619047619,-0.23809523809523808,-0.23809523809523808,-166.26984126984127
-118.33333333333333,-325.0,150.07936507936506,-192.14285714285714,-70.07936507936508,26.26984126984127,152.46031746031744,-140.7142857142857,170.07936507936506,-144.68253968253967,-325.0,184.36507936507937,145.63492063492063,-105.31746031746032,153.25396825396825,-144.04761904761904,-188.65079365079364,11.19047619047619,181.5079365079365,-172.61904761904762,-166.9047619047619,-0.23809523809523808,-0.23809523809523808,-321.8253968253968
-118.33333333333333,-325.0,150.07936507936506,-192.14285714285714,-70.07936507936508,26.26984126984127,152.46031746031744,-140.7142857142857,170.07936507936506,-144.68253968253967,-325.0,184.36507936507937,145.63492063492063,-105.31746031746032,153.25396825396825,-144.04761904761904,-188.65079365079364,11.19047619047619,181.5079365079365,-172.61904761904762,-166.9047619047619,-0.23809523809523808,-0.23809523809523808,-321.8253968253968
-118.33333333333333,-325.0,150.07936507936506,-192.14285714285714,-70.07936507936508,26.26984126984127,152.46031746031744,-140.7142857142857,170.07936507936506,-144.68253968253967,-325.0,184.36507936507937,145.63492063492063,-105.31746031746032,153.25396825396825,-144.04761904761904,-188.65079365079364,11.19047619047619,181.5079365079365,-172.61904761904762,-166.9047619047619,-0.23809523809523808,-0.23809523809523808,-321.8253968253968
-118.33333333333333,-325.0,150.07936507936506,-192.14285714285714,-70.07936507936508,26.26984126984127,152.46031746031744,-140.7142857142857,170.07936507936506,-144.68253968253967,-325.0,184.36507936507937,145.63492063492063,-105.31746031746032,153.25396825396825,-144.04761904761904,-188.65079365079364,11.19047619047619,181.5079365079365,-172.61904761904762,-166.9047619047619,-0.23809523809523808,-0.23809523809523808,-321.8253968253968
-118.33333333333333,-325.0,150.07936507936506,-192.14285714285714,-70.07936507936508,26.26984126984127,152.46031746031744,-140.7142857142857,170.07936507936506,-144.68253968253967,-325.0,184.36507936507937,145.63492063492063,-105.31746031746032,153.25396825396825,-144.04761904761904,-188.65079365079364,11.19047619047619,181.5079365079365,-172.61904761904762,-166.9047619047619,-0.23809523809523808,-0.23809523809523808,-321.8253968253968
-118.33333333333333,-325.0,150.07936507936506,-192.14285714285714,-70.07936507936508,26.26984126984127,152.46031746031744,-140.7142857142857,170.07936507936506,-144.68253968253967,-325.0,184.36507936507937,145.63492063492063,-105.31746031746032,153.25396825396825,-144.04761904761904,-188.65079365079364,11.19047619047619,181.5079365079365,-172.61904761904762,-166.9047619047619,-0.23809523809523808,-0.23809523809523808,-321.8253968253968
-111.66666666666666,-325.0,141.03174603174602,-181.5079365079365,-66.11111111111111,27.22222222222222,143.25396825396825,-132.77777777777777,160.23809523809524,-136.11111111111111,-317.06349206349205,152.14285714285714,137.06349206349205,-98.96825396825396,144.2063492063492,-135.63492063492063,-177.85714285714286,13.571428571428571,83.4126984126984,-162.77777777777777,-156.9047619047619,-0.23809523809523808,-0.7142857142857142,-321.8253968253968
-111.66666666666666,-325.0,141.03174603174602,-181.5079365079365,-66.11111111111111,27.22222222222222,143.25396825396825,-132.77777777777777,160.23809523809524,-136.11111111111111,-317.06349206349205,152.14285714285714,137.06349206349205,-98.96825396825396,144.2063492063492,-135.63492063492063,-177.85714285714286,13.571428571428571,83.4126984126984,-162.77777777777777,-156.9047619047619,-0.23809523809523808,-0.7142857142857142,-321.8253968253968
-103.4126984126984,-325.0,130.23809523809524,-168.4920634920635,-61.34920634920635,28.809523809523807,132.46031746031744,-123.4126984126984,148.4920634920635,-125.95238095238095,-305.3174603174603,9.444444444444445,126.58730158730158,-91.34920634920634,133.4126984126984,-125.63492063492063,-164.68253968253967,16.587301587301585,-136.26984126984127,-151.03174603174602,-145.15873015873015,-0.7142857142857142,-0.873015873015873,-321.8253968253968
-103.4126984126984,-325.0,130.23809523809524,-168.4920634920635,-61.34920634920635,28.809523809523807,132.46031746031744,-123.4126984126984,148.4920634920635,-125.95238095238095,-305.3174603174603,9.444444444444445,126.58730158730158,-91.34920634920634,133.4126984126984,-125.63492063492063,-164.68253968253967,16.587301587301585,-136.26984126984127,-151.03174603174602,-145.15873015873015,-0.7142857142857142,-0.873015873015873,-321.8253968253968
-102.46031746031746,-325.0,128.4920634920635,-166.11111111111111,-60.39682539682539,21.666666666666664,130.7142857142857,-121.82539682539682,146.58730158730157,-124.2063492063492,-301.5079365079365,-131.34920634920636,124.84126984126983,-90.07936507936508,131.66666666666666,-123.88888888888889,-162.46031746031744,9.920634920634921,-264.8412698412698,-148.8095238095238,-143.09523809523807,0.5555555555555556,-0.3968253968253968,-166.26984126984127
-102.46031746031746,-325.0,128.4920634920635,-166.11111111111111,-60.39682539682539,21.666666666666664,130.7142857142857,-121.82539682539682,146.58730158730157,-124.2063492063492,-301.5079365079365,-131.34920634920636,124.84126984126983,-90.07936507936508,131.66666666666666,-123.88888888888889,-162.46031746031744,9.920634920634921,-264.8412698412698,-148.8095238095238,-143.09523809523807,0.5555555555555556,-0.3968253968253968,-166.26984126984127
-100.39682539682539,-325.0,126.26984126984127,-163.4126984126984,-59.285714285714285,18.333333333333332,128.33333333333331,-119.6031746031746,143.88888888888889,-121.82539682539682,-296.4285714285714,-273.73015873015873,122.77777777777777,-88.65079365079364,129.44444444444443,-121.82539682539682,-159.6031746031746,7.3809523809523805,-325.0,-146.42857142857142,-140.55555555555554,0.3968253968253968,0.23809523809523808,-166.26984126984127
-100.39682539682539,-325.0,126.26984126984127,-163.4126984126984,-59.285714285714285,18.333333333333332,128.33333333333331,-119.6031746031746,143.88888888888889,-121.82539682539682,-296.4285714285714,-273.73015873015873,122.77777777777777,-88.65079365079364,129.44444444444443,-121.82539682539682,-159.6031746031746,7.3809523809523805,-325.0,-146.42857142857142,-140.55555555555554,0.3968253968253968,0.23809523809523808,-166.26984126984127
-100.39682539682539,-325.0,126.26984126984127,-163.4126984126984,-59.285714285714285,18.333333333333332,128.33333333333331,-119.6031746031746,143.88888888888889,-121.82539682539682,-296.4285714285714,-273.73015873015873,122.77777777777777,-88.65079365079364,129.44444444444443,-121.82539682539682,-159.6031746031746,7.3809523809523805,-325.0,-146.42857142857142,-140.55555555555554,0.3968253968253968,0.23809523809523808,-166.26984126984127
-100.39682539682539,-325.0,126.26984126984127,-163.4126984126984,-59.285714285714285,18.333333333333332,128.33333333333331,-119.6031746031746,143.88888888888889,-121.82539682539682,-296.4285714285714,-273.73015873015873,122.77777777777777,-88.65079365079364,129.44444444444443,-121.82539682539682,-159.6031746031746,7.3809523809523805,-325.0,-146.42857142857142,-140.55555555555554,0.3968253968253968,0.23809523809523808,-166.26984126984127
-96.9047619047619,-325.0,121.98412698412697,-158.015873015873,-57.22222222222222,13.888888888888888,123.73015873015872,-115.47619047619047,138.96825396825395,-117.6984126984127,-286.58730158730157,-325.0,118.33333333333333,-85.15873015873015,125.0,-117.53968253968253,-153.88888888888889,8.65079365079365,-325.0,-141.19047619047618,-135.3174603174603,-0.07936507936507936,-0.23809523809523808,-166.26984126984127
-96.9047619047619,-325.0,121.98412698412697,-158.015873015873,-57.22222222222222,13.888888888888888,123.73015873015872,-115.47619047619047,138.96825396825395,-117.6984126984127,-286.58730158730157,-325.0,118.33333333333333,-85.15873015873015,125.0,-117.53968253968253,-153.88888888888889,8.65079365079365,-325.0,-141.19047619047618,-135.3174603174603,-0.07936507936507936,-0.23809523809523808,-166.26984126984127
-95.15873015873015,-325.0,119.44444444444444,-155.15873015873015,-56.269841269841265,9.920634920634921,121.19047619047619,-77.06349206349206,136.42857142857142,-115.31746031746032,-281.8253968253968,-325.0,116.26984126984127,-83.57142857142857,122.6190476190476,-115.31746031746032,-151.19047619047618,7.3809523809523805,-325.0,-138.8095238095238,-132.93650793650792,-0.5555555555555556,0.873015873015873,-166.26984126984127
-95.15873015873015,-325.0,119.44444444444444,-155.15873015873015,-56.269841269841265,9.920634920634921,121.19047619047619,-77.06349206349206,136.42857142857142,-115.31746031746032,-281.8253968253968,-325.0,116.26984126984127,-83.57142857142857,122.6190476190476,-115.31746031746032,-151.19047619047618,7.3809523809523805,-325.0,-138.8095238095238,-132.93650793650792,-0.5555555555555556,0.873015873015873,-166.26984126984127
-92.30158730158729,-325.0,115.63492063492063,-150.55555555555554,-54.68253968253968,12.142857142857142,117.6984126984127,52.61904761904761,132.46031746031744,-112.14285714285714,-273.73015873015873,-325.0,112.46031746031746,-81.03174603174602,118.65079365079364,-111.98412698412697,-146.58730158730157,10.079365079365079,-325.0,-134.68253968253967,-128.8095238095238,-0.5555555555555556,-0.7142857142857142,-321.8253968253968
-92.30158730158729,-325.0,115.63492063492063,-150.55555555555554,-54.68253968253968,12.142857142857142,117.6984126984127,52.61904761904761,132.46031746031744,-112.14285714285714,-273.73015873015873,-325.0,112.46031746031746,-81.03174603174602,118.65079365079364,-111.98412698412697,-146.58730158730157,10.079365079365079,-325.0,-134.68253968253967,-128.8095238095238,-0.5555555555555556,-0.7142857142857142,-321.8253968253968
-91.82539682539682,-325.0,115.15873015873015,-149.9206349206349,-54.36507936507936,11.984126984126984,117.06349206349206,71.66666666666666,131.8253968253968,-111.5079365079365,-272.3015873015873,-325.0,112.14285714285714,-80.55555555555556,118.01587301587301,-111.5079365079365,-145.95238095238093,9.920634920634921,-325.0,-134.2063492063492,-128.17460317460316,-0.23809523809523808,-0.23809523809523808,-321.8253968253968
-91.82539682539682,-325.0,115.15873015873015,-149.9206349206349,-54.36507936507936,11.984126984126984,117.06349206349206,71.66666666666666,131.8253968253968,-111.5079365079365,-272.3015873015873,-325.0,112.14285714285714,-80.55555555555556,118.01587301587301,-111.5079365079365,-145.95238095238093,9.920634920634921,-325.0,-134.2063492063492,-128.17460317460316,-0.23809523809523808,-0.23809523809523808,-321.8253968253968
-90.07936507936508,-325.0,112.6190476190476,-146.9047619047619,-53.41269841269841,13.095238095238095,114.52380952380952,196.58730158730157,128.96825396825395,-109.12698412698413,-266.90476190476187,-325.0,109.6031746031746,-78.80952380952381,115.63492063492063,-109.12698412698413,-142.93650793650792,10.238095238095237,-325.0,-131.5079365079365,-125.31746031746032,-0.23809523809523808,-0.07936507936507936,-321.8253968253968
-90.07936507936508,-325.0,112.6190476190476,-146.9047619047619,-53.41269841269841,13.095238095238095,114.52380952380952,196.58730158730157,128.96825396825395,-109.12698412698413,-266.90476190476187,-325.0,109.6031746031746,-78.80952380952381,115.63492063492063,-109.12698412698413,-142.93650793650792,10.238095238095237,-325.0,-131.5079365079365,-125.31746031746032,-0.23809523809523808,-0.07936507936507936,-321.8253968253968
-88.17460317460316,-325.0,110.23809523809523,-143.88888888888889,-52.3015873015873,14.365079365079364,111.98412698412697,321.66666666666663,126.1111111111111,-106.74603174603175,-261.3492063492063,-325.0,107.06349206349206,-77.06349206349206,113.25396825396825,-106.74603174603175,-139.76190476190476,10.714285714285714,-325.0,-128.65079365079364,-122.46031746031746,-0.07936507936507936,0.07936507936507936,-321.8253968253968
-88.17460317460316,-325.0,110.23809523809523,-143.88888888888889,-52.3015873015873,14.365079365079364,111.98412698412697,321.66666666666663,126.1111111111111,-106.74603174603175,-261.3492063492063,-325.0,107.06349206349206,-77.06349206349206,113.25396825396825,-106.74603174603175,-139.76190476190476,10.714285714285714,-325.0,-128.65079365079364,-122.46031746031746,-0.07936507936507936,0.07936507936507936,-321.8253968253968
-85.47619047619047,-325.0,106.42857142857142,-139.6031746031746,-50.71428571428571,10.238095238095237,108.33333333333333,325.0,122.30158730158729,-103.4126984126984,-253.88888888888889,-325.0,103.73015873015872,-74.52380952380952,109.76190476190476,-103.4126984126984,-135.47619047619048,2.9365079365079363,-325.0,-124.68253968253967,-118.65079365079364,-0.23809523809523808,0.3968253968253968,-321.8253968253968
-85.47619047619047,-325.0,106.42857142857142,-139.6031746031746,-50.71428571428571,10.238095238095237,108.33333333333333,325.0,122.30158730158729,-103.4126984126984,-253.88888888888889,-325.0,103.73015873015872,-74.52380952380952,109.76190476190476,-103.4126984126984,-135.47619047619048,2.9365079365079363,-325.0,-124.68253968253967,-118.65079365079364,-0.23809523809523808,0.3968253968253968,-321.8253968253968
-84.04761904761904,-325.0,104.52380952380952,-137.22222222222223,-49.92063492063492,12.936507936507935,106.42857142857142,325.0,109.6031746031746,-101.66666666666666,-249.44444444444443,-325.0,101.82539682539682,-73.25396825396825,107.85714285714285,-101.82539682539682,-133.0952380952381,6.428571428571428,-325.0,-122.6190476190476,-116.74603174603173,0.07936507936507936,-0.07936507936507936,-166.26984126984127
-84.04761904761904,-325.0,104.52380952380952,-137.22222222222223,-49.92063492063492,12.936507936507935,106.42857142857142,325.0,109.6031746031746,-101.66666666666666,-249.44444444444443,-325.0,101.82539682539682,-73.25396825396825,107.85714285714285,-101.82539682539682,-133.0952380952381,6.428571428571428,-325.0,-122.6190476190476,-116.74603174603173,0.07936507936507936,-0.07936507936507936,-166.26984126984127
-82.61904761904762,-325.0,102.61904761904762,-134.84126984126982,-48.96825396825397,14.682539682539682,104.52380952380952,325.0,20.07936507936508,-99.92063492063491,-245.47619047619045,-325.0,99.92063492063491,-71.82539682539682,105.79365079365078,-100.07936507936508,-130.87301587301587,8.015873015873016,-325.0,-120.55555555555554,-114.68253968253967,0.07936507936507936,-0.07936507936507936,-166.26984126984127
-82.61904761904762,-325.0,102.61904761904762,-134.84126984126982,-48.96825396825397,14.682539682539682,104.52380952380952,325.0,20.07936507936508,-99.92063492063491,-245.47619047619045,-325.0,99.92063492063491,-71.82539682539682,105.79365079365078,-100.07936507936508,-130.87301587301587,8.015873015873016,-325.0,-120.55555555555554,-114.68253968253967,0.07936507936507936,-0.07936507936507936,-166.26984126984127
-81.5079365079365,-325.0,101.34920634920634,-133.0952380952381,-48.33333333333333,16.26984126984127,103.09523809523809,325.0,-63.73015873015873,-98.65079365079364,-242.3015873015873,-325.0,98.65079365079364,-70.87301587301587,104.2063492063492,-98.49206349206348,-129.28571428571428,9.920634920634921,-325.0,-118.96825396825396,-113.09523809523809,-0.23809523809523808,0.5555555555555556,-166.26984126984127
-81.5079365079365,-325.0,101.34920634920634,-133.0952380952381,-48.33333333333333,16.26984126984127,103.09523809523809,325.0,-63.73015873015873,-98.65079365079364,-242.3015873015873,-325.0,98.65079365079364,-70.87301587301587,104.2063492063492,-98.49206349206348,-129.28571428571428,9.920634920634921,-325.0,-118.96825396825396,-113.09523809523809,-0.23809523809523808,0.5555555555555556,-166.26984126984127
-79.76190476190476,-325.0,98.96825396825396,-130.07936507936506,-47.38095238095238,4.841269841269841,100.87301587301587,325.0,-205.3174603174603,-96.58730158730158,-237.38095238095238,-325.0,96.58730158730158,-69.28571428571428,102.14285714285714,-96.42857142857142,-126.26984126984127,-1.0317460317460316,-325.0,-116.26984126984127,-110.55555555555554,-0.3968253968253968,-0.23809523809523808,-166.26984126984127
-79.76190476190476,-325.0,98.96825396825396,-130.07936507936506,-47.38095238095238,4.841269841269841,100.87301587301587,325.0,-205.3174603174603,-96.58730158730158,-237.38095238095238,-325.0,96.58730158730158,-69.28571428571428,102.14285714285714,-96.42857142857142,-126.26984126984127,-1.0317460317460316,-325.0,-116.26984126984127,-110.55555555555554,-0.3968253968253968,-0.23809523809523808,-166.26984126984127
-78.4920634920635,-325.0,97.06349206349206,-127.85714285714285,-46.74603174603175,-0.23809523809523808,98.96825396825396,325.0,-308.4920634920635,-94.84126984126983,-233.4126984126984,-325.0,94.68253968253968,-68.01587301587301,100.39682539682539,-94.68253968253968,-124.04761904761904,-5.0,-325.0,-114.36507936507935,-108.49206349206348,-0.5555555555555556,-0.873015873015873,-166.26984126984127
-78.4920634920635,-325.0,97.06349206349206,-127.85714285714285,-46.74603174603175,-0.23809523809523808,98.96825396825396,325.0,-308.4920634920635,-94.84126984126983,-233.4126984126984,-325.0,94.68253968253968,-68.01587301587301,100.39682539682539,-94.68253968253968,-124.04761904761904,-5.0,-325.0,-114.36507936507935,-108.49206349206348,-0.5555555555555556,-0.873015873015873,-166.26984126984127
-77.53968253968253,-325.0,95.79365079365078,-126.1111111111111,-45.95238095238095,4.2063492063492065,97.85714285714285,325.0,-325.0,-93.4126984126984,-230.3968253968254,-325.0,93.4126984126984,-67.22222222222221,98.96825396825396,-93.4126984126984,-122.46031746031746,2.7777777777777777,-325.0,-112.6190476190476,-107.06349206349206,-0.23809523809523808,-1.1904761904761905,-321.8253968253968
-77.53968253968253,-325.0,95.79365079365078,-126.1111111111111,-45.95238095238095,4.2063492063492065,97.85714285714285,325.0,-325.0,-93.4126984126984,-230.3968253968254,-325.0,93.4126984126984,-67.22222222222221,98.96825396825396,-93.4126984126984,-122.46031746031746,2.7777777777777777,-325.0,-112.6190476190476,-107.06349206349206,-0.23809523809523808,-1.1904761904761905,-321.8253968253968
-75.79365079365078,-325.0,93.73015873015872,-123.73015873015872,-45.0,10.873015873015872,95.47619047619047,325.0,-325.0,-91.66666666666666,-225.63492063492063,-325.0,91.19047619047619,-65.63492063492063,96.74603174603175,-91.34920634920634,-119.92063492063491,11.984126984126984,-325.0,-110.39682539682539,-104.68253968253968,-0.3968253968253968,-0.23809523809523808,-321.8253968253968
-75.79365079365078,-325.0,93.73015873015872,-123.73015873015872,-45.0,10.873015873015872,95.47619047619047,325.0,-325.0,-91.66666666666666,-225.63492063492063,-325.0,91.19047619047619,-65.63492063492063,96.74603174603175,-91.34920634920634,-119.92063492063491,11.984126984126984,-325.0,-110.39682539682539,-104.68253968253968,-0.3968253968253968,-0.23809523809523808,-321.8253968253968
-72.93650793650794,-325.0,89.92063492063491,-118.96825396825396,-43.25396825396825,11.984126984126984,91.82539682539682,325.0,-325.0,-88.01587301587301,-217.38095238095238,-325.0,87.6984126984127,-62.93650793650793,92.77777777777777,-87.85714285714285,-115.31746031746032,11.031746031746032,-325.0,-106.26984126984127,-100.55555555555554,-0.873015873015873,0.3968253968253968,-321.8253968253968
-72.93650793650794,-325.0,89.92063492063491,-118.96825396825396,-43.25396825396825,11.984126984126984,91.82539682539682,325.0,-325.0,-88.01587301587301,-217.38095238095238,-325.0,87.6984126984127,-62.93650793650793,92.77777777777777,-87.85714285714285,-115.31746031746032,11.031746031746032,-325.0,-106.26984126984127,-100.55555555555554,-0.873015873015873,0.3968253968253968,-321.8253968253968
-68.17460317460318,-325.0,83.4126984126984,-111.03174603174602,-40.39682539682539,6.746031746031746,85.31746031746032,325.0,-325.0,-81.66666666666666,-203.25396825396825,-325.0,81.5079365079365,-58.650793650793645,86.58730158730158,-81.82539682539682,-107.38095238095238,5.158730158730158,-325.0,-98.96825396825396,-93.57142857142857,-0.07936507936507936,-0.23809523809523808,-321.8253968253968
-68.17460317460318,-325.0,83.4126984126984,-111.03174603174602,-40.39682539682539,6.746031746031746,85.31746031746032,325.0,-325.0,-81.66666666666666,-203.25396825396825,-325.0,81.5079365079365,-58.650793650793645,86.58730158730158,-81.82539682539682,-107.38095238095238,5.158730158730158,-325.0,-98.96825396825396,-93.57142857142857,-0.07936507936507936,-0.23809523809523808,-321.8253968253968
-66.11111111111111,-325.0,80.87301587301587,-107.85714285714285,-39.44444444444444,3.73015873015873,82.46031746031746,325.0,-325.0,-79.28571428571428,-197.2222222222222,-325.0,78.80952380952381,-56.74603174603174,83.88888888888889,-79.6031746031746,-104.2063492063492,1.8253968253968254,-325.0,-96.1111111111111,-90.55555555555556,0.07936507936507936,-1.1904761904761905,-321.8253968253968
-66.11111111111111,-325.0,80.87301587301587,-107.85714285714285,-39.44444444444444,3.73015873015873,82.46031746031746,325.0,-325.0,-79.28571428571428,-197.2222222222222,-325.0,78.80952380952381,-56.74603174603174,83.88888888888889,-79.6031746031746,-104.2063492063492,1.8253968253968254,-325.0,-96.1111111111111,-90.55555555555556,0.07936507936507936,-1.1904761904761905,-321.8253968253968
-64.84126984126983,-325.0,79.28571428571428,-105.79365079365078,-38.65079365079365,-3.4126984126984126,81.03174603174602,325.0,-325.0,-77.85714285714285,-194.04761904761904,-325.0,77.53968253968253,-55.63492063492063,82.46031746031746,-78.01587301587301,-102.14285714285714,-5.476190476190476,-325.0,-94.52380952380952,-88.96825396825396,-0.07936507936507936,-0.3968253968253968,-166.26984126984127
-64.84126984126983,-325.0,79.28571428571428,-105.79365079365078,-38.65079365079365,-3.4126984126984126,81.03174603174602,325.0,-325.0,-77.85714285714285,-194.04761904761904,-325.0,77.53968253968253,-55.63492063492063,82.46031746031746,-78.01587301587301,-102.14285714285714,-5.476190476190476,-325.0,-94.52380952380952,-88.96825396825396,-0.07936507936507936,-0.3968253968253968,-166.26984126984127
-63.888888888888886,-325.0,78.01587301587301,-104.36507936507935,-38.17460317460317,-6.428571428571428,80.07936507936508,325.0,-325.0,-76.74603174603175,-191.5079365079365,-325.0,76.26984126984127,-54.841269841269835,81.34920634920634,-77.06349206349206,-100.87301587301587,-8.492063492063492,-325.0,-93.25396825396825,-87.6984126984127,-0.23809523809523808,-0.873015873015873,-166.26984126984127
-63.888888888888886,-325.0,78.01587301587301,-104.36507936507935,-38.17460317460317,-6.428571428571428,80.07936507936508,325.0,-325.0,-76.74603174603175,-191.5079365079365,-325.0,76.26984126984127,-54.841269841269835,81.34920634920634,-77.06349206349206,-100.87301587301587,-8.492063492063492,-325.0,-93.25396825396825,-87.6984126984127,-0.23809523809523808,-0.873015873015873,-166.26984126984127
-62.77777777777777,-325.0,76.26984126984127,-102.46031746031746,-37.38095238095238,0.3968253968253968,78.01587301587301,325.0,-325.0,-75.0,-187.69841269841268,-325.0,74.84126984126983,-53.73015873015873,79.44444444444444,-75.31746031746032,-98.65079365079364,-0.873015873015873,-325.0,-91.34920634920634,-85.63492063492063,-0.5555555555555556,-0.5555555555555556,-166.26984126984127
-62.77777777777777,-325.0,76.26984126984127,-102.46031746031746,-37.38095238095238,0.3968253968253968,78.01587301587301,325.0,-325.0,-75.0,-187.69841269841268,-325.0,74.84126984126983,-53.73015873015873,79.44444444444444,-75.31746031746032,-98.65079365079364,-0.873015873015873,-325.0,-91.34920634920634,-85.63492063492063,-0.5555555555555556,-0.5555555555555556,-166.26984126984127
-61.82539682539682,-325.0,75.31746031746032,-101.03174603174602,-36.904761904761905,3.73015873015873,77.22222222222221,325.0,-325.0,-74.2063492063492,-185.15873015873015,-325.0,73.73015873015872,-52.93650793650794,78.4920634920635,-74.52380952380952,-97.38095238095238,4.523809523809524,-325.0,-90.39682539682539,-84.84126984126983,0.07936507936507936,-1.0317460317460316,-166.26984126984127
-61.82539682539682,-325.0,75.31746031746032,-101.03174603174602,-36.904761904761905,3.73015873015873,77.22222222222221,325.0,-325.0,-74.2063492063492,-185.15873015873015,-325.0,73.73015873015872,-52.93650793650794,78.4920634920635,-74.52380952380952,-97.38095238095238,4.523809523809524,-325.0,-90.39682539682539,-84.84126984126983,0.07936507936507936,-1.0317460317460316,-166.26984126984127
-60.873015873015866,-325.0,73.88888888888889,-99.44444444444444,-36.269841269841265,0.873015873015873,75.63492063492063,325.0,-325.0,-72.61904761904762,-182.3015873015873,-325.0,72.46031746031746,-51.98412698412698,77.06349206349206,-73.09523809523809,-95.63492063492063,4.0476190476190474,-325.0,-88.65079365079364,-83.25396825396825,0.3968253968253968,0.3968253968253968,-166.26984126984127
-60.873015873015866,-325.0,73.88888888888889,-99.44444444444444,-36.269841269841265,0.873015873015873,75.63492063492063,325.0,-325.0,-72.61904761904762,-182.3015873015873,-325.0,72.46031746031746,-51.98412698412698,77.06349206349206,-73.09523809523809,-95.63492063492063,4.0476190476190474,-325.0,-88.65079365079364,-83.25396825396825,0.3968253968253968,0.3968253968253968,-166.26984126984127
-60.079365079365076,-325.0,72.77777777777777,-98.17460317460316,-35.79365079365079,-0.23809523809523808,74.52380952380952,325.0,-325.0,-71.66666666666666,-179.9206349206349,-325.0,71.5079365079365,-51.34920634920635,75.95238095238095,-8.174603174603174,-94.36507936507935,1.8253968253968254,-325.0,-87.6984126984127,-82.14285714285714,-0.07936507936507936,-0.07936507936507936,-321.8253968253968
-60.079365079365076,-325.0,72.77777777777777,-98.17460317460316,-35.79365079365079,-0.23809523809523808,74.52380952380952,325.0,-325.0,-71.66666666666666,-179.9206349206349,-325.0,71.5079365079365,-51.34920634920635,75.95238095238095,-8.174603174603174,-94.36507936507935,1.8253968253968254,-325.0,-87.6984126984127,-82.14285714285714,-0.07936507936507936,-0.07936507936507936,-321.8253968253968
-58.650793650793645,-325.0,70.87301587301587,-95.47619047619047,-35.0,-0.7142857142857142,72.46031746031746,325.0,-325.0,-70.07936507936508,-175.47619047619045,-325.0,69.6031746031746,-49.92063492063492,73.88888888888889,167.2222222222222,-91.98412698412697,-1.0317460317460316,-325.0,-85.31746031746032,-79.92063492063491,-1.0317460317460316,-0.3968253968253968,-321.8253968253968
-58.650793650793645,-325.0,70.87301587301587,-95.47619047619047,-35.0,-0.7142857142857142,72.46031746031746,325.0,-325.0,-70.07936507936508,-175.47619047619045,-325.0,69.6031746031746,-49.92063492063492,73.88888888888889,167.2222222222222,-91.98412698412697,-1.0317460317460316,-325.0,-85.31746031746032,-79.92063492063491,-1.0317460317460316,-0.3968253968253968,-321.8253968253968
-57.698412698412696,-325.0,69.76190476190476,-93.88888888888889,-34.36507936507936,-5.317460317460317,71.19047619047619,325.0,-325.0,-68.80952380952381,-172.61904761904762,-325.0,68.17460317460318,-49.12698412698413,72.61904761904762,288.4920634920635,-90.39682539682539,-5.158730158730158,-325.0,-83.73015873015872,-78.4920634920635,-0.873015873015873,-0.873015873015873,-321.8253968253968
-57.698412698412696,-325.0,69.76190476190476,-93.88888888888889,-34.36507936507936,-5.317460317460317,71.19047619047619,325.0,-325.0,-68.80952380952381,-172.61904761904762,-325.0,68.17460317460318,-49.12698412698413,72.61904761904762,288.4920634920635,-90.39682539682539,-5.158730158730158,-325.0,-83.73015873015872,-78.4920634920635,-0.873015873015873,-0.873015873015873,-321.8253968253968
-56.58730158730158,-325.0,68.33333333333333,-92.30158730158729,-33.888888888888886,-4.2063492063492065,69.92063492063491,325.0,-325.0,-67.38095238095238,-169.76190476190476,-325.0,66.9047619047619,-48.33333333333333,71.34920634920634,325.0,-88.80952380952381,-4.2063492063492065,-325.0,-82.3015873015873,-77.06349206349206,-0.3968253968253968,0.07936507936507936,-321.8253968253968
-56.58730158730158,-325.0,68.33333333333333,-92.30158730158729,-33.888888888888886,-4.2063492063492065,69.92063492063491,325.0,-325.0,-67.38095238095238,-169.76190476190476,-325.0,66.9047619047619,-48.33333333333333,71.34920634920634,325.0,-88.80952380952381,-4.2063492063492065,-325.0,-82.3015873015873,-77.06349206349206,-0.3968253968253968,0.07936507936507936,-321.8253968253968
-55.63492063492063,-325.0,67.06349206349206,-90.87301587301587,-33.41269841269841,-2.7777777777777777,68.80952380952381,325.0,-325.0,-66.42857142857143,-166.9047619047619,-325.0,65.79365079365078,-47.38095238095238,70.07936507936508,325.0,-87.22222222222221,-2.7777777777777777,-325.0,-80.87301587301587,-75.63492063492063,-1.349206349206349,-0.3968253968253968,-321.8253968253968
-55.63492063492063,-325.0,67.06349206349206,-90.87301587301587,-33.41269841269841,-2.7777777777777777,68.80952380952381,325.0,-325.0,-66.42857142857143,-166.9047619047619,-325.0,65.79365079365078,-47.38095238095238,70.07936507936508,325.0,-87.22222222222221,-2.7777777777777777,-325.0,-80.87301587301587,-75.63492063492063,-1.349206349206349,-0.3968253968253968,-321.8253968253968
-54.841269841269835,-325.0,66.26984126984127,-89.44444444444444,-32.93650793650794,-8.65079365079365,67.53968253968253,325.0,-325.0,-65.31746031746032,-164.84126984126982,-325.0,65.15873015873015,-46.74603174603175,69.12698412698413,325.0,-85.95238095238095,-8.174603174603174,-325.0,-79.6031746031746,-74.68253968253968,-1.0317460317460316,-1.349206349206349,-166.26984126984127
-54.841269841269835,-325.0,66.26984126984127,-89.44444444444444,-32.93650793650794,-8.65079365079365,67.53968253968253,325.0,-325.0,-65.31746031746032,-164.84126984126982,-325.0,65.15873015873015,-46.74603174603175,69.12698412698413,325.0,-85.95238095238095,-8.174603174603174,-325.0,-79.6031746031746,-74.68253968253968,-1.0317460317460316,-1.349206349206349,-166.26984126984127
-54.047619047619044,-325.0,65.15873015873015,-88.17460317460316,-32.3015873015873,-2.46031746031746,66.26984126984127,325.0,-325.0,-64.2063492063492,-161.984126984127,-325.0,63.73015873015873,-45.79365079365079,68.01587301587301,325.0,-84.84126984126983,-0.3968253968253968,-325.0,-78.33333333333333,-73.09523809523809,-0.23809523809523808,-0.23809523809523808,-166.26984126984127
-54.047619047619044,-325.0,65.15873015873015,-88.17460317460316,-32.3015873015873,-2.46031746031746,66.26984126984127,325.0,-325.0,-64.2063492063492,-161.984126984127,-325.0,63.73015873015873,-45.79365079365079,68.01587301587301,325.0,-84.84126984126983,-0.3968253968253968,-325.0,-78.33333333333333,-73.09523809523809,-0.23809523809523808,-0.23809523809523808,-166.26984126984127
-53.095238095238095,-325.0,63.888888888888886,-86.74603174603175,-31.825396825396822,3.253968253968254,65.15873015873015,325.0,-325.0,-63.095238095238095,-159.12698412698413,-325.0,62.77777777777777,-45.0,66.74603174603175,325.0,-83.25396825396825,6.428571428571428,-325.0,-77.06349206349206,-71.82539682539682,-0.873015873015873,-1.0317460317460316,-166.26984126984127
-53.095238095238095,-325.0,63.888888888888886,-86.74603174603175,-31.825396825396822,3.253968253968254,65.15873015873015,325.0,-325.0,-63.095238095238095,-159.12698412698413,-325.0,62.77777777777777,-45.0,66.74603174603175,325.0,-83.25396825396825,6.428571428571428,-325.0,-77.06349206349206,-71.82539682539682,-0.873015873015873,-1.0317460317460316,-166.26984126984127
-52.460317460317455,-325.0,62.93650793650793,-85.47619047619047,-31.349206349206348,-0.7142857142857142,64.36507936507937,325.0,-325.0,-51.34920634920635,-157.38095238095238,-325.0,61.82539682539682,-44.36507936507936,65.79365079365078,325.0,-81.98412698412697,1.984126984126984,-325.0,-75.95238095238095,-71.03174603174602,-1.1904761904761905,-1.0317460317460316,-166.26984126984127
-52.460317460317455,-325.0,62.93650793650793,-85.47619047619047,-31.349206349206348,-0.7142857142857142,64.36507936507937,325.0,-325.0,-51.34920634920635,-157.38095238095238,-325.0,61.82539682539682,-44.36507936507936,65.79365079365078,325.0,-81.98412698412697,1.984126984126984,-325.0,-75.95238095238095,-71.03174603174602,-1.1904761904761905,-1.0317460317460316,-166.26984126984127
-50.87301587301587,-325.0,60.873015873015866,-83.09523809523809,-30.71428571428571,-2.142857142857143,62.3015873015873,325.0,-325.0,28.174603174603174,-152.61904761904762,-325.0,59.92063492063492,-42.93650793650794,63.57142857142857,325.0,-79.44444444444444,-1.0317460317460316,-325.0,-73.88888888888889,-68.80952380952381,-0.3968253968253968,-1.0317460317460316,-166.26984126984127
-50.87301587301587,-325.0,60.873015873015866,-83.09523809523809,-30.71428571428571,-2.142857142857143,62.3015873015873,325.0,-325.0,28.174603174603174,-152.61904761904762,-325.0,59.92063492063492,-42.93650793650794,63.57142857142857,325.0,-79.44444444444444,-1.0317460317460316,-325.0,-73.88888888888889,-68.80952380952381,-0.3968253968253968,-1.0317460317460316,-166.26984126984127
-49.12698412698413,-325.0,58.650793650793645,-79.92063492063491,-29.6031746031746,-8.809523809523808,-53.73015873015873,325.0,-325.0,110.07936507936508,-147.53968253968253,-325.0,57.698412698412696,-41.507936507936506,61.507936507936506,325.0,-76.74603174603175,-7.3809523809523805,-325.0,-71.19047619047619,-66.26984126984127,0.07936507936507936,-0.23809523809523808,-321.8253968253968
-49.12698412698413,-325.0,58.650793650793645,-79.92063492063491,-29.6031746031746,-8.809523809523808,-53.73015873015873,325.0,-325.0,110.07936507936508,-147.53968253968253,-325.0,57.698412698412696,-41.507936507936506,61.507936507936506,325.0,-76.74603174603175,-7.3809523809523805,-325.0,-71.19047619047619,-66.26984126984127,0.07936507936507936,-0.23809523809523808,-321.8253968253968
-47.698412698412696,-324.04761904761904,56.74603174603174,-77.85714285714285,-28.65079365079365,0.23809523809523808,-260.07936507936506,325.0,-325.0,188.96825396825395,-143.25396825396825,-325.0,55.79365079365079,-40.238095238095234,59.6031746031746,325.0,-74.52380952380952,1.1904761904761905,-325.0,-68.96825396825396,-64.36507936507937,-0.3968253968253968,-0.3968253968253968,-321.8253968253968
-47.698412698412696,-324.04761904761904,56.74603174603174,-77.85714285714285,-28.65079365079365,0.23809523809523808,-260.07936507936506,325.0,-325.0,188.96825396825395,-143.25396825396825,-325.0,55.79365079365079,-40.238095238095234,59.6031746031746,325.0,-74.52380952380952,1.1904761904761905,-325.0,-68.96825396825396,-64.36507936507937,-0.3968253968253968,-0.3968253968253968,-321.8253968253968
-46.904761904761905,-319.1269841269841,55.63492063492063,-76.58730158730158,-28.174603174603174,-0.23809523809523808,-325.0,325.0,-325.0,261.66666666666663,-140.87301587301587,-325.0,54.841269841269835,-39.6031746031746,58.650793650793645,325.0,-73.25396825396825,0.3968253968253968,-325.0,-68.01587301587301,-63.095238095238095,-0.7142857142857142,-1.0317460317460316,-321.8253968253968
-46.904761904761905,-319.1269841269841,55.63492063492063,-76.58730158730158,-28.174603174603174,-0.23809523809523808,-325.0,325.0,-325.0,261.66666666666663,-140.87301587301587,-325.0,54.841269841269835,-39.6031746031746,58.650793650793645,325.0,-73.25396825396825,0.3968253968253968,-325.0,-68.01587301587301,-63.095238095238095,-0.7142857142857142,-1.0317460317460316,-321.8253968253968
-46.11111111111111,-313.88888888888886,54.68253968253968,-75.15873015873015,-27.698412698412696,1.0317460317460316,-325.0,325.0,-325.0,286.90476190476187,-138.4920634920635,-325.0,53.888888888888886,-38.80952380952381,57.53968253968254,325.0,-71.82539682539682,3.888888888888889,-325.0,-66.9047619047619,-62.14285714285714,-0.23809523809523808,-1.1904761904761905,-321.8253968253968
-46.11111111111111,-313.88888888888886,54.68253968253968,-75.15873015873015,-27.698412698412696,1.0317460317460316,-325.0,325.0,-325.0,286.90476190476187,-138.4920634920635,-325.0,53.888888888888886,-38.80952380952381,57.53968253968254,325.0,-71.82539682539682,3.888888888888889,-325.0,-66.9047619047619,-62.14285714285714,-0.23809523809523808,-1.1904761904761905,-321.8253968253968
-45.317460317460316,-308.6507936507936,53.73015873015873,-47.698412698412696,-27.22222222222222,-1.349206349206349,-325.0,325.0,-325.0,298.8095238095238,-136.11111111111111,-325.0,52.93650793650794,-38.01587301587301,56.42857142857142,325.0,-70.55555555555556,2.619047619047619,-325.0,-65.47619047619047,-60.873015873015866,-0.23809523809523808,0.07936507936507936,-321.8253968253968
-45.317460317460316,-308.6507936507936,53.73015873015873,-47.698412698412696,-27.22222222222222,-1.349206349206349,-325.0,325.0,-325.0,298.8095238095238,-136.11111111111111,-325.0,52.93650793650794,-38.01587301587301,56.42857142857142,325.0,-70.55555555555556,2.619047619047619,-325.0,-65.47619047619047,-60.873015873015866,-0.23809523809523808,0.07936507936507936,-321.8253968253968
-44.68253968253968,-303.73015873015873,52.77777777777777,214.2063492063492,-26.9047619047619,-8.333333333333332,-325.0,325.0,-325.0,318.3333333333333,-133.88888888888889,-325.0,51.98412698412698,-37.22222222222222,55.63492063492063,325.0,-69.28571428571428,-4.365079365079365,-325.0,-64.36507936507937,-59.76190476190476,-1.507936507936508,-0.23809523809523808,-166.26984126984127
-44.68253968253968,-303.73015873015873,52.77777777777777,214.2063492063492,-26.9047619047619,-8.333333333333332,-325.0,325.0,-325.0,318.3333333333333,-133.88888888888889,-325.0,51.98412698412698,-37.22222222222222,55.63492063492063,325.0,-69.28571428571428,-4.365079365079365,-325.0,-64.36507936507937,-59.76190476190476,-1.507936507936508,-0.23809523809523808,-166.26984126984127
-43.888888888888886,-298.6507936507936,51.666666666666664,325.0,-26.428571428571427,-7.698412698412698,-325.0,325.0,-325.0,325.0,-131.66666666666666,-325.0,51.03174603174603,-36.74603174603175,54.52380952380952,325.0,-68.17460317460318,-2.619047619047619,-325.0,-63.41269841269841,-58.650793650793645,-1.507936507936508,-0.07936507936507936,-166.26984126984127
-43.888888888888886,-298.6507936507936,51.666666666666664,325.0,-26.428571428571427,-7.698412698412698,-325.0,325.0,-325.0,325.0,-131.66666666666666,-325.0,51.03174603174603,-36.74603174603175,54.52380952380952,325.0,-68.17460317460318,-2.619047619047619,-325.0,-63.41269841269841,-58.650793650793645,-1.507936507936508,-0.07936507936507936,-166.26984126984127
-43.57142857142857,-297.38095238095235,51.507936507936506,325.0,-26.428571428571427,-7.222222222222221,-325.0,325.0,-325.0,325.0,-131.03174603174602,-325.0,51.03174603174603,-36.42857142857142,54.2063492063492,325.0,-67.6984126984127,-1.984126984126984,-325.0,-63.095238095238095,-58.33333333333333,-1.1904761904761905,0.23809523809523808,-166.26984126984127
-43.57142857142857,-297.38095238095235,51.507936507936506,325.0,-26.428571428571427,-7.222222222222221,-325.0,325.0,-325.0,325.0,-131.03174603174602,-325.0,51.03174603174603,-36.42857142857142,54.2063492063492,325.0,-67.6984126984127,-1.984126984126984,-325.0,-63.095238095238095,-58.33333333333333,-1.1904761904761905,0.23809523809523808,-166.26984126984127
-42.61904761904761,-290.07936507936506,50.238095238095234,325.0,-25.634920634920633,-10.873015873015872,-325.0,325.0,-325.0,325.0,-127.85714285714285,-325.0,49.44444444444444,-35.95238095238095,52.77777777777777,325.0,-65.95238095238095,-6.111111111111111,-325.0,-61.507936507936506,-56.74603174603174,0.07936507936507936,1.1904761904761905,-166.26984126984127
-42.61904761904761,-290.07936507936506,50.238095238095234,325.0,-25.634920634920633,-10.873015873015872,-325.0,325.0,-325.0,325.0,-127.85714285714285,-325.0,49.44444444444444,-35.95238095238095,52.77777777777777,325.0,-65.95238095238095,-6.111111111111111,-325.0,-61.507936507936506,-56.74603174603174,0.07936507936507936,1.1904761904761905,-166.26984126984127
-41.82539682539682,-285.4761904761905,49.12698412698413,325.0,-25.158730158730158,-16.11111111111111,-325.0,325.0,-325.0,325.0,-125.63492063492063,-325.0,48.80952380952381,-35.0,51.82539682539682,325.0,-64.84126984126983,-10.238095238095237,-325.0,-60.238095238095234,-55.95238095238095,-0.7142857142857142,-0.5555555555555556,-166.26984126984127
-41.82539682539682,-285.4761904761905,49.12698412698413,325.0,-25.158730158730158,-16.11111111111111,-325.0,325.0,-325.0,325.0,-125.63492063492063,-325.0,48.80952380952381,-35.0,51.82539682539682,325.0,-64.84126984126983,-10.238095238095237,-325.0,-60.238095238095234,-55.95238095238095,-0.7142857142857142,-0.5555555555555556,-166.26984126984127
-40.87301587301587,-278.4920634920635,48.01587301587301,325.0,-24.68253968253968,-4.523809523809524,-325.0,325.0,-325.0,325.0,-122.6190476190476,-325.0,47.38095238095238,-34.047619047619044,50.39682539682539,325.0,-63.25396825396825,-0.23809523809523808,-325.0,-58.8095238095238,-54.36507936507936,-1.349206349206349,-0.873015873015873,-321.8253968253968
-40.87301587301587,-278.4920634920635,48.01587301587301,325.0,-24.68253968253968,-4.523809523809524,-325.0,325.0,-325.0,325.0,-122.6190476190476,-325.0,47.38095238095238,-34.047619047619044,50.39682539682539,325.0,-63.25396825396825,-0.23809523809523808,-325.0,-58.8095238095238,-54.36507936507936,-1.349206349206349,-0.873015873015873,-321.8253968253968
-39.92063492063492,-272.9365079365079,46.58730158730158,325.0,-24.206349206349206,-12.619047619047619,-325.0,325.0,-325.0,325.0,-119.92063492063491,-325.0,46.269841269841265,-33.41269841269841,-5.0,325.0,-61.82539682539682,-10.873015873015872,-325.0,-57.53968253968254,-52.93650793650794,-0.3968253968253968,0.7142857142857142,-321.8253968253968
-39.92063492063492,-272.9365079365079,46.58730158730158,325.0,-24.206349206349206,-12.619047619047619,-325.0,325.0,-325.0,325.0,-119.92063492063491,-325.0,46.269841269841265,-33.41269841269841,-5.0,325.0,-61.82539682539682,-10.873015873015872,-325.0,-57.53968253968254,-52.93650793650794,-0.3968253968253968,0.7142857142857142,-321.8253968253968
-39.44444444444444,-269.2857142857143,46.11111111111111,325.0,-23.88888888888889,-9.126984126984127,-325.0,325.0,-325.0,325.0,-118.49206349206348,-325.0,45.63492063492063,-32.77777777777778,-96.74603174603175,325.0,-60.71428571428571,-7.3809523809523805,-325.0,-56.74603174603174,-52.77777777777777,-0.3968253968253968,-1.1904761904761905,-321.8253968253968
-39.44444444444444,-269.2857142857143,46.11111111111111,325.0,-23.88888888888889,-9.126984126984127,-325.0,325.0,-325.0,325.0,-118.49206349206348,-325.0,45.63492063492063,-32.77777777777778,-96.74603174603175,325.0,-60.71428571428571,-7.3809523809523805,-325.0,-56.74603174603174,-52.77777777777777,-0.3968253968253968,-1.1904761904761905,-321.8253968253968
-38.49206349206349,-264.04761904761904,-50.079365079365076,325.0,-23.095238095238095,-13.412698412698411,-325.0,325.0,-325.0,325.0,-115.95238095238095,-325.0,44.52380952380952,23.41269841269841,-263.88888888888886,325.0,-59.76190476190476,-11.666666666666666,-325.0,-55.63492063492063,-51.34920634920635,-0.5555555555555556,0.07936507936507936,-321.8253968253968
-38.49206349206349,-264.04761904761904,-50.079365079365076,325.0,-23.095238095238095,-13.412698412698411,-325.0,325.0,-325.0,325.0,-115.95238095238095,-325.0,44.52380952380952,23.41269841269841,-263.88888888888886,325.0,-59.76190476190476,-11.666666666666666,-325.0,-55.63492063492063,-51.34920634920635,-0.5555555555555556,0.07936507936507936,-321.8253968253968
-38.01587301587301,-259.6031746031746,-184.04761904761904,325.0,-22.936507936507937,-21.984126984126984,-325.0,325.0,-325.0,325.0,-114.04761904761904,-322.6190476190476,43.73015873015873,158.4920634920635,-325.0,325.0,-58.49206349206349,-19.76190476190476,-324.5238095238095,-54.68253968253968,-50.238095238095234,-0.873015873015873,-0.3968253968253968,-321.8253968253968
-38.01587301587301,-259.6031746031746,-184.04761904761904,325.0,-22.936507936507937,-21.984126984126984,-325.0,325.0,-325.0,325.0,-114.04761904761904,-322.6190476190476,43.73015873015873,158.4920634920635,-325.0,325.0,-58.49206349206349,-19.76190476190476,-324.5238095238095,-54.68253968253968,-50.238095238095234,-0.873015873015873,-0.3968253968253968,-321.8253968253968
-37.38095238095238,-255.3174603174603,-309.1269841269841,325.0,-22.619047619047617,-15.95238095238095,-325.0,325.0,-325.0,325.0,-112.14285714285714,-317.38095238095235,43.095238095238095,261.8253968253968,-325.0,325.0,-57.53968253968254,-13.253968253968253,-320.07936507936506,-53.57142857142857,-49.44444444444444,-0.873015873015873,-0.7142857142857142,-166.26984126984127
-37.38095238095238,-255.3174603174603,-309.1269841269841,325.0,-22.619047619047617,-15.95238095238095,-325.0,325.0,-325.0,325.0,-112.14285714285714,-317.38095238095235,43.095238095238095,261.8253968253968,-325.0,325.0,-57.53968253968254,-13.253968253968253,-320.07936507936506,-53.57142857142857,-49.44444444444444,-0.873015873015873,-0.7142857142857142,-166.26984126984127
-36.58730158730159,-251.03174603174602,-325.0,325.0,-22.142857142857142,-19.6031746031746,-325.0,325.0,-325.0,325.0,-110.23809523809523,-311.984126984127,42.3015873015873,325.0,-325.0,325.0,-56.42857142857142,-17.22222222222222,-315.0,-52.61904761904761,-48.49206349206349,-0.23809523809523808,-0.873015873015873,-166.26984126984127
-36.58730158730159,-251.03174603174602,-325.0,325.0,-22.142857142857142,-19.6031746031746,-325.0,325.0,-325.0,325.0,-110.23809523809523,-311.984126984127,42.3015873015873,325.0,-325.0,325.0,-56.42857142857142,-17.22222222222222,-315.0,-52.61904761904761,-48.49206349206349,-0.23809523809523808,-0.873015873015873,-166.26984126984127
-35.95238095238095,-246.9047619047619,-325.0,325.0,-21.666666666666664,-23.41269841269841,-325.0,325.0,-325.0,325.0,-108.17460317460316,-306.58730158730157,37.698412698412696,325.0,-325.0,325.0,-55.317460317460316,-20.238095238095237,-309.76190476190476,-51.666666666666664,-47.53968253968254,0.3968253968253968,-0.23809523809523808,-166.26984126984127
-35.95238095238095,-246.9047619047619,-325.0,325.0,-21.666666666666664,-23.41269841269841,-325.0,325.0,-325.0,325.0,-108.17460317460316,-306.58730158730157,37.698412698412696,325.0,-325.0,325.0,-55.317460317460316,-20.238095238095237,-309.76190476190476,-51.666666666666664,-47.53968253968254,0.3968253968253968,-0.23809523809523808,-166.26984126984127
-35.476190476190474,-242.77777777777777,-325.0,325.0,-21.19047619047619,-18.49206349206349,-325.0,325.0,-325.0,325.0,-106.42857142857142,-301.3492063492063,-16.904761904761905,325.0,-325.0,325.0,-54.36507936507936,-14.523809523809524,-304.5238095238095,-50.71428571428571,-46.74603174603175,-0.23809523809523808,-0.873015873015873,-166.26984126984127
-35.476190476190474,-242.77777777777777,-325.0,325.0,-21.19047619047619,-18.49206349206349,-325.0,325.0,-325.0,325.0,-106.42857142857142,-301.3492063492063,-16.904761904761905,325.0,-325.0,325.0,-54.36507936507936,-14.523809523809524,-304.5238095238095,-50.71428571428571,-46.74603174603175,-0.23809523809523808,-0.873015873015873,-166.26984126984127
-34.84126984126984,-239.76190476190476,-325.0,325.0,-21.03174603174603,-23.41269841269841,-325.0,325.0,-325.0,325.0,-105.0,-297.6984126984127,-108.01587301587301,325.0,-325.0,325.0,-53.57142857142857,-19.92063492063492,-300.87301587301585,-50.079365079365076,-46.11111111111111,-0.23809523809523808,-0.23809523809523808,-166.26984126984127
-34.84126984126984,-239.76190476190476,-325.0,325.0,-21.03174603174603,-23.41269841269841,-325.0,325.0,-325.0,325.0,-105.0,-297.6984126984127,-108.01587301587301,325.0,-325.0,325.0,-53.57142857142857,-19.92063492063492,-300.87301587301585,-50.079365079365076,-46.11111111111111,-0.23809523809523808,-0.23809523809523808,-166.26984126984127
-34.047619047619044,-235.0,-325.0,325.0,-20.71428571428571,-25.317460317460316,-325.0,325.0,-325.0,325.0,-102.93650793650794,-291.66666666666663,-286.58730158730157,325.0,-325.0,325.0,-52.61904761904761,-21.825396825396822,-294.5238095238095,-48.96825396825397,-45.0,0.3968253968253968,-0.23809523809523808,-321.8253968253968
-34.047619047619044,-235.0,-325.0,325.0,-20.71428571428571,-25.317460317460316,-325.0,325.0,-325.0,325.0,-102.93650793650794,-291.66666666666663,-286.58730158730157,325.0,-325.0,325.0,-52.61904761904761,-21.825396825396822,-294.5238095238095,-48.96825396825397,-45.0,0.3968253968253968,-0.23809523809523808,-321.8253968253968
-33.095238095238095,-228.015873015873,-325.0,325.0,-19.92063492063492,-23.41269841269841,-325.0,325.0,-325.0,325.0,-99.92063492063491,-283.0952380952381,-325.0,325.0,-325.0,325.0,-50.71428571428571,-20.07936507936508,-286.26984126984127,-47.38095238095238,-43.57142857142857,0.23809523809523808,-0.5555555555555556,-321.8253968253968
-33.095238095238095,-228.015873015873,-325.0,325.0,-19.92063492063492,-23.41269841269841,-325.0,325.0,-325.0,325.0,-99.92063492063491,-283.0952380952381,-325.0,325.0,-325.0,325.0,-50.71428571428571,-20.07936507936508,-286.26984126984127,-47.38095238095238,-43.57142857142857,0.23809523809523808,-0.5555555555555556,-321.8253968253968
-32.77777777777778,-226.1111111111111,-325.0,325.0,-19.76190476190476,-24.68253968253968,-325.0,325.0,-325.0,325.0,-98.96825396825396,-280.7142857142857,-325.0,325.0,-325.0,325.0,-50.238095238095234,-21.349206349206348,-284.04761904761904,-46.904761904761905,-43.095238095238095,1.0317460317460316,-0.23809523809523808,-321.8253968253968
-32.77777777777778,-226.1111111111111,-325.0,325.0,-19.76190476190476,-24.68253968253968,-325.0,325.0,-325.0,325.0,-98.96825396825396,-280.7142857142857,-325.0,325.0,-325.0,325.0,-50.238095238095234,-21.349206349206348,-284.04761904761904,-46.904761904761905,-43.095238095238095,1.0317460317460316,-0.23809523809523808,-321.8253968253968
-32.77777777777778,-226.1111111111111,-325.0,325.0,-19.76190476190476,-24.68253968253968,-325.0,325.0,-325.0,325.0,-98.96825396825396,-280.7142857142857,-325.0,325.0,-325.0,325.0,-50.238095238095234,-21.349206349206348,-284.04761904761904,-46.904761904761905,-43.095238095238095,1.0317460317460316,-0.23809523809523808,-321.8253968253968
-32.77777777777778,-226.1111111111111,-325.0,325.0,-19.76190476190476,-24.68253968253968,-325.0,325.0,-325.0,325.0,-98.96825396825396,-280.7142857142857,-325.0,325.0,-325.0,325.0,-50.238095238095234,-21.349206349206348,-284.04761904761904,-46.904761904761905,-43.095238095238095,1.0317460317460316,-0.23809523809523808,-321.8253968253968
-32.77777777777778,-226.1111111111111,-325.0,325.0,-19.76190476190476,-24.68253968253968,-325.0,325.0,-325.0,325.0,-98.96825396825396,-280.7142857142857,-325.0,325.0,-325.0,325.0,-50.238095238095234,-21.349206349206348,-284.04761904761904,-46.904761904761905,-43.095238095238095,1.0317460317460316,-0.23809523809523808,-321.8253968253968
-32.77777777777778,-226.1111111111111,-325.0,325.0,-19.76190476190476,-24.68253968253968,-325.0,325.0,-325.0,325.0,-98.96825396825396,-280.7142857142857,-325.0,325.0,-325.0,325.0,-50.238095238095234,-21.349206349206348,-284.04761904761904,-46.904761904761905,-43.095238095238095,1.0317460317460316,-0.23809523809523808,-321.8253968253968
-32.77777777777778,-226.1111111111111,-325.0,325.0,-19.76190476190476,-24.68253968253968,-325.0,325.0,-325.0,325.0,-98.96825396825396,-280.7142857142857,-325.0,325.0,-325.0,325.0,-50.238095238095234,-21.349206349206348,-284.04761904761904,-46.904761904761905,-43.095238095238095,1.0317460317460316,-0.23809523809523808,-166.26984126984127
-32.77777777777778,-226.1111111111111,-325.0,325.0,-19.76190476190476,-24.68253968253968,-325.0,325.0,-325.0,325.0,-98.96825396825396,-280.7142857142857,-325.0,325.0,-325.0,325.0,-50.238095238095234,-21.349206349206348,-284.04761904761904,-46.904761904761905,-43.095238095238095,1.0317460317460316,-0.23809523809523808,-166.26984126984127
-32.77777777777778,-226.1111111111111,-325.0,325.0,-19.76190476190476,-24.68253968253968,-325.0,325.0,-325.0,325.0,-98.96825396825396,-280.7142857142857,-325.0,325.0,-325.0,325.0,-50.238095238095234,-21.349206349206348,-284.04761904761904,-46.904761904761905,-43.095238095238095,1.0317460317460316,-0.23809523809523808,-166.26984126984127
-32.77777777777778,-226.1111111111111,-325.0,325.0,-19.76190476190476,-24.68253968253968,-325.0,325.0,-325.0,325.0,-98.96825396825396,-280.7142857142857,-325.0,325.0,-325.0,325.0,-50.238095238095234,-21.349206349206348,-284.04761904761904,-46.904761904761905,-43.095238095238095,1.0317460317460316,-0.23809523809523808,-166.26984126984127
-28.015873015873016,-193.25396825396825,-325.0,325.0,-17.063492063492063,-6.587301587301587,-325.0,308.3333333333333,-324.68253968253964,325.0,-84.2063492063492,-239.28571428571428,-325.0,325.0,-325.0,325.0,-42.77777777777778,-4.523809523809524,-242.46031746031744,-40.079365079365076,-36.42857142857142,-0.5555555555555556,-0.23809523809523808,-166.26984126984127
-28.015873015873016,-193.25396825396825,-325.0,325.0,-17.063492063492063,-6.587301587301587,-325.0,308.3333333333333,-324.68253968253964,325.0,-84.2063492063492,-239.28571428571428,-325.0,325.0,-325.0,325.0,-42.77777777777778,-4.523809523809524,-242.46031746031744,-40.079365079365076,-36.42857142857142,-0.5555555555555556,-0.23809523809523808,-166.26984126984127
-28.015873015873016,-193.25396825396825,-325.0,325.0,-17.063492063492063,-6.587301587301587,-325.0,308.3333333333333,-324.68253968253964,325.0,-84.2063492063492,-239.28571428571428,-325.0,325.0,-325.0,325.0,-42.77777777777778,-4.523809523809524,-242.46031746031744,-40.079365079365076,-36.42857142857142,-0.5555555555555556,-0.23809523809523808,-166.26984126984127
-28.015873015873016,-193.25396825396825,-325.0,325.0,-17.063492063492063,-6.587301587301587,-325.0,308.3333333333333,-324.68253968253964,325.0,-84.2063492063492,-239.28571428571428,-325.0,325.0,-325.0,325.0,-42.77777777777778,-4.523809523809524,-242.46031746031744,-40.079365079365076,-36.42857142857142,-0.5555555555555556,-0.23809523809523808,-166.26984126984127
-28.015873015873016,-193.25396825396825,-325.0,325.0,-17.063492063492063,-6.587301587301587,-325.0,308.3333333333333,-324.68253968253964,325.0,-84.2063492063492,-239.28571428571428,-325.0,325.0,-325.0,325.0,-42.77777777777778,-4.523809523809524,-242.46031746031744,-40.079365079365076,-36.42857142857142,-0.5555555555555556,-0.23809523809523808,-166.26984126984127
-28.015873015873016,-193.25396825396825,-325.0,325.0,-17.063492063492063,-6.587301587301587,-325.0,308.3333333333333,-324.68253968253964,325.0,-84.2063492063492,-239.28571428571428,-325.0,325.0,-325.0,325.0,-42.77777777777778,-4.523809523809524,-242.46031746031744,-40.079365079365076,-36.42857142857142,-0.5555555555555556,-0.23809523809523808,-166.26984126984127
-28.015873015873016,-193.25396825396825,-325.0,325.0,-17.063492063492063,-6.587301587301587,-325.0,308.3333333333333,-324.68253968253964,325.0,-84.2063492063492,-239.28571428571428,-325.0,325.0,-325.0,325.0,-42.77777777777778,-4.523809523809524,-242.46031746031744,-40.079365079365076,-36.42857142857142,-0.5555555555555556,-0.23809523809523808,-321.8253968253968
-28.015873015873016,-193.25396825396825,-325.0,325.0,-17.063492063492063,-6.587301587301587,-325.0,308.3333333333333,-324.68253968253964,325.0,-84.2063492063492,-239.28571428571428,-325.0,325.0,-325.0,325.0,-42.77777777777778,-4.523809523809524,-242.46031746031744,-40.079365079365076,-36.42857142857142,-0.5555555555555556,-0.23809523809523808,-321.8253968253968
325.0,-180.87301587301587,-325.0,325.0,-16.428571428571427,-14.84126984126984,-325.0,288.8095238095238,-303.88888888888886,325.0,-78.65079365079364,-223.88888888888889,-325.0,325.0,-325.0,325.0,-39.76190476190476,-12.3015873015873,-226.9047619047619,-37.53968253968254,-33.888888888888886,-0.873015873015873,-0.3968253968253968,-321.8253968253968
325.0,-180.87301587301587,-325.0,325.0,-16.428571428571427,-14.84126984126984,-325.0,288.8095238095238,-303.88888888888886,325.0,-78.65079365079364,-223.88888888888889,-325.0,325.0,-325.0,325.0,-39.76190476190476,-12.3015873015873,-226.9047619047619,-37.53968253968254,-33.888888888888886,-0.873015873015873,-0.3968253968253968,-321.8253968253968
325.0,-180.87301587301587,-325.0,325.0,-16.428571428571427,-14.84126984126984,-325.0,288.8095238095238,-303.88888888888886,325.0,-78.65079365079364,-223.88888888888889,-325.0,325.0,-325.0,325.0,-39.76190476190476,-12.3015873015873,-226.9047619047619,-37.53968253968254,-33.888888888888886,-0.873015873015873,-0.3968253968253968,-321.8253968253968
325.0,-180.87301587301587,-325.0,325.0,-16.428571428571427,-14.84126984126984,-325.0,288.8095238095238,-303.88888888888886,325.0,-78.65079365079364,-223.88888888888889,-325.0,325.0,-325.0,325.0,-39.76190476190476,-12.3015873015873,-226.9047619047619,-37.53968253968254,-33.888888888888886,-0.873015873015873,-0.3968253968253968,-321.8253968253968
40.55555555555555,-211.34920634920633,-152.3015873015873,314.8412698412698,146.11111111111111,-14.84126984126984,-152.3015873015873,298.968253968254,-141.34920634920636,314.8412698412698,94.04761904761904,-213.7301587301587,-152.3015873015873,314.8412698412698,-152.3015873015873,325.0,132.93650793650792,-22.46031746031746,-54.2063492063492,-27.38095238095238,138.8095238095238,-0.873015873015873,162.14285714285714,-321.8253968253968
40.55555555555555,-211.34920634920633,-152.3015873015873,314.8412698412698,146.11111111111111,-14.84126984126984,-152.3015873015873,298.968253968254,-141.34920634920636,314.8412698412698,94.04761904761904,-213.7301587301587,-152.3015873015873,314.8412698412698,-152.3015873015873,325.0,132.93650793650792,-22.46031746031746,-54.2063492063492,-27.38095238095238,138.8095238095238,-0.873015873015873,162.14285714285714,-321.8253968253968
-243.88888888888889,-241.8253968253968,20.396825396825395,304.68253968253964,308.6507936507936,-14.84126984126984,20.396825396825395,309.1269841269841,21.19047619047619,304.68253968253964,266.74603174603175,-203.57142857142856,20.396825396825395,304.68253968253964,20.396825396825395,325.0,305.6349206349206,-32.61904761904762,118.49206349206348,-17.22222222222222,311.5079365079365,-0.873015873015873,324.68253968253964,-321.8253968253968
-243.88888888888889,-241.8253968253968,20.396825396825395,304.68253968253964,308.6507936507936,-14.84126984126984,20.396825396825395,309.1269841269841,21.19047619047619,304.68253968253964,266.74603174603175,-203.57142857142856,20.396825396825395,304.68253968253964,20.396825396825395,325.0,305.6349206349206,-32.61904761904762,118.49206349206348,-17.22222222222222,311.5079365079365,-0.873015873015873,324.68253968253964,-321.8253968253968
-201.03174603174602,-160.3968253968254,-132.14285714285714,1.1904761904761905,164.36507936507937,-150.23809523809524,-99.44444444444444,47.22222222222222,24.365079365079364,151.66666666666666,224.52380952380952,-214.2063492063492,1.0317460317460316,264.68253968253964,-116.26984126984127,30.396825396825395,305.6349206349206,-22.46031746031746,118.49206349206348,-17.22222222222222,311.5079365079365,-0.873015873015873,314.5238095238095,-166.26984126984127
-201.03174603174602,-160.3968253968254,-132.14285714285714,1.1904761904761905,164.36507936507937,-150.23809523809524,-99.44444444444444,47.22222222222222,24.365079365079364,151.66666666666666,224.52380952380952,-214.2063492063492,1.0317460317460316,264.68253968253964,-116.26984126984127,30.396825396825395,305.6349206349206,-22.46031746031746,118.49206349206348,-17.22222222222222,311.5079365079365,-0.873015873015873,314.5238095238095,-166.26984126984127
-158.015873015873,-78.80952380952381,-284.5238095238095,-302.3015873015873,20.238095238095237,-285.6349206349206,-219.28571428571428,-214.68253968253967,27.698412698412696,-1.349206349206349,182.46031746031744,-224.68253968253967,-18.333333333333332,224.68253968253967,-252.77777777777777,-264.2063492063492,305.6349206349206,-12.3015873015873,118.49206349206348,-17.22222222222222,311.5079365079365,-0.873015873015873,304.36507936507934,-166.26984126984127
-158.015873015873,-78.80952380952381,-284.5238095238095,-302.3015873015873,20.238095238095237,-285.6349206349206,-219.28571428571428,-214.68253968253967,27.698412698412696,-1.349206349206349,182.46031746031744,-224.68253968253967,-18.333333333333332,224.68253968253967,-252.77777777777777,-264.2063492063492,305.6349206349206,-12.3015873015873,118.49206349206348,-17.22222222222222,311.5079365079365,-0.873015873015873,304.36507936507934,-166.26984126984127
-158.015873015873,-78.80952380952381,-284.5238095238095,-302.3015873015873,20.238095238095237,-285.6349206349206,-219.28571428571428,-214.68253968253967,27.698412698412696,-1.349206349206349,182.46031746031744,-224.68253968253967,-18.333333333333332,224.68253968253967,-252.77777777777777,-264.2063492063492,305.6349206349206,-12.3015873015873,118.49206349206348,-17.22222222222222,311.5079365079365,-0.873015873015873,304.36507936507934,-166.26984126984127
-158.015873015873,-78.80952380952381,-284.5238095238095,-302.3015873015873,20.238095238095237,-285.6349206349206,-219.28571428571428,-214.68253968253967,27.698412698412696,-1.349206349206349,182.46031746031744,-224.68253968253967,-18.333333333333332,224.68253968253967,-252.77777777777777,-264.2063492063492,305.6349206349206,-12.3015873015873,118.49206349206348,-17.22222222222222,311.5079365079365,-0.873015873015873,304.36507936507934,-166.26984126984127
83.4126984126984,-115.31746031746032,-304.8412698412698,11.349206349206348,3.253968253968254,-141.34920634920636,-272.1428571428571,14.365079365079364,-114.04761904761904,161.8253968253968,58.17460317460317,-206.1111111111111,-171.66666666666666,274.8412698412698,-288.968253968254,30.396825396825395,136.11111111111111,-1.6666666666666665,-36.11111111111111,-24.206349206349206,141.66666666666666,-0.5555555555555556,151.5079365079365,-166.26984126984127
83.4126984126984,-115.31746031746032,-304.8412698412698,11.349206349206348,3.253968253968254,-141.34920634920636,-272.1428571428571,14.365079365079364,-114.04761904761904,161.8253968253968,58.17460317460317,-206.1111111111111,-171.66666666666666,274.8412698412698,-288.968253968254,30.396825396825395,136.11111111111111,-1.6666666666666665,-36.11111111111111,-24.206349206349206,141.66666666666666,-0.5555555555555556,151.5079365079365,-166.26984126984127
325.0,-148.65079365079364,-325.0,325.0,-13.571428571428571,4.682539682539682,-325.0,238.65079365079364,-250.55555555555554,325.0,-64.68253968253968,-183.88888888888889,-325.0,325.0,-325.0,325.0,-32.61904761904762,11.19047619047619,-186.9047619047619,-30.71428571428571,-27.857142857142854,-1.0317460317460316,-0.3968253968253968,-166.26984126984127
325.0,-148.65079365079364,-325.0,325.0,-13.571428571428571,4.682539682539682,-325.0,238.65079365079364,-250.55555555555554,325.0,-64.68253968253968,-183.88888888888889,-325.0,325.0,-325.0,325.0,-32.61904761904762,11.19047619047619,-186.9047619047619,-30.71428571428571,-27.857142857142854,-1.0317460317460316,-0.3968253968253968,-166.26984126984127
325.0,-146.74603174603175,-325.0,325.0,-13.571428571428571,3.73015873015873,-325.0,235.63492063492063,-247.38095238095238,325.0,-63.888888888888886,-181.34920634920633,-325.0,325.0,-325.0,325.0,-32.14285714285714,10.396825396825395,-184.52380952380952,-30.396825396825395,-27.539682539682538,-1.984126984126984,0.5555555555555556,-321.8253968253968
325.0,-146.74603174603175,-325.0,325.0,-13.571428571428571,3.73015873015873,-325.0,235.63492063492063,-247.38095238095238,325.0,-63.888888888888886,-181.34920634920633,-325.0,325.0,-325.0,325.0,-32.14285714285714,10.396825396825395,-184.52380952380952,-30.396825396825395,-27.539682539682538,-1.984126984126984,0.5555555555555556,-321.8253968253968
325.0,-142.61904761904762,-325.0,325.0,-13.253968253968253,5.158730158730158,-325.0,228.96825396825395,-240.3968253968254,325.0,-61.98412698412698,-176.11111111111111,-325.0,325.0,-325.0,325.0,-31.349206349206348,12.3015873015873,-179.12698412698413,-29.444444444444443,-26.587301587301585,-0.23809523809523808,-1.0317460317460316,-321.8253968253968
325.0,-142.61904761904762,-325.0,325.0,-13.253968253968253,5.158730158730158,-325.0,228.96825396825395,-240.3968253968254,325.0,-61.98412698412698,-176.11111111111111,-325.0,325.0,-325.0,325.0,-31.349206349206348,12.3015873015873,-179.12698412698413,-29.444444444444443,-26.587301587301585,-0.23809523809523808,-1.0317460317460316,-321.8253968253968
325.0,-140.23809523809524,-325.0,325.0,-12.936507936507935,3.253968253968254,-325.0,225.47619047619045,-236.42857142857142,325.0,-61.03174603174603,-173.09523809523807,-325.0,325.0,-325.0,325.0,-30.87301587301587,10.396825396825395,-176.26984126984127,-28.96825396825397,-4.2063492063492065,0.3968253968253968,-0.07936507936507936,-321.8253968253968
325.0,-140.23809523809524,-325.0,325.0,-12.936507936507935,3.253968253968254,-325.0,225.47619047619045,-236.42857142857142,325.0,-61.03174603174603,-173.09523809523807,-325.0,325.0,-325.0,325.0,-30.87301587301587,10.396825396825395,-176.26984126984127,-28.96825396825397,-4.2063492063492065,0.3968253968253968,-0.07936507936507936,-321.8253968253968
325.0,-138.015873015873,-325.0,325.0,-12.777777777777777,5.317460317460317,-325.0,221.5079365079365,-232.6190476190476,325.0,-59.92063492063492,-170.23809523809524,-325.0,325.0,-325.0,325.0,-30.238095238095237,12.619047619047619,-173.4126984126984,-28.49206349206349,60.079365079365076,-0.3968253968253968,-0.5555555555555556,-321.8253968253968
325.0,-138.015873015873,-325.0,325.0,-12.777777777777777,5.317460317460317,-325.0,221.5079365079365,-232.6190476190476,325.0,-59.92063492063492,-170.23809523809524,-325.0,325.0,-325.0,325.0,-30.238095238095237,12.619047619047619,-173.4126984126984,-28.49206349206349,60.079365079365076,-0.3968253968253968,-0.5555555555555556,-321.8253968253968
325.0,-135.0,-325.0,325.0,-12.3015873015873,5.158730158730158,-325.0,217.2222222222222,-227.69841269841268,325.0,-58.650793650793645,-166.58730158730157,-325.0,325.0,-325.0,322.6190476190476,-29.444444444444443,12.3015873015873,-169.60317460317458,17.22222222222222,250.3968253968254,-0.5555555555555556,-1.1904761904761905,-321.8253968253968
325.0,-135.0,-325.0,325.0,-12.3015873015873,5.158730158730158,-325.0,217.2222222222222,-227.69841269841268,325.0,-58.650793650793645,-166.58730158730157,-325.0,325.0,-325.0,322.6190476190476,-29.444444444444443,12.3015873015873,-169.60317460317458,17.22222222222222,250.3968253968254,-0.5555555555555556,-1.1904761904761905,-321.8253968253968
325.0,-133.73015873015873,-325.0,325.0,-12.142857142857142,3.095238095238095,-325.0,215.47619047619045,-225.79365079365078,325.0,-58.17460317460317,-165.0,-325.0,325.0,-325.0,320.39682539682536,-28.96825396825397,10.396825396825395,-168.17460317460316,44.52380952380952,325.0,-1.507936507936508,-1.507936507936508,-166.26984126984127
325.0,-133.73015873015873,-325.0,325.0,-12.142857142857142,3.095238095238095,-325.0,215.47619047619045,-225.79365079365078,325.0,-58.17460317460317,-165.0,-325.0,325.0,-325.0,320.39682539682536,-28.96825396825397,10.396825396825395,-168.17460317460316,44.52380952380952,325.0,-1.507936507936508,-1.507936507936508,-166.26984126984127
325.0,-129.12698412698413,-325.0,325.0,-12.142857142857142,0.873015873015873,-325.0,207.53968253968253,-217.69841269841268,325.0,-56.11111111111111,-159.12698412698413,-325.0,325.0,-325.0,308.8095238095238,-28.174603174603174,8.809523809523808,-162.14285714285714,325.0,325.0,-1.0317460317460316,-1.0317460317460316,-166.26984126984127
325.0,-129.12698412698413,-325.0,325.0,-12.142857142857142,0.873015873015873,-325.0,207.53968253968253,-217.69841269841268,325.0,-56.11111111111111,-159.12698412698413,-325.0,325.0,-325.0,308.8095238095238,-28.174603174603174,8.809523809523808,-162.14285714285714,325.0,325.0,-1.0317460317460316,-1.0317460317460316,-166.26984126984127
325.0,-127.06349206349206,-325.0,325.0,-11.984126984126984,-0.7142857142857142,-325.0,204.2063492063492,-214.2063492063492,325.0,-55.15873015873016,-156.42857142857142,-325.0,325.0,-325.0,303.73015873015873,-27.698412698412696,7.3809523809523805,-159.44444444444443,325.0,325.0,-0.3968253968253968,-1.0317460317460316,-166.26984126984127
325.0,-127.06349206349206,-325.0,325.0,-11.984126984126984,-0.7142857142857142,-325.0,204.2063492063492,-214.2063492063492,325.0,-55.15873015873016,-156.42857142857142,-325.0,325.0,-325.0,303.73015873015873,-27.698412698412696,7.3809523809523805,-159.44444444444443,325.0,325.0,-0.3968253968253968,-1.0317460317460316,-166.26984126984127
325.0,-124.36507936507935,-325.0,325.0,-11.666666666666666,-2.9365079365079363,-325.0,200.07936507936506,-209.9206349206349,325.0,-54.047619047619044,-153.4126984126984,-325.0,325.0,-325.0,297.6984126984127,-27.063492063492063,5.317460317460317,-156.26984126984127,325.0,325.0,-0.23809523809523808,-0.5555555555555556,-166.26984126984127
325.0,-124.36507936507935,-325.0,325.0,-11.666666666666666,-2.9365079365079363,-325.0,200.07936507936506,-209.9206349206349,325.0,-54.047619047619044,-153.4126984126984,-325.0,325.0,-325.0,297.6984126984127,-27.063492063492063,5.317460317460317,-156.26984126984127,325.0,325.0,-0.23809523809523808,-0.5555555555555556,-166.26984126984127
325.0,-122.46031746031746,-325.0,325.0,-11.507936507936508,-3.095238095238095,-325.0,196.74603174603175,-206.26984126984127,325.0,-53.095238095238095,-150.87301587301587,-325.0,325.0,-325.0,292.77777777777777,-26.9047619047619,5.0,-153.57142857142856,325.0,325.0,-0.3968253968253968,-0.23809523809523808,-166.26984126984127
325.0,-122.46031746031746,-325.0,325.0,-11.507936507936508,-3.095238095238095,-325.0,196.74603174603175,-206.26984126984127,325.0,-53.095238095238095,-150.87301587301587,-325.0,325.0,-325.0,292.77777777777777,-26.9047619047619,5.0,-153.57142857142856,325.0,325.0,-0.3968253968253968,-0.23809523809523808,-166.26984126984127
325.0,-121.5079365079365,-325.0,325.0,-11.349206349206348,-1.507936507936508,-325.0,195.15873015873015,-204.52380952380952,325.0,-52.61904761904761,-149.44444444444443,-325.0,325.0,-325.0,290.23809523809524,-26.9047619047619,6.26984126984127,-152.3015873015873,325.0,325.0,0.07936507936507936,-0.07936507936507936,-321.8253968253968
325.0,-121.5079365079365,-325.0,325.0,-11.349206349206348,-1.507936507936508,-325.0,195.15873015873015,-204.52380952380952,325.0,-52.61904761904761,-149.44444444444443,-325.0,325.0,-325.0,290.23809523809524,-26.9047619047619,6.26984126984127,-152.3015873015873,325.0,325.0,0.07936507936507936,-0.07936507936507936,-321.8253968253968
325.0,-121.5079365079365,-325.0,325.0,-11.349206349206348,-1.507936507936508,-325.0,195.15873015873015,-204.52380952380952,325.0,-52.61904761904761,-149.44444444444443,-325.0,325.0,-325.0,290.23809523809524,-26.9047619047619,6.26984126984127,-152.3015873015873,325.0,325.0,0.07936507936507936,-0.07936507936507936,-321.8253968253968
325.0,-121.5079365079365,-325.0,325.0,-11.349206349206348,-1.507936507936508,-325.0,195.15873015873015,-204.52380952380952,325.0,-52.61904761904761,-149.44444444444443,-325.0,325.0,-325.0,290.23809523809524,-26.9047619047619,6.26984126984127,-152.3015873015873,325.0,325.0,0.07936507936507936,-0.07936507936507936,-321.8253968253968
325.0,-118.01587301587301,-325.0,322.77777777777777,20.873015873015873,-0.3968253968253968,-318.8095238095238,189.76190476190476,-198.96825396825395,325.0,-51.19047619047619,-145.15873015873015,-325.0,325.0,-325.0,281.984126984127,-25.952380952380953,7.5396825396825395,-148.17460317460316,325.0,325.0,0.23809523809523808,0.3968253968253968,-321.8253968253968
325.0,-118.01587301587301,-325.0,322.77777777777777,20.873015873015873,-0.3968253968253968,-318.8095238095238,189.76190476190476,-198.96825396825395,325.0,-51.19047619047619,-145.15873015873015,-325.0,325.0,-325.0,281.984126984127,-25.952380952380953,7.5396825396825395,-148.17460317460316,325.0,325.0,0.23809523809523808,0.3968253968253968,-321.8253968253968
325.0,-110.23809523809523,-325.0,308.6507936507936,286.1111111111111,5.0,-301.031746031746,177.53968253968253,-186.11111111111111,325.0,-47.857142857142854,-135.3174603174603,-325.0,325.0,-325.0,263.57142857142856,-24.047619047619047,13.253968253968253,-138.4920634920635,325.0,325.0,-0.873015873015873,-0.07936507936507936,-321.8253968253968
325.0,-110.23809523809523,-325.0,308.6507936507936,286.1111111111111,5.0,-301.031746031746,177.53968253968253,-186.11111111111111,325.0,-47.857142857142854,-135.3174603174603,-325.0,325.0,-325.0,263.57142857142856,-24.047619047619047,13.253968253968253,-138.4920634920635,325.0,325.0,-0.873015873015873,-0.07936507936507936,-321.8253968253968
325.0,-108.33333333333333,-325.0,303.57142857142856,325.0,2.7777777777777777,-296.26984126984127,174.68253968253967,-182.93650793650792,325.0,-47.22222222222222,-133.25396825396825,-325.0,325.0,-325.0,259.44444444444446,-23.730158730158728,11.349206349206348,-136.11111111111111,325.0,325.0,-0.5555555555555556,-0.873015873015873,-321.8253968253968
325.0,-108.33333333333333,-325.0,303.57142857142856,325.0,2.7777777777777777,-296.26984126984127,174.68253968253967,-182.93650793650792,325.0,-47.22222222222222,-133.25396825396825,-325.0,325.0,-325.0,259.44444444444446,-23.730158730158728,11.349206349206348,-136.11111111111111,325.0,325.0,-0.5555555555555556,-0.873015873015873,-321.8253968253968
325.0,-106.42857142857142,-325.0,297.06349206349205,325.0,3.095238095238095,-290.07936507936506,171.19047619047618,-179.28571428571428,325.0,-46.11111111111111,-130.3968253968254,-325.0,325.0,-325.0,254.04761904761904,-23.41269841269841,11.031746031746032,-133.25396825396825,325.0,325.0,0.3968253968253968,-0.3968253968253968,-166.26984126984127
325.0,-106.42857142857142,-325.0,297.06349206349205,325.0,3.095238095238095,-290.07936507936506,171.19047619047618,-179.28571428571428,325.0,-46.11111111111111,-130.3968253968254,-325.0,325.0,-325.0,254.04761904761904,-23.41269841269841,11.031746031746032,-133.25396825396825,325.0,325.0,0.3968253968253968,-0.3968253968253968,-166.26984126984127
325.0,-104.04761904761904,-325.0,290.7142857142857,325.0,0.873015873015873,-284.04761904761904,167.53968253968253,-175.47619047619045,325.0,-45.15873015873016,-127.53968253968253,-325.0,325.0,-325.0,248.65079365079364,-22.777777777777775,8.968253968253968,-130.3968253968254,325.0,325.0,-0.5555555555555556,-0.873015873015873,-166.26984126984127
325.0,-104.04761904761904,-325.0,290.7142857142857,325.0,0.873015873015873,-284.04761904761904,167.53968253968253,-175.47619047619045,325.0,-45.15873015873016,-127.53968253968253,-325.0,325.0,-325.0,248.65079365079364,-22.777777777777775,8.968253968253968,-130.3968253968254,325.0,325.0,-0.5555555555555556,-0.873015873015873,-166.26984126984127
325.0,-102.30158730158729,-325.0,285.95238095238096,325.0,4.2063492063492065,-279.44444444444446,164.84126984126982,-172.61904761904762,325.0,-44.52380952380952,-125.47619047619047,-325.0,325.0,-325.0,244.68253968253967,-22.3015873015873,12.619047619047619,-128.4920634920635,325.0,325.0,-0.23809523809523808,-0.7142857142857142,-166.26984126984127
325.0,-102.30158730158729,-325.0,285.95238095238096,325.0,4.2063492063492065,-279.44444444444446,164.84126984126982,-172.61904761904762,325.0,-44.52380952380952,-125.47619047619047,-325.0,325.0,-325.0,244.68253968253967,-22.3015873015873,12.619047619047619,-128.4920634920635,325.0,325.0,-0.23809523809523808,-0.7142857142857142,-166.26984126984127
325.0,-100.55555555555554,-325.0,281.031746031746,325.0,4.2063492063492065,-274.68253968253964,162.3015873015873,-169.76190476190476,325.0,-43.73015873015873,-123.4126984126984,-325.0,325.0,-325.0,240.55555555555554,-21.984126984126984,12.46031746031746,-126.26984126984127,325.0,325.0,-0.3968253968253968,-0.5555555555555556,-166.26984126984127
325.0,-100.55555555555554,-325.0,281.031746031746,325.0,4.2063492063492065,-274.68253968253964,162.3015873015873,-169.76190476190476,325.0,-43.73015873015873,-123.4126984126984,-325.0,325.0,-325.0,240.55555555555554,-21.984126984126984,12.46031746031746,-126.26984126984127,325.0,325.0,-0.3968253968253968,-0.5555555555555556,-166.26984126984127
325.0,-98.96825396825396,-325.0,276.26984126984127,325.0,-2.142857142857143,-270.07936507936506,159.6031746031746,-166.9047619047619,325.0,-42.93650793650794,-121.19047619047619,-325.0,325.0,-325.0,236.58730158730157,-21.666666666666664,6.26984126984127,-124.2063492063492,325.0,325.0,-0.7142857142857142,-0.23809523809523808,-166.26984126984127
325.0,-98.96825396825396,-325.0,276.26984126984127,325.0,-2.142857142857143,-270.07936507936506,159.6031746031746,-166.9047619047619,325.0,-42.93650793650794,-121.19047619047619,-325.0,325.0,-325.0,236.58730158730157,-21.666666666666664,6.26984126984127,-124.2063492063492,325.0,325.0,-0.7142857142857142,-0.23809523809523808,-166.26984126984127
325.0,-97.22222222222221,-325.0,271.66666666666663,325.0,-3.888888888888889,-265.7936507936508,156.9047619047619,-164.2063492063492,325.0,-42.3015873015873,-119.28571428571428,-325.0,325.0,-325.0,232.6190476190476,-21.19047619047619,4.523809523809524,-122.14285714285714,325.0,325.0,0.07936507936507936,-0.5555555555555556,-321.8253968253968
325.0,-97.22222222222221,-325.0,271.66666666666663,325.0,-3.888888888888889,-265.7936507936508,156.9047619047619,-164.2063492063492,325.0,-42.3015873015873,-119.28571428571428,-325.0,325.0,-325.0,232.6190476190476,-21.19047619047619,4.523809523809524,-122.14285714285714,325.0,325.0,0.07936507936507936,-0.5555555555555556,-321.8253968253968
325.0,-96.26984126984127,-325.0,267.85714285714283,325.0,-2.142857142857143,-262.46031746031747,155.0,-162.14285714285714,325.0,-41.666666666666664,-117.6984126984127,-325.0,325.0,-325.0,229.76190476190476,-21.19047619047619,6.428571428571428,-120.55555555555554,325.0,325.0,0.07936507936507936,-0.23809523809523808,-321.8253968253968
325.0,-96.26984126984127,-325.0,267.85714285714283,325.0,-2.142857142857143,-262.46031746031747,155.0,-162.14285714285714,325.0,-41.666666666666664,-117.6984126984127,-325.0,325.0,-325.0,229.76190476190476,-21.19047619047619,6.428571428571428,-120.55555555555554,325.0,325.0,0.07936507936507936,-0.23809523809523808,-321.8253968253968
325.0,-95.0,-321.8253968253968,264.5238095238095,325.0,1.0317460317460316,-259.2857142857143,153.09523809523807,-160.07936507936506,325.0,-41.19047619047619,-116.26984126984127,-325.0,325.0,-323.73015873015873,226.9047619047619,-19.444444444444443,9.603174603174603,-119.12698412698413,325.0,325.0,0.3968253968253968,-0.873015873015873,-321.8253968253968
325.0,-95.0,-321.8253968253968,264.5238095238095,325.0,1.0317460317460316,-259.2857142857143,153.09523809523807,-160.07936507936506,325.0,-41.19047619047619,-116.26984126984127,-325.0,325.0,-323.73015873015873,226.9047619047619,-19.444444444444443,9.603174603174603,-119.12698412698413,325.0,325.0,0.3968253968253968,-0.873015873015873,-321.8253968253968
325.0,-92.61904761904762,-314.5238095238095,257.85714285714283,325.0,3.888888888888889,-252.77777777777777,149.28571428571428,-156.11111111111111,325.0,-40.238095238095234,-113.25396825396825,-325.0,325.0,-318.4920634920635,221.19047619047618,-10.238095238095237,12.142857142857142,-116.1111111111111,325.0,325.0,0.23809523809523808,-0.7142857142857142,-321.8253968253968
325.0,-92.61904761904762,-314.5238095238095,257.85714285714283,325.0,3.888888888888889,-252.77777777777777,149.28571428571428,-156.11111111111111,325.0,-40.238095238095234,-113.25396825396825,-325.0,325.0,-318.4920634920635,221.19047619047618,-10.238095238095237,12.142857142857142,-116.1111111111111,325.0,325.0,0.23809523809523808,-0.7142857142857142,-321.8253968253968
325.0,-91.03174603174602,-309.2857142857143,253.4126984126984,325.0,-0.23809523809523808,-248.65079365079364,146.74603174603175,-153.57142857142856,321.8253968253968,-39.6031746031746,-111.34920634920634,-325.0,321.5079365079365,-313.4126984126984,217.53968253968253,-0.873015873015873,7.857142857142857,-114.2063492063492,325.0,325.0,-0.7142857142857142,0.07936507936507936,-321.8253968253968
325.0,-91.03174603174602,-309.2857142857143,253.4126984126984,325.0,-0.23809523809523808,-248.65079365079364,146.74603174603175,-153.57142857142856,321.8253968253968,-39.6031746031746,-111.34920634920634,-325.0,321.5079365079365,-313.4126984126984,217.53968253968253,-0.873015873015873,7.857142857142857,-114.2063492063492,325.0,325.0,-0.7142857142857142,0.07936507936507936,-321.8253968253968
325.0,-89.76190476190476,-305.3174603174603,250.07936507936506,325.0,-4.523809523809524,-245.63492063492063,145.15873015873015,-151.8253968253968,318.015873015873,-39.12698412698413,-109.92063492063491,-325.0,317.38095238095235,-309.76190476190476,214.84126984126982,5.7936507936507935,4.0476190476190474,-112.77777777777777,325.0,325.0,-0.3968253968253968,-0.23809523809523808,-166.26984126984127
325.0,-89.76190476190476,-305.3174603174603,250.07936507936506,325.0,-4.523809523809524,-245.63492063492063,145.15873015873015,-151.8253968253968,318.015873015873,-39.12698412698413,-109.92063492063491,-325.0,317.38095238095235,-309.76190476190476,214.84126984126982,5.7936507936507935,4.0476190476190474,-112.77777777777777,325.0,325.0,-0.3968253968253968,-0.23809523809523808,-166.26984126984127
325.0,-88.96825396825396,-302.77777777777777,248.17460317460316,325.0,-6.26984126984127,-243.7301587301587,143.88888888888889,-150.55555555555554,315.4761904761905,-38.80952380952381,-109.12698412698413,-325.0,314.68253968253964,-307.22222222222223,213.25396825396825,10.238095238095237,1.984126984126984,-111.82539682539682,325.0,325.0,-0.07936507936507936,-0.3968253968253968,-166.26984126984127
325.0,-88.96825396825396,-302.77777777777777,248.17460317460316,325.0,-6.26984126984127,-243.7301587301587,143.88888888888889,-150.55555555555554,315.4761904761905,-38.80952380952381,-109.12698412698413,-325.0,314.68253968253964,-307.22222222222223,213.25396825396825,10.238095238095237,1.984126984126984,-111.82539682539682,325.0,325.0,-0.07936507936507936,-0.3968253968253968,-166.26984126984127
325.0,-87.22222222222221,-296.74603174603175,242.93650793650792,325.0,-1.507936507936508,-238.65079365079364,140.87301587301587,-147.53968253968253,308.8095238095238,-38.17460317460317,-106.9047619047619,-321.66666666666663,308.015873015873,-301.19047619047615,208.8095238095238,20.07936507936508,6.587301587301587,-109.6031746031746,325.0,325.0,-0.23809523809523808,-0.5555555555555556,-166.26984126984127
325.0,-87.22222222222221,-296.74603174603175,242.93650793650792,325.0,-1.507936507936508,-238.65079365079364,140.87301587301587,-147.53968253968253,308.8095238095238,-38.17460317460317,-106.9047619047619,-321.66666666666663,308.015873015873,-301.19047619047615,208.8095238095238,20.07936507936508,6.587301587301587,-109.6031746031746,325.0,325.0,-0.23809523809523808,-0.5555555555555556,-166.26984126984127
325.0,-84.04761904761904,-285.6349206349206,233.57142857142856,325.0,5.158730158730158,-229.76190476190476,135.79365079365078,-141.984126984127,296.90476190476187,-36.58730158730159,-102.77777777777777,-313.0952380952381,296.26984126984127,-290.39682539682536,201.03174603174602,37.53968253968254,13.095238095238095,-105.47619047619047,325.0,325.0,-0.3968253968253968,-0.7142857142857142,-166.26984126984127
325.0,-84.04761904761904,-285.6349206349206,233.57142857142856,325.0,5.158730158730158,-229.76190476190476,135.79365079365078,-141.984126984127,296.90476190476187,-36.58730158730159,-102.77777777777777,-313.0952380952381,296.26984126984127,-290.39682539682536,201.03174603174602,37.53968253968254,13.095238095238095,-105.47619047619047,325.0,325.0,-0.3968253968253968,-0.7142857142857142,-166.26984126984127
325.0,-81.98412698412697,-278.6507936507936,227.38095238095238,325.0,1.349206349206349,-224.04761904761904,132.61904761904762,-138.65079365079364,289.6031746031746,-35.79365079365079,-100.23809523809523,-305.1587301587301,288.4920634920635,-283.25396825396825,195.79365079365078,48.80952380952381,9.603174603174603,-102.93650793650794,325.0,325.0,-0.5555555555555556,-0.23809523809523808,-166.26984126984127
325.0,-81.98412698412697,-278.6507936507936,227.38095238095238,325.0,1.349206349206349,-224.04761904761904,132.61904761904762,-138.65079365079364,289.6031746031746,-35.79365079365079,-100.23809523809523,-305.1587301587301,288.4920634920635,-283.25396825396825,195.79365079365078,48.80952380952381,9.603174603174603,-102.93650793650794,325.0,325.0,-0.5555555555555556,-0.23809523809523808,-166.26984126984127
325.0,-80.23809523809523,-272.9365079365079,222.61904761904762,325.0,2.9365079365079363,-219.44444444444443,129.76190476190476,-135.63492063492063,283.57142857142856,-35.0,-98.17460317460316,-298.968253968254,282.46031746031747,-277.6984126984127,191.8253968253968,57.22222222222222,10.714285714285714,-100.71428571428571,325.0,325.0,-0.7142857142857142,-0.7142857142857142,-321.8253968253968
325.0,-80.23809523809523,-272.9365079365079,222.61904761904762,325.0,2.9365079365079363,-219.44444444444443,129.76190476190476,-135.63492063492063,283.57142857142856,-35.0,-98.17460317460316,-298.968253968254,282.46031746031747,-277.6984126984127,191.8253968253968,57.22222222222222,10.714285714285714,-100.71428571428571,325.0,325.0,-0.7142857142857142,-0.7142857142857142,-321.8253968253968
325.0,-78.96825396825396,-268.3333333333333,218.8095238095238,325.0,1.984126984126984,-215.79365079365078,127.53968253968253,-133.25396825396825,278.8095238095238,-14.682539682539682,-96.42857142857142,-293.88888888888886,277.53968253968253,-273.25396825396825,188.65079365079364,63.888888888888886,9.920634920634921,-99.12698412698413,325.0,325.0,-0.7142857142857142,-0.5555555555555556,-321.8253968253968
325.0,-78.96825396825396,-268.3333333333333,218.8095238095238,325.0,1.984126984126984,-215.79365079365078,127.53968253968253,-133.25396825396825,278.8095238095238,-14.682539682539682,-96.42857142857142,-293.88888888888886,277.53968253968253,-273.25396825396825,188.65079365079364,63.888888888888886,9.920634920634921,-99.12698412698413,325.0,325.0,-0.7142857142857142,-0.5555555555555556,-321.8253968253968
325.0,-77.6984126984127,-263.88888888888886,215.15873015873015,325.0,-1.984126984126984,-212.14285714285714,125.47619047619047,-131.03174603174602,273.88888888888886,16.428571428571427,-94.68253968253968,-289.1269841269841,272.9365079365079,-268.8095238095238,185.47619047619045,70.39682539682539,5.7936507936507935,-97.38095238095238,325.0,325.0,-0.5555555555555556,0.23809523809523808,-321.8253968253968
325.0,-77.6984126984127,-263.88888888888886,215.15873015873015,325.0,-1.984126984126984,-212.14285714285714,125.47619047619047,-131.03174603174602,273.88888888888886,16.428571428571427,-94.68253968253968,-289.1269841269841,272.9365079365079,-268.8095238095238,185.47619047619045,70.39682539682539,5.7936507936507935,-97.38095238095238,325.0,325.0,-0.5555555555555556,0.23809523809523808,-321.8253968253968
325.0,-76.74603174603175,-260.55555555555554,212.3015873015873,325.0,-4.523809523809524,-209.60317460317458,123.73015873015872,-129.28571428571428,270.39682539682536,65.15873015873015,-93.57142857142857,-285.4761904761905,269.44444444444446,-265.6349206349206,183.09523809523807,74.84126984126983,3.095238095238095,-96.1111111111111,325.0,325.0,-0.3968253968253968,-0.07936507936507936,-321.8253968253968
325.0,-76.74603174603175,-260.55555555555554,212.3015873015873,325.0,-4.523809523809524,-209.60317460317458,123.73015873015872,-129.28571428571428,270.39682539682536,65.15873015873015,-93.57142857142857,-285.4761904761905,269.44444444444446,-265.6349206349206,183.09523809523807,74.84126984126983,3.095238095238095,-96.1111111111111,325.0,325.0,-0.3968253968253968,-0.07936507936507936,-321.8253968253968
325.0,-74.84126984126983,-255.15873015873015,207.69841269841268,325.0,-6.587301587301587,-205.0,121.34920634920634,-126.9047619047619,264.68253968253964,149.44444444444443,-91.66666666666666,-279.6031746031746,263.4126984126984,-260.23809523809524,179.44444444444443,81.98412698412697,1.0317460317460316,-94.2063492063492,325.0,325.0,-0.07936507936507936,-0.5555555555555556,-321.8253968253968
325.0,-74.84126984126983,-255.15873015873015,207.69841269841268,325.0,-6.587301587301587,-205.0,121.34920634920634,-126.9047619047619,264.68253968253964,149.44444444444443,-91.66666666666666,-279.6031746031746,263.4126984126984,-260.23809523809524,179.44444444444443,81.98412698412697,1.0317460317460316,-94.2063492063492,325.0,325.0,-0.07936507936507936,-0.5555555555555556,-321.8253968253968
325.0,-73.57142857142857,-249.76190476190476,203.25396825396825,325.0,0.07936507936507936,-201.19047619047618,118.96825396825396,-124.36507936507935,259.44444444444446,233.57142857142856,-89.92063492063491,-273.73015873015873,257.6984126984127,-255.0,175.63492063492063,88.17460317460316,7.857142857142857,-92.30158730158729,325.0,325.0,-0.5555555555555556,-0.23809523809523808,-166.26984126984127
325.0,-73.57142857142857,-249.76190476190476,203.25396825396825,325.0,0.07936507936507936,-201.19047619047618,118.96825396825396,-124.36507936507935,259.44444444444446,233.57142857142856,-89.92063492063491,-273.73015873015873,257.6984126984127,-255.0,175.63492063492063,88.17460317460316,7.857142857142857,-92.30158730158729,325.0,325.0,-0.5555555555555556,-0.23809523809523808,-166.26984126984127
325.0,-71.98412698412697,-244.68253968253967,198.96825396825395,325.0,-2.3015873015873014,-196.74603174603175,116.42857142857142,-121.66666666666666,253.88888888888889,289.1269841269841,-87.85714285714285,-268.015873015873,252.3015873015873,-250.07936507936506,171.984126984127,94.68253968253968,5.0,-90.39682539682539,325.0,325.0,-0.3968253968253968,-0.07936507936507936,-166.26984126984127
325.0,-71.98412698412697,-244.68253968253967,198.96825396825395,325.0,-2.3015873015873014,-196.74603174603175,116.42857142857142,-121.66666666666666,253.88888888888889,289.1269841269841,-87.85714285714285,-268.015873015873,252.3015873015873,-250.07936507936506,171.984126984127,94.68253968253968,5.0,-90.39682539682539,325.0,325.0,-0.3968253968253968,-0.07936507936507936,-166.26984126984127
324.8412698412698,-70.71428571428571,-240.7142857142857,195.63492063492063,325.0,-3.253968253968254,-193.57142857142856,114.52380952380952,-119.6031746031746,249.28571428571428,271.8253968253968,-86.42857142857143,-263.57142857142856,247.85714285714283,-245.79365079365078,169.12698412698413,99.92063492063491,3.73015873015873,-88.80952380952381,325.0,325.0,-0.07936507936507936,-0.3968253968253968,-166.26984126984127
324.8412698412698,-70.71428571428571,-240.7142857142857,195.63492063492063,325.0,-3.253968253968254,-193.57142857142856,114.52380952380952,-119.6031746031746,249.28571428571428,271.8253968253968,-86.42857142857143,-263.57142857142856,247.85714285714283,-245.79365079365078,169.12698412698413,99.92063492063491,3.73015873015873,-88.80952380952381,325.0,325.0,-0.07936507936507936,-0.3968253968253968,-166.26984126984127
322.1428571428571,-69.92063492063491,-237.53968253968253,193.09523809523807,325.0,-1.0317460317460316,-191.19047619047618,113.25396825396825,-118.17460317460316,246.1111111111111,233.09523809523807,-85.31746031746032,-260.23809523809524,244.84126984126982,-242.93650793650792,167.06349206349205,103.25396825396825,5.952380952380952,-87.6984126984127,325.0,325.0,-0.23809523809523808,-0.7142857142857142,-166.26984126984127
322.1428571428571,-69.92063492063491,-237.53968253968253,193.09523809523807,325.0,-1.0317460317460316,-191.19047619047618,113.25396825396825,-118.17460317460316,246.1111111111111,233.09523809523807,-85.31746031746032,-260.23809523809524,244.84126984126982,-242.93650793650792,167.06349206349205,103.25396825396825,5.952380952380952,-87.6984126984127,325.0,325.0,-0.23809523809523808,-0.7142857142857142,-166.26984126984127
315.1587301587301,-68.4920634920635,-232.6190476190476,188.8095238095238,325.0,0.7142857142857142,-187.2222222222222,110.71428571428571,-115.47619047619047,241.03174603174602,259.1269841269841,-83.4126984126984,-255.0,239.28571428571428,-237.85714285714283,163.4126984126984,108.96825396825396,7.5396825396825395,-85.95238095238095,325.0,325.0,-0.873015873015873,-0.3968253968253968,-166.26984126984127
315.1587301587301,-68.4920634920635,-232.6190476190476,188.8095238095238,325.0,0.7142857142857142,-187.2222222222222,110.71428571428571,-115.47619047619047,241.03174603174602,259.1269841269841,-83.4126984126984,-255.0,239.28571428571428,-237.85714285714283,163.4126984126984,108.96825396825396,7.5396825396825395,-85.95238095238095,325.0,325.0,-0.873015873015873,-0.3968253968253968,-166.26984126984127
309.76190476190476,-67.38095238095238,-228.8095238095238,185.47619047619045,325.0,-2.142857142857143,-184.2063492063492,108.96825396825396,-113.88888888888889,237.06349206349205,324.8412698412698,-82.14285714285714,-250.7142857142857,235.15873015873015,-234.04761904761904,160.7142857142857,113.4126984126984,4.682539682539682,-84.52380952380952,325.0,325.0,0.23809523809523808,-0.07936507936507936,-321.8253968253968
309.76190476190476,-67.38095238095238,-228.8095238095238,185.47619047619045,325.0,-2.142857142857143,-184.2063492063492,108.96825396825396,-113.88888888888889,237.06349206349205,324.8412698412698,-82.14285714285714,-250.7142857142857,235.15873015873015,-234.04761904761904,160.7142857142857,113.4126984126984,4.682539682539682,-84.52380952380952,325.0,325.0,0.23809523809523808,-0.07936507936507936,-321.8253968253968
304.36507936507934,-66.11111111111111,-225.0,182.46031746031744,325.0,-1.984126984126984,-181.03174603174602,107.22222222222221,-111.98412698412697,232.93650793650792,325.0,-80.71428571428571,-246.58730158730157,231.19047619047618,-230.3968253968254,158.17460317460316,117.38095238095238,4.841269841269841,-83.09523809523809,325.0,325.0,-0.3968253968253968,-0.5555555555555556,-321.8253968253968
304.36507936507934,-66.11111111111111,-225.0,182.46031746031744,325.0,-1.984126984126984,-181.03174603174602,107.22222222222221,-111.98412698412697,232.93650793650792,325.0,-80.71428571428571,-246.58730158730157,231.19047619047618,-230.3968253968254,158.17460317460316,117.38095238095238,4.841269841269841,-83.09523809523809,325.0,325.0,-0.3968253968253968,-0.5555555555555556,-321.8253968253968
300.55555555555554,-65.31746031746032,-221.98412698412696,180.07936507936506,325.0,-2.46031746031746,-179.12698412698413,105.79365079365078,-110.39682539682539,230.07936507936506,325.0,-79.76190476190476,-243.25396825396825,228.17460317460316,-227.53968253968253,156.11111111111111,120.39682539682539,4.2063492063492065,-82.14285714285714,325.0,325.0,-0.5555555555555556,-0.3968253968253968,-321.8253968253968
300.55555555555554,-65.31746031746032,-221.98412698412696,180.07936507936506,325.0,-2.46031746031746,-179.12698412698413,105.79365079365078,-110.39682539682539,230.07936507936506,325.0,-79.76190476190476,-243.25396825396825,228.17460317460316,-227.53968253968253,156.11111111111111,120.39682539682539,4.2063492063492065,-82.14285714285714,325.0,325.0,-0.5555555555555556,-0.3968253968253968,-321.8253968253968
296.74603174603175,-64.52380952380952,-219.28571428571428,177.85714285714286,325.0,-4.2063492063492065,-176.74603174603175,104.36507936507935,-109.12698412698413,227.2222222222222,325.0,-78.80952380952381,-240.2380952380952,225.15873015873015,-224.84126984126982,154.04761904761904,123.25396825396825,2.46031746031746,-81.03174603174602,325.0,325.0,-0.07936507936507936,-0.873015873015873,-321.8253968253968
296.74603174603175,-64.52380952380952,-219.28571428571428,177.85714285714286,325.0,-4.2063492063492065,-176.74603174603175,104.36507936507935,-109.12698412698413,227.2222222222222,325.0,-78.80952380952381,-240.2380952380952,225.15873015873015,-224.84126984126982,154.04761904761904,123.25396825396825,2.46031746031746,-81.03174603174602,325.0,325.0,-0.07936507936507936,-0.873015873015873,-321.8253968253968
283.0952380952381,-62.93650793650793,-213.88888888888889,173.25396825396825,325.0,-4.0476190476190474,-172.14285714285714,101.98412698412697,-106.58730158730158,221.5079365079365,325.0,-76.74603174603175,-234.2063492063492,219.44444444444443,-219.60317460317458,150.23809523809524,128.65079365079364,2.46031746031746,-78.96825396825396,325.0,325.0,-0.3968253968253968,-0.873015873015873,-321.8253968253968
283.0952380952381,-62.93650793650793,-213.88888888888889,173.25396825396825,325.0,-4.0476190476190474,-172.14285714285714,101.98412698412697,-106.58730158730158,221.5079365079365,325.0,-76.74603174603175,-234.2063492063492,219.44444444444443,-219.60317460317458,150.23809523809524,128.65079365079364,2.46031746031746,-78.96825396825396,325.0,325.0,-0.3968253968253968,-0.873015873015873,-321.8253968253968
282.77777777777777,-61.507936507936506,-208.4920634920635,168.8095238095238,325.0,-4.0476190476190474,-167.85714285714286,99.28571428571428,-103.73015873015872,215.63492063492063,325.0,-74.84126984126983,-228.49206349206347,213.7301587301587,-214.04761904761904,146.42857142857142,133.73015873015873,2.619047619047619,-77.06349206349206,325.0,325.0,0.07936507936507936,-0.5555555555555556,-166.26984126984127
282.77777777777777,-61.507936507936506,-208.4920634920635,168.8095238095238,325.0,-4.0476190476190474,-167.85714285714286,99.28571428571428,-103.73015873015872,215.63492063492063,325.0,-74.84126984126983,-228.49206349206347,213.7301587301587,-214.04761904761904,146.42857142857142,133.73015873015873,2.619047619047619,-77.06349206349206,325.0,325.0,0.07936507936507936,-0.5555555555555556,-166.26984126984127
275.1587301587301,-59.92063492063492,-203.25396825396825,164.52380952380952,325.0,-6.26984126984127,-163.73015873015873,96.9047619047619,-101.19047619047619,210.07936507936506,325.0,-72.77777777777777,-222.77777777777777,208.17460317460316,-208.8095238095238,142.77777777777777,138.8095238095238,-0.23809523809523808,-75.15873015873015,325.0,325.0,-0.5555555555555556,-0.3968253968253968,-166.26984126984127
275.1587301587301,-59.92063492063492,-203.25396825396825,164.52380952380952,325.0,-6.26984126984127,-163.73015873015873,96.9047619047619,-101.19047619047619,210.07936507936506,325.0,-72.77777777777777,-222.77777777777777,208.17460317460316,-208.8095238095238,142.77777777777777,138.8095238095238,-0.23809523809523808,-75.15873015873015,325.0,325.0,-0.5555555555555556,-0.3968253968253968,-166.26984126984127
271.5079365079365,-59.12698412698413,-200.7142857142857,162.46031746031744,325.0,-5.158730158730158,-161.66666666666666,95.95238095238095,-99.92063492063491,207.38095238095238,325.0,-71.82539682539682,-220.07936507936506,205.47619047619045,-206.26984126984127,141.03174603174602,141.03174603174602,1.349206349206349,-73.88888888888889,325.0,325.0,-0.23809523809523808,-0.23809523809523808,-166.26984126984127
271.5079365079365,-59.12698412698413,-200.7142857142857,162.46031746031744,325.0,-5.158730158730158,-161.66666666666666,95.95238095238095,-99.92063492063491,207.38095238095238,325.0,-71.82539682539682,-220.07936507936506,205.47619047619045,-206.26984126984127,141.03174603174602,141.03174603174602,1.349206349206349,-73.88888888888889,325.0,325.0,-0.23809523809523808,-0.23809523809523808,-166.26984126984127
267.85714285714283,-58.33333333333333,-198.33333333333331,160.07936507936506,325.0,-3.888888888888889,-159.6031746031746,94.84126984126983,-98.80952380952381,204.84126984126982,325.0,-71.03174603174602,-217.2222222222222,202.77777777777777,-203.88888888888889,139.28571428571428,143.25396825396825,2.619047619047619,-73.25396825396825,325.0,325.0,-0.07936507936507936,-0.5555555555555556,-166.26984126984127
267.85714285714283,-58.33333333333333,-198.33333333333331,160.07936507936506,325.0,-3.888888888888889,-159.6031746031746,94.84126984126983,-98.80952380952381,204.84126984126982,325.0,-71.03174603174602,-217.2222222222222,202.77777777777777,-203.88888888888889,139.28571428571428,143.25396825396825,2.619047619047619,-73.25396825396825,325.0,325.0,-0.07936507936507936,-0.5555555555555556,-166.26984126984127
260.87301587301585,-57.06349206349206,-193.25396825396825,155.95238095238093,325.0,-0.07936507936507936,-155.63492063492063,92.14285714285714,-96.26984126984127,199.60317460317458,325.0,-69.12698412698413,-211.98412698412696,197.53968253968253,-198.96825396825395,135.79365079365078,174.36507936507937,6.26984126984127,-71.5079365079365,325.0,325.0,-0.3968253968253968,-0.3968253968253968,-166.26984126984127
260.87301587301585,-57.06349206349206,-193.25396825396825,155.95238095238093,325.0,-0.07936507936507936,-155.63492063492063,92.14285714285714,-96.26984126984127,199.60317460317458,325.0,-69.12698412698413,-211.98412698412696,197.53968253968253,-198.96825396825395,135.79365079365078,174.36507936507937,6.26984126984127,-71.5079365079365,325.0,325.0,-0.3968253968253968,-0.3968253968253968,-166.26984126984127
257.6984126984127,-56.269841269841265,-190.7142857142857,153.88888888888889,325.0,-0.5555555555555556,-153.88888888888889,91.19047619047619,-95.15873015873015,197.06349206349205,325.0,-68.33333333333333,-209.12698412698413,195.0,-196.58730158730157,133.88888888888889,263.4126984126984,5.634920634920634,-70.55555555555556,325.0,325.0,-0.7142857142857142,-0.07936507936507936,-321.8253968253968
257.6984126984127,-56.269841269841265,-190.7142857142857,153.88888888888889,325.0,-0.5555555555555556,-153.88888888888889,91.19047619047619,-95.15873015873015,197.06349206349205,325.0,-68.33333333333333,-209.12698412698413,195.0,-196.58730158730157,133.88888888888889,263.4126984126984,5.634920634920634,-70.55555555555556,325.0,325.0,-0.7142857142857142,-0.07936507936507936,-321.8253968253968
251.98412698412696,-55.317460317460316,-187.06349206349205,150.55555555555554,325.0,-4.523809523809524,-150.55555555555554,89.28571428571428,-93.09523809523809,192.93650793650792,325.0,-67.06349206349206,-204.68253968253967,190.7142857142857,-192.61904761904762,131.19047619047618,325.0,1.349206349206349,-69.12698412698413,325.0,325.0,-0.07936507936507936,-1.0317460317460316,-321.8253968253968
