Fp1[1],Fp2[2],F3[3],F4[4],C3[5],C4[6],P3[7],P4[8],O1[9],O2[10],F7[11],F8[12],T3[13],T4[14],T5[15],T6[16],Fz[17],Pz[18],Cz[19],Pg1[20],Pg2[21],EOGR[22],EOOGL[23],EMG[24]
-325.0,325.0,325.0,-325.0,-325.0,-57.857142857142854,325.0,-325.0,325.0,-325.0,81.03174603174602,325.0,325.0,-325.0,325.0,-325.0,140.7142857142857,-56.42857142857142,325.0,-325.0,-325.0,-0.7142857142857142,-0.7142857142857142,-166.26984126984127
-325.0,325.0,325.0,-325.0,-325.0,-57.857142857142854,325.0,-325.0,325.0,-325.0,81.03174603174602,325.0,325.0,-325.0,325.0,-325.0,140.7142857142857,-56.42857142857142,325.0,-325.0,-325.0,-0.7142857142857142,-0.7142857142857142,-166.26984126984127
-325.0,325.0,325.0,-325.0,-325.0,-41.34920634920635,325.0,-325.0,325.0,-325.0,90.55555555555556,325.0,325.0,-313.25396825396825,325.0,-325.0,-90.07936507936508,-38.33333333333333,325.0,-325.0,-325.0,-1.1904761904761905,-1.0317460317460316,-166.26984126984127
-325.0,325.0,325.0,-325.0,-325.0,-41.34920634920635,325.0,-325.0,325.0,-325.0,90.55555555555556,325.0,325.0,-313.25396825396825,325.0,-325.0,-90.07936507936508,-38.33333333333333,325.0,-325.0,-325.0,-1.1904761904761905,-1.0317460317460316,-166.26984126984127
-325.0,325.0,319.4444444444444,-325.0,-325.0,-17.38095238095238,325.0,-325.0,325.0,-325.0,102.93650793650794,325.0,323.4126984126984,-286.90476190476187,325.0,-325.0,-325.0,-13.571428571428571,325.0,-325.0,-325.0,-1.1904761904761905,-0.3968253968253968,-166.26984126984127
-325.0,325.0,319.4444444444444,-325.0,-325.0,-17.38095238095238,325.0,-325.0,325.0,-325.0,102.93650793650794,325.0,323.4126984126984,-286.90476190476187,325.0,-325.0,-325.0,-13.571428571428571,325.0,-325.0,-325.0,-1.1904761904761905,-0.3968253968253968,-166.26984126984127
-325.0,325.0,313.88888888888886,-325.0,-325.0,-17.22222222222222,325.0,-325.0,325.0,-325.0,97.38095238095238,325.0,317.53968253968253,-281.66666666666663,325.0,-325.0,-325.0,-13.888888888888888,325.0,-325.0,-325.0,-1.984126984126984,-0.7142857142857142,-166.26984126984127
-325.0,325.0,313.88888888888886,-325.0,-325.0,-17.22222222222222,325.0,-325.0,325.0,-325.0,97.38095238095238,325.0,317.53968253968253,-281.66666666666663,325.0,-325.0,-325.0,-13.888888888888888,325.0,-325.0,-325.0,-1.984126984126984,-0.7142857142857142,-166.26984126984127
-325.0,325.0,308.3333333333333,-325.0,-325.0,-13.888888888888888,325.0,-325.0,325.0,-325.0,90.87301587301587,325.0,311.984126984127,-276.58730158730157,324.04761904761904,-325.0,-325.0,-11.349206349206348,325.0,-325.0,-325.0,-0.873015873015873,-1.0317460317460316,-166.26984126984127
-325.0,325.0,308.3333333333333,-325.0,-325.0,-13.888888888888888,325.0,-325.0,325.0,-325.0,90.87301587301587,325.0,311.984126984127,-276.58730158730157,324.04761904761904,-325.0,-325.0,-11.349206349206348,325.0,-325.0,-325.0,-0.873015873015873,-1.0317460317460316,-166.26984126984127
-325.0,325.0,300.23809523809524,-325.0,-325.0,-11.031746031746032,324.04761904761904,-325.0,324.2063492063492,-325.0,87.53968253968253,325.0,303.88888888888886,-269.2857142857143,316.26984126984127,-325.0,-325.0,-8.333333333333332,325.0,-325.0,-325.0,-1.349206349206349,-1.349206349206349,-321.8253968253968
-325.0,325.0,300.23809523809524,-325.0,-325.0,-11.031746031746032,324.04761904761904,-325.0,324.2063492063492,-325.0,87.53968253968253,325.0,303.88888888888886,-269.2857142857143,316.26984126984127,-325.0,-325.0,-8.333333333333332,325.0,-325.0,-325.0,-1.349206349206349,-1.349206349206349,-321.8253968253968
-325.0,325.0,295.0,-325.0,-325.0,-4.2063492063492065,318.8095238095238,-325.0,319.2857142857143,-325.0,88.65079365079364,325.0,298.6507936507936,-264.5238095238095,310.7142857142857,-325.0,-325.0,-2.142857142857143,325.0,-325.0,-325.0,-1.349206349206349,-0.5555555555555556,-321.8253968253968
-325.0,325.0,295.0,-325.0,-325.0,-4.2063492063492065,318.8095238095238,-325.0,319.2857142857143,-325.0,88.65079365079364,325.0,298.6507936507936,-264.5238095238095,310.7142857142857,-325.0,-325.0,-2.142857142857143,325.0,-325.0,-325.0,-1.349206349206349,-0.5555555555555556,-321.8253968253968
-325.0,325.0,289.76190476190476,-325.0,-325.0,-0.7142857142857142,313.25396825396825,-325.0,314.04761904761904,-325.0,89.12698412698413,325.0,293.4126984126984,-259.76190476190476,305.6349206349206,-325.0,-325.0,1.507936507936508,325.0,-325.0,-325.0,-1.507936507936508,-1.0317460317460316,-321.8253968253968
-325.0,325.0,289.76190476190476,-325.0,-325.0,-0.7142857142857142,313.25396825396825,-325.0,314.04761904761904,-325.0,89.12698412698413,325.0,293.4126984126984,-259.76190476190476,305.6349206349206,-325.0,-325.0,1.507936507936508,325.0,-325.0,-325.0,-1.507936507936508,-1.0317460317460316,-321.8253968253968
-325.0,324.36507936507934,284.68253968253964,-325.0,-325.0,0.873015873015873,308.015873015873,-325.0,308.6507936507936,-325.0,91.19047619047619,325.0,288.17460317460313,-255.15873015873015,300.23809523809524,-325.0,-325.0,3.888888888888889,325.0,-325.0,-325.0,-0.7142857142857142,-1.0317460317460316,-321.8253968253968
-325.0,324.36507936507934,284.68253968253964,-325.0,-325.0,0.873015873015873,308.015873015873,-325.0,308.6507936507936,-325.0,91.19047619047619,325.0,288.17460317460313,-255.15873015873015,300.23809523809524,-325.0,-325.0,3.888888888888889,325.0,-325.0,-325.0,-0.7142857142857142,-1.0317460317460316,-321.8253968253968
-325.0,320.87301587301585,280.87301587301585,-325.0,-325.0,8.968253968253968,304.2063492063492,-325.0,304.8412698412698,-325.0,97.22222222222221,325.0,284.36507936507934,-251.66666666666666,296.4285714285714,-325.0,-325.0,11.984126984126984,325.0,-325.0,-325.0,-0.23809523809523808,-0.23809523809523808,-321.8253968253968
-325.0,320.87301587301585,280.87301587301585,-325.0,-325.0,8.968253968253968,304.2063492063492,-325.0,304.8412698412698,-325.0,97.22222222222221,325.0,284.36507936507934,-251.66666666666666,296.4285714285714,-325.0,-325.0,11.984126984126984,325.0,-325.0,-325.0,-0.23809523809523808,-0.23809523809523808,-321.8253968253968
-325.0,314.2063492063492,274.68253968253964,-325.0,-325.0,12.3015873015873,297.38095238095235,-325.0,298.17460317460313,-325.0,94.52380952380952,319.1269841269841,278.4920634920635,-245.95238095238093,290.07936507936506,-325.0,-325.0,14.682539682539682,325.0,-325.0,-325.0,-0.07936507936507936,-1.0317460317460316,-166.26984126984127
-325.0,314.2063492063492,274.68253968253964,-325.0,-325.0,12.3015873015873,297.38095238095235,-325.0,298.17460317460313,-325.0,94.52380952380952,319.1269841269841,278.4920634920635,-245.95238095238093,290.07936507936506,-325.0,-325.0,14.682539682539682,325.0,-325.0,-325.0,-0.07936507936507936,-1.0317460317460316,-166.26984126984127
-325.0,307.53968253968253,268.6507936507936,-325.0,-325.0,17.539682539682538,290.87301587301585,-325.0,291.66666666666663,-325.0,92.61904761904762,311.984126984127,272.46031746031747,-240.3968253968254,284.04761904761904,-325.0,-325.0,19.76190476190476,323.0952380952381,-325.0,-325.0,-0.873015873015873,-0.5555555555555556,-166.26984126984127
-325.0,307.53968253968253,268.6507936507936,-325.0,-325.0,17.539682539682538,290.87301587301585,-325.0,291.66666666666663,-325.0,92.61904761904762,311.984126984127,272.46031746031747,-240.3968253968254,284.04761904761904,-325.0,-325.0,19.76190476190476,323.0952380952381,-325.0,-325.0,-0.873015873015873,-0.5555555555555556,-166.26984126984127
-322.46031746031747,294.68253968253964,256.90476190476187,-325.0,-315.1587301587301,19.76190476190476,278.17460317460313,-318.17460317460313,279.6031746031746,-325.0,78.96825396825396,298.6507936507936,260.39682539682536,-229.76190476190476,272.1428571428571,-325.0,-325.0,20.71428571428571,310.07936507936506,-325.0,-325.0,-1.6666666666666665,-0.3968253968253968,-166.26984126984127
-322.46031746031747,294.68253968253964,256.90476190476187,-325.0,-315.1587301587301,19.76190476190476,278.17460317460313,-318.17460317460313,279.6031746031746,-325.0,78.96825396825396,298.6507936507936,260.39682539682536,-229.76190476190476,272.1428571428571,-325.0,-325.0,20.71428571428571,310.07936507936506,-325.0,-325.0,-1.6666666666666665,-0.3968253968253968,-166.26984126984127
-303.57142857142856,277.6984126984127,241.34920634920633,-305.7936507936508,-297.22222222222223,28.65079365079365,261.8253968253968,-300.39682539682536,263.73015873015873,-319.6031746031746,75.47619047619047,281.19047619047615,244.68253968253967,-215.63492063492063,256.4285714285714,-325.0,-325.0,29.76190476190476,291.984126984127,-315.95238095238096,-312.3015873015873,-0.3968253968253968,-1.6666666666666665,-166.26984126984127
-303.57142857142856,277.6984126984127,241.34920634920633,-305.7936507936508,-297.22222222222223,28.65079365079365,261.8253968253968,-300.39682539682536,263.73015873015873,-319.6031746031746,75.47619047619047,281.19047619047615,244.68253968253967,-215.63492063492063,256.4285714285714,-325.0,-325.0,29.76190476190476,291.984126984127,-315.95238095238096,-312.3015873015873,-0.3968253968253968,-1.6666666666666665,-166.26984126984127
-303.57142857142856,277.6984126984127,241.34920634920633,-305.7936507936508,-297.22222222222223,28.65079365079365,261.8253968253968,-300.39682539682536,263.73015873015873,-319.6031746031746,75.47619047619047,281.19047619047615,244.68253968253967,-215.63492063492063,256.4285714285714,-325.0,-325.0,29.76190476190476,291.984126984127,-315.95238095238096,-312.3015873015873,-0.3968253968253968,-1.6666666666666665,-166.26984126984127
-303.57142857142856,277.6984126984127,241.34920634920633,-305.7936507936508,-297.22222222222223,28.65079365079365,261.8253968253968,-300.39682539682536,263.73015873015873,-319.6031746031746,75.47619047619047,281.19047619047615,244.68253968253967,-215.63492063492063,256.4285714285714,-325.0,-325.0,29.76190476190476,291.984126984127,-315.95238095238096,-312.3015873015873,-0.3968253968253968,-1.6666666666666665,-166.26984126984127
-201.66666666666666,185.15873015873015,158.17460317460316,-202.14285714285714,-200.07936507936506,32.3015873015873,172.61904761904762,-203.25396825396825,175.79365079365078,-211.5079365079365,-325.0,185.79365079365078,161.19047619047618,-140.55555555555554,170.55555555555554,-233.25396825396825,-255.95238095238093,20.238095238095237,194.2063492063492,-210.55555555555554,-205.15873015873015,-0.3968253968253968,-0.23809523809523808,-321.8253968253968
-201.66666666666666,185.15873015873015,158.17460317460316,-202.14285714285714,-200.07936507936506,32.3015873015873,172.61904761904762,-203.25396825396825,175.79365079365078,-211.5079365079365,-325.0,185.79365079365078,161.19047619047618,-140.55555555555554,170.55555555555554,-233.25396825396825,-255.95238095238093,20.238095238095237,194.2063492063492,-210.55555555555554,-205.15873015873015,-0.3968253968253968,-0.23809523809523808,-321.8253968253968
-179.12698412698413,-325.0,139.9206349206349,-179.44444444444443,-178.65079365079364,34.047619047619044,152.93650793650792,-181.66666666666666,156.26984126984127,-188.015873015873,-325.0,164.52380952380952,142.77777777777777,-124.2063492063492,151.66666666666666,-208.33333333333331,-227.38095238095238,20.07936507936508,172.61904761904762,-187.53968253968253,-181.66666666666666,-0.23809523809523808,-1.0317460317460316,-321.8253968253968
-179.12698412698413,-325.0,139.9206349206349,-179.44444444444443,-178.65079365079364,34.047619047619044,152.93650793650792,-181.66666666666666,156.26984126984127,-188.015873015873,-325.0,164.52380952380952,142.77777777777777,-124.2063492063492,151.66666666666666,-208.33333333333331,-227.38095238095238,20.07936507936508,172.61904761904762,-187.53968253968253,-181.66666666666666,-0.23809523809523808,-1.0317460317460316,-321.8253968253968
-189.9206349206349,-19.6031746031746,79.76190476190476,-219.9206349206349,-65.0,65.15873015873015,141.19047619047618,-189.60317460317458,-8.174603174603174,-185.63492063492063,-152.3015873015873,152.3015873015873,-11.19047619047619,-132.61904761904762,-12.936507936507935,-215.95238095238093,-224.04761904761904,30.396825396825395,17.857142857142858,-174.84126984126982,-189.60317460317458,-10.238095238095237,-10.714285714285714,-321.8253968253968
-189.9206349206349,-19.6031746031746,79.76190476190476,-219.9206349206349,-65.0,65.15873015873015,141.19047619047618,-189.60317460317458,-8.174603174603174,-185.63492063492063,-152.3015873015873,152.3015873015873,-11.19047619047619,-132.61904761904762,-12.936507936507935,-215.95238095238093,-224.04761904761904,30.396825396825395,17.857142857142858,-174.84126984126982,-189.60317460317458,-10.238095238095237,-10.714285714285714,-321.8253968253968
-203.09523809523807,285.7936507936508,21.507936507936506,-262.77777777777777,46.58730158730158,95.63492063492063,131.03174603174602,-199.76190476190476,-170.7142857142857,-185.63492063492063,20.396825396825395,142.14285714285714,-163.57142857142856,-142.77777777777777,-175.47619047619045,-226.1111111111111,-224.04761904761904,40.55555555555555,-134.52380952380952,-164.68253968253967,-199.76190476190476,-20.396825396825395,-20.873015873015873,-321.8253968253968
-203.09523809523807,285.7936507936508,21.507936507936506,-262.77777777777777,46.58730158730158,95.63492063492063,131.03174603174602,-199.76190476190476,-170.7142857142857,-185.63492063492063,20.396825396825395,142.14285714285714,-163.57142857142856,-142.77777777777777,-175.47619047619045,-226.1111111111111,-224.04761904761904,40.55555555555555,-134.52380952380952,-164.68253968253967,-199.76190476190476,-20.396825396825395,-20.873015873015873,-321.8253968253968
-145.63492063492063,-325.0,113.4126984126984,-145.79365079365078,-146.26984126984127,24.047619047619047,124.04761904761904,-149.12698412698413,127.22222222222221,-152.93650793650792,-318.8095238095238,53.095238095238095,115.79365079365078,-100.23809523809523,123.4126984126984,-171.03174603174602,-185.0,10.238095238095237,-80.55555555555556,-152.93650793650792,-147.2222222222222,-1.0317460317460316,-0.23809523809523808,-321.8253968253968
-145.63492063492063,-325.0,113.4126984126984,-145.79365079365078,-146.26984126984127,24.047619047619047,124.04761904761904,-149.12698412698413,127.22222222222221,-152.93650793650792,-318.8095238095238,53.095238095238095,115.79365079365078,-100.23809523809523,123.4126984126984,-171.03174603174602,-185.0,10.238095238095237,-80.55555555555556,-152.93650793650792,-147.2222222222222,-1.0317460317460316,-0.23809523809523808,-321.8253968253968
-145.63492063492063,-325.0,113.4126984126984,-145.79365079365078,-146.26984126984127,24.047619047619047,124.04761904761904,-149.12698412698413,127.22222222222221,-152.93650793650792,-318.8095238095238,53.095238095238095,115.79365079365078,-100.23809523809523,123.4126984126984,-171.03174603174602,-185.0,10.238095238095237,-80.55555555555556,-152.93650793650792,-147.2222222222222,-1.0317460317460316,-0.23809523809523808,-166.26984126984127
-145.63492063492063,-325.0,113.4126984126984,-145.79365079365078,-146.26984126984127,24.047619047619047,124.04761904761904,-149.12698412698413,127.22222222222221,-152.93650793650792,-318.8095238095238,53.095238095238095,115.79365079365078,-100.23809523809523,123.4126984126984,-171.03174603174602,-185.0,10.238095238095237,-80.55555555555556,-152.93650793650792,-147.2222222222222,-1.0317460317460316,-0.23809523809523808,-166.26984126984127
-145.63492063492063,-325.0,113.4126984126984,-145.79365079365078,-146.26984126984127,24.047619047619047,124.04761904761904,-149.12698412698413,127.22222222222221,-152.93650793650792,-318.8095238095238,53.095238095238095,115.79365079365078,-100.23809523809523,123.4126984126984,-171.03174603174602,-185.0,10.238095238095237,-80.55555555555556,-152.93650793650792,-147.2222222222222,-1.0317460317460316,-0.23809523809523808,-166.26984126984127
-145.63492063492063,-325.0,113.4126984126984,-145.79365079365078,-146.26984126984127,24.047619047619047,124.04761904761904,-149.12698412698413,127.22222222222221,-152.93650793650792,-318.8095238095238,53.095238095238095,115.79365079365078,-100.23809523809523,123.4126984126984,-171.03174603174602,-185.0,10.238095238095237,-80.55555555555556,-152.93650793650792,-147.2222222222222,-1.0317460317460316,-0.23809523809523808,-166.26984126984127
-145.63492063492063,-325.0,113.4126984126984,-145.79365079365078,-146.26984126984127,24.047619047619047,124.04761904761904,-149.12698412698413,127.22222222222221,-152.93650793650792,-318.8095238095238,53.095238095238095,115.79365079365078,-100.23809523809523,123.4126984126984,-171.03174603174602,-185.0,10.238095238095237,-80.55555555555556,-152.93650793650792,-147.2222222222222,-1.0317460317460316,-0.23809523809523808,-166.26984126984127
-145.63492063492063,-325.0,113.4126984126984,-145.79365079365078,-146.26984126984127,24.047619047619047,124.04761904761904,-149.12698412698413,127.22222222222221,-152.93650793650792,-318.8095238095238,53.095238095238095,115.79365079365078,-100.23809523809523,123.4126984126984,-171.03174603174602,-185.0,10.238095238095237,-80.55555555555556,-152.93650793650792,-147.2222222222222,-1.0317460317460316,-0.23809523809523808,-166.26984126984127
-131.34920634920636,-325.0,101.66666666666666,-131.34920634920636,-132.3015873015873,17.539682539682538,111.5079365079365,87.85714285714285,109.28571428571428,-137.85714285714286,-288.6507936507936,-135.95238095238093,104.04761904761904,-90.07936507936508,111.19047619047619,76.9047619047619,-166.74603174603175,5.476190476190476,-202.77777777777777,-138.17460317460316,-132.3015873015873,-0.7142857142857142,-0.5555555555555556,-166.26984126984127
-131.34920634920636,-325.0,101.66666666666666,-131.34920634920636,-132.3015873015873,17.539682539682538,111.5079365079365,87.85714285714285,109.28571428571428,-137.85714285714286,-288.6507936507936,-135.95238095238093,104.04761904761904,-90.07936507936508,111.19047619047619,76.9047619047619,-166.74603174603175,5.476190476190476,-202.77777777777777,-138.17460317460316,-132.3015873015873,-0.7142857142857142,-0.5555555555555556,-166.26984126984127
-112.93650793650794,-325.0,86.58730158730158,-112.6190476190476,-114.36507936507935,6.587301587301587,-50.238095238095234,325.0,12.142857142857142,-118.49206349206348,-250.07936507936506,-325.0,89.12698412698413,-76.9047619047619,95.47619047619047,325.0,-143.09523809523807,-3.4126984126984126,-325.0,-118.96825396825396,-113.4126984126984,0.23809523809523808,-0.5555555555555556,-166.26984126984127
-112.93650793650794,-325.0,86.58730158730158,-112.6190476190476,-114.36507936507935,6.587301587301587,-50.238095238095234,325.0,12.142857142857142,-118.49206349206348,-250.07936507936506,-325.0,89.12698412698413,-76.9047619047619,95.47619047619047,325.0,-143.09523809523807,-3.4126984126984126,-325.0,-118.96825396825396,-113.4126984126984,0.23809523809523808,-0.5555555555555556,-166.26984126984127
-110.87301587301587,-325.0,85.0,-110.55555555555554,-112.46031746031746,0.873015873015873,-167.69841269841268,325.0,-37.06349206349206,-116.26984126984127,-245.79365079365078,-325.0,87.53968253968253,-75.47619047619047,93.73015873015872,325.0,-140.7142857142857,-8.65079365079365,-325.0,-116.9047619047619,-111.5079365079365,0.07936507936507936,-0.3968253968253968,-321.8253968253968
-110.87301587301587,-325.0,85.0,-110.55555555555554,-112.46031746031746,0.873015873015873,-167.69841269841268,325.0,-37.06349206349206,-116.26984126984127,-245.79365079365078,-325.0,87.53968253968253,-75.47619047619047,93.73015873015872,325.0,-140.7142857142857,-8.65079365079365,-325.0,-116.9047619047619,-111.5079365079365,0.07936507936507936,-0.3968253968253968,-321.8253968253968
-108.01587301587301,-325.0,82.77777777777777,-107.6984126984127,-109.28571428571428,-1.349206349206349,-325.0,325.0,-135.79365079365078,-113.09523809523809,-239.9206349206349,-325.0,85.31746031746032,-73.4126984126984,91.34920634920634,325.0,-136.9047619047619,-10.238095238095237,-325.0,-113.57142857142857,-108.33333333333333,-1.0317460317460316,-0.3968253968253968,-321.8253968253968
-108.01587301587301,-325.0,82.77777777777777,-107.6984126984127,-109.28571428571428,-1.349206349206349,-325.0,325.0,-135.79365079365078,-113.09523809523809,-239.9206349206349,-325.0,85.31746031746032,-73.4126984126984,91.34920634920634,325.0,-136.9047619047619,-10.238095238095237,-325.0,-113.57142857142857,-108.33333333333333,-1.0317460317460316,-0.3968253968253968,-321.8253968253968
-108.01587301587301,-325.0,82.77777777777777,-107.6984126984127,-109.28571428571428,-1.349206349206349,-325.0,325.0,-135.79365079365078,-113.09523809523809,-239.9206349206349,-325.0,85.31746031746032,-73.4126984126984,91.34920634920634,325.0,-136.9047619047619,-10.238095238095237,-325.0,-113.57142857142857,-108.33333333333333,-1.0317460317460316,-0.3968253968253968,-321.8253968253968
-108.01587301587301,-325.0,82.77777777777777,-107.6984126984127,-109.28571428571428,-1.349206349206349,-325.0,325.0,-135.79365079365078,-113.09523809523809,-239.9206349206349,-325.0,85.31746031746032,-73.4126984126984,91.34920634920634,325.0,-136.9047619047619,-10.238095238095237,-325.0,-113.57142857142857,-108.33333333333333,-1.0317460317460316,-0.3968253968253968,-321.8253968253968
-103.4126984126984,-325.0,78.96825396825396,-103.09523809523809,-104.84126984126983,-0.873015873015873,-325.0,325.0,-195.47619047619045,-108.17460317460316,-229.9206349206349,-325.0,81.66666666666666,-70.39682539682539,87.38095238095238,325.0,-131.03174603174602,-8.968253968253968,-325.0,-108.80952380952381,-103.4126984126984,-0.3968253968253968,-0.3968253968253968,-321.8253968253968
-103.4126984126984,-325.0,78.96825396825396,-103.09523809523809,-104.84126984126983,-0.873015873015873,-325.0,325.0,-195.47619047619045,-108.17460317460316,-229.9206349206349,-325.0,81.66666666666666,-70.39682539682539,87.38095238095238,325.0,-131.03174603174602,-8.968253968253968,-325.0,-108.80952380952381,-103.4126984126984,-0.3968253968253968,-0.3968253968253968,-321.8253968253968
-97.22222222222221,-325.0,74.2063492063492,-96.9047619047619,-98.65079365079364,1.984126984126984,-325.0,325.0,-282.46031746031747,-101.66666666666666,-216.74603174603175,-325.0,76.9047619047619,-65.79365079365078,82.14285714285714,325.0,-123.09523809523809,-4.365079365079365,-325.0,-102.30158730158729,-97.06349206349206,-0.3968253968253968,-0.5555555555555556,-321.8253968253968
-97.22222222222221,-325.0,74.2063492063492,-96.9047619047619,-98.65079365079364,1.984126984126984,-325.0,325.0,-282.46031746031747,-101.66666666666666,-216.74603174603175,-325.0,76.9047619047619,-65.79365079365078,82.14285714285714,325.0,-123.09523809523809,-4.365079365079365,-325.0,-102.30158730158729,-97.06349206349206,-0.3968253968253968,-0.5555555555555556,-321.8253968253968
-97.22222222222221,-325.0,74.2063492063492,-96.9047619047619,-98.65079365079364,1.984126984126984,-325.0,325.0,-282.46031746031747,-101.66666666666666,-216.74603174603175,-325.0,76.9047619047619,-65.79365079365078,82.14285714285714,325.0,-123.09523809523809,-4.365079365079365,-325.0,-102.30158730158729,-97.06349206349206,-0.3968253968253968,-0.5555555555555556,-166.26984126984127
-97.22222222222221,-325.0,74.2063492063492,-96.9047619047619,-98.65079365079364,1.984126984126984,-325.0,325.0,-282.46031746031747,-101.66666666666666,-216.74603174603175,-325.0,76.9047619047619,-65.79365079365078,82.14285714285714,325.0,-123.09523809523809,-4.365079365079365,-325.0,-102.30158730158729,-97.06349206349206,-0.3968253968253968,-0.5555555555555556,-166.26984126984127
-91.34920634920634,-325.0,69.44444444444444,-90.71428571428571,-93.09523809523809,9.126984126984127,-325.0,325.0,-325.0,-95.79365079365078,-204.36507936507937,-325.0,71.82539682539682,-61.666666666666664,77.06349206349206,325.0,-115.79365079365078,3.4126984126984126,-325.0,-96.42857142857142,-91.19047619047619,0.07936507936507936,-0.3968253968253968,-166.26984126984127
-91.34920634920634,-325.0,69.44444444444444,-90.71428571428571,-93.09523809523809,9.126984126984127,-325.0,325.0,-325.0,-95.79365079365078,-204.36507936507937,-325.0,71.82539682539682,-61.666666666666664,77.06349206349206,325.0,-115.79365079365078,3.4126984126984126,-325.0,-96.42857142857142,-91.19047619047619,0.07936507936507936,-0.3968253968253968,-166.26984126984127
-90.23809523809523,-325.0,63.095238095238095,-89.76190476190476,-91.98412698412697,10.714285714285714,-325.0,325.0,-325.0,-94.52380952380952,-201.8253968253968,-325.0,70.87301587301587,-60.873015873015866,20.396825396825395,325.0,-114.52380952380952,5.317460317460317,-325.0,-95.31746031746032,-89.92063492063491,0.3968253968253968,-0.23809523809523808,-166.26984126984127
-90.23809523809523,-325.0,63.095238095238095,-89.76190476190476,-91.98412698412697,10.714285714285714,-325.0,325.0,-325.0,-94.52380952380952,-201.8253968253968,-325.0,70.87301587301587,-60.873015873015866,20.396825396825395,325.0,-114.52380952380952,5.317460317460317,-325.0,-95.31746031746032,-89.92063492063491,0.3968253968253968,-0.23809523809523808,-166.26984126984127
-88.17460317460316,-325.0,-2.142857142857143,-87.85714285714285,-90.07936507936508,9.126984126984127,-325.0,325.0,-325.0,-92.46031746031746,-197.69841269841268,-325.0,69.44444444444444,-59.44444444444444,-110.07936507936508,325.0,-111.82539682539682,3.73015873015873,-325.0,-93.4126984126984,-87.85714285714285,0.23809523809523808,-0.3968253968253968,-166.26984126984127
-88.17460317460316,-325.0,-2.142857142857143,-87.85714285714285,-90.07936507936508,9.126984126984127,-325.0,325.0,-325.0,-92.46031746031746,-197.69841269841268,-325.0,69.44444444444444,-59.44444444444444,-110.07936507936508,325.0,-111.82539682539682,3.73015873015873,-325.0,-93.4126984126984,-87.85714285714285,0.23809523809523808,-0.3968253968253968,-166.26984126984127
-86.9047619047619,-325.0,-105.47619047619047,-86.58730158730158,-88.96825396825396,6.587301587301587,-325.0,325.0,-325.0,-91.34920634920634,-195.15873015873015,-325.0,68.4920634920635,-58.650793650793645,-211.8253968253968,325.0,-110.39682539682539,1.507936507936508,-325.0,-92.30158730158729,-86.58730158730158,-0.07936507936507936,-0.23809523809523808,-166.26984126984127
-86.9047619047619,-325.0,-105.47619047619047,-86.58730158730158,-88.96825396825396,6.587301587301587,-325.0,325.0,-325.0,-91.34920634920634,-195.15873015873015,-325.0,68.4920634920635,-58.650793650793645,-211.8253968253968,325.0,-110.39682539682539,1.507936507936508,-325.0,-92.30158730158729,-86.58730158730158,-0.07936507936507936,-0.23809523809523808,-166.26984126984127
-85.0,-325.0,-266.90476190476187,-84.68253968253968,-87.06349206349206,3.888888888888889,-325.0,325.0,-325.0,-89.44444444444444,-190.87301587301587,-325.0,66.9047619047619,-57.22222222222222,-319.2857142857143,288.4920634920635,-107.85714285714285,-1.0317460317460316,-325.0,-90.23809523809523,-84.52380952380952,-0.07936507936507936,-0.23809523809523808,-321.8253968253968
-85.0,-325.0,-266.90476190476187,-84.68253968253968,-87.06349206349206,3.888888888888889,-325.0,325.0,-325.0,-89.44444444444444,-190.87301587301587,-325.0,66.9047619047619,-57.22222222222222,-319.2857142857143,288.4920634920635,-107.85714285714285,-1.0317460317460316,-325.0,-90.23809523809523,-84.52380952380952,-0.07936507936507936,-0.23809523809523808,-321.8253968253968
-83.73015873015872,-325.0,-325.0,-82.93650793650794,-85.15873015873015,-1.0317460317460316,-325.0,325.0,-325.0,-87.22222222222221,-187.69841269841268,-325.0,65.79365079365078,-56.11111111111111,-325.0,325.0,-105.79365079365078,-5.0,-325.0,-88.33333333333333,-82.93650793650794,0.7142857142857142,0.3968253968253968,-321.8253968253968
-83.73015873015872,-325.0,-325.0,-82.93650793650794,-85.15873015873015,-1.0317460317460316,-325.0,325.0,-325.0,-87.22222222222221,-187.69841269841268,-325.0,65.79365079365078,-56.11111111111111,-325.0,325.0,-105.79365079365078,-5.0,-325.0,-88.33333333333333,-82.93650793650794,0.7142857142857142,0.3968253968253968,-321.8253968253968
-83.73015873015872,-325.0,-325.0,-82.93650793650794,-85.15873015873015,-1.0317460317460316,-325.0,325.0,-325.0,-87.22222222222221,-187.69841269841268,-325.0,65.79365079365078,-56.11111111111111,-325.0,325.0,-105.79365079365078,-5.0,-325.0,-88.33333333333333,-82.93650793650794,0.7142857142857142,0.3968253968253968,-321.8253968253968
-83.73015873015872,-325.0,-325.0,-82.93650793650794,-85.15873015873015,-1.0317460317460316,-325.0,325.0,-325.0,-87.22222222222221,-187.69841269841268,-325.0,65.79365079365078,-56.11111111111111,-325.0,325.0,-105.79365079365078,-5.0,-325.0,-88.33333333333333,-82.93650793650794,0.7142857142857142,0.3968253968253968,-321.8253968253968
-80.23809523809523,-325.0,-325.0,-79.76190476190476,-81.82539682539682,-2.7777777777777777,-325.0,325.0,-325.0,-84.04761904761904,-180.7142857142857,-325.0,-17.38095238095238,-53.888888888888886,-325.0,325.0,-101.82539682539682,-6.904761904761904,-325.0,-84.84126984126983,-79.76190476190476,-0.07936507936507936,-1.0317460317460316,-321.8253968253968
-80.23809523809523,-325.0,-325.0,-79.76190476190476,-81.82539682539682,-2.7777777777777777,-325.0,325.0,-325.0,-84.04761904761904,-180.7142857142857,-325.0,-17.38095238095238,-53.888888888888886,-325.0,325.0,-101.82539682539682,-6.904761904761904,-325.0,-84.84126984126983,-79.76190476190476,-0.07936507936507936,-1.0317460317460316,-321.8253968253968
-78.65079365079364,-325.0,-325.0,-78.33333333333333,-80.55555555555556,-8.015873015873016,-325.0,325.0,-325.0,-82.3015873015873,-177.53968253968253,-325.0,-150.23809523809524,-52.77777777777777,-325.0,-233.25396825396825,-99.92063492063491,-11.349206349206348,-325.0,-83.25396825396825,-78.17460317460316,0.07936507936507936,-0.7142857142857142,-321.8253968253968
-78.65079365079364,-325.0,-325.0,-78.33333333333333,-80.55555555555556,-8.015873015873016,-325.0,325.0,-325.0,-82.3015873015873,-177.53968253968253,-325.0,-150.23809523809524,-52.77777777777777,-325.0,-233.25396825396825,-99.92063492063491,-11.349206349206348,-325.0,-83.25396825396825,-78.17460317460316,0.07936507936507936,-0.7142857142857142,-321.8253968253968
-77.53968253968253,-325.0,-325.0,-77.22222222222221,-79.12698412698413,-10.079365079365079,-325.0,325.0,-325.0,-81.03174603174602,-175.3174603174603,-325.0,-238.015873015873,-51.98412698412698,-325.0,-325.0,-98.65079365079364,-12.46031746031746,-325.0,-82.14285714285714,-77.06349206349206,-1.0317460317460316,-0.7142857142857142,-166.26984126984127
-77.53968253968253,-325.0,-325.0,-77.22222222222221,-79.12698412698413,-10.079365079365079,-325.0,325.0,-325.0,-81.03174603174602,-175.3174603174603,-325.0,-238.015873015873,-51.98412698412698,-325.0,-325.0,-98.65079365079364,-12.46031746031746,-325.0,-82.14285714285714,-77.06349206349206,-1.0317460317460316,-0.7142857142857142,-166.26984126984127
-75.95238095238095,-325.0,-325.0,-75.31746031746032,-77.6984126984127,-6.746031746031746,-325.0,325.0,-325.0,-79.28571428571428,-171.66666666666666,-325.0,-325.0,-50.87301587301587,-325.0,-158.17460317460316,-96.26984126984127,-9.603174603174603,-325.0,-80.23809523809523,-75.31746031746032,0.07936507936507936,-0.3968253968253968,-166.26984126984127
-75.95238095238095,-325.0,-325.0,-75.31746031746032,-77.6984126984127,-6.746031746031746,-325.0,325.0,-325.0,-79.28571428571428,-171.66666666666666,-325.0,-325.0,-50.87301587301587,-325.0,-158.17460317460316,-96.26984126984127,-9.603174603174603,-325.0,-80.23809523809523,-75.31746031746032,0.07936507936507936,-0.3968253968253968,-166.26984126984127
-74.04761904761904,-325.0,-325.0,-73.4126984126984,-75.79365079365078,-5.634920634920634,-325.0,325.0,-325.0,-77.38095238095238,-167.53968253968253,-325.0,-325.0,-49.6031746031746,-325.0,320.7142857142857,-93.88888888888889,-8.015873015873016,-325.0,-78.17460317460316,-73.4126984126984,-0.5555555555555556,-0.07936507936507936,-166.26984126984127
-74.04761904761904,-325.0,-325.0,-73.4126984126984,-75.79365079365078,-5.634920634920634,-325.0,325.0,-325.0,-77.38095238095238,-167.53968253968253,-325.0,-325.0,-49.6031746031746,-325.0,320.7142857142857,-93.88888888888889,-8.015873015873016,-325.0,-78.17460317460316,-73.4126984126984,-0.5555555555555556,-0.07936507936507936,-166.26984126984127
-72.77777777777777,-325.0,-325.0,-72.14285714285714,-74.52380952380952,-4.523809523809524,-325.0,325.0,-325.0,-75.95238095238095,-164.52380952380952,-325.0,-325.0,-48.650793650793645,-325.0,262.1428571428571,-92.30158730158729,-6.746031746031746,-325.0,-76.9047619047619,-71.98412698412697,0.3968253968253968,-1.0317460317460316,-166.26984126984127
-72.77777777777777,-325.0,-325.0,-72.14285714285714,-74.52380952380952,-4.523809523809524,-325.0,325.0,-325.0,-75.95238095238095,-164.52380952380952,-325.0,-325.0,-48.650793650793645,-325.0,262.1428571428571,-92.30158730158729,-6.746031746031746,-325.0,-76.9047619047619,-71.98412698412697,0.3968253968253968,-1.0317460317460316,-166.26984126984127
-71.5079365079365,-325.0,-325.0,-70.87301587301587,-73.25396825396825,-9.285714285714285,-325.0,325.0,-325.0,-74.68253968253968,-161.8253968253968,-325.0,-325.0,-47.698412698412696,-325.0,325.0,-90.71428571428571,-11.825396825396824,-325.0,-75.47619047619047,-70.87301587301587,-1.1904761904761905,-1.1904761904761905,-166.26984126984127
-71.5079365079365,-325.0,-325.0,-70.87301587301587,-73.25396825396825,-9.285714285714285,-325.0,325.0,-325.0,-74.68253968253968,-161.8253968253968,-325.0,-325.0,-47.698412698412696,-325.0,325.0,-90.71428571428571,-11.825396825396824,-325.0,-75.47619047619047,-70.87301587301587,-1.1904761904761905,-1.1904761904761905,-166.26984126984127
-70.23809523809524,-325.0,-325.0,-69.6031746031746,-71.98412698412697,-11.666666666666666,-325.0,325.0,-325.0,-73.25396825396825,-159.28571428571428,-325.0,-325.0,-46.904761904761905,-325.0,81.34920634920634,-88.96825396825396,-13.412698412698411,-325.0,-74.04761904761904,-69.44444444444444,0.07936507936507936,-0.07936507936507936,-321.8253968253968
-70.23809523809524,-325.0,-325.0,-69.6031746031746,-71.98412698412697,-11.666666666666666,-325.0,325.0,-325.0,-73.25396825396825,-159.28571428571428,-325.0,-325.0,-46.904761904761905,-325.0,81.34920634920634,-88.96825396825396,-13.412698412698411,-325.0,-74.04761904761904,-69.44444444444444,0.07936507936507936,-0.07936507936507936,-321.8253968253968
-69.28571428571428,-325.0,-325.0,-68.65079365079364,-71.03174603174602,-8.968253968253968,-325.0,325.0,-325.0,-72.3015873015873,-156.9047619047619,-325.0,-325.0,-46.269841269841265,-325.0,-213.7301587301587,-88.17460317460316,-10.555555555555555,-325.0,-73.09523809523809,-68.33333333333333,-0.5555555555555556,-0.07936507936507936,-321.8253968253968
-69.28571428571428,-325.0,-325.0,-68.65079365079364,-71.03174603174602,-8.968253968253968,-325.0,325.0,-325.0,-72.3015873015873,-156.9047619047619,-325.0,-325.0,-46.269841269841265,-325.0,-213.7301587301587,-88.17460317460316,-10.555555555555555,-325.0,-73.09523809523809,-68.33333333333333,-0.5555555555555556,-0.07936507936507936,-321.8253968253968
-67.6984126984127,-325.0,-325.0,-67.06349206349206,-69.44444444444444,-8.015873015873016,-325.0,325.0,-325.0,-67.6984126984127,-153.88888888888889,-325.0,-325.0,-45.15873015873016,-325.0,-325.0,-86.1111111111111,-8.968253968253968,-325.0,-71.66666666666666,-67.06349206349206,-0.3968253968253968,-0.5555555555555556,-321.8253968253968
-67.6984126984127,-325.0,-325.0,-67.06349206349206,-69.44444444444444,-8.015873015873016,-325.0,325.0,-325.0,-67.6984126984127,-153.88888888888889,-325.0,-325.0,-45.15873015873016,-325.0,-325.0,-86.1111111111111,-8.968253968253968,-325.0,-71.66666666666666,-67.06349206349206,-0.3968253968253968,-0.5555555555555556,-321.8253968253968
-66.58730158730158,-325.0,-325.0,-65.79365079365078,-68.33333333333333,-12.142857142857142,-325.0,325.0,-325.0,-24.047619047619047,-151.34920634920633,-325.0,-325.0,-44.36507936507936,-325.0,-325.0,-84.52380952380952,-12.936507936507935,-325.0,-70.39682539682539,-65.79365079365078,-0.3968253968253968,-1.0317460317460316,-321.8253968253968
-66.58730158730158,-325.0,-325.0,-65.79365079365078,-68.33333333333333,-12.142857142857142,-325.0,325.0,-325.0,-24.047619047619047,-151.34920634920633,-325.0,-325.0,-44.36507936507936,-325.0,-325.0,-84.52380952380952,-12.936507936507935,-325.0,-70.39682539682539,-65.79365079365078,-0.3968253968253968,-1.0317460317460316,-321.8253968253968
-65.47619047619047,-323.57142857142856,-325.0,-64.68253968253968,-67.22222222222221,-8.492063492063492,-325.0,325.0,-325.0,21.03174603174603,-148.8095238095238,-325.0,-325.0,-43.57142857142857,-325.0,-131.8253968253968,-82.77777777777777,-9.285714285714285,-325.0,-69.28571428571428,-64.52380952380952,-0.07936507936507936,-0.5555555555555556,-321.8253968253968
-65.47619047619047,-323.57142857142856,-325.0,-64.68253968253968,-67.22222222222221,-8.492063492063492,-325.0,325.0,-325.0,21.03174603174603,-148.8095238095238,-325.0,-325.0,-43.57142857142857,-325.0,-131.8253968253968,-82.77777777777777,-9.285714285714285,-325.0,-69.28571428571428,-64.52380952380952,-0.07936507936507936,-0.5555555555555556,-321.8253968253968
-64.36507936507937,-318.3333333333333,-325.0,-63.73015873015873,-66.11111111111111,-2.7777777777777777,-325.0,325.0,-325.0,67.38095238095238,-146.26984126984127,-325.0,-325.0,-42.93650793650794,-325.0,-325.0,-81.66666666666666,-3.4126984126984126,-325.0,-68.17460317460318,-63.41269841269841,-0.07936507936507936,-0.873015873015873,-166.26984126984127
-64.36507936507937,-318.3333333333333,-325.0,-63.73015873015873,-66.11111111111111,-2.7777777777777777,-325.0,325.0,-325.0,67.38095238095238,-146.26984126984127,-325.0,-325.0,-42.93650793650794,-325.0,-325.0,-81.66666666666666,-3.4126984126984126,-325.0,-68.17460317460318,-63.41269841269841,-0.07936507936507936,-0.873015873015873,-166.26984126984127
-63.25396825396825,-313.0952380952381,-325.0,-62.77777777777777,-64.84126984126983,-2.7777777777777777,-325.0,325.0,-325.0,121.03174603174602,-143.88888888888889,-325.0,-325.0,-42.14285714285714,-325.0,187.38095238095238,-80.07936507936508,-2.7777777777777777,-325.0,-66.9047619047619,-62.3015873015873,-0.7142857142857142,-0.7142857142857142,-166.26984126984127
-63.25396825396825,-313.0952380952381,-325.0,-62.77777777777777,-64.84126984126983,-2.7777777777777777,-325.0,325.0,-325.0,121.03174603174602,-143.88888888888889,-325.0,-325.0,-42.14285714285714,-325.0,187.38095238095238,-80.07936507936508,-2.7777777777777777,-325.0,-66.9047619047619,-62.3015873015873,-0.7142857142857142,-0.7142857142857142,-166.26984126984127
-61.98412698412698,-306.90476190476187,-325.0,-61.34920634920635,-63.57142857142857,-2.7777777777777777,-325.0,325.0,-325.0,168.96825396825395,-141.03174603174602,-325.0,-325.0,-41.34920634920635,-325.0,325.0,-78.4920634920635,-2.619047619047619,-325.0,-65.47619047619047,-61.03174603174603,-0.5555555555555556,-0.07936507936507936,-166.26984126984127
-61.98412698412698,-306.90476190476187,-325.0,-61.34920634920635,-63.57142857142857,-2.7777777777777777,-325.0,325.0,-325.0,168.96825396825395,-141.03174603174602,-325.0,-325.0,-41.34920634920635,-325.0,325.0,-78.4920634920635,-2.619047619047619,-325.0,-65.47619047619047,-61.03174603174603,-0.5555555555555556,-0.07936507936507936,-166.26984126984127
-60.55555555555555,-300.7142857142857,-325.0,-59.92063492063492,-62.460317460317455,-3.888888888888889,-325.0,325.0,-325.0,213.57142857142856,-138.015873015873,-325.0,-325.0,-40.39682539682539,-325.0,325.0,-76.58730158730158,-4.0476190476190474,-325.0,-64.2063492063492,-59.6031746031746,-0.873015873015873,-1.0317460317460316,-166.26984126984127
-60.55555555555555,-300.7142857142857,-325.0,-59.92063492063492,-62.460317460317455,-3.888888888888889,-325.0,325.0,-325.0,213.57142857142856,-138.015873015873,-325.0,-325.0,-40.39682539682539,-325.0,325.0,-76.58730158730158,-4.0476190476190474,-325.0,-64.2063492063492,-59.6031746031746,-0.873015873015873,-1.0317460317460316,-166.26984126984127
-58.8095238095238,-292.46031746031747,-325.0,-58.17460317460317,-60.55555555555555,-2.3015873015873014,-325.0,325.0,-325.0,274.36507936507934,-133.88888888888889,-325.0,-325.0,-39.12698412698413,-325.0,325.0,-74.52380952380952,-2.3015873015873014,-325.0,-62.3015873015873,-57.857142857142854,-0.3968253968253968,-0.23809523809523808,-166.26984126984127
-58.8095238095238,-292.46031746031747,-325.0,-58.17460317460317,-60.55555555555555,-2.3015873015873014,-325.0,325.0,-325.0,274.36507936507934,-133.88888888888889,-325.0,-325.0,-39.12698412698413,-325.0,325.0,-74.52380952380952,-2.3015873015873014,-325.0,-62.3015873015873,-57.857142857142854,-0.3968253968253968,-0.23809523809523808,-166.26984126984127
-57.53968253968254,-286.26984126984127,-325.0,-57.06349206349206,-59.285714285714285,3.4126984126984126,-325.0,325.0,-325.0,323.57142857142856,-131.19047619047618,-325.0,-325.0,-38.33333333333333,-325.0,325.0,-72.77777777777777,4.0476190476190474,-325.0,-61.03174603174603,-56.74603174603174,-0.23809523809523808,-1.1904761904761905,-321.8253968253968
-57.53968253968254,-286.26984126984127,-325.0,-57.06349206349206,-59.285714285714285,3.4126984126984126,-325.0,325.0,-325.0,323.57142857142856,-131.19047619047618,-325.0,-325.0,-38.33333333333333,-325.0,325.0,-72.77777777777777,4.0476190476190474,-325.0,-61.03174603174603,-56.74603174603174,-0.23809523809523808,-1.1904761904761905,-321.8253968253968
-56.74603174603174,-282.77777777777777,-325.0,-56.269841269841265,-58.650793650793645,3.253968253968254,-325.0,325.0,-325.0,325.0,-129.44444444444443,-325.0,-325.0,-37.698412698412696,-325.0,325.0,-71.82539682539682,3.73015873015873,-325.0,-60.39682539682539,-55.79365079365079,-0.5555555555555556,-0.873015873015873,-321.8253968253968
-56.74603174603174,-282.77777777777777,-325.0,-56.269841269841265,-58.650793650793645,3.253968253968254,-325.0,325.0,-325.0,325.0,-129.44444444444443,-325.0,-325.0,-37.698412698412696,-325.0,325.0,-71.82539682539682,3.73015873015873,-325.0,-60.39682539682539,-55.79365079365079,-0.5555555555555556,-0.873015873015873,-321.8253968253968
-55.95238095238095,-278.17460317460313,-325.0,-55.15873015873016,-57.53968253968254,-4.2063492063492065,-325.0,325.0,-325.0,325.0,-127.38095238095238,-325.0,-325.0,-37.38095238095238,-325.0,325.0,-70.71428571428571,-3.253968253968254,-325.0,-59.285714285714285,-54.841269841269835,-0.873015873015873,0.23809523809523808,-321.8253968253968
-55.95238095238095,-278.17460317460313,-325.0,-55.15873015873016,-57.53968253968254,-4.2063492063492065,-325.0,325.0,-325.0,325.0,-127.38095238095238,-325.0,-325.0,-37.38095238095238,-325.0,325.0,-70.71428571428571,-3.253968253968254,-325.0,-59.285714285714285,-54.841269841269835,-0.873015873015873,0.23809523809523808,-321.8253968253968
-55.95238095238095,-278.17460317460313,-325.0,-55.15873015873016,-57.53968253968254,-4.2063492063492065,-325.0,325.0,-325.0,325.0,-127.38095238095238,-325.0,-325.0,-37.38095238095238,-325.0,325.0,-70.71428571428571,-3.253968253968254,-325.0,-59.285714285714285,-54.841269841269835,-0.873015873015873,0.23809523809523808,-321.8253968253968
-55.95238095238095,-278.17460317460313,-325.0,-55.15873015873016,-57.53968253968254,-4.2063492063492065,-325.0,325.0,-325.0,325.0,-127.38095238095238,-325.0,-325.0,-37.38095238095238,-325.0,325.0,-70.71428571428571,-3.253968253968254,-325.0,-59.285714285714285,-54.841269841269835,-0.873015873015873,0.23809523809523808,-321.8253968253968
-55.95238095238095,-278.17460317460313,-325.0,-55.15873015873016,-57.53968253968254,-4.2063492063492065,-325.0,325.0,-325.0,325.0,-127.38095238095238,-325.0,-325.0,-37.38095238095238,-325.0,325.0,-70.71428571428571,-3.253968253968254,-325.0,-59.285714285714285,-54.841269841269835,-0.873015873015873,0.23809523809523808,-321.8253968253968
-55.95238095238095,-278.17460317460313,-325.0,-55.15873015873016,-57.53968253968254,-4.2063492063492065,-325.0,325.0,-325.0,325.0,-127.38095238095238,-325.0,-325.0,-37.38095238095238,-325.0,325.0,-70.71428571428571,-3.253968253968254,-325.0,-59.285714285714285,-54.841269841269835,-0.873015873015873,0.23809523809523808,-321.8253968253968
-55.95238095238095,-278.17460317460313,-325.0,-55.15873015873016,-57.53968253968254,-4.2063492063492065,-325.0,325.0,-325.0,325.0,-127.38095238095238,-325.0,-325.0,-37.38095238095238,-325.0,325.0,-70.71428571428571,-3.253968253968254,-325.0,-59.285714285714285,-54.841269841269835,-0.873015873015873,0.23809523809523808,-166.26984126984127
-55.95238095238095,-278.17460317460313,-325.0,-55.15873015873016,-57.53968253968254,-4.2063492063492065,-325.0,325.0,-325.0,325.0,-127.38095238095238,-325.0,-325.0,-37.38095238095238,-325.0,325.0,-70.71428571428571,-3.253968253968254,-325.0,-59.285714285714285,-54.841269841269835,-0.873015873015873,0.23809523809523808,-166.26984126984127
-55.95238095238095,-278.17460317460313,-325.0,-55.15873015873016,-57.53968253968254,-4.2063492063492065,-325.0,325.0,-325.0,325.0,-127.38095238095238,-325.0,-325.0,-37.38095238095238,-325.0,325.0,-70.71428571428571,-3.253968253968254,-325.0,-59.285714285714285,-54.841269841269835,-0.873015873015873,0.23809523809523808,-166.26984126984127
-55.95238095238095,-278.17460317460313,-325.0,-55.15873015873016,-57.53968253968254,-4.2063492063492065,-325.0,325.0,-325.0,325.0,-127.38095238095238,-325.0,-325.0,-37.38095238095238,-325.0,325.0,-70.71428571428571,-3.253968253968254,-325.0,-59.285714285714285,-54.841269841269835,-0.873015873015873,0.23809523809523808,-166.26984126984127
-52.93650793650794,-264.2063492063492,-325.0,-52.14285714285714,-54.68253968253968,-2.142857142857143,-325.0,325.0,-325.0,325.0,-120.87301587301586,-320.39682539682536,-325.0,-35.317460317460316,-325.0,325.0,-66.9047619047619,-0.5555555555555556,-320.55555555555554,-56.11111111111111,-51.82539682539682,-0.3968253968253968,-0.07936507936507936,-166.26984126984127
-52.93650793650794,-264.2063492063492,-325.0,-52.14285714285714,-54.68253968253968,-2.142857142857143,-325.0,325.0,-325.0,325.0,-120.87301587301586,-320.39682539682536,-325.0,-35.317460317460316,-325.0,325.0,-66.9047619047619,-0.5555555555555556,-320.55555555555554,-56.11111111111111,-51.82539682539682,-0.3968253968253968,-0.07936507936507936,-166.26984126984127
-49.12698412698413,-245.95238095238093,-325.0,-48.33333333333333,-50.87301587301587,-0.07936507936507936,-325.0,325.0,-325.0,325.0,-112.30158730158729,-310.23809523809524,-325.0,-32.460317460317455,-325.0,325.0,-61.666666666666664,1.984126984126984,-311.031746031746,-51.98412698412698,-48.01587301587301,-1.1904761904761905,-0.3968253968253968,-166.26984126984127
-49.12698412698413,-245.95238095238093,-325.0,-48.33333333333333,-50.87301587301587,-0.07936507936507936,-325.0,325.0,-325.0,325.0,-112.30158730158729,-310.23809523809524,-325.0,-32.460317460317455,-325.0,325.0,-61.666666666666664,1.984126984126984,-311.031746031746,-51.98412698412698,-48.01587301587301,-1.1904761904761905,-0.3968253968253968,-166.26984126984127
-49.12698412698413,-245.95238095238093,-325.0,-48.33333333333333,-50.87301587301587,-0.07936507936507936,-325.0,325.0,-325.0,325.0,-112.30158730158729,-310.23809523809524,-325.0,-32.460317460317455,-325.0,325.0,-61.666666666666664,1.984126984126984,-311.031746031746,-51.98412698412698,-48.01587301587301,-1.1904761904761905,-0.3968253968253968,-166.26984126984127
-49.12698412698413,-245.95238095238093,-325.0,-48.33333333333333,-50.87301587301587,-0.07936507936507936,-325.0,325.0,-325.0,325.0,-112.30158730158729,-310.23809523809524,-325.0,-32.460317460317455,-325.0,325.0,-61.666666666666664,1.984126984126984,-311.031746031746,-51.98412698412698,-48.01587301587301,-1.1904761904761905,-0.3968253968253968,-166.26984126984127
325.0,-63.25396825396825,325.0,325.0,325.0,16.11111111111111,325.0,100.23809523809523,325.0,228.65079365079364,325.0,-78.17460317460316,325.0,258.3333333333333,325.0,-325.0,325.0,18.333333333333332,-79.76190476190476,325.0,325.0,-0.07936507936507936,0.5555555555555556,-321.8253968253968
325.0,-63.25396825396825,325.0,325.0,325.0,16.11111111111111,325.0,100.23809523809523,325.0,228.65079365079364,325.0,-78.17460317460316,325.0,258.3333333333333,325.0,-325.0,325.0,18.333333333333332,-79.76190476190476,325.0,325.0,-0.07936507936507936,0.5555555555555556,-321.8253968253968
325.0,-62.3015873015873,325.0,325.0,325.0,18.96825396825397,325.0,98.80952380952381,325.0,225.79365079365078,325.0,-77.22222222222221,325.0,255.0,325.0,-325.0,325.0,21.19047619047619,-78.80952380952381,325.0,325.0,-0.07936507936507936,-0.3968253968253968,-321.8253968253968
325.0,-62.3015873015873,325.0,325.0,325.0,18.96825396825397,325.0,98.80952380952381,325.0,225.79365079365078,325.0,-77.22222222222221,325.0,255.0,325.0,-325.0,325.0,21.19047619047619,-78.80952380952381,325.0,325.0,-0.07936507936507936,-0.3968253968253968,-321.8253968253968
325.0,-61.19047619047619,325.0,325.0,325.0,23.095238095238095,325.0,96.9047619047619,325.0,220.87301587301587,325.0,-75.47619047619047,325.0,249.44444444444443,325.0,-325.0,325.0,24.68253968253968,-77.22222222222221,325.0,325.0,-0.7142857142857142,-0.23809523809523808,-321.8253968253968
325.0,-61.19047619047619,325.0,325.0,325.0,23.095238095238095,325.0,96.9047619047619,325.0,220.87301587301587,325.0,-75.47619047619047,325.0,249.44444444444443,325.0,-325.0,325.0,24.68253968253968,-77.22222222222221,325.0,325.0,-0.7142857142857142,-0.23809523809523808,-321.8253968253968
318.015873015873,-53.25396825396825,-0.07936507936507936,325.0,325.0,16.746031746031743,-0.07936507936507936,84.52380952380952,308.17460317460313,191.98412698412696,325.0,-65.63492063492063,-0.07936507936507936,216.1111111111111,-0.07936507936507936,-325.0,325.0,16.746031746031743,-67.06349206349206,325.0,325.0,-0.7142857142857142,0.23809523809523808,-321.8253968253968
318.015873015873,-53.25396825396825,-0.07936507936507936,325.0,325.0,16.746031746031743,-0.07936507936507936,84.52380952380952,308.17460317460313,191.98412698412696,325.0,-65.63492063492063,-0.07936507936507936,216.1111111111111,-0.07936507936507936,-325.0,325.0,16.746031746031743,-67.06349206349206,325.0,325.0,-0.7142857142857142,0.23809523809523808,-321.8253968253968
308.3333333333333,-45.63492063492063,-325.0,325.0,325.0,9.761904761904761,-325.0,72.77777777777777,288.968253968254,164.36507936507937,325.0,-55.95238095238095,-325.0,184.52380952380952,-325.0,-325.0,325.0,7.857142857142857,-57.38095238095238,324.04761904761904,325.0,-0.5555555555555556,-0.3968253968253968,-321.8253968253968
308.3333333333333,-45.63492063492063,-325.0,325.0,325.0,9.761904761904761,-325.0,72.77777777777777,288.968253968254,164.36507936507937,325.0,-55.95238095238095,-325.0,184.52380952380952,-325.0,-325.0,325.0,7.857142857142857,-57.38095238095238,324.04761904761904,325.0,-0.5555555555555556,-0.3968253968253968,-321.8253968253968
148.33333333333331,-8.333333333333332,-314.8412698412698,198.33333333333331,128.4920634920635,86.1111111111111,-0.07936507936507936,7.5396825396825395,149.9206349206349,170.07936507936506,8.968253968253968,-179.28571428571428,-0.07936507936507936,101.82539682539682,-38.33333333333333,-12.3015873015873,152.3015873015873,-5.7936507936507935,-38.49206349206349,147.53968253968253,1.349206349206349,-1.8253968253968254,161.8253968253968,-166.26984126984127
148.33333333333331,-8.333333333333332,-314.8412698412698,198.33333333333331,128.4920634920635,86.1111111111111,-0.07936507936507936,7.5396825396825395,149.9206349206349,170.07936507936506,8.968253968253968,-179.28571428571428,-0.07936507936507936,101.82539682539682,-38.33333333333333,-12.3015873015873,152.3015873015873,-5.7936507936507935,-38.49206349206349,147.53968253968253,1.349206349206349,-1.8253968253968254,161.8253968253968,-166.26984126984127
288.968253968254,-42.61904761904761,-325.0,325.0,309.6031746031746,10.714285714285714,-325.0,68.33333333333333,188.8095238095238,153.88888888888889,313.73015873015873,-52.460317460317455,-325.0,172.77777777777777,-325.0,-325.0,323.25396825396825,8.492063492063492,-53.73015873015873,306.26984126984127,325.0,0.07936507936507936,0.3968253968253968,-166.26984126984127
288.968253968254,-42.61904761904761,-325.0,325.0,309.6031746031746,10.714285714285714,-325.0,68.33333333333333,188.8095238095238,153.88888888888889,313.73015873015873,-52.460317460317455,-325.0,172.77777777777777,-325.0,-325.0,323.25396825396825,8.492063492063492,-53.73015873015873,306.26984126984127,325.0,0.07936507936507936,0.3968253968253968,-166.26984126984127
282.6190476190476,-41.666666666666664,-325.0,325.0,303.25396825396825,9.761904761904761,-325.0,66.9047619047619,100.55555555555554,150.7142857142857,307.38095238095235,-51.507936507936506,-325.0,168.96825396825395,-325.0,-325.0,321.5079365079365,7.5396825396825395,-52.61904761904761,300.07936507936506,325.0,0.3968253968253968,1.0317460317460316,-166.26984126984127
282.6190476190476,-41.666666666666664,-325.0,325.0,303.25396825396825,9.761904761904761,-325.0,66.9047619047619,100.55555555555554,150.7142857142857,307.38095238095235,-51.507936507936506,-325.0,168.96825396825395,-325.0,-325.0,321.5079365079365,7.5396825396825395,-52.61904761904761,300.07936507936506,325.0,0.3968253968253968,1.0317460317460316,-166.26984126984127
-21.19047619047619,32.14285714285714,-247.85714285714283,220.3968253968254,185.47619047619045,4.841269841269841,-253.57142857142856,42.460317460317455,-68.17460317460318,94.2063492063492,143.57142857142856,-32.77777777777778,-251.34920634920633,104.84126984126983,-251.34920634920633,-0.07936507936507936,200.87301587301587,4.2063492063492065,-33.57142857142857,188.4920634920635,209.9206349206349,-0.5555555555555556,-0.23809523809523808,-166.26984126984127
-21.19047619047619,32.14285714285714,-247.85714285714283,220.3968253968254,185.47619047619045,4.841269841269841,-253.57142857142856,42.460317460317455,-68.17460317460318,94.2063492063492,143.57142857142856,-32.77777777777778,-251.34920634920633,104.84126984126983,-251.34920634920633,-0.07936507936507936,200.87301587301587,4.2063492063492065,-33.57142857142857,188.4920634920635,209.9206349206349,-0.5555555555555556,-0.23809523809523808,-166.26984126984127
-325.0,127.6984126984127,-148.8095238095238,140.87301587301587,10.873015873015872,-13.571428571428571,-159.12698412698413,15.95238095238095,-207.06349206349205,32.61904761904762,-77.06349206349206,-12.3015873015873,-155.0,35.317460317460316,-155.63492063492063,325.0,69.6031746031746,-12.936507936507935,-12.777777777777777,66.9047619047619,82.61904761904762,-0.873015873015873,0.07936507936507936,-166.26984126984127
-325.0,127.6984126984127,-148.8095238095238,140.87301587301587,10.873015873015872,-13.571428571428571,-159.12698412698413,15.95238095238095,-207.06349206349205,32.61904761904762,-77.06349206349206,-12.3015873015873,-155.0,35.317460317460316,-155.63492063492063,325.0,69.6031746031746,-12.936507936507935,-12.777777777777777,66.9047619047619,82.61904761904762,-0.873015873015873,0.07936507936507936,-166.26984126984127
-325.0,127.6984126984127,-148.8095238095238,140.87301587301587,10.873015873015872,-13.571428571428571,-159.12698412698413,15.95238095238095,-207.06349206349205,32.61904761904762,-77.06349206349206,-12.3015873015873,-155.0,35.317460317460316,-155.63492063492063,325.0,69.6031746031746,-12.936507936507935,-12.777777777777777,66.9047619047619,82.61904761904762,-0.873015873015873,0.07936507936507936,-321.8253968253968
-325.0,127.6984126984127,-148.8095238095238,140.87301587301587,10.873015873015872,-13.571428571428571,-159.12698412698413,15.95238095238095,-207.06349206349205,32.61904761904762,-77.06349206349206,-12.3015873015873,-155.0,35.317460317460316,-155.63492063492063,325.0,69.6031746031746,-12.936507936507935,-12.777777777777777,66.9047619047619,82.61904761904762,-0.873015873015873,0.07936507936507936,-321.8253968253968
-325.0,127.6984126984127,-148.8095238095238,140.87301587301587,10.873015873015872,-13.571428571428571,-159.12698412698413,15.95238095238095,-207.06349206349205,32.61904761904762,-77.06349206349206,-12.3015873015873,-155.0,35.317460317460316,-155.63492063492063,325.0,69.6031746031746,-12.936507936507935,-12.777777777777777,66.9047619047619,82.61904761904762,-0.873015873015873,0.07936507936507936,-321.8253968253968
-325.0,127.6984126984127,-148.8095238095238,140.87301587301587,10.873015873015872,-13.571428571428571,-159.12698412698413,15.95238095238095,-207.06349206349205,32.61904761904762,-77.06349206349206,-12.3015873015873,-155.0,35.317460317460316,-155.63492063492063,325.0,69.6031746031746,-12.936507936507935,-12.777777777777777,66.9047619047619,82.61904761904762,-0.873015873015873,0.07936507936507936,-321.8253968253968
-325.0,33.095238095238095,-117.85714285714285,108.49206349206348,-325.0,-39.44444444444444,-126.1111111111111,13.095238095238095,-165.0,26.26984126984127,-325.0,-8.333333333333332,-122.6190476190476,28.174603174603174,-123.88888888888889,325.0,-325.0,-39.285714285714285,-9.126984126984127,-325.0,65.15873015873015,-1.984126984126984,-1.6666666666666665,-321.8253968253968
-325.0,33.095238095238095,-117.85714285714285,108.49206349206348,-325.0,-39.44444444444444,-126.1111111111111,13.095238095238095,-165.0,26.26984126984127,-325.0,-8.333333333333332,-122.6190476190476,28.174603174603174,-123.88888888888889,325.0,-325.0,-39.285714285714285,-9.126984126984127,-325.0,65.15873015873015,-1.984126984126984,-1.6666666666666665,-321.8253968253968
-325.0,31.825396825396822,-115.47619047619047,104.36507936507935,-325.0,-34.682539682539684,-123.4126984126984,12.619047619047619,-161.8253968253968,25.79365079365079,-325.0,-8.333333333333332,-120.07936507936508,27.38095238095238,-121.5079365079365,325.0,-325.0,-34.52380952380952,-9.126984126984127,-325.0,63.888888888888886,-0.873015873015873,-1.507936507936508,-321.8253968253968
-325.0,31.825396825396822,-115.47619047619047,104.36507936507935,-325.0,-34.682539682539684,-123.4126984126984,12.619047619047619,-161.8253968253968,25.79365079365079,-325.0,-8.333333333333332,-120.07936507936508,27.38095238095238,-121.5079365079365,325.0,-325.0,-34.52380952380952,-9.126984126984127,-325.0,63.888888888888886,-0.873015873015873,-1.507936507936508,-321.8253968253968
-325.0,34.36507936507936,-113.57142857142857,104.36507936507935,-325.0,-27.38095238095238,-121.5079365079365,12.46031746031746,-159.12698412698413,25.317460317460316,-325.0,-8.333333333333332,-118.01587301587301,27.063492063492063,-119.44444444444444,325.0,-325.0,-27.539682539682538,-8.968253968253968,-325.0,62.77777777777777,-1.1904761904761905,-0.7142857142857142,-321.8253968253968
-325.0,34.36507936507936,-113.57142857142857,104.36507936507935,-325.0,-27.38095238095238,-121.5079365079365,12.46031746031746,-159.12698412698413,25.317460317460316,-325.0,-8.333333333333332,-118.01587301587301,27.063492063492063,-119.44444444444444,325.0,-325.0,-27.539682539682538,-8.968253968253968,-325.0,62.77777777777777,-1.1904761904761905,-0.7142857142857142,-321.8253968253968
-325.0,36.269841269841265,-112.14285714285714,102.77777777777777,-325.0,-23.41269841269841,-120.07936507936508,12.46031746031746,-157.2222222222222,25.0,-325.0,-8.333333333333332,-116.58730158730158,26.587301587301585,-118.17460317460316,325.0,-325.0,-23.41269841269841,-8.968253968253968,-325.0,62.14285714285714,-0.5555555555555556,-0.7142857142857142,-166.26984126984127
-325.0,36.269841269841265,-112.14285714285714,102.77777777777777,-325.0,-23.41269841269841,-120.07936507936508,12.46031746031746,-157.2222222222222,25.0,-325.0,-8.333333333333332,-116.58730158730158,26.587301587301585,-118.17460317460316,325.0,-325.0,-23.41269841269841,-8.968253968253968,-325.0,62.14285714285714,-0.5555555555555556,-0.7142857142857142,-166.26984126984127
-325.0,52.93650793650794,-110.23809523809523,98.96825396825396,-325.0,-21.507936507936506,-117.85714285714285,11.984126984126984,-154.68253968253967,24.68253968253968,-325.0,-8.174603174603174,-114.52380952380952,26.26984126984127,-115.95238095238095,325.0,-325.0,-21.19047619047619,-8.65079365079365,-325.0,60.873015873015866,-1.0317460317460316,-1.1904761904761905,-166.26984126984127
-325.0,52.93650793650794,-110.23809523809523,98.96825396825396,-325.0,-21.507936507936506,-117.85714285714285,11.984126984126984,-154.68253968253967,24.68253968253968,-325.0,-8.174603174603174,-114.52380952380952,26.26984126984127,-115.95238095238095,325.0,-325.0,-21.19047619047619,-8.65079365079365,-325.0,60.873015873015866,-1.0317460317460316,-1.1904761904761905,-166.26984126984127
-325.0,84.68253968253968,-106.58730158730158,16.587301587301585,-325.0,-8.492063492063492,-114.2063492063492,11.666666666666666,-149.76190476190476,23.730158730158728,-325.0,-8.174603174603174,-110.87301587301587,25.317460317460316,-112.93650793650794,325.0,-325.0,-8.174603174603174,-6.904761904761904,-325.0,58.8095238095238,-1.0317460317460316,-0.5555555555555556,-166.26984126984127
-325.0,84.68253968253968,-106.58730158730158,16.587301587301585,-325.0,-8.492063492063492,-114.2063492063492,11.666666666666666,-149.76190476190476,23.730158730158728,-325.0,-8.174603174603174,-110.87301587301587,25.317460317460316,-112.93650793650794,325.0,-325.0,-8.174603174603174,-6.904761904761904,-325.0,58.8095238095238,-1.0317460317460316,-0.5555555555555556,-166.26984126984127
-325.0,100.71428571428571,-103.73015873015872,50.079365079365076,-325.0,-0.3968253968253968,-111.03174603174602,11.349206349206348,-145.63492063492063,23.253968253968253,-325.0,-8.174603174603174,-107.6984126984127,24.68253968253968,-109.76190476190476,325.0,-325.0,0.07936507936507936,-3.4126984126984126,-325.0,57.06349206349206,-1.0317460317460316,-1.0317460317460316,-166.26984126984127
-325.0,100.71428571428571,-103.73015873015872,50.079365079365076,-325.0,-0.3968253968253968,-111.03174603174602,11.349206349206348,-145.63492063492063,23.253968253968253,-325.0,-8.174603174603174,-107.6984126984127,24.68253968253968,-109.76190476190476,325.0,-325.0,0.07936507936507936,-3.4126984126984126,-325.0,57.06349206349206,-1.0317460317460316,-1.0317460317460316,-166.26984126984127
-325.0,108.65079365079364,-100.07936507936508,102.14285714285714,-325.0,12.46031746031746,-107.06349206349206,11.19047619047619,-140.23809523809524,22.46031746031746,-325.0,-7.857142857142857,-103.88888888888889,23.730158730158728,-105.47619047619047,325.0,-325.0,13.412698412698411,-1.349206349206349,-325.0,54.841269841269835,-1.349206349206349,-1.349206349206349,-166.26984126984127
-325.0,108.65079365079364,-100.07936507936508,102.14285714285714,-325.0,12.46031746031746,-107.06349206349206,11.19047619047619,-140.23809523809524,22.46031746031746,-325.0,-7.857142857142857,-103.88888888888889,23.730158730158728,-105.47619047619047,325.0,-325.0,13.412698412698411,-1.349206349206349,-325.0,54.841269841269835,-1.349206349206349,-1.349206349206349,-166.26984126984127
-325.0,140.3968253968254,-95.95238095238095,96.42857142857142,-325.0,21.03174603174603,-102.77777777777777,10.714285714285714,-134.84126984126982,21.507936507936506,-325.0,-7.857142857142857,-99.6031746031746,22.619047619047617,-101.66666666666666,325.0,-325.0,22.3015873015873,25.158730158730158,-325.0,52.460317460317455,-1.349206349206349,-1.1904761904761905,-321.8253968253968
-325.0,140.3968253968254,-95.95238095238095,96.42857142857142,-325.0,21.03174603174603,-102.77777777777777,10.714285714285714,-134.84126984126982,21.507936507936506,-325.0,-7.857142857142857,-99.6031746031746,22.619047619047617,-101.66666666666666,325.0,-325.0,22.3015873015873,25.158730158730158,-325.0,52.460317460317455,-1.349206349206349,-1.1904761904761905,-321.8253968253968
-325.0,148.33333333333331,-209.44444444444443,51.666666666666664,-325.0,3.4126984126984126,-212.61904761904762,17.38095238095238,-228.17460317460316,-6.26984126984127,-325.0,58.650793650793645,-211.19047619047618,13.253968253968253,-212.14285714285714,225.95238095238093,-325.0,4.523809523809524,68.65079365079364,-325.0,188.015873015873,-1.349206349206349,-1.1904761904761905,-321.8253968253968
-325.0,148.33333333333331,-209.44444444444443,51.666666666666664,-325.0,3.4126984126984126,-212.61904761904762,17.38095238095238,-228.17460317460316,-6.26984126984127,-325.0,58.650793650793645,-211.19047619047618,13.253968253968253,-212.14285714285714,225.95238095238093,-325.0,4.523809523809524,68.65079365079364,-325.0,188.015873015873,-1.349206349206349,-1.1904761904761905,-321.8253968253968
-325.0,170.07936507936506,-325.0,21.825396825396822,-325.0,-16.587301587301585,-325.0,12.142857142857142,-325.0,-47.06349206349206,-325.0,123.09523809523809,-325.0,4.841269841269841,-325.0,-325.0,-325.0,-15.95238095238095,114.68253968253967,-325.0,325.0,-0.3968253968253968,-1.1904761904761905,-321.8253968253968
-325.0,170.07936507936506,-325.0,21.825396825396822,-325.0,-16.587301587301585,-325.0,12.142857142857142,-325.0,-47.06349206349206,-325.0,123.09523809523809,-325.0,4.841269841269841,-325.0,-325.0,-325.0,-15.95238095238095,114.68253968253967,-325.0,325.0,-0.3968253968253968,-1.1904761904761905,-321.8253968253968
-325.0,187.2222222222222,-325.0,21.03174603174603,-325.0,-5.476190476190476,-325.0,22.142857142857142,-325.0,-33.888888888888886,-325.0,142.77777777777777,-325.0,4.841269841269841,-325.0,-325.0,-325.0,-4.682539682539682,123.73015873015872,-325.0,325.0,-1.1904761904761905,-0.7142857142857142,-321.8253968253968
-325.0,187.2222222222222,-325.0,21.03174603174603,-325.0,-5.476190476190476,-325.0,22.142857142857142,-325.0,-33.888888888888886,-325.0,142.77777777777777,-325.0,4.841269841269841,-325.0,-325.0,-325.0,-4.682539682539682,123.73015873015872,-325.0,325.0,-1.1904761904761905,-0.7142857142857142,-321.8253968253968
-325.0,183.7301587301587,-325.0,20.873015873015873,-325.0,-4.841269841269841,-325.0,21.03174603174603,-325.0,-33.25396825396825,-325.0,142.3015873015873,-325.0,4.682539682539682,-325.0,-325.0,-325.0,-4.0476190476190474,123.88888888888889,-325.0,325.0,-1.1904761904761905,-1.507936507936508,-321.8253968253968
-325.0,183.7301587301587,-325.0,20.873015873015873,-325.0,-4.841269841269841,-325.0,21.03174603174603,-325.0,-33.25396825396825,-325.0,142.3015873015873,-325.0,4.682539682539682,-325.0,-325.0,-325.0,-4.0476190476190474,123.88888888888889,-325.0,325.0,-1.1904761904761905,-1.507936507936508,-321.8253968253968
-325.0,161.03174603174602,-325.0,20.238095238095237,-325.0,-0.07936507936507936,-325.0,12.619047619047619,-325.0,-39.6031746031746,-325.0,136.9047619047619,-325.0,4.523809523809524,-325.0,-325.0,-325.0,0.5555555555555556,120.87301587301586,-325.0,325.0,-0.3968253968253968,-1.1904761904761905,-166.26984126984127
-325.0,161.03174603174602,-325.0,20.238095238095237,-325.0,-0.07936507936507936,-325.0,12.619047619047619,-325.0,-39.6031746031746,-325.0,136.9047619047619,-325.0,4.523809523809524,-325.0,-325.0,-325.0,0.5555555555555556,120.87301587301586,-325.0,325.0,-0.3968253968253968,-1.1904761904761905,-166.26984126984127
-325.0,169.28571428571428,-325.0,19.6031746031746,-325.0,0.07936507936507936,-325.0,12.936507936507935,-325.0,-33.73015873015873,-325.0,138.33333333333331,-325.0,4.2063492063492065,-325.0,-325.0,-325.0,0.873015873015873,124.68253968253967,-325.0,325.0,-1.0317460317460316,-0.873015873015873,-166.26984126984127
-325.0,169.28571428571428,-325.0,19.6031746031746,-325.0,0.07936507936507936,-325.0,12.936507936507935,-325.0,-33.73015873015873,-325.0,138.33333333333331,-325.0,4.2063492063492065,-325.0,-325.0,-325.0,0.873015873015873,124.68253968253967,-325.0,325.0,-1.0317460317460316,-0.873015873015873,-166.26984126984127
-325.0,155.47619047619048,-325.0,18.65079365079365,-325.0,11.19047619047619,-325.0,-5.317460317460317,-325.0,-38.80952380952381,-325.0,134.2063492063492,-325.0,4.2063492063492065,-325.0,-325.0,-325.0,12.3015873015873,122.77777777777777,-325.0,325.0,-1.1904761904761905,-1.0317460317460316,-166.26984126984127
-325.0,155.47619047619048,-325.0,18.65079365079365,-325.0,11.19047619047619,-325.0,-5.317460317460317,-325.0,-38.80952380952381,-325.0,134.2063492063492,-325.0,4.2063492063492065,-325.0,-325.0,-325.0,12.3015873015873,122.77777777777777,-325.0,325.0,-1.1904761904761905,-1.0317460317460316,-166.26984126984127
-325.0,155.47619047619048,-325.0,18.65079365079365,-325.0,11.19047619047619,-325.0,-5.317460317460317,-325.0,-38.80952380952381,-325.0,134.2063492063492,-325.0,4.2063492063492065,-325.0,-325.0,-325.0,12.3015873015873,122.77777777777777,-325.0,325.0,-1.1904761904761905,-1.0317460317460316,-166.26984126984127
-325.0,155.47619047619048,-325.0,18.65079365079365,-325.0,11.19047619047619,-325.0,-5.317460317460317,-325.0,-38.80952380952381,-325.0,134.2063492063492,-325.0,4.2063492063492065,-325.0,-325.0,-325.0,12.3015873015873,122.77777777777777,-325.0,325.0,-1.1904761904761905,-1.0317460317460316,-166.26984126984127
-325.0,155.47619047619048,-325.0,18.65079365079365,-325.0,11.19047619047619,-325.0,-5.317460317460317,-325.0,-38.80952380952381,-325.0,134.2063492063492,-325.0,4.2063492063492065,-325.0,-325.0,-325.0,12.3015873015873,122.77777777777777,-325.0,325.0,-1.1904761904761905,-1.0317460317460316,-166.26984126984127
-325.0,155.47619047619048,-325.0,18.65079365079365,-325.0,11.19047619047619,-325.0,-5.317460317460317,-325.0,-38.80952380952381,-325.0,134.2063492063492,-325.0,4.2063492063492065,-325.0,-325.0,-325.0,12.3015873015873,122.77777777777777,-325.0,325.0,-1.1904761904761905,-1.0317460317460316,-166.26984126984127
-325.0,167.69841269841268,-325.0,17.698412698412696,-325.0,35.95238095238095,-325.0,-15.0,-325.0,-25.158730158730158,-325.0,147.2222222222222,-325.0,4.0476190476190474,-325.0,-242.93650793650792,-325.0,37.698412698412696,121.98412698412697,-325.0,325.0,-0.5555555555555556,-1.0317460317460316,-321.8253968253968
-325.0,167.69841269841268,-325.0,17.698412698412696,-325.0,35.95238095238095,-325.0,-15.0,-325.0,-25.158730158730158,-325.0,147.2222222222222,-325.0,4.0476190476190474,-325.0,-242.93650793650792,-325.0,37.698412698412696,121.98412698412697,-325.0,325.0,-0.5555555555555556,-1.0317460317460316,-321.8253968253968
-325.0,153.88888888888889,-325.0,17.22222222222222,-325.0,36.74603174603175,-325.0,-27.38095238095238,-325.0,-35.0,-325.0,134.04761904761904,-325.0,4.0476190476190474,-325.0,41.03174603174603,-325.0,38.33333333333333,118.01587301587301,-325.0,325.0,-1.349206349206349,-1.0317460317460316,-321.8253968253968
-325.0,153.88888888888889,-325.0,17.22222222222222,-325.0,36.74603174603175,-325.0,-27.38095238095238,-325.0,-35.0,-325.0,134.04761904761904,-325.0,4.0476190476190474,-325.0,41.03174603174603,-325.0,38.33333333333333,118.01587301587301,-325.0,325.0,-1.349206349206349,-1.0317460317460316,-321.8253968253968
-325.0,122.30158730158729,-325.0,15.317460317460316,-325.0,35.15873015873016,-325.0,-59.92063492063492,-325.0,-63.888888888888886,-325.0,112.30158730158729,-325.0,3.73015873015873,-325.0,325.0,-325.0,36.42857142857142,111.5079365079365,-325.0,325.0,-1.1904761904761905,-0.873015873015873,-321.8253968253968
-325.0,122.30158730158729,-325.0,15.317460317460316,-325.0,35.15873015873016,-325.0,-59.92063492063492,-325.0,-63.888888888888886,-325.0,112.30158730158729,-325.0,3.73015873015873,-325.0,325.0,-325.0,36.42857142857142,111.5079365079365,-325.0,325.0,-1.1904761904761905,-0.873015873015873,-321.8253968253968
-0.07936507936507936,115.47619047619047,-325.0,12.777777777777777,-325.0,31.825396825396822,-325.0,-73.57142857142857,-325.0,-60.873015873015866,-325.0,128.65079365079364,-325.0,3.095238095238095,-325.0,325.0,-325.0,33.41269841269841,125.15873015873015,-238.96825396825395,325.0,-0.5555555555555556,-0.873015873015873,-321.8253968253968
-0.07936507936507936,115.47619047619047,-325.0,12.777777777777777,-325.0,31.825396825396822,-325.0,-73.57142857142857,-325.0,-60.873015873015866,-325.0,128.65079365079364,-325.0,3.095238095238095,-325.0,325.0,-325.0,33.41269841269841,125.15873015873015,-238.96825396825395,325.0,-0.5555555555555556,-0.873015873015873,-321.8253968253968
325.0,126.74603174603173,-325.0,11.666666666666666,-325.0,30.87301587301587,-325.0,-66.9047619047619,-325.0,-38.65079365079365,-325.0,153.88888888888889,-325.0,2.9365079365079363,-325.0,325.0,-325.0,32.77777777777778,141.5079365079365,-152.77777777777777,325.0,-0.7142857142857142,-1.0317460317460316,-321.8253968253968
325.0,126.74603174603173,-325.0,11.666666666666666,-325.0,30.87301587301587,-325.0,-66.9047619047619,-325.0,-38.65079365079365,-325.0,153.88888888888889,-325.0,2.9365079365079363,-325.0,325.0,-325.0,32.77777777777778,141.5079365079365,-152.77777777777777,325.0,-0.7142857142857142,-1.0317460317460316,-321.8253968253968
21.03174603174603,-0.5555555555555556,-325.0,11.666666666666666,20.396825396825395,30.87301587301587,-304.68253968253964,-46.58730158730158,20.396825396825395,-18.333333333333332,20.396825396825395,153.88888888888889,-325.0,2.9365079365079363,20.396825396825395,325.0,0.07936507936507936,32.77777777777778,161.8253968253968,-132.46031746031744,325.0,-0.7142857142857142,-1.0317460317460316,-166.26984126984127
21.03174603174603,-0.5555555555555556,-325.0,11.666666666666666,20.396825396825395,30.87301587301587,-304.68253968253964,-46.58730158730158,20.396825396825395,-18.333333333333332,20.396825396825395,153.88888888888889,-325.0,2.9365079365079363,20.396825396825395,325.0,0.07936507936507936,32.77777777777778,161.8253968253968,-132.46031746031744,325.0,-0.7142857142857142,-1.0317460317460316,-166.26984126984127
232.77777777777777,201.34920634920633,306.58730158730157,196.42857142857142,316.26984126984127,-4.365079365079365,309.2857142857143,-109.12698412698413,305.3174603174603,-74.36507936507937,325.0,96.1111111111111,311.984126984127,-58.49206349206349,314.2063492063492,228.65079365079364,319.1269841269841,-2.7777777777777777,63.095238095238095,295.4761904761905,-290.55555555555554,-1.1904761904761905,0.23809523809523808,-166.26984126984127
232.77777777777777,201.34920634920633,306.58730158730157,196.42857142857142,316.26984126984127,-4.365079365079365,309.2857142857143,-109.12698412698413,305.3174603174603,-74.36507936507937,325.0,96.1111111111111,311.984126984127,-58.49206349206349,314.2063492063492,228.65079365079364,319.1269841269841,-2.7777777777777777,63.095238095238095,295.4761904761905,-290.55555555555554,-1.1904761904761905,0.23809523809523808,-166.26984126984127
232.77777777777777,201.34920634920633,306.58730158730157,196.42857142857142,316.26984126984127,-4.365079365079365,309.2857142857143,-109.12698412698413,305.3174603174603,-74.36507936507937,325.0,96.1111111111111,311.984126984127,-58.49206349206349,314.2063492063492,228.65079365079364,319.1269841269841,-2.7777777777777777,63.095238095238095,295.4761904761905,-290.55555555555554,-1.1904761904761905,0.23809523809523808,-166.26984126984127
232.77777777777777,201.34920634920633,306.58730158730157,196.42857142857142,316.26984126984127,-4.365079365079365,309.2857142857143,-109.12698412698413,305.3174603174603,-74.36507936507937,325.0,96.1111111111111,311.984126984127,-58.49206349206349,314.2063492063492,228.65079365079364,319.1269841269841,-2.7777777777777777,63.095238095238095,295.4761904761905,-290.55555555555554,-1.1904761904761905,0.23809523809523808,-166.26984126984127
227.69841269841268,192.14285714285714,300.07936507936506,185.95238095238093,309.76190476190476,-7.3809523809523805,302.77777777777777,-94.84126984126983,299.1269841269841,-59.76190476190476,320.7142857142857,106.58730158730158,305.4761904761905,-48.17460317460317,307.69841269841265,200.23809523809524,312.3015873015873,-6.428571428571428,82.14285714285714,289.2857142857143,-253.25396825396825,-1.349206349206349,-0.23809523809523808,-166.26984126984127
227.69841269841268,192.14285714285714,300.07936507936506,185.95238095238093,309.76190476190476,-7.3809523809523805,302.77777777777777,-94.84126984126983,299.1269841269841,-59.76190476190476,320.7142857142857,106.58730158730158,305.4761904761905,-48.17460317460317,307.69841269841265,200.23809523809524,312.3015873015873,-6.428571428571428,82.14285714285714,289.2857142857143,-253.25396825396825,-1.349206349206349,-0.23809523809523808,-166.26984126984127
219.60317460317458,141.984126984127,289.9206349206349,182.14285714285714,299.76190476190476,-8.333333333333332,292.6190476190476,-94.84126984126983,289.4444444444444,-60.71428571428571,312.6190476190476,93.4126984126984,295.0,-50.079365079365076,297.6984126984127,-149.6031746031746,301.5079365079365,-7.698412698412698,80.55555555555556,279.44444444444446,-236.26984126984127,-0.7142857142857142,0.23809523809523808,-166.26984126984127
219.60317460317458,141.984126984127,289.9206349206349,182.14285714285714,299.76190476190476,-8.333333333333332,292.6190476190476,-94.84126984126983,289.4444444444444,-60.71428571428571,312.6190476190476,93.4126984126984,295.0,-50.079365079365076,297.6984126984127,-149.6031746031746,301.5079365079365,-7.698412698412698,80.55555555555556,279.44444444444446,-236.26984126984127,-0.7142857142857142,0.23809523809523808,-166.26984126984127
216.74603174603175,104.04761904761904,286.26984126984127,182.14285714285714,295.95238095238096,-7.857142857142857,288.968253968254,-95.31746031746032,285.7936507936508,-67.53968253968253,308.6507936507936,87.38095238095238,291.3492063492063,-54.36507936507936,294.04761904761904,-300.87301587301585,297.85714285714283,-7.222222222222221,74.2063492063492,276.1111111111111,-251.66666666666666,-0.3968253968253968,-0.23809523809523808,-321.8253968253968
216.74603174603175,104.04761904761904,286.26984126984127,182.14285714285714,295.95238095238096,-7.857142857142857,288.968253968254,-95.31746031746032,285.7936507936508,-67.53968253968253,308.6507936507936,87.38095238095238,291.3492063492063,-54.36507936507936,294.04761904761904,-300.87301587301585,297.85714285714283,-7.222222222222221,74.2063492063492,276.1111111111111,-251.66666666666666,-0.3968253968253968,-0.23809523809523808,-321.8253968253968
212.14285714285714,71.03174603174602,280.07936507936506,178.17460317460316,289.9206349206349,-6.904761904761904,282.9365079365079,-81.03174603174602,279.9206349206349,-59.6031746031746,302.3015873015873,95.79365079365078,285.3174603174603,-41.507936507936506,287.85714285714283,-325.0,291.5079365079365,-6.428571428571428,83.4126984126984,270.23809523809524,-218.96825396825395,-1.0317460317460316,0.23809523809523808,-321.8253968253968
212.14285714285714,71.03174603174602,280.07936507936506,178.17460317460316,289.9206349206349,-6.904761904761904,282.9365079365079,-81.03174603174602,279.9206349206349,-59.6031746031746,302.3015873015873,95.79365079365078,285.3174603174603,-41.507936507936506,287.85714285714283,-325.0,291.5079365079365,-6.428571428571428,83.4126984126984,270.23809523809524,-218.96825396825395,-1.0317460317460316,0.23809523809523808,-321.8253968253968
207.38095238095238,32.3015873015873,274.36507936507934,-73.88888888888889,284.2063492063492,-7.222222222222221,277.06349206349205,-82.61904761904762,274.04761904761904,-58.650793650793645,296.1111111111111,87.6984126984127,279.44444444444446,-39.44444444444444,281.984126984127,-325.0,285.3174603174603,-6.904761904761904,76.58730158730158,264.68253968253964,-233.4126984126984,-0.873015873015873,0.3968253968253968,-321.8253968253968
207.38095238095238,32.3015873015873,274.36507936507934,-73.88888888888889,284.2063492063492,-7.222222222222221,277.06349206349205,-82.61904761904762,274.04761904761904,-58.650793650793645,296.1111111111111,87.6984126984127,279.44444444444446,-39.44444444444444,281.984126984127,-325.0,285.3174603174603,-6.904761904761904,76.58730158730158,264.68253968253964,-233.4126984126984,-0.873015873015873,0.3968253968253968,-321.8253968253968
208.015873015873,-11.666666666666666,65.47619047619047,-0.07936507936507936,108.17460317460316,-22.142857142857142,69.12698412698413,-64.52380952380952,63.888888888888886,-62.460317460317455,139.12698412698413,47.38095238095238,60.39682539682539,-35.317460317460316,67.6984126984127,-325.0,136.26984126984127,-0.3968253968253968,30.71428571428571,73.73015873015872,-86.9047619047619,0.07936507936507936,-0.3968253968253968,-321.8253968253968
208.015873015873,-11.666666666666666,65.47619047619047,-0.07936507936507936,108.17460317460316,-22.142857142857142,69.12698412698413,-64.52380952380952,63.888888888888886,-62.460317460317455,139.12698412698413,47.38095238095238,60.39682539682539,-35.317460317460316,67.6984126984127,-325.0,136.26984126984127,-0.3968253968253968,30.71428571428571,73.73015873015872,-86.9047619047619,0.07936507936507936,-0.3968253968253968,-321.8253968253968
177.69841269841268,11.19047619047619,-131.34920634920636,325.0,-59.12698412698413,-39.12698412698413,-126.58730158730158,-16.746031746031743,-134.68253968253967,-40.39682539682539,-11.984126984126984,28.809523809523807,-143.09523809523807,-21.666666666666664,-133.88888888888889,-325.0,-2.3015873015873014,5.7936507936507935,18.80952380952381,-125.95238095238095,29.285714285714285,0.23809523809523808,-0.3968253968253968,-321.8253968253968
177.69841269841268,11.19047619047619,-131.34920634920636,325.0,-59.12698412698413,-39.12698412698413,-126.58730158730158,-16.746031746031743,-134.68253968253967,-40.39682539682539,-11.984126984126984,28.809523809523807,-143.09523809523807,-21.666666666666664,-133.88888888888889,-325.0,-2.3015873015873014,5.7936507936507935,18.80952380952381,-125.95238095238095,29.285714285714285,0.23809523809523808,-0.3968253968253968,-321.8253968253968
151.03174603174602,9.285714285714285,-135.0,112.6190476190476,-64.68253968253968,-38.49206349206349,-131.34920634920636,-17.698412698412696,-135.79365079365078,-38.96825396825397,-9.444444444444445,19.6031746031746,-145.79365079365078,-35.95238095238095,-140.3968253968254,-325.0,-0.873015873015873,9.444444444444445,16.428571428571427,-82.46031746031746,65.63492063492063,0.07936507936507936,-0.23809523809523808,-166.26984126984127
151.03174603174602,9.285714285714285,-135.0,112.6190476190476,-64.68253968253968,-38.49206349206349,-131.34920634920636,-17.698412698412696,-135.79365079365078,-38.96825396825397,-9.444444444444445,19.6031746031746,-145.79365079365078,-35.95238095238095,-140.3968253968254,-325.0,-0.873015873015873,9.444444444444445,16.428571428571427,-82.46031746031746,65.63492063492063,0.07936507936507936,-0.23809523809523808,-166.26984126984127
-26.9047619047619,0.23809523809523808,-143.88888888888889,-325.0,-73.25396825396825,-36.904761904761905,-136.58730158730157,-22.619047619047617,-142.93650793650792,-38.33333333333333,-8.333333333333332,9.761904761904761,-148.96825396825395,-42.93650793650794,-145.15873015873015,-325.0,-9.920634920634921,7.3809523809523805,9.603174603174603,-104.84126984126983,18.80952380952381,1.8253968253968254,0.07936507936507936,-166.26984126984127
-26.9047619047619,0.23809523809523808,-143.88888888888889,-325.0,-73.25396825396825,-36.904761904761905,-136.58730158730157,-22.619047619047617,-142.93650793650792,-38.33333333333333,-8.333333333333332,9.761904761904761,-148.96825396825395,-42.93650793650794,-145.15873015873015,-325.0,-9.920634920634921,7.3809523809523805,9.603174603174603,-104.84126984126983,18.80952380952381,1.8253968253968254,0.07936507936507936,-166.26984126984127
8.492063492063492,2.46031746031746,-123.4126984126984,-325.0,-54.68253968253968,-25.476190476190474,-113.73015873015872,-21.03174603174603,-124.04761904761904,-34.36507936507936,0.7142857142857142,10.873015873015872,-134.2063492063492,-37.698412698412696,-127.85714285714285,-261.031746031746,-5.158730158730158,5.317460317460317,12.777777777777777,-101.34920634920634,28.65079365079365,0.7142857142857142,0.07936507936507936,-166.26984126984127
8.492063492063492,2.46031746031746,-123.4126984126984,-325.0,-54.68253968253968,-25.476190476190474,-113.73015873015872,-21.03174603174603,-124.04761904761904,-34.36507936507936,0.7142857142857142,10.873015873015872,-134.2063492063492,-37.698412698412696,-127.85714285714285,-261.031746031746,-5.158730158730158,5.317460317460317,12.777777777777777,-101.34920634920634,28.65079365079365,0.7142857142857142,0.07936507936507936,-166.26984126984127
-239.9206349206349,34.36507936507936,-48.650793650793645,325.0,-325.0,139.44444444444443,-63.73015873015873,-13.412698412698411,-70.87301587301587,-36.904761904761905,15.476190476190474,2.46031746031746,-47.857142857142854,83.25396825396825,-65.95238095238095,325.0,17.698412698412696,0.07936507936507936,27.22222222222222,-9.285714285714285,105.47619047619047,0.873015873015873,-0.873015873015873,-166.26984126984127
-239.9206349206349,34.36507936507936,-48.650793650793645,325.0,-325.0,139.44444444444443,-63.73015873015873,-13.412698412698411,-70.87301587301587,-36.904761904761905,15.476190476190474,2.46031746031746,-47.857142857142854,83.25396825396825,-65.95238095238095,325.0,17.698412698412696,0.07936507936507936,27.22222222222222,-9.285714285714285,105.47619047619047,0.873015873015873,-0.873015873015873,-166.26984126984127
-282.46031746031747,36.42857142857142,-66.42857142857143,325.0,-325.0,147.38095238095238,-75.15873015873015,-10.714285714285714,-90.07936507936508,-33.73015873015873,-1.8253968253968254,3.253968253968254,-65.0,76.74603174603175,-80.87301587301587,122.93650793650794,-19.92063492063492,-1.6666666666666665,28.96825396825397,-39.6031746031746,74.2063492063492,0.7142857142857142,-0.23809523809523808,-166.26984126984127
-282.46031746031747,36.42857142857142,-66.42857142857143,325.0,-325.0,147.38095238095238,-75.15873015873015,-10.714285714285714,-90.07936507936508,-33.73015873015873,-1.8253968253968254,3.253968253968254,-65.0,76.74603174603175,-80.87301587301587,122.93650793650794,-19.92063492063492,-1.6666666666666665,28.96825396825397,-39.6031746031746,74.2063492063492,0.7142857142857142,-0.23809523809523808,-166.26984126984127
-0.07936507936507936,57.22222222222222,120.39682539682539,325.0,-0.07936507936507936,178.96825396825395,119.28571428571428,-3.571428571428571,107.85714285714285,-22.777777777777775,0.07936507936507936,13.73015873015873,121.34920634920634,51.98412698412698,114.68253968253967,122.93650793650794,-0.5555555555555556,-25.634920634920633,30.71428571428571,127.53968253968253,-141.03174603174602,0.23809523809523808,-0.3968253968253968,-321.8253968253968
-0.07936507936507936,57.22222222222222,120.39682539682539,325.0,-0.07936507936507936,178.96825396825395,119.28571428571428,-3.571428571428571,107.85714285714285,-22.777777777777775,0.07936507936507936,13.73015873015873,121.34920634920634,51.98412698412698,114.68253968253967,122.93650793650794,-0.5555555555555556,-25.634920634920633,30.71428571428571,127.53968253968253,-141.03174603174602,0.23809523809523808,-0.3968253968253968,-321.8253968253968
325.0,72.93650793650794,325.0,325.0,325.0,233.09523809523807,325.0,-4.841269841269841,325.0,-15.793650793650793,17.063492063492063,22.777777777777775,325.0,16.746031746031743,325.0,325.0,50.238095238095234,-39.285714285714285,28.333333333333332,325.0,-325.0,-0.3968253968253968,-0.7142857142857142,-321.8253968253968
325.0,72.93650793650794,325.0,325.0,325.0,233.09523809523807,325.0,-4.841269841269841,325.0,-15.793650793650793,17.063492063492063,22.777777777777775,325.0,16.746031746031743,325.0,325.0,50.238095238095234,-39.285714285714285,28.333333333333332,325.0,-325.0,-0.3968253968253968,-0.7142857142857142,-321.8253968253968
325.0,79.44444444444444,325.0,325.0,325.0,263.0952380952381,325.0,-6.587301587301587,325.0,-13.253968253968253,14.84126984126984,27.063492063492063,325.0,1.984126984126984,325.0,325.0,43.41269841269841,-28.174603174603174,31.349206349206348,325.0,-325.0,-0.23809523809523808,-0.7142857142857142,-321.8253968253968
325.0,79.44444444444444,325.0,325.0,325.0,263.0952380952381,325.0,-6.587301587301587,325.0,-13.253968253968253,14.84126984126984,27.063492063492063,325.0,1.984126984126984,325.0,325.0,43.41269841269841,-28.174603174603174,31.349206349206348,325.0,-325.0,-0.23809523809523808,-0.7142857142857142,-321.8253968253968
325.0,93.4126984126984,325.0,325.0,325.0,287.38095238095235,325.0,2.7777777777777777,325.0,-5.317460317460317,14.365079365079364,35.95238095238095,325.0,3.73015873015873,325.0,-100.23809523809523,41.82539682539682,-24.206349206349206,26.746031746031743,325.0,-325.0,0.23809523809523808,-0.3968253968253968,-321.8253968253968
325.0,93.4126984126984,325.0,325.0,325.0,287.38095238095235,325.0,2.7777777777777777,325.0,-5.317460317460317,14.365079365079364,35.95238095238095,325.0,3.73015873015873,325.0,-100.23809523809523,41.82539682539682,-24.206349206349206,26.746031746031743,325.0,-325.0,0.23809523809523808,-0.3968253968253968,-321.8253968253968
325.0,108.80952380952381,325.0,325.0,325.0,320.39682539682536,325.0,13.412698412698411,325.0,3.253968253968254,13.73015873015873,39.6031746031746,325.0,10.238095238095237,325.0,123.88888888888889,40.079365079365076,-14.682539682539682,37.53968253968254,325.0,-325.0,-0.7142857142857142,-0.7142857142857142,-321.8253968253968
325.0,108.80952380952381,325.0,325.0,325.0,320.39682539682536,325.0,13.412698412698411,325.0,3.253968253968254,13.73015873015873,39.6031746031746,325.0,10.238095238095237,325.0,123.88888888888889,40.079365079365076,-14.682539682539682,37.53968253968254,325.0,-325.0,-0.7142857142857142,-0.7142857142857142,-321.8253968253968
325.0,101.82539682539682,325.0,325.0,325.0,322.6190476190476,325.0,8.65079365079365,325.0,-4.523809523809524,13.571428571428571,34.047619047619044,325.0,5.0,325.0,312.77777777777777,39.6031746031746,-10.873015873015872,32.61904761904762,325.0,-325.0,-0.23809523809523808,-1.0317460317460316,-166.26984126984127
325.0,101.82539682539682,325.0,325.0,325.0,322.6190476190476,325.0,8.65079365079365,325.0,-4.523809523809524,13.571428571428571,34.047619047619044,325.0,5.0,325.0,312.77777777777777,39.6031746031746,-10.873015873015872,32.61904761904762,325.0,-325.0,-0.23809523809523808,-1.0317460317460316,-166.26984126984127
273.88888888888886,26.428571428571427,201.66666666666666,195.95238095238093,225.15873015873015,315.0,198.65079365079364,6.111111111111111,193.09523809523807,-16.587301587301585,6.904761904761904,42.14285714285714,205.47619047619045,-50.55555555555555,210.7142857142857,-325.0,18.174603174603174,28.49206349206349,15.158730158730158,188.015873015873,-204.36507936507937,0.7142857142857142,0.07936507936507936,-166.26984126984127
273.88888888888886,26.428571428571427,201.66666666666666,195.95238095238093,225.15873015873015,315.0,198.65079365079364,6.111111111111111,193.09523809523807,-16.587301587301585,6.904761904761904,42.14285714285714,205.47619047619045,-50.55555555555555,210.7142857142857,-325.0,18.174603174603174,28.49206349206349,15.158730158730158,188.015873015873,-204.36507936507937,0.7142857142857142,0.07936507936507936,-166.26984126984127
265.6349206349206,27.698412698412696,195.63492063492063,189.9206349206349,218.65079365079364,319.9206349206349,192.46031746031744,5.952380952380952,187.2222222222222,-14.206349206349206,6.587301587301587,47.22222222222222,199.12698412698413,-46.11111111111111,204.52380952380952,-325.0,17.539682539682538,30.87301587301587,18.174603174603174,182.3015873015873,-198.17460317460316,-0.07936507936507936,-0.07936507936507936,-166.26984126984127
265.6349206349206,27.698412698412696,195.63492063492063,189.9206349206349,218.65079365079364,319.9206349206349,192.46031746031744,5.952380952380952,187.2222222222222,-14.206349206349206,6.587301587301587,47.22222222222222,199.12698412698413,-46.11111111111111,204.52380952380952,-325.0,17.539682539682538,30.87301587301587,18.174603174603174,182.3015873015873,-198.17460317460316,-0.07936507936507936,-0.07936507936507936,-166.26984126984127
257.38095238095235,28.96825396825397,189.60317460317458,184.04761904761904,212.14285714285714,325.0,186.26984126984127,5.952380952380952,181.5079365079365,-11.825396825396824,6.428571428571428,52.460317460317455,192.93650793650792,-41.507936507936506,198.4920634920635,-325.0,16.904761904761905,33.25396825396825,21.19047619047619,176.74603174603175,-191.98412698412696,-0.873015873015873,-0.07936507936507936,-166.26984126984127
257.38095238095235,28.96825396825397,189.60317460317458,184.04761904761904,212.14285714285714,325.0,186.26984126984127,5.952380952380952,181.5079365079365,-11.825396825396824,6.428571428571428,52.460317460317455,192.93650793650792,-41.507936507936506,198.4920634920635,-325.0,16.904761904761905,33.25396825396825,21.19047619047619,176.74603174603175,-191.98412698412696,-0.873015873015873,-0.07936507936507936,-166.26984126984127
257.38095238095235,28.96825396825397,189.60317460317458,184.04761904761904,212.14285714285714,325.0,186.26984126984127,5.952380952380952,181.5079365079365,-11.825396825396824,6.428571428571428,52.460317460317455,192.93650793650792,-41.507936507936506,198.4920634920635,-325.0,16.904761904761905,33.25396825396825,21.19047619047619,176.74603174603175,-191.98412698412696,-0.873015873015873,-0.07936507936507936,-166.26984126984127
257.38095238095235,28.96825396825397,189.60317460317458,184.04761904761904,212.14285714285714,325.0,186.26984126984127,5.952380952380952,181.5079365079365,-11.825396825396824,6.428571428571428,52.460317460317455,192.93650793650792,-41.507936507936506,198.4920634920635,-325.0,16.904761904761905,33.25396825396825,21.19047619047619,176.74603174603175,-191.98412698412696,-0.873015873015873,-0.07936507936507936,-166.26984126984127
-325.0,-44.2063492063492,-325.0,-325.0,-325.0,58.01587301587301,-325.0,-37.857142857142854,-325.0,-13.412698412698411,-325.0,6.111111111111111,-325.0,-63.57142857142857,-325.0,-325.0,-325.0,21.825396825396822,-14.84126984126984,-325.0,325.0,-0.5555555555555556,-0.5555555555555556,-321.8253968253968
-325.0,-44.2063492063492,-325.0,-325.0,-325.0,58.01587301587301,-325.0,-37.857142857142854,-325.0,-13.412698412698411,-325.0,6.111111111111111,-325.0,-63.57142857142857,-325.0,-325.0,-325.0,21.825396825396822,-14.84126984126984,-325.0,325.0,-0.5555555555555556,-0.5555555555555556,-321.8253968253968
-0.07936507936507936,-43.888888888888886,-0.07936507936507936,-181.03174603174602,-0.07936507936507936,36.11111111111111,-0.07936507936507936,-54.52380952380952,-0.07936507936507936,-34.36507936507936,-0.07936507936507936,-10.079365079365079,-0.07936507936507936,-52.3015873015873,-0.07936507936507936,-0.07936507936507936,-0.07936507936507936,5.158730158730158,-37.22222222222222,-0.07936507936507936,-0.07936507936507936,-0.873015873015873,-0.7142857142857142,-321.8253968253968
-0.07936507936507936,-43.888888888888886,-0.07936507936507936,-181.03174603174602,-0.07936507936507936,36.11111111111111,-0.07936507936507936,-54.52380952380952,-0.07936507936507936,-34.36507936507936,-0.07936507936507936,-10.079365079365079,-0.07936507936507936,-52.3015873015873,-0.07936507936507936,-0.07936507936507936,-0.07936507936507936,5.158730158730158,-37.22222222222222,-0.07936507936507936,-0.07936507936507936,-0.873015873015873,-0.7142857142857142,-321.8253968253968
324.8412698412698,138.96825396825395,317.38095238095235,206.1111111111111,325.0,152.61904761904762,148.65079365079364,115.95238095238095,243.7301587301587,98.65079365079364,181.984126984127,-156.11111111111111,324.5238095238095,92.30158730158729,196.9047619047619,81.19047619047619,325.0,-21.825396825396822,-63.095238095238095,314.8412698412698,-152.3015873015873,-0.23809523809523808,161.19047619047618,-321.8253968253968
324.8412698412698,138.96825396825395,317.38095238095235,206.1111111111111,325.0,152.61904761904762,148.65079365079364,115.95238095238095,243.7301587301587,98.65079365079364,181.984126984127,-156.11111111111111,324.5238095238095,92.30158730158729,196.9047619047619,81.19047619047619,325.0,-21.825396825396822,-63.095238095238095,314.8412698412698,-152.3015873015873,-0.23809523809523808,161.19047619047618,-321.8253968253968
325.0,-37.53968253968254,325.0,-315.0,325.0,-9.285714285714285,325.0,-74.04761904761904,325.0,-55.317460317460316,325.0,-20.07936507936508,325.0,-40.238095238095234,325.0,292.77777777777777,325.0,-3.095238095238095,-63.73015873015873,325.0,-325.0,-1.0317460317460316,-0.5555555555555556,-321.8253968253968
325.0,-37.53968253968254,325.0,-315.0,325.0,-9.285714285714285,325.0,-74.04761904761904,325.0,-55.317460317460316,325.0,-20.07936507936508,325.0,-40.238095238095234,325.0,292.77777777777777,325.0,-3.095238095238095,-63.73015873015873,325.0,-325.0,-1.0317460317460316,-0.5555555555555556,-321.8253968253968
325.0,-42.93650793650794,325.0,-229.28571428571428,325.0,-45.15873015873016,325.0,-81.98412698412697,325.0,-63.095238095238095,325.0,-26.428571428571427,325.0,-42.460317460317455,325.0,325.0,325.0,-4.0476190476190474,-68.17460317460318,322.3015873015873,-325.0,-0.873015873015873,-0.07936507936507936,-321.8253968253968
325.0,-42.93650793650794,325.0,-229.28571428571428,325.0,-45.15873015873016,325.0,-81.98412698412697,325.0,-63.095238095238095,325.0,-26.428571428571427,325.0,-42.460317460317455,325.0,325.0,325.0,-4.0476190476190474,-68.17460317460318,322.3015873015873,-325.0,-0.873015873015873,-0.07936507936507936,-321.8253968253968
325.0,-38.01587301587301,325.0,-325.0,325.0,-46.42857142857142,325.0,-66.74603174603175,325.0,-53.57142857142857,325.0,-21.03174603174603,325.0,-37.698412698412696,325.0,325.0,325.0,-6.746031746031746,-53.57142857142857,267.6984126984127,-325.0,-0.23809523809523808,-0.7142857142857142,-166.26984126984127
325.0,-38.01587301587301,325.0,-325.0,325.0,-46.42857142857142,325.0,-66.74603174603175,325.0,-53.57142857142857,325.0,-21.03174603174603,325.0,-37.698412698412696,325.0,325.0,325.0,-6.746031746031746,-53.57142857142857,267.6984126984127,-325.0,-0.23809523809523808,-0.7142857142857142,-166.26984126984127
312.46031746031747,0.07936507936507936,294.2063492063492,325.0,314.8412698412698,32.77777777777778,299.4444444444444,-49.44444444444444,283.0952380952381,-38.17460317460317,325.0,12.46031746031746,302.6190476190476,-15.476190476190474,299.76190476190476,-69.76190476190476,320.87301587301585,-2.9365079365079363,-32.3015873015873,318.968253968254,-273.73015873015873,0.07936507936507936,-0.873015873015873,-166.26984126984127
312.46031746031747,0.07936507936507936,294.2063492063492,325.0,314.8412698412698,32.77777777777778,299.4444444444444,-49.44444444444444,283.0952380952381,-38.17460317460317,325.0,12.46031746031746,302.6190476190476,-15.476190476190474,299.76190476190476,-69.76190476190476,320.87301587301585,-2.9365079365079363,-32.3015873015873,318.968253968254,-273.73015873015873,0.07936507936507936,-0.873015873015873,-166.26984126984127
293.57142857142856,0.7142857142857142,264.2063492063492,315.3174603174603,298.6507936507936,27.539682539682538,269.2857142857143,-59.6031746031746,254.84126984126982,-48.650793650793645,325.0,11.825396825396824,274.8412698412698,-13.095238095238095,270.23809523809524,-325.0,310.23809523809524,-6.587301587301587,-33.57142857142857,306.1111111111111,-217.85714285714283,0.07936507936507936,-1.0317460317460316,-166.26984126984127
293.57142857142856,0.7142857142857142,264.2063492063492,315.3174603174603,298.6507936507936,27.539682539682538,269.2857142857143,-59.6031746031746,254.84126984126982,-48.650793650793645,325.0,11.825396825396824,274.8412698412698,-13.095238095238095,270.23809523809524,-325.0,310.23809523809524,-6.587301587301587,-33.57142857142857,306.1111111111111,-217.85714285714283,0.07936507936507936,-1.0317460317460316,-166.26984126984127
292.3015873015873,-10.873015873015872,263.25396825396825,305.7936507936508,297.53968253968253,18.96825396825397,268.015873015873,-67.38095238095238,253.7301587301587,-55.95238095238095,325.0,2.142857142857143,273.73015873015873,-21.19047619047619,269.1269841269841,-325.0,308.968253968254,-6.111111111111111,-41.507936507936506,305.4761904761905,-226.26984126984127,0.23809523809523808,-0.873015873015873,-166.26984126984127
292.3015873015873,-10.873015873015872,263.25396825396825,305.7936507936508,297.53968253968253,18.96825396825397,268.015873015873,-67.38095238095238,253.7301587301587,-55.95238095238095,325.0,2.142857142857143,273.73015873015873,-21.19047619047619,269.1269841269841,-325.0,308.968253968254,-6.111111111111111,-41.507936507936506,305.4761904761905,-226.26984126984127,0.23809523809523808,-0.873015873015873,-166.26984126984127
242.6190476190476,30.396825396825395,218.65079365079364,317.85714285714283,249.9206349206349,85.95238095238095,223.7301587301587,1.984126984126984,212.14285714285714,-13.412698412698411,283.25396825396825,30.71428571428571,228.17460317460316,1.984126984126984,225.3174603174603,-325.0,257.53968253968253,-1.6666666666666665,10.873015873015872,255.47619047619045,-86.26984126984127,-0.23809523809523808,-0.5555555555555556,-166.26984126984127
242.6190476190476,30.396825396825395,218.65079365079364,317.85714285714283,249.9206349206349,85.95238095238095,223.7301587301587,1.984126984126984,212.14285714285714,-13.412698412698411,283.25396825396825,30.71428571428571,228.17460317460316,1.984126984126984,225.3174603174603,-325.0,257.53968253968253,-1.6666666666666665,10.873015873015872,255.47619047619045,-86.26984126984127,-0.23809523809523808,-0.5555555555555556,-166.26984126984127
237.38095238095238,39.76190476190476,214.04761904761904,325.0,244.68253968253967,85.79365079365078,218.8095238095238,1.0317460317460316,207.69841269841268,-16.26984126984127,277.38095238095235,40.238095238095234,223.4126984126984,8.492063492063492,220.55555555555554,-325.0,251.98412698412696,-1.0317460317460316,15.476190476190474,250.07936507936506,-88.33333333333333,-0.07936507936507936,-0.873015873015873,-321.8253968253968
237.38095238095238,39.76190476190476,214.04761904761904,325.0,244.68253968253967,85.79365079365078,218.8095238095238,1.0317460317460316,207.69841269841268,-16.26984126984127,277.38095238095235,40.238095238095234,223.4126984126984,8.492063492063492,220.55555555555554,-325.0,251.98412698412696,-1.0317460317460316,15.476190476190474,250.07936507936506,-88.33333333333333,-0.07936507936507936,-0.873015873015873,-321.8253968253968
228.96825396825395,48.49206349206349,206.58730158730157,261.66666666666663,236.58730158730157,89.6031746031746,211.34920634920633,2.142857142857143,200.7142857142857,-15.317460317460316,268.17460317460313,50.39682539682539,215.63492063492063,15.158730158730158,213.09523809523807,-325.0,243.25396825396825,-2.7777777777777777,27.539682539682538,241.66666666666666,-96.9047619047619,-1.0317460317460316,-0.7142857142857142,-321.8253968253968
228.96825396825395,48.49206349206349,206.58730158730157,261.66666666666663,236.58730158730157,89.6031746031746,211.34920634920633,2.142857142857143,200.7142857142857,-15.317460317460316,268.17460317460313,50.39682539682539,215.63492063492063,15.158730158730158,213.09523809523807,-325.0,243.25396825396825,-2.7777777777777777,27.539682539682538,241.66666666666666,-96.9047619047619,-1.0317460317460316,-0.7142857142857142,-321.8253968253968
177.2222222222222,58.01587301587301,159.12698412698413,71.98412698412697,184.68253968253967,109.28571428571428,163.57142857142856,29.285714285714285,155.63492063492063,6.428571428571428,209.60317460317458,53.57142857142857,166.74603174603175,-9.285714285714285,165.79365079365078,-325.0,187.69841269841268,-7.063492063492063,44.84126984126984,184.52380952380952,-16.904761904761905,-0.873015873015873,-1.1904761904761905,-321.8253968253968
177.2222222222222,58.01587301587301,159.12698412698413,71.98412698412697,184.68253968253967,109.28571428571428,163.57142857142856,29.285714285714285,155.63492063492063,6.428571428571428,209.60317460317458,53.57142857142857,166.74603174603175,-9.285714285714285,165.79365079365078,-325.0,187.69841269841268,-7.063492063492063,44.84126984126984,184.52380952380952,-16.904761904761905,-0.873015873015873,-1.1904761904761905,-321.8253968253968
177.2222222222222,58.01587301587301,159.12698412698413,71.98412698412697,184.68253968253967,109.28571428571428,163.57142857142856,29.285714285714285,155.63492063492063,6.428571428571428,209.60317460317458,53.57142857142857,166.74603174603175,-9.285714285714285,165.79365079365078,-325.0,187.69841269841268,-7.063492063492063,44.84126984126984,184.52380952380952,-16.904761904761905,-0.873015873015873,-1.1904761904761905,-321.8253968253968
177.2222222222222,58.01587301587301,159.12698412698413,71.98412698412697,184.68253968253967,109.28571428571428,163.57142857142856,29.285714285714285,155.63492063492063,6.428571428571428,209.60317460317458,53.57142857142857,166.74603174603175,-9.285714285714285,165.79365079365078,-325.0,187.69841269841268,-7.063492063492063,44.84126984126984,184.52380952380952,-16.904761904761905,-0.873015873015873,-1.1904761904761905,-321.8253968253968
177.2222222222222,58.01587301587301,159.12698412698413,71.98412698412697,184.68253968253967,109.28571428571428,163.57142857142856,29.285714285714285,155.63492063492063,6.428571428571428,209.60317460317458,53.57142857142857,166.74603174603175,-9.285714285714285,165.79365079365078,-325.0,187.69841269841268,-7.063492063492063,44.84126984126984,184.52380952380952,-16.904761904761905,-0.873015873015873,-1.1904761904761905,-321.8253968253968
177.2222222222222,58.01587301587301,159.12698412698413,71.98412698412697,184.68253968253967,109.28571428571428,163.57142857142856,29.285714285714285,155.63492063492063,6.428571428571428,209.60317460317458,53.57142857142857,166.74603174603175,-9.285714285714285,165.79365079365078,-325.0,187.69841269841268,-7.063492063492063,44.84126984126984,184.52380952380952,-16.904761904761905,-0.873015873015873,-1.1904761904761905,-321.8253968253968
177.2222222222222,58.01587301587301,159.12698412698413,71.98412698412697,184.68253968253967,109.28571428571428,163.57142857142856,29.285714285714285,155.63492063492063,6.428571428571428,209.60317460317458,53.57142857142857,166.74603174603175,-9.285714285714285,165.79365079365078,-325.0,187.69841269841268,-7.063492063492063,44.84126984126984,184.52380952380952,-16.904761904761905,-0.873015873015873,-1.1904761904761905,-166.26984126984127
177.2222222222222,58.01587301587301,159.12698412698413,71.98412698412697,184.68253968253967,109.28571428571428,163.57142857142856,29.285714285714285,155.63492063492063,6.428571428571428,209.60317460317458,53.57142857142857,166.74603174603175,-9.285714285714285,165.79365079365078,-325.0,187.69841269841268,-7.063492063492063,44.84126984126984,184.52380952380952,-16.904761904761905,-0.873015873015873,-1.1904761904761905,-166.26984126984127
131.19047619047618,63.095238095238095,104.36507936507935,198.4920634920635,122.46031746031746,178.65079365079364,107.38095238095238,75.79365079365078,102.93650793650794,61.666666666666664,139.12698412698413,61.98412698412698,109.92063492063491,12.619047619047619,109.6031746031746,-0.07936507936507936,123.25396825396825,10.873015873015872,76.1111111111111,132.93650793650792,-86.74603174603175,-0.7142857142857142,-0.873015873015873,-166.26984126984127
131.19047619047618,63.095238095238095,104.36507936507935,198.4920634920635,122.46031746031746,178.65079365079364,107.38095238095238,75.79365079365078,102.93650793650794,61.666666666666664,139.12698412698413,61.98412698412698,109.92063492063491,12.619047619047619,109.6031746031746,-0.07936507936507936,123.25396825396825,10.873015873015872,76.1111111111111,132.93650793650792,-86.74603174603175,-0.7142857142857142,-0.873015873015873,-166.26984126984127
-149.28571428571428,-14.84126984126984,-325.0,-325.0,-325.0,117.6984126984127,-325.0,19.76190476190476,-325.0,-9.444444444444445,-274.36507936507934,1.1904761904761905,-325.0,-1.6666666666666665,-325.0,0.3968253968253968,-131.19047619047618,-16.26984126984127,15.95238095238095,-325.0,325.0,-0.3968253968253968,-1.349206349206349,-166.26984126984127
-149.28571428571428,-14.84126984126984,-325.0,-325.0,-325.0,117.6984126984127,-325.0,19.76190476190476,-325.0,-9.444444444444445,-274.36507936507934,1.1904761904761905,-325.0,-1.6666666666666665,-325.0,0.3968253968253968,-131.19047619047618,-16.26984126984127,15.95238095238095,-325.0,325.0,-0.3968253968253968,-1.349206349206349,-166.26984126984127
-149.28571428571428,-14.84126984126984,-325.0,-325.0,-325.0,117.6984126984127,-325.0,19.76190476190476,-325.0,-9.444444444444445,-274.36507936507934,1.1904761904761905,-325.0,-1.6666666666666665,-325.0,0.3968253968253968,-131.19047619047618,-16.26984126984127,15.95238095238095,-325.0,325.0,-0.3968253968253968,-1.349206349206349,-166.26984126984127
-149.28571428571428,-14.84126984126984,-325.0,-325.0,-325.0,117.6984126984127,-325.0,19.76190476190476,-325.0,-9.444444444444445,-274.36507936507934,1.1904761904761905,-325.0,-1.6666666666666665,-325.0,0.3968253968253968,-131.19047619047618,-16.26984126984127,15.95238095238095,-325.0,325.0,-0.3968253968253968,-1.349206349206349,-166.26984126984127
-149.28571428571428,-14.84126984126984,-325.0,-325.0,-325.0,117.6984126984127,-325.0,19.76190476190476,-325.0,-9.444444444444445,-274.36507936507934,1.1904761904761905,-325.0,-1.6666666666666665,-325.0,0.3968253968253968,-131.19047619047618,-16.26984126984127,15.95238095238095,-325.0,325.0,-0.3968253968253968,-1.349206349206349,-166.26984126984127
-149.28571428571428,-14.84126984126984,-325.0,-325.0,-325.0,117.6984126984127,-325.0,19.76190476190476,-325.0,-9.444444444444445,-274.36507936507934,1.1904761904761905,-325.0,-1.6666666666666665,-325.0,0.3968253968253968,-131.19047619047618,-16.26984126984127,15.95238095238095,-325.0,325.0,-0.3968253968253968,-1.349206349206349,-166.26984126984127
-149.28571428571428,-14.84126984126984,-325.0,-325.0,-325.0,117.6984126984127,-325.0,19.76190476190476,-325.0,-9.444444444444445,-274.36507936507934,1.1904761904761905,-325.0,-1.6666666666666665,-325.0,0.3968253968253968,-131.19047619047618,-16.26984126984127,15.95238095238095,-325.0,325.0,-0.3968253968253968,-1.349206349206349,-321.8253968253968
-149.28571428571428,-14.84126984126984,-325.0,-325.0,-325.0,117.6984126984127,-325.0,19.76190476190476,-325.0,-9.444444444444445,-274.36507936507934,1.1904761904761905,-325.0,-1.6666666666666665,-325.0,0.3968253968253968,-131.19047619047618,-16.26984126984127,15.95238095238095,-325.0,325.0,-0.3968253968253968,-1.349206349206349,-321.8253968253968
-149.28571428571428,-14.84126984126984,-325.0,-325.0,-325.0,117.6984126984127,-325.0,19.76190476190476,-325.0,-9.444444444444445,-274.36507936507934,1.1904761904761905,-325.0,-1.6666666666666665,-325.0,0.3968253968253968,-131.19047619047618,-16.26984126984127,15.95238095238095,-325.0,325.0,-0.3968253968253968,-1.349206349206349,-321.8253968253968
-149.28571428571428,-14.84126984126984,-325.0,-325.0,-325.0,117.6984126984127,-325.0,19.76190476190476,-325.0,-9.444444444444445,-274.36507936507934,1.1904761904761905,-325.0,-1.6666666666666665,-325.0,0.3968253968253968,-131.19047619047618,-16.26984126984127,15.95238095238095,-325.0,325.0,-0.3968253968253968,-1.349206349206349,-321.8253968253968
-149.28571428571428,-14.84126984126984,-325.0,-325.0,-325.0,117.6984126984127,-325.0,19.76190476190476,-325.0,-9.444444444444445,-274.36507936507934,1.1904761904761905,-325.0,-1.6666666666666665,-325.0,0.3968253968253968,-131.19047619047618,-16.26984126984127,15.95238095238095,-325.0,325.0,-0.3968253968253968,-1.349206349206349,-321.8253968253968
-149.28571428571428,-14.84126984126984,-325.0,-325.0,-325.0,117.6984126984127,-325.0,19.76190476190476,-325.0,-9.444444444444445,-274.36507936507934,1.1904761904761905,-325.0,-1.6666666666666665,-325.0,0.3968253968253968,-131.19047619047618,-16.26984126984127,15.95238095238095,-325.0,325.0,-0.3968253968253968,-1.349206349206349,-321.8253968253968
-149.28571428571428,-14.84126984126984,-325.0,-325.0,-325.0,117.6984126984127,-325.0,19.76190476190476,-325.0,-9.444444444444445,-274.36507936507934,1.1904761904761905,-325.0,-1.6666666666666665,-325.0,0.3968253968253968,-131.19047619047618,-16.26984126984127,15.95238095238095,-325.0,325.0,-0.3968253968253968,-1.349206349206349,-321.8253968253968
-149.28571428571428,-14.84126984126984,-325.0,-325.0,-325.0,117.6984126984127,-325.0,19.76190476190476,-325.0,-9.444444444444445,-274.36507936507934,1.1904761904761905,-325.0,-1.6666666666666665,-325.0,0.3968253968253968,-131.19047619047618,-16.26984126984127,15.95238095238095,-325.0,325.0,-0.3968253968253968,-1.349206349206349,-321.8253968253968
-325.0,-12.3015873015873,-325.0,107.06349206349206,-325.0,-138.17460317460316,-325.0,-49.92063492063492,-325.0,-63.41269841269841,-325.0,-5.476190476190476,-325.0,-15.0,-325.0,-325.0,-325.0,9.444444444444445,-7.063492063492063,-325.0,325.0,-0.23809523809523808,-0.3968253968253968,-321.8253968253968
-325.0,-12.3015873015873,-325.0,107.06349206349206,-325.0,-138.17460317460316,-325.0,-49.92063492063492,-325.0,-63.41269841269841,-325.0,-5.476190476190476,-325.0,-15.0,-325.0,-325.0,-325.0,9.444444444444445,-7.063492063492063,-325.0,325.0,-0.23809523809523808,-0.3968253968253968,-321.8253968253968
-325.0,6.587301587301587,-325.0,-325.0,-325.0,-127.38095238095238,-325.0,-41.98412698412698,-318.8095238095238,-55.15873015873016,-325.0,11.984126984126984,-325.0,4.0476190476190474,-325.0,-325.0,-325.0,7.857142857142857,5.317460317460317,-325.0,325.0,-0.07936507936507936,0.3968253968253968,-166.26984126984127
-325.0,6.587301587301587,-325.0,-325.0,-325.0,-127.38095238095238,-325.0,-41.98412698412698,-318.8095238095238,-55.15873015873016,-325.0,11.984126984126984,-325.0,4.0476190476190474,-325.0,-325.0,-325.0,7.857142857142857,5.317460317460317,-325.0,325.0,-0.07936507936507936,0.3968253968253968,-166.26984126984127
-325.0,19.126984126984127,-319.76190476190476,-266.26984126984127,-325.0,-123.4126984126984,-325.0,-34.2063492063492,-312.6190476190476,-45.317460317460316,-325.0,17.857142857142858,-325.0,11.984126984126984,-325.0,-325.0,-325.0,10.238095238095237,16.587301587301585,-325.0,324.36507936507934,-0.7142857142857142,0.3968253968253968,-166.26984126984127
-325.0,19.126984126984127,-319.76190476190476,-266.26984126984127,-325.0,-123.4126984126984,-325.0,-34.2063492063492,-312.6190476190476,-45.317460317460316,-325.0,17.857142857142858,-325.0,11.984126984126984,-325.0,-325.0,-325.0,10.238095238095237,16.587301587301585,-325.0,324.36507936507934,-0.7142857142857142,0.3968253968253968,-166.26984126984127
-325.0,0.5555555555555556,-304.2063492063492,-325.0,-325.0,-122.93650793650794,-315.1587301587301,-37.06349206349206,-297.22222222222223,-42.3015873015873,-325.0,6.111111111111111,-316.26984126984127,-5.158730158730158,-317.69841269841265,-325.0,-325.0,13.253968253968253,-1.984126984126984,-325.0,309.9206349206349,-0.5555555555555556,-1.6666666666666665,-166.26984126984127
-325.0,0.5555555555555556,-304.2063492063492,-325.0,-325.0,-122.93650793650794,-315.1587301587301,-37.06349206349206,-297.22222222222223,-42.3015873015873,-325.0,6.111111111111111,-316.26984126984127,-5.158730158730158,-317.69841269841265,-325.0,-325.0,13.253968253968253,-1.984126984126984,-325.0,309.9206349206349,-0.5555555555555556,-1.6666666666666665,-166.26984126984127
-325.0,10.238095238095237,-272.3015873015873,-325.0,-293.25396825396825,-103.57142857142857,-282.46031746031747,-29.6031746031746,-266.74603174603175,-21.03174603174603,-294.2063492063492,7.222222222222221,-283.0952380952381,-6.111111111111111,-285.6349206349206,-292.3015873015873,-295.4761904761905,16.11111111111111,1.507936507936508,-296.26984126984127,276.26984126984127,-0.7142857142857142,-0.873015873015873,-166.26984126984127
-325.0,10.238095238095237,-272.3015873015873,-325.0,-293.25396825396825,-103.57142857142857,-282.46031746031747,-29.6031746031746,-266.74603174603175,-21.03174603174603,-294.2063492063492,7.222222222222221,-283.0952380952381,-6.111111111111111,-285.6349206349206,-292.3015873015873,-295.4761904761905,16.11111111111111,1.507936507936508,-296.26984126984127,276.26984126984127,-0.7142857142857142,-0.873015873015873,-166.26984126984127
-325.0,15.158730158730158,-237.53968253968253,-325.0,-258.3333333333333,-80.87301587301587,-246.58730158730157,-19.444444444444443,-233.4126984126984,4.841269841269841,-260.39682539682536,8.492063492063492,-246.58730158730157,-5.634920634920634,-250.2380952380952,-256.4285714285714,-262.46031746031747,15.634920634920634,5.7936507936507935,-263.88888888888886,239.44444444444443,0.7142857142857142,-1.1904761904761905,-166.26984126984127
-325.0,15.158730158730158,-237.53968253968253,-325.0,-258.3333333333333,-80.87301587301587,-246.58730158730157,-19.444444444444443,-233.4126984126984,4.841269841269841,-260.39682539682536,8.492063492063492,-246.58730158730157,-5.634920634920634,-250.2380952380952,-256.4285714285714,-262.46031746031747,15.634920634920634,5.7936507936507935,-263.88888888888886,239.44444444444443,0.7142857142857142,-1.1904761904761905,-166.26984126984127
-325.0,17.857142857142858,-233.57142857142856,-158.96825396825395,-254.2063492063492,-72.46031746031746,-242.46031746031744,-12.936507936507935,-229.60317460317458,16.11111111111111,-256.26984126984127,12.777777777777777,-242.46031746031744,-2.9365079365079363,-246.1111111111111,-239.76190476190476,-258.015873015873,14.206349206349206,8.333333333333332,-259.44444444444446,234.84126984126982,1.1904761904761905,-0.5555555555555556,-321.8253968253968
-325.0,17.857142857142858,-233.57142857142856,-158.96825396825395,-254.2063492063492,-72.46031746031746,-242.46031746031744,-12.936507936507935,-229.60317460317458,16.11111111111111,-256.26984126984127,12.777777777777777,-242.46031746031744,-2.9365079365079363,-246.1111111111111,-239.76190476190476,-258.015873015873,14.206349206349206,8.333333333333332,-259.44444444444446,234.84126984126982,1.1904761904761905,-0.5555555555555556,-321.8253968253968
-320.7142857142857,5.476190476190476,-228.65079365079364,319.4444444444444,-249.12698412698413,-83.25396825396825,-237.53968253968253,-25.476190476190474,-224.68253968253967,6.587301587301587,-251.03174603174602,-2.46031746031746,-237.53968253968253,-7.857142857142857,-241.34920634920633,-207.85714285714283,-252.93650793650792,17.857142857142858,-5.476190476190476,-254.36507936507934,231.03174603174602,0.07936507936507936,-0.7142857142857142,-321.8253968253968
-320.7142857142857,5.476190476190476,-228.65079365079364,319.4444444444444,-249.12698412698413,-83.25396825396825,-237.53968253968253,-25.476190476190474,-224.68253968253967,6.587301587301587,-251.03174603174602,-2.46031746031746,-237.53968253968253,-7.857142857142857,-241.34920634920633,-207.85714285714283,-252.93650793650792,17.857142857142858,-5.476190476190476,-254.36507936507934,231.03174603174602,0.07936507936507936,-0.7142857142857142,-321.8253968253968
-301.031746031746,21.349206349206348,-214.84126984126982,322.1428571428571,-234.52380952380952,-76.74603174603175,-223.4126984126984,-22.46031746031746,-211.66666666666666,5.7936507936507935,-236.58730158730157,11.984126984126984,-223.09523809523807,-0.23809523809523808,-227.06349206349205,-67.53968253968253,-237.38095238095238,8.65079365079365,5.634920634920634,-238.96825396825395,214.52380952380952,-0.3968253968253968,-0.5555555555555556,-321.8253968253968
-301.031746031746,21.349206349206348,-214.84126984126982,322.1428571428571,-234.52380952380952,-76.74603174603175,-223.4126984126984,-22.46031746031746,-211.66666666666666,5.7936507936507935,-236.58730158730157,11.984126984126984,-223.09523809523807,-0.23809523809523808,-227.06349206349205,-67.53968253968253,-237.38095238095238,8.65079365079365,5.634920634920634,-238.96825396825395,214.52380952380952,-0.3968253968253968,-0.5555555555555556,-321.8253968253968
-289.2857142857143,34.52380952380952,-206.74603174603175,319.2857142857143,-225.79365079365078,-69.92063492063491,-214.68253968253967,-12.936507936507935,-203.57142857142856,10.396825396825395,-227.85714285714283,19.6031746031746,-214.68253968253967,0.5555555555555556,-218.65079365079364,-243.57142857142856,-228.33333333333331,0.5555555555555556,18.96825396825397,-229.9206349206349,205.95238095238093,-0.07936507936507936,-0.3968253968253968,-321.8253968253968
-289.2857142857143,34.52380952380952,-206.74603174603175,319.2857142857143,-225.79365079365078,-69.92063492063491,-214.68253968253967,-12.936507936507935,-203.57142857142856,10.396825396825395,-227.85714285714283,19.6031746031746,-214.68253968253967,0.5555555555555556,-218.65079365079364,-243.57142857142856,-228.33333333333331,0.5555555555555556,18.96825396825397,-229.9206349206349,205.95238095238093,-0.07936507936507936,-0.3968253968253968,-321.8253968253968
124.84126984126983,-15.476190476190474,126.1111111111111,-162.61904761904762,-201.66666666666666,-10.238095238095237,-75.79365079365078,16.11111111111111,89.92063492063491,15.317460317460316,69.44444444444444,17.857142857142858,97.85714285714285,-15.476190476190474,-69.12698412698413,325.0,83.09523809523809,13.571428571428571,-21.666666666666664,-70.71428571428571,109.44444444444444,0.3968253968253968,-0.3968253968253968,-321.8253968253968
