Fp1[1],Fp2[2],F3[3],F4[4],C3[5],C4[6],P3[7],P4[8],O1[9],O2[10],F7[11],F8[12],T3[13],T4[14],T5[15],T6[16],Fz[17],Pz[18],Cz[19],Pg1[20],Pg2[21],EOGR[22],EOOGL[23],EMG[24]
-325.0,325.0,325.0,-325.0,-325.0,-59.285714285714285,325.0,-325.0,325.0,-325.0,45.63492063492063,325.0,325.0,-325.0,325.0,-325.0,108.33333333333333,-64.52380952380952,325.0,-325.0,-325.0,-0.5555555555555556,-0.7142857142857142,-166.26984126984127
-325.0,325.0,325.0,-325.0,-325.0,-59.285714285714285,325.0,-325.0,325.0,-325.0,45.63492063492063,325.0,325.0,-325.0,325.0,-325.0,108.33333333333333,-64.52380952380952,325.0,-325.0,-325.0,-0.5555555555555556,-0.7142857142857142,-166.26984126984127
-325.0,325.0,325.0,-325.0,-325.0,-54.841269841269835,325.0,-325.0,325.0,-325.0,52.3015873015873,325.0,325.0,-325.0,325.0,-325.0,112.77777777777777,-59.44444444444444,325.0,-325.0,-325.0,0.07936507936507936,-0.23809523809523808,-166.26984126984127
-325.0,325.0,325.0,-325.0,-325.0,-54.841269841269835,325.0,-325.0,325.0,-325.0,52.3015873015873,325.0,325.0,-325.0,325.0,-325.0,112.77777777777777,-59.44444444444444,325.0,-325.0,-325.0,0.07936507936507936,-0.23809523809523808,-166.26984126984127
-325.0,325.0,325.0,-325.0,-325.0,-34.36507936507936,325.0,-325.0,325.0,-325.0,66.58730158730158,325.0,325.0,-325.0,325.0,-325.0,116.74603174603173,-36.11111111111111,325.0,-325.0,-325.0,-0.7142857142857142,-0.7142857142857142,-166.26984126984127
-325.0,325.0,325.0,-325.0,-325.0,-34.36507936507936,325.0,-325.0,325.0,-325.0,66.58730158730158,325.0,325.0,-325.0,325.0,-325.0,116.74603174603173,-36.11111111111111,325.0,-325.0,-325.0,-0.7142857142857142,-0.7142857142857142,-166.26984126984127
-325.0,325.0,325.0,-325.0,-325.0,-8.015873015873016,325.0,-325.0,325.0,-325.0,83.73015873015872,325.0,325.0,-325.0,325.0,-325.0,-101.34920634920634,-6.746031746031746,325.0,-325.0,-325.0,-1.1904761904761905,-0.3968253968253968,-166.26984126984127
-325.0,325.0,325.0,-325.0,-325.0,-8.015873015873016,325.0,-325.0,325.0,-325.0,83.73015873015872,325.0,325.0,-325.0,325.0,-325.0,-101.34920634920634,-6.746031746031746,325.0,-325.0,-325.0,-1.1904761904761905,-0.3968253968253968,-166.26984126984127
-325.0,325.0,325.0,-325.0,-325.0,-4.2063492063492065,325.0,-325.0,325.0,-325.0,78.01587301587301,325.0,325.0,-325.0,325.0,-325.0,-325.0,-1.507936507936508,325.0,-325.0,-325.0,-0.07936507936507936,-0.23809523809523808,-166.26984126984127
-325.0,325.0,325.0,-325.0,-325.0,-4.2063492063492065,325.0,-325.0,325.0,-325.0,78.01587301587301,325.0,325.0,-325.0,325.0,-325.0,-325.0,-1.507936507936508,325.0,-325.0,-325.0,-0.07936507936507936,-0.23809523809523808,-166.26984126984127
-317.38095238095235,325.0,325.0,-325.0,-325.0,2.9365079365079363,325.0,-325.0,325.0,-325.0,73.73015873015872,325.0,325.0,-325.0,325.0,-322.46031746031747,-325.0,6.111111111111111,325.0,-325.0,-325.0,-0.23809523809523808,0.07936507936507936,-321.8253968253968
-317.38095238095235,325.0,325.0,-325.0,-325.0,2.9365079365079363,325.0,-325.0,325.0,-325.0,73.73015873015872,325.0,325.0,-325.0,325.0,-322.46031746031747,-325.0,6.111111111111111,325.0,-325.0,-325.0,-0.23809523809523808,0.07936507936507936,-321.8253968253968
-289.2857142857143,325.0,325.0,-316.74603174603175,-325.0,13.095238095238095,325.0,-325.0,325.0,-325.0,62.3015873015873,323.0952380952381,325.0,-325.0,325.0,-298.6507936507936,-325.0,16.746031746031743,325.0,-325.0,-324.68253968253964,-1.1904761904761905,-0.873015873015873,-321.8253968253968
-289.2857142857143,325.0,325.0,-316.74603174603175,-325.0,13.095238095238095,325.0,-325.0,325.0,-325.0,62.3015873015873,323.0952380952381,325.0,-325.0,325.0,-298.6507936507936,-325.0,16.746031746031743,325.0,-325.0,-324.68253968253964,-1.1904761904761905,-0.873015873015873,-321.8253968253968
-275.1587301587301,309.4444444444444,309.2857142857143,-301.031746031746,-310.7142857142857,17.22222222222222,312.46031746031747,-314.2063492063492,317.38095238095235,-325.0,57.22222222222222,307.06349206349205,311.3492063492063,-315.6349206349206,314.36507936507934,-284.04761904761904,-325.0,20.873015873015873,310.7142857142857,-311.5079365079365,-308.3333333333333,-1.0317460317460316,-1.0317460317460316,-321.8253968253968
-275.1587301587301,309.4444444444444,309.2857142857143,-301.031746031746,-310.7142857142857,17.22222222222222,312.46031746031747,-314.2063492063492,317.38095238095235,-325.0,57.22222222222222,307.06349206349205,311.3492063492063,-315.6349206349206,314.36507936507934,-284.04761904761904,-325.0,20.873015873015873,310.7142857142857,-311.5079365079365,-308.3333333333333,-1.0317460317460316,-1.0317460317460316,-321.8253968253968
-260.87301587301585,294.04761904761904,293.73015873015873,-285.1587301587301,-296.4285714285714,21.349206349206348,300.07936507936506,-303.4126984126984,309.9206349206349,-325.0,52.3015873015873,291.19047619047615,297.6984126984127,-306.26984126984127,303.88888888888886,-269.44444444444446,-325.0,25.158730158730158,296.4285714285714,-297.85714285714283,-291.8253968253968,-0.7142857142857142,-1.1904761904761905,-321.8253968253968
-260.87301587301585,294.04761904761904,293.73015873015873,-285.1587301587301,-296.4285714285714,21.349206349206348,300.07936507936506,-303.4126984126984,309.9206349206349,-325.0,52.3015873015873,291.19047619047615,297.6984126984127,-306.26984126984127,303.88888888888886,-269.44444444444446,-325.0,25.158730158730158,296.4285714285714,-297.85714285714283,-291.8253968253968,-0.7142857142857142,-1.1904761904761905,-321.8253968253968
-238.96825396825395,270.39682539682536,269.2857142857143,-261.3492063492063,-273.25396825396825,38.65079365079365,275.1587301587301,-279.44444444444446,284.8412698412698,-301.031746031746,56.58730158730158,266.74603174603175,273.25396825396825,-280.55555555555554,279.44444444444446,-246.9047619047619,-325.0,42.14285714285714,272.1428571428571,-273.57142857142856,-267.06349206349205,-0.873015873015873,-0.07936507936507936,-321.8253968253968
-238.96825396825395,270.39682539682536,269.2857142857143,-261.3492063492063,-273.25396825396825,38.65079365079365,275.1587301587301,-279.44444444444446,284.8412698412698,-301.031746031746,56.58730158730158,266.74603174603175,273.25396825396825,-280.55555555555554,279.44444444444446,-246.9047619047619,-325.0,42.14285714285714,272.1428571428571,-273.57142857142856,-267.06349206349205,-0.873015873015873,-0.07936507936507936,-321.8253968253968
-231.8253968253968,262.3015873015873,261.031746031746,-253.4126984126984,-265.7936507936508,34.52380952380952,267.22222222222223,-271.66666666666663,276.58730158730157,-291.984126984127,48.17460317460317,258.968253968254,265.1587301587301,-272.1428571428571,271.19047619047615,-239.9206349206349,-325.0,37.698412698412696,264.04761904761904,-265.7936507936508,-258.968253968254,-1.1904761904761905,-0.07936507936507936,-166.26984126984127
-231.8253968253968,262.3015873015873,261.031746031746,-253.4126984126984,-265.7936507936508,34.52380952380952,267.22222222222223,-271.66666666666663,276.58730158730157,-291.984126984127,48.17460317460317,258.968253968254,265.1587301587301,-272.1428571428571,271.19047619047615,-239.9206349206349,-325.0,37.698412698412696,264.04761904761904,-265.7936507936508,-258.968253968254,-1.1904761904761905,-0.07936507936507936,-166.26984126984127
-224.04761904761904,253.7301587301587,252.14285714285714,-244.52380952380952,-257.22222222222223,35.476190476190474,258.3333333333333,-263.25396825396825,267.38095238095235,-282.1428571428571,44.2063492063492,250.07936507936506,256.1111111111111,-262.6190476190476,262.46031746031747,-231.8253968253968,-325.0,38.01587301587301,255.3174603174603,-256.74603174603175,-250.07936507936506,-0.3968253968253968,-0.5555555555555556,-166.26984126984127
-224.04761904761904,253.7301587301587,252.14285714285714,-244.52380952380952,-257.22222222222223,35.476190476190474,258.3333333333333,-263.25396825396825,267.38095238095235,-282.1428571428571,44.2063492063492,250.07936507936506,256.1111111111111,-262.6190476190476,262.46031746031747,-231.8253968253968,-325.0,38.01587301587301,255.3174603174603,-256.74603174603175,-250.07936507936506,-0.3968253968253968,-0.5555555555555556,-166.26984126984127
-215.3174603174603,244.04761904761904,242.3015873015873,-235.15873015873015,-248.015873015873,37.06349206349206,248.65079365079364,-253.57142857142856,257.38095238095235,-271.5079365079365,41.19047619047619,240.7142857142857,246.26984126984127,-252.46031746031744,252.6190476190476,-222.93650793650792,-325.0,39.76190476190476,245.79365079365078,-247.2222222222222,-240.2380952380952,-0.07936507936507936,-0.23809523809523808,-166.26984126984127
-215.3174603174603,244.04761904761904,242.3015873015873,-235.15873015873015,-248.015873015873,37.06349206349206,248.65079365079364,-253.57142857142856,257.38095238095235,-271.5079365079365,41.19047619047619,240.7142857142857,246.26984126984127,-252.46031746031744,252.6190476190476,-222.93650793650792,-325.0,39.76190476190476,245.79365079365078,-247.2222222222222,-240.2380952380952,-0.07936507936507936,-0.23809523809523808,-166.26984126984127
-215.3174603174603,244.04761904761904,242.3015873015873,-235.15873015873015,-248.015873015873,37.06349206349206,248.65079365079364,-253.57142857142856,257.38095238095235,-271.5079365079365,41.19047619047619,240.7142857142857,246.26984126984127,-252.46031746031744,252.6190476190476,-222.93650793650792,-325.0,39.76190476190476,245.79365079365078,-247.2222222222222,-240.2380952380952,-0.07936507936507936,-0.23809523809523808,-166.26984126984127
-215.3174603174603,244.04761904761904,242.3015873015873,-235.15873015873015,-248.015873015873,37.06349206349206,248.65079365079364,-253.57142857142856,257.38095238095235,-271.5079365079365,41.19047619047619,240.7142857142857,246.26984126984127,-252.46031746031744,252.6190476190476,-222.93650793650792,-325.0,39.76190476190476,245.79365079365078,-247.2222222222222,-240.2380952380952,-0.07936507936507936,-0.23809523809523808,-166.26984126984127
-175.47619047619045,-40.55555555555555,197.06349206349205,-191.19047619047618,-204.36507936507937,25.952380952380953,202.61904761904762,-208.65079365079364,210.55555555555554,-221.5079365079365,-141.984126984127,195.79365079365078,200.87301587301587,-205.3174603174603,206.9047619047619,-181.8253968253968,-269.6031746031746,26.9047619047619,165.95238095238093,-201.98412698412696,-195.0,-0.23809523809523808,-0.3968253968253968,-166.26984126984127
-175.47619047619045,-40.55555555555555,197.06349206349205,-191.19047619047618,-204.36507936507937,25.952380952380953,202.61904761904762,-208.65079365079364,210.55555555555554,-221.5079365079365,-141.984126984127,195.79365079365078,200.87301587301587,-205.3174603174603,206.9047619047619,-181.8253968253968,-269.6031746031746,26.9047619047619,165.95238095238093,-201.98412698412696,-195.0,-0.23809523809523808,-0.3968253968253968,-166.26984126984127
-123.25396825396825,-325.0,137.85714285714286,-133.4126984126984,-146.58730158730157,10.396825396825395,142.3015873015873,80.55555555555556,117.38095238095238,-155.79365079365078,-325.0,-87.06349206349206,141.34920634920636,-143.4126984126984,146.58730158730157,-128.17460317460316,-194.68253968253967,7.857142857142857,-119.44444444444444,-142.46031746031744,-135.63492063492063,-0.5555555555555556,-0.23809523809523808,-321.8253968253968
-123.25396825396825,-325.0,137.85714285714286,-133.4126984126984,-146.58730158730157,10.396825396825395,142.3015873015873,80.55555555555556,117.38095238095238,-155.79365079365078,-325.0,-87.06349206349206,141.34920634920636,-143.4126984126984,146.58730158730157,-128.17460317460316,-194.68253968253967,7.857142857142857,-119.44444444444444,-142.46031746031744,-135.63492063492063,-0.5555555555555556,-0.23809523809523808,-321.8253968253968
-110.87301587301587,-325.0,123.73015873015872,-119.76190476190476,-132.61904761904762,5.952380952380952,128.17460317460316,325.0,71.03174603174602,-140.23809523809524,-325.0,-325.0,127.38095238095238,-128.65079365079364,132.14285714285714,-115.47619047619047,-175.0,1.6666666666666665,-325.0,-128.17460317460316,-121.5079365079365,-0.5555555555555556,0.07936507936507936,-321.8253968253968
-110.87301587301587,-325.0,123.73015873015872,-119.76190476190476,-132.61904761904762,5.952380952380952,128.17460317460316,325.0,71.03174603174602,-140.23809523809524,-325.0,-325.0,127.38095238095238,-128.65079365079364,132.14285714285714,-115.47619047619047,-175.0,1.6666666666666665,-325.0,-128.17460317460316,-121.5079365079365,-0.5555555555555556,0.07936507936507936,-321.8253968253968
-110.87301587301587,-325.0,123.73015873015872,-119.76190476190476,-132.61904761904762,5.952380952380952,128.17460317460316,325.0,71.03174603174602,-140.23809523809524,-325.0,-325.0,127.38095238095238,-128.65079365079364,132.14285714285714,-115.47619047619047,-175.0,1.6666666666666665,-325.0,-128.17460317460316,-121.5079365079365,-0.5555555555555556,0.07936507936507936,-321.8253968253968
-110.87301587301587,-325.0,123.73015873015872,-119.76190476190476,-132.61904761904762,5.952380952380952,128.17460317460316,325.0,71.03174603174602,-140.23809523809524,-325.0,-325.0,127.38095238095238,-128.65079365079364,132.14285714285714,-115.47619047619047,-175.0,1.6666666666666665,-325.0,-128.17460317460316,-121.5079365079365,-0.5555555555555556,0.07936507936507936,-321.8253968253968
-110.87301587301587,-325.0,123.73015873015872,-119.76190476190476,-132.61904761904762,5.952380952380952,128.17460317460316,325.0,71.03174603174602,-140.23809523809524,-325.0,-325.0,127.38095238095238,-128.65079365079364,132.14285714285714,-115.47619047619047,-175.0,1.6666666666666665,-325.0,-128.17460317460316,-121.5079365079365,-0.5555555555555556,0.07936507936507936,-321.8253968253968
-110.87301587301587,-325.0,123.73015873015872,-119.76190476190476,-132.61904761904762,5.952380952380952,128.17460317460316,325.0,71.03174603174602,-140.23809523809524,-325.0,-325.0,127.38095238095238,-128.65079365079364,132.14285714285714,-115.47619047619047,-175.0,1.6666666666666665,-325.0,-128.17460317460316,-121.5079365079365,-0.5555555555555556,0.07936507936507936,-321.8253968253968
-91.19047619047619,-325.0,-100.71428571428571,-98.17460317460316,-110.07936507936508,1.6666666666666665,-98.49206349206348,325.0,-127.06349206349206,-115.47619047619047,-288.015873015873,-325.0,-58.33333333333333,-105.47619047619047,-96.42857142857142,68.96825396825396,-143.73015873015873,-5.476190476190476,-325.0,-105.63492063492063,-99.44444444444444,-0.23809523809523808,-0.3968253968253968,-321.8253968253968
-91.19047619047619,-325.0,-100.71428571428571,-98.17460317460316,-110.07936507936508,1.6666666666666665,-98.49206349206348,325.0,-127.06349206349206,-115.47619047619047,-288.015873015873,-325.0,-58.33333333333333,-105.47619047619047,-96.42857142857142,68.96825396825396,-143.73015873015873,-5.476190476190476,-325.0,-105.63492063492063,-99.44444444444444,-0.23809523809523808,-0.3968253968253968,-321.8253968253968
-69.92063492063491,-325.0,-325.0,-75.0,-85.63492063492063,-3.73015873015873,-325.0,325.0,-325.0,-88.80952380952381,-245.79365079365078,-325.0,-325.0,-80.55555555555556,-325.0,214.68253968253967,-110.23809523809523,-13.73015873015873,-325.0,-81.34920634920634,-75.79365079365078,-0.3968253968253968,-0.5555555555555556,-166.26984126984127
-69.92063492063491,-325.0,-325.0,-75.0,-85.63492063492063,-3.73015873015873,-325.0,325.0,-325.0,-88.80952380952381,-245.79365079365078,-325.0,-325.0,-80.55555555555556,-325.0,214.68253968253967,-110.23809523809523,-13.73015873015873,-325.0,-81.34920634920634,-75.79365079365078,-0.3968253968253968,-0.5555555555555556,-166.26984126984127
-68.01587301587301,-325.0,-325.0,-72.77777777777777,-83.57142857142857,-4.523809523809524,-325.0,325.0,-325.0,-86.58730158730158,-239.9206349206349,-325.0,-325.0,-78.33333333333333,-325.0,325.0,-107.38095238095238,-14.206349206349206,-325.0,-79.12698412698413,-73.73015873015872,-0.23809523809523808,-0.5555555555555556,-166.26984126984127
-68.01587301587301,-325.0,-325.0,-72.77777777777777,-83.57142857142857,-4.523809523809524,-325.0,325.0,-325.0,-86.58730158730158,-239.9206349206349,-325.0,-325.0,-78.33333333333333,-325.0,325.0,-107.38095238095238,-14.206349206349206,-325.0,-79.12698412698413,-73.73015873015872,-0.23809523809523808,-0.5555555555555556,-166.26984126984127
-66.42857142857143,-325.0,-325.0,-71.03174603174602,-81.66666666666666,-2.9365079365079363,-325.0,325.0,-325.0,-84.04761904761904,-233.88888888888889,-325.0,-325.0,-76.26984126984127,-325.0,325.0,-104.52380952380952,-12.3015873015873,-325.0,-77.22222222222221,-71.82539682539682,0.23809523809523808,-0.5555555555555556,-166.26984126984127
-66.42857142857143,-325.0,-325.0,-71.03174603174602,-81.66666666666666,-2.9365079365079363,-325.0,325.0,-325.0,-84.04761904761904,-233.88888888888889,-325.0,-325.0,-76.26984126984127,-325.0,325.0,-104.52380952380952,-12.3015873015873,-325.0,-77.22222222222221,-71.82539682539682,0.23809523809523808,-0.5555555555555556,-166.26984126984127
-65.31746031746032,-325.0,-325.0,-70.07936507936508,-80.87301587301587,-1.8253968253968254,-325.0,325.0,-325.0,-83.09523809523809,-230.87301587301587,-325.0,-325.0,-75.15873015873015,-325.0,325.0,-103.25396825396825,-11.031746031746032,-325.0,-76.42857142857143,-70.87301587301587,-0.07936507936507936,-0.5555555555555556,-166.26984126984127
-65.31746031746032,-325.0,-325.0,-70.07936507936508,-80.87301587301587,-1.8253968253968254,-325.0,325.0,-325.0,-83.09523809523809,-230.87301587301587,-325.0,-325.0,-75.15873015873015,-325.0,325.0,-103.25396825396825,-11.031746031746032,-325.0,-76.42857142857143,-70.87301587301587,-0.07936507936507936,-0.5555555555555556,-166.26984126984127
-63.888888888888886,-325.0,-325.0,-68.33333333333333,-78.65079365079364,0.07936507936507936,-325.0,325.0,-325.0,-80.71428571428571,-225.3174603174603,-325.0,-325.0,-73.57142857142857,-325.0,325.0,-100.55555555555554,-8.492063492063492,-325.0,-74.36507936507937,-68.96825396825396,-0.5555555555555556,-0.5555555555555556,-166.26984126984127
-63.888888888888886,-325.0,-325.0,-68.33333333333333,-78.65079365079364,0.07936507936507936,-325.0,325.0,-325.0,-80.71428571428571,-225.3174603174603,-325.0,-325.0,-73.57142857142857,-325.0,325.0,-100.55555555555554,-8.492063492063492,-325.0,-74.36507936507937,-68.96825396825396,-0.5555555555555556,-0.5555555555555556,-166.26984126984127
-62.61904761904761,-325.0,-325.0,-66.9047619047619,-77.06349206349206,0.07936507936507936,-325.0,325.0,-325.0,-60.079365079365076,-220.55555555555554,-325.0,-325.0,-71.82539682539682,-325.0,325.0,-98.33333333333333,-8.809523809523808,-325.0,-72.77777777777777,-67.38095238095238,0.07936507936507936,0.3968253968253968,-321.8253968253968
-62.61904761904761,-325.0,-325.0,-66.9047619047619,-77.06349206349206,0.07936507936507936,-325.0,325.0,-325.0,-60.079365079365076,-220.55555555555554,-325.0,-325.0,-71.82539682539682,-325.0,325.0,-98.33333333333333,-8.809523809523808,-325.0,-72.77777777777777,-67.38095238095238,0.07936507936507936,0.3968253968253968,-321.8253968253968
-61.507936507936506,-321.5079365079365,-325.0,-65.47619047619047,-75.79365079365078,-1.6666666666666665,-325.0,325.0,-325.0,16.587301587301585,-216.9047619047619,-325.0,-325.0,-70.55555555555556,-325.0,325.0,-96.74603174603175,-10.555555555555555,-325.0,-71.5079365079365,-66.26984126984127,-0.3968253968253968,-0.23809523809523808,-321.8253968253968
-61.507936507936506,-321.5079365079365,-325.0,-65.47619047619047,-75.79365079365078,-1.6666666666666665,-325.0,325.0,-325.0,16.587301587301585,-216.9047619047619,-325.0,-325.0,-70.55555555555556,-325.0,325.0,-96.74603174603175,-10.555555555555555,-325.0,-71.5079365079365,-66.26984126984127,-0.3968253968253968,-0.23809523809523808,-321.8253968253968
-60.39682539682539,-316.4285714285714,-325.0,-64.52380952380952,-74.68253968253968,-1.0317460317460316,-325.0,325.0,-325.0,104.52380952380952,-213.25396825396825,-325.0,-325.0,-69.28571428571428,-325.0,325.0,-95.0,-9.285714285714285,-325.0,-70.39682539682539,-65.15873015873015,-0.23809523809523808,-0.23809523809523808,-321.8253968253968
-60.39682539682539,-316.4285714285714,-325.0,-64.52380952380952,-74.68253968253968,-1.0317460317460316,-325.0,325.0,-325.0,104.52380952380952,-213.25396825396825,-325.0,-325.0,-69.28571428571428,-325.0,325.0,-95.0,-9.285714285714285,-325.0,-70.39682539682539,-65.15873015873015,-0.23809523809523808,-0.23809523809523808,-321.8253968253968
-59.285714285714285,-309.76190476190476,-325.0,-63.095238095238095,-72.93650793650794,4.841269841269841,-325.0,325.0,-325.0,201.5079365079365,-209.12698412698413,-325.0,-325.0,-67.85714285714285,-325.0,325.0,-93.09523809523809,-2.7777777777777777,-325.0,-68.80952380952381,-63.888888888888886,0.3968253968253968,-0.3968253968253968,-321.8253968253968
-59.285714285714285,-309.76190476190476,-325.0,-63.095238095238095,-72.93650793650794,4.841269841269841,-325.0,325.0,-325.0,201.5079365079365,-209.12698412698413,-325.0,-325.0,-67.85714285714285,-325.0,325.0,-93.09523809523809,-2.7777777777777777,-325.0,-68.80952380952381,-63.888888888888886,0.3968253968253968,-0.3968253968253968,-321.8253968253968
-58.01587301587301,-303.4126984126984,-325.0,-61.82539682539682,-71.82539682539682,4.523809523809524,-325.0,325.0,-325.0,268.968253968254,-204.68253968253967,-325.0,-325.0,-66.42857142857143,-325.0,325.0,-91.03174603174602,-3.253968253968254,-325.0,-67.53968253968253,-62.14285714285714,0.3968253968253968,-0.07936507936507936,-321.8253968253968
-58.01587301587301,-303.4126984126984,-325.0,-61.82539682539682,-71.82539682539682,4.523809523809524,-325.0,325.0,-325.0,268.968253968254,-204.68253968253967,-325.0,-325.0,-66.42857142857143,-325.0,325.0,-91.03174603174602,-3.253968253968254,-325.0,-67.53968253968253,-62.14285714285714,0.3968253968253968,-0.07936507936507936,-321.8253968253968
-57.06349206349206,-298.6507936507936,-325.0,-60.71428571428571,-70.39682539682539,9.126984126984127,-325.0,325.0,-325.0,309.6031746031746,-201.19047619047618,-325.0,-325.0,-65.15873015873015,-325.0,325.0,-89.44444444444444,1.984126984126984,-325.0,-66.26984126984127,-61.19047619047619,0.07936507936507936,-1.349206349206349,-166.26984126984127
-57.06349206349206,-298.6507936507936,-325.0,-60.71428571428571,-70.39682539682539,9.126984126984127,-325.0,325.0,-325.0,309.6031746031746,-201.19047619047618,-325.0,-325.0,-65.15873015873015,-325.0,325.0,-89.44444444444444,1.984126984126984,-325.0,-66.26984126984127,-61.19047619047619,0.07936507936507936,-1.349206349206349,-166.26984126984127
-56.269841269841265,-295.0,-325.0,-60.079365079365076,-69.6031746031746,8.492063492063492,-325.0,325.0,-325.0,322.3015873015873,-198.8095238095238,-325.0,-325.0,-64.36507936507937,-325.0,325.0,-88.17460317460316,1.507936507936508,-325.0,-65.31746031746032,-60.39682539682539,-0.07936507936507936,-0.7142857142857142,-166.26984126984127
-56.269841269841265,-295.0,-325.0,-60.079365079365076,-69.6031746031746,8.492063492063492,-325.0,325.0,-325.0,322.3015873015873,-198.8095238095238,-325.0,-325.0,-64.36507936507937,-325.0,325.0,-88.17460317460316,1.507936507936508,-325.0,-65.31746031746032,-60.39682539682539,-0.07936507936507936,-0.7142857142857142,-166.26984126984127
-55.0,-288.968253968254,-325.0,-58.49206349206349,-68.17460317460318,2.46031746031746,-325.0,325.0,-325.0,325.0,-194.68253968253967,-325.0,-325.0,-62.93650793650793,-325.0,325.0,-86.42857142857143,-4.841269841269841,-325.0,-64.04761904761905,-58.96825396825397,-0.5555555555555556,-0.873015873015873,-166.26984126984127
-55.0,-288.968253968254,-325.0,-58.49206349206349,-68.17460317460318,2.46031746031746,-325.0,325.0,-325.0,325.0,-194.68253968253967,-325.0,-325.0,-62.93650793650793,-325.0,325.0,-86.42857142857143,-4.841269841269841,-325.0,-64.04761904761905,-58.96825396825397,-0.5555555555555556,-0.873015873015873,-166.26984126984127
-54.2063492063492,-284.2063492063492,-325.0,-57.698412698412696,-67.06349206349206,3.4126984126984126,-325.0,325.0,-325.0,325.0,-191.34920634920633,-325.0,-325.0,-61.98412698412698,-325.0,325.0,-85.0,-3.4126984126984126,-325.0,-63.095238095238095,-58.01587301587301,-1.0317460317460316,-1.0317460317460316,-166.26984126984127
-54.2063492063492,-284.2063492063492,-325.0,-57.698412698412696,-67.06349206349206,3.4126984126984126,-325.0,325.0,-325.0,325.0,-191.34920634920633,-325.0,-325.0,-61.98412698412698,-325.0,325.0,-85.0,-3.4126984126984126,-325.0,-63.095238095238095,-58.01587301587301,-1.0317460317460316,-1.0317460317460316,-166.26984126984127
-53.57142857142857,-280.7142857142857,-325.0,-56.74603174603174,-65.95238095238095,7.5396825396825395,-325.0,325.0,-325.0,325.0,-189.28571428571428,-325.0,-325.0,-61.03174603174603,-325.0,325.0,-83.57142857142857,1.0317460317460316,-325.0,-61.82539682539682,-57.22222222222222,-1.6666666666666665,-1.0317460317460316,-166.26984126984127
-53.57142857142857,-280.7142857142857,-325.0,-56.74603174603174,-65.95238095238095,7.5396825396825395,-325.0,325.0,-325.0,325.0,-189.28571428571428,-325.0,-325.0,-61.03174603174603,-325.0,325.0,-83.57142857142857,1.0317460317460316,-325.0,-61.82539682539682,-57.22222222222222,-1.6666666666666665,-1.0317460317460316,-166.26984126984127
-52.61904761904761,-276.26984126984127,-325.0,-55.79365079365079,-65.15873015873015,7.3809523809523805,-325.0,325.0,-325.0,325.0,-186.11111111111111,-325.0,-325.0,-60.079365079365076,-325.0,325.0,-82.14285714285714,1.1904761904761905,-325.0,-60.873015873015866,-56.269841269841265,-1.1904761904761905,-1.1904761904761905,-321.8253968253968
-52.61904761904761,-276.26984126984127,-325.0,-55.79365079365079,-65.15873015873015,7.3809523809523805,-325.0,325.0,-325.0,325.0,-186.11111111111111,-325.0,-325.0,-60.079365079365076,-325.0,325.0,-82.14285714285714,1.1904761904761905,-325.0,-60.873015873015866,-56.269841269841265,-1.1904761904761905,-1.1904761904761905,-321.8253968253968
-50.55555555555555,-266.1111111111111,-325.0,-53.73015873015873,-62.93650793650793,5.7936507936507935,-325.0,325.0,-325.0,325.0,-179.12698412698413,-325.0,-325.0,-57.698412698412696,-325.0,325.0,-79.12698412698413,-0.07936507936507936,-325.0,-58.8095238095238,-54.047619047619044,0.23809523809523808,-0.7142857142857142,-321.8253968253968
-50.55555555555555,-266.1111111111111,-325.0,-53.73015873015873,-62.93650793650793,5.7936507936507935,-325.0,325.0,-325.0,325.0,-179.12698412698413,-325.0,-325.0,-57.698412698412696,-325.0,325.0,-79.12698412698413,-0.07936507936507936,-325.0,-58.8095238095238,-54.047619047619044,0.23809523809523808,-0.7142857142857142,-321.8253968253968
-49.76190476190476,-261.8253968253968,-325.0,-52.77777777777777,-61.82539682539682,3.253968253968254,-325.0,325.0,-325.0,325.0,-176.11111111111111,-325.0,-325.0,-56.74603174603174,-325.0,325.0,-77.85714285714285,-2.46031746031746,-325.0,-57.857142857142854,-53.25396825396825,-0.5555555555555556,-0.7142857142857142,-321.8253968253968
-49.76190476190476,-261.8253968253968,-325.0,-52.77777777777777,-61.82539682539682,3.253968253968254,-325.0,325.0,-325.0,325.0,-176.11111111111111,-325.0,-325.0,-56.74603174603174,-325.0,325.0,-77.85714285714285,-2.46031746031746,-325.0,-57.857142857142854,-53.25396825396825,-0.5555555555555556,-0.7142857142857142,-321.8253968253968
-48.96825396825397,-258.8095238095238,-325.0,-52.14285714285714,-61.19047619047619,5.0,-325.0,325.0,-325.0,325.0,-173.88888888888889,-325.0,-325.0,-55.95238095238095,-325.0,325.0,-77.06349206349206,-0.873015873015873,-325.0,-57.22222222222222,-52.3015873015873,0.07936507936507936,-0.23809523809523808,-321.8253968253968
-48.96825396825397,-258.8095238095238,-325.0,-52.14285714285714,-61.19047619047619,5.0,-325.0,325.0,-325.0,325.0,-173.88888888888889,-325.0,-325.0,-55.95238095238095,-325.0,325.0,-77.06349206349206,-0.873015873015873,-325.0,-57.22222222222222,-52.3015873015873,0.07936507936507936,-0.23809523809523808,-321.8253968253968
-48.17460317460317,-253.25396825396825,-325.0,-51.03174603174603,-60.079365079365076,10.079365079365079,-325.0,325.0,-325.0,325.0,-170.3968253968254,-324.5238095238095,-325.0,-54.841269841269835,-325.0,325.0,-75.15873015873015,4.523809523809524,-324.68253968253964,-55.95238095238095,-51.19047619047619,0.23809523809523808,-0.5555555555555556,-321.8253968253968
-48.17460317460317,-253.25396825396825,-325.0,-51.03174603174603,-60.079365079365076,10.079365079365079,-325.0,325.0,-325.0,325.0,-170.3968253968254,-324.5238095238095,-325.0,-54.841269841269835,-325.0,325.0,-75.15873015873015,4.523809523809524,-324.68253968253964,-55.95238095238095,-51.19047619047619,0.23809523809523808,-0.5555555555555556,-321.8253968253968
-47.38095238095238,-249.12698412698413,-325.0,-50.238095238095234,-58.96825396825397,7.063492063492063,-325.0,325.0,-325.0,325.0,-167.53968253968253,-319.76190476190476,-325.0,-53.888888888888886,-325.0,325.0,-73.88888888888889,1.8253968253968254,-320.23809523809524,-55.0,-50.39682539682539,0.23809523809523808,-0.7142857142857142,-166.26984126984127
-47.38095238095238,-249.12698412698413,-325.0,-50.238095238095234,-58.96825396825397,7.063492063492063,-325.0,325.0,-325.0,325.0,-167.53968253968253,-319.76190476190476,-325.0,-53.888888888888886,-325.0,325.0,-73.88888888888889,1.8253968253968254,-320.23809523809524,-55.0,-50.39682539682539,0.23809523809523808,-0.7142857142857142,-166.26984126984127
-46.58730158730158,-245.15873015873015,-325.0,-49.285714285714285,-58.17460317460317,4.841269841269841,-325.0,325.0,-325.0,325.0,-164.84126984126982,-314.5238095238095,-325.0,-52.93650793650794,-325.0,325.0,-72.61904761904762,-0.23809523809523808,-314.8412698412698,-54.2063492063492,-49.6031746031746,-0.7142857142857142,-0.3968253968253968,-166.26984126984127
-46.58730158730158,-245.15873015873015,-325.0,-49.285714285714285,-58.17460317460317,4.841269841269841,-325.0,325.0,-325.0,325.0,-164.84126984126982,-314.5238095238095,-325.0,-52.93650793650794,-325.0,325.0,-72.61904761904762,-0.23809523809523808,-314.8412698412698,-54.2063492063492,-49.6031746031746,-0.7142857142857142,-0.3968253968253968,-166.26984126984127
-45.95238095238095,-242.14285714285714,-325.0,-48.650793650793645,-57.38095238095238,3.4126984126984126,-325.0,325.0,-325.0,325.0,-162.77777777777777,-310.7142857142857,-325.0,-52.14285714285714,-325.0,325.0,-71.82539682539682,-1.1904761904761905,-311.031746031746,-53.41269841269841,-48.80952380952381,-0.873015873015873,-0.3968253968253968,-166.26984126984127
-45.95238095238095,-242.14285714285714,-325.0,-48.650793650793645,-57.38095238095238,3.4126984126984126,-325.0,325.0,-325.0,325.0,-162.77777777777777,-310.7142857142857,-325.0,-52.14285714285714,-325.0,325.0,-71.82539682539682,-1.1904761904761905,-311.031746031746,-53.41269841269841,-48.80952380952381,-0.873015873015873,-0.3968253968253968,-166.26984126984127
-45.15873015873016,-238.33333333333331,-325.0,-47.698412698412696,-56.42857142857142,3.888888888888889,-325.0,325.0,-325.0,325.0,-159.9206349206349,-305.6349206349206,-325.0,-51.34920634920635,-325.0,325.0,-70.55555555555556,-0.873015873015873,-306.1111111111111,-52.3015873015873,-47.857142857142854,-0.873015873015873,-0.3968253968253968,-166.26984126984127
-45.15873015873016,-238.33333333333331,-325.0,-47.698412698412696,-56.42857142857142,3.888888888888889,-325.0,325.0,-325.0,325.0,-159.9206349206349,-305.6349206349206,-325.0,-51.34920634920635,-325.0,325.0,-70.55555555555556,-0.873015873015873,-306.1111111111111,-52.3015873015873,-47.857142857142854,-0.873015873015873,-0.3968253968253968,-166.26984126984127
-44.2063492063492,-233.4126984126984,-325.0,-46.58730158730158,-55.476190476190474,2.619047619047619,-325.0,325.0,-325.0,325.0,-156.74603174603175,-299.1269841269841,-325.0,-50.238095238095234,-325.0,325.0,-68.96825396825396,-1.6666666666666665,-299.76190476190476,-51.34920634920635,-47.06349206349206,-0.07936507936507936,-0.5555555555555556,-166.26984126984127
-44.2063492063492,-233.4126984126984,-325.0,-46.58730158730158,-55.476190476190474,2.619047619047619,-325.0,325.0,-325.0,325.0,-156.74603174603175,-299.1269841269841,-325.0,-50.238095238095234,-325.0,325.0,-68.96825396825396,-1.6666666666666665,-299.76190476190476,-51.34920634920635,-47.06349206349206,-0.07936507936507936,-0.5555555555555556,-166.26984126984127
-44.047619047619044,-232.46031746031744,-325.0,-46.42857142857142,-55.317460317460316,4.523809523809524,-325.0,325.0,-325.0,325.0,-155.95238095238093,-297.85714285714283,-325.0,-49.92063492063492,-325.0,325.0,-68.65079365079364,0.07936507936507936,-298.4920634920635,-51.19047619047619,-46.74603174603175,-0.07936507936507936,-0.873015873015873,-321.8253968253968
-44.047619047619044,-232.46031746031744,-325.0,-46.42857142857142,-55.317460317460316,4.523809523809524,-325.0,325.0,-325.0,325.0,-155.95238095238093,-297.85714285714283,-325.0,-49.92063492063492,-325.0,325.0,-68.65079365079364,0.07936507936507936,-298.4920634920635,-51.19047619047619,-46.74603174603175,-0.07936507936507936,-0.873015873015873,-321.8253968253968
-44.047619047619044,-232.46031746031744,-325.0,-46.42857142857142,-55.317460317460316,4.523809523809524,-325.0,325.0,-325.0,325.0,-155.95238095238093,-297.85714285714283,-325.0,-49.92063492063492,-325.0,325.0,-68.65079365079364,0.07936507936507936,-298.4920634920635,-51.19047619047619,-46.74603174603175,-0.07936507936507936,-0.873015873015873,-321.8253968253968
-44.047619047619044,-232.46031746031744,-325.0,-46.42857142857142,-55.317460317460316,4.523809523809524,-325.0,325.0,-325.0,325.0,-155.95238095238093,-297.85714285714283,-325.0,-49.92063492063492,-325.0,325.0,-68.65079365079364,0.07936507936507936,-298.4920634920635,-51.19047619047619,-46.74603174603175,-0.07936507936507936,-0.873015873015873,-321.8253968253968
-42.14285714285714,-222.14285714285714,-325.0,-44.36507936507936,-52.77777777777777,5.317460317460317,-325.0,325.0,-325.0,325.0,-148.96825396825395,-284.5238095238095,-325.0,-47.698412698412696,-325.0,325.0,-65.47619047619047,1.507936507936508,-285.3174603174603,-48.96825396825397,-44.68253968253968,0.07936507936507936,-1.1904761904761905,-321.8253968253968
-42.14285714285714,-222.14285714285714,-325.0,-44.36507936507936,-52.77777777777777,5.317460317460317,-325.0,325.0,-325.0,325.0,-148.96825396825395,-284.5238095238095,-325.0,-47.698412698412696,-325.0,325.0,-65.47619047619047,1.507936507936508,-285.3174603174603,-48.96825396825397,-44.68253968253968,0.07936507936507936,-1.1904761904761905,-321.8253968253968
-41.666666666666664,-219.28571428571428,-325.0,-43.57142857142857,-52.14285714285714,3.253968253968254,-325.0,325.0,-325.0,325.0,-147.2222222222222,-280.87301587301585,-325.0,-47.06349206349206,-325.0,325.0,-64.68253968253968,-0.23809523809523808,-281.8253968253968,-48.01587301587301,-44.047619047619044,-0.07936507936507936,-0.3968253968253968,-321.8253968253968
-41.666666666666664,-219.28571428571428,-325.0,-43.57142857142857,-52.14285714285714,3.253968253968254,-325.0,325.0,-325.0,325.0,-147.2222222222222,-280.87301587301585,-325.0,-47.06349206349206,-325.0,325.0,-64.68253968253968,-0.23809523809523808,-281.8253968253968,-48.01587301587301,-44.047619047619044,-0.07936507936507936,-0.3968253968253968,-321.8253968253968
-40.714285714285715,-214.68253968253967,-325.0,-42.93650793650794,-51.03174603174603,8.65079365079365,-325.0,322.6190476190476,-325.0,325.0,-144.2063492063492,-275.3174603174603,-325.0,8.492063492063492,-325.0,325.0,-63.25396825396825,5.476190476190476,-276.1111111111111,-47.22222222222222,-43.095238095238095,-0.23809523809523808,-0.7142857142857142,-321.8253968253968
-40.714285714285715,-214.68253968253967,-325.0,-42.93650793650794,-51.03174603174603,8.65079365079365,-325.0,322.6190476190476,-325.0,325.0,-144.2063492063492,-275.3174603174603,-325.0,8.492063492063492,-325.0,325.0,-63.25396825396825,5.476190476190476,-276.1111111111111,-47.22222222222222,-43.095238095238095,-0.23809523809523808,-0.7142857142857142,-321.8253968253968
-40.079365079365076,-211.34920634920633,-325.0,-42.3015873015873,-50.079365079365076,10.079365079365079,-325.0,317.69841269841265,-325.0,325.0,-141.8253968253968,-270.7142857142857,-325.0,100.55555555555554,-325.0,325.0,-62.3015873015873,6.587301587301587,-271.5079365079365,-46.269841269841265,-42.3015873015873,0.23809523809523808,-1.0317460317460316,-166.26984126984127
-40.079365079365076,-211.34920634920633,-325.0,-42.3015873015873,-50.079365079365076,10.079365079365079,-325.0,317.69841269841265,-325.0,325.0,-141.8253968253968,-270.7142857142857,-325.0,100.55555555555554,-325.0,325.0,-62.3015873015873,6.587301587301587,-271.5079365079365,-46.269841269841265,-42.3015873015873,0.23809523809523808,-1.0317460317460316,-166.26984126984127
-39.44444444444444,-207.85714285714283,-325.0,-41.34920634920635,-49.285714285714285,8.015873015873016,-325.0,312.46031746031747,-325.0,325.0,-139.44444444444443,-265.95238095238096,-325.0,208.17460317460316,-325.0,325.0,-61.19047619047619,5.0,-267.06349206349205,-45.79365079365079,-41.666666666666664,-1.0317460317460316,-0.07936507936507936,-166.26984126984127
-39.44444444444444,-207.85714285714283,-325.0,-41.34920634920635,-49.285714285714285,8.015873015873016,-325.0,312.46031746031747,-325.0,325.0,-139.44444444444443,-265.95238095238096,-325.0,208.17460317460316,-325.0,325.0,-61.19047619047619,5.0,-267.06349206349205,-45.79365079365079,-41.666666666666664,-1.0317460317460316,-0.07936507936507936,-166.26984126984127
-38.80952380952381,-204.36507936507937,-325.0,-40.87301587301587,-48.80952380952381,3.4126984126984126,-325.0,307.53968253968253,-325.0,325.0,-137.06349206349205,-261.8253968253968,-325.0,302.9365079365079,-325.0,325.0,-59.92063492063492,0.3968253968253968,-262.77777777777777,-44.84126984126984,-40.87301587301587,-0.5555555555555556,-0.23809523809523808,-166.26984126984127
-38.80952380952381,-204.36507936507937,-325.0,-40.87301587301587,-48.80952380952381,3.4126984126984126,-325.0,307.53968253968253,-325.0,325.0,-137.06349206349205,-261.8253968253968,-325.0,302.9365079365079,-325.0,325.0,-59.92063492063492,0.3968253968253968,-262.77777777777777,-44.84126984126984,-40.87301587301587,-0.5555555555555556,-0.23809523809523808,-166.26984126984127
-38.01587301587301,-201.19047619047618,-325.0,-39.92063492063492,-48.01587301587301,2.3015873015873014,-325.0,302.46031746031747,-325.0,325.0,-135.0,-257.38095238095235,-325.0,325.0,-325.0,325.0,-58.96825396825397,-0.873015873015873,-258.4920634920635,-44.2063492063492,-40.238095238095234,-0.7142857142857142,-0.3968253968253968,-166.26984126984127
-38.01587301587301,-201.19047619047618,-325.0,-39.92063492063492,-48.01587301587301,2.3015873015873014,-325.0,302.46031746031747,-325.0,325.0,-135.0,-257.38095238095235,-325.0,325.0,-325.0,325.0,-58.96825396825397,-0.873015873015873,-258.4920634920635,-44.2063492063492,-40.238095238095234,-0.7142857142857142,-0.3968253968253968,-166.26984126984127
-37.53968253968254,-197.85714285714283,-325.0,-39.44444444444444,-47.22222222222222,5.317460317460317,-325.0,297.38095238095235,-325.0,325.0,-132.61904761904762,-252.93650793650792,-325.0,325.0,-325.0,325.0,-58.01587301587301,2.619047619047619,-254.2063492063492,-43.41269841269841,-39.44444444444444,0.07936507936507936,-0.7142857142857142,-166.26984126984127
-37.53968253968254,-197.85714285714283,-325.0,-39.44444444444444,-47.22222222222222,5.317460317460317,-325.0,297.38095238095235,-325.0,325.0,-132.61904761904762,-252.93650793650792,-325.0,325.0,-325.0,325.0,-58.01587301587301,2.619047619047619,-254.2063492063492,-43.41269841269841,-39.44444444444444,0.07936507936507936,-0.7142857142857142,-166.26984126984127
-36.904761904761905,-194.52380952380952,-325.0,-38.80952380952381,-46.269841269841265,5.476190476190476,-324.04761904761904,292.9365079365079,-325.0,325.0,-130.3968253968254,-248.96825396825395,-325.0,325.0,-325.0,325.0,-57.06349206349206,2.9365079365079363,-250.07936507936506,-42.77777777777778,-38.80952380952381,-0.873015873015873,-0.3968253968253968,-321.8253968253968
-36.904761904761905,-194.52380952380952,-325.0,-38.80952380952381,-46.269841269841265,5.476190476190476,-324.04761904761904,292.9365079365079,-325.0,325.0,-130.3968253968254,-248.96825396825395,-325.0,325.0,-325.0,325.0,-57.06349206349206,2.9365079365079363,-250.07936507936506,-42.77777777777778,-38.80952380952381,-0.873015873015873,-0.3968253968253968,-321.8253968253968
-36.42857142857142,-191.98412698412696,-325.0,-38.17460317460317,-45.79365079365079,0.23809523809523808,-320.07936507936506,289.2857142857143,-325.0,325.0,-128.65079365079364,-245.63492063492063,-325.0,325.0,-325.0,325.0,-55.95238095238095,-1.984126984126984,-246.9047619047619,-42.14285714285714,-38.49206349206349,1.507936507936508,-0.07936507936507936,-321.8253968253968
-36.42857142857142,-191.98412698412696,-325.0,-38.17460317460317,-45.79365079365079,0.23809523809523808,-320.07936507936506,289.2857142857143,-325.0,325.0,-128.65079365079364,-245.63492063492063,-325.0,325.0,-325.0,325.0,-55.95238095238095,-1.984126984126984,-246.9047619047619,-42.14285714285714,-38.49206349206349,1.507936507936508,-0.07936507936507936,-321.8253968253968
-35.63492063492063,-188.17460317460316,-325.0,-37.53968253968254,-45.0,5.158730158730158,-313.57142857142856,283.4126984126984,-325.0,325.0,-126.26984126984127,-240.55555555555554,-325.0,325.0,-325.0,325.0,-55.15873015873016,2.9365079365079363,-241.8253968253968,-41.507936507936506,-37.53968253968254,-0.23809523809523808,-1.0317460317460316,-321.8253968253968
-35.63492063492063,-188.17460317460316,-325.0,-37.53968253968254,-45.0,5.158730158730158,-313.57142857142856,283.4126984126984,-325.0,325.0,-126.26984126984127,-240.55555555555554,-325.0,325.0,-325.0,325.0,-55.15873015873016,2.9365079365079363,-241.8253968253968,-41.507936507936506,-37.53968253968254,-0.23809523809523808,-1.0317460317460316,-321.8253968253968
-35.317460317460316,-185.95238095238093,-325.0,-37.06349206349206,-44.52380952380952,9.285714285714285,-309.6031746031746,280.07936507936506,-325.0,325.0,-124.52380952380952,-237.53968253968253,-325.0,325.0,-325.0,325.0,-54.52380952380952,7.063492063492063,-238.8095238095238,-41.03174603174603,-36.904761904761905,-0.5555555555555556,-1.0317460317460316,-321.8253968253968
-35.317460317460316,-185.95238095238093,-325.0,-37.06349206349206,-44.52380952380952,9.285714285714285,-309.6031746031746,280.07936507936506,-325.0,325.0,-124.52380952380952,-237.53968253968253,-325.0,325.0,-325.0,325.0,-54.52380952380952,7.063492063492063,-238.8095238095238,-41.03174603174603,-36.904761904761905,-0.5555555555555556,-1.0317460317460316,-321.8253968253968
-34.84126984126984,-182.77777777777777,-325.0,-36.58730158730159,-43.57142857142857,6.904761904761904,-304.5238095238095,275.7936507936508,-325.0,325.0,-122.46031746031746,-233.57142857142856,-325.0,325.0,-325.0,325.0,-53.41269841269841,5.158730158730158,-235.15873015873015,-40.079365079365076,-36.42857142857142,-0.7142857142857142,-0.23809523809523808,-321.8253968253968
-34.84126984126984,-182.77777777777777,-325.0,-36.58730158730159,-43.57142857142857,6.904761904761904,-304.5238095238095,275.7936507936508,-325.0,325.0,-122.46031746031746,-233.57142857142856,-325.0,325.0,-325.0,325.0,-53.41269841269841,5.158730158730158,-235.15873015873015,-40.079365079365076,-36.42857142857142,-0.7142857142857142,-0.23809523809523808,-321.8253968253968
-33.888888888888886,-179.12698412698413,-325.0,-35.476190476190474,-42.77777777777778,4.523809523809524,-298.015873015873,269.9206349206349,-325.0,325.0,-119.92063492063491,-228.65079365079364,-325.0,325.0,-325.0,278.8095238095238,-52.3015873015873,2.619047619047619,-230.07936507936506,-39.285714285714285,-35.476190476190474,0.07936507936507936,-0.5555555555555556,-166.26984126984127
-33.888888888888886,-179.12698412698413,-325.0,-35.476190476190474,-42.77777777777778,4.523809523809524,-298.015873015873,269.9206349206349,-325.0,325.0,-119.92063492063491,-228.65079365079364,-325.0,325.0,-325.0,278.8095238095238,-52.3015873015873,2.619047619047619,-230.07936507936506,-39.285714285714285,-35.476190476190474,0.07936507936507936,-0.5555555555555556,-166.26984126984127
-31.98412698412698,-175.95238095238093,-325.0,-35.0,-42.14285714285714,3.73015873015873,-293.4126984126984,265.6349206349206,-325.0,325.0,-118.01587301587301,-224.84126984126982,-325.0,325.0,-325.0,325.0,-51.34920634920635,2.142857142857143,-226.26984126984127,-38.49206349206349,-35.0,-0.07936507936507936,-0.23809523809523808,-166.26984126984127
-31.98412698412698,-175.95238095238093,-325.0,-35.0,-42.14285714285714,3.73015873015873,-293.4126984126984,265.6349206349206,-325.0,325.0,-118.01587301587301,-224.84126984126982,-325.0,325.0,-325.0,325.0,-51.34920634920635,2.142857142857143,-226.26984126984127,-38.49206349206349,-35.0,-0.07936507936507936,-0.23809523809523808,-166.26984126984127
-32.61904761904762,-173.4126984126984,-325.0,-34.2063492063492,-41.507936507936506,5.634920634920634,-288.3333333333333,261.3492063492063,-325.0,325.0,-115.95238095238095,-221.19047619047618,-325.0,325.0,-325.0,325.0,-50.55555555555555,4.365079365079365,-222.61904761904762,-37.857142857142854,-34.52380952380952,-0.3968253968253968,-1.507936507936508,-166.26984126984127
-32.61904761904762,-173.4126984126984,-325.0,-34.2063492063492,-41.507936507936506,5.634920634920634,-288.3333333333333,261.3492063492063,-325.0,325.0,-115.95238095238095,-221.19047619047618,-325.0,325.0,-325.0,325.0,-50.55555555555555,4.365079365079365,-222.61904761904762,-37.857142857142854,-34.52380952380952,-0.3968253968253968,-1.507936507936508,-166.26984126984127
-24.68253968253968,-171.19047619047618,-325.0,-33.73015873015873,-41.03174603174603,8.015873015873016,-284.68253968253964,258.015873015873,-325.0,325.0,-114.68253968253967,-218.33333333333331,-325.0,325.0,-325.0,325.0,-49.76190476190476,6.904761904761904,-219.9206349206349,-37.38095238095238,-34.047619047619044,-0.873015873015873,-1.1904761904761905,-166.26984126984127
-24.68253968253968,-171.19047619047618,-325.0,-33.73015873015873,-41.03174603174603,8.015873015873016,-284.68253968253964,258.015873015873,-325.0,325.0,-114.68253968253967,-218.33333333333331,-325.0,325.0,-325.0,325.0,-49.76190476190476,6.904761904761904,-219.9206349206349,-37.38095238095238,-34.047619047619044,-0.873015873015873,-1.1904761904761905,-166.26984126984127
52.14285714285714,-167.69841269841268,-325.0,-33.41269841269841,-40.238095238095234,14.047619047619047,-278.968253968254,252.93650793650792,-325.0,325.0,-112.14285714285714,-213.88888888888889,-325.0,325.0,-325.0,325.0,-48.80952380952381,13.095238095238095,-215.3174603174603,-36.904761904761905,-33.25396825396825,-0.3968253968253968,-0.3968253968253968,-166.26984126984127
52.14285714285714,-167.69841269841268,-325.0,-33.41269841269841,-40.238095238095234,14.047619047619047,-278.968253968254,252.93650793650792,-325.0,325.0,-112.14285714285714,-213.88888888888889,-325.0,325.0,-325.0,325.0,-48.80952380952381,13.095238095238095,-215.3174603174603,-36.904761904761905,-33.25396825396825,-0.3968253968253968,-0.3968253968253968,-166.26984126984127
-34.84126984126984,-165.0,-325.0,-32.61904761904762,-39.6031746031746,12.936507936507935,-274.36507936507934,248.65079365079364,-325.0,325.0,-110.39682539682539,-210.2380952380952,-325.0,325.0,-325.0,325.0,-48.17460317460317,12.142857142857142,-211.8253968253968,-36.11111111111111,-32.77777777777778,-0.5555555555555556,-0.873015873015873,-321.8253968253968
-34.84126984126984,-165.0,-325.0,-32.61904761904762,-39.6031746031746,12.936507936507935,-274.36507936507934,248.65079365079364,-325.0,325.0,-110.39682539682539,-210.2380952380952,-325.0,325.0,-325.0,325.0,-48.17460317460317,12.142857142857142,-211.8253968253968,-36.11111111111111,-32.77777777777778,-0.5555555555555556,-0.873015873015873,-321.8253968253968
106.1111111111111,-162.14285714285714,-325.0,-31.98412698412698,-38.96825396825397,7.698412698412698,-269.76190476190476,244.68253968253967,-325.0,325.0,-108.49206349206348,-206.74603174603175,-325.0,325.0,-325.0,142.3015873015873,-47.06349206349206,6.904761904761904,-208.17460317460316,-35.63492063492063,-31.98412698412698,-0.23809523809523808,-0.5555555555555556,-321.8253968253968
106.1111111111111,-162.14285714285714,-325.0,-31.98412698412698,-38.96825396825397,7.698412698412698,-269.76190476190476,244.68253968253967,-325.0,325.0,-108.49206349206348,-206.74603174603175,-325.0,325.0,-325.0,142.3015873015873,-47.06349206349206,6.904761904761904,-208.17460317460316,-35.63492063492063,-31.98412698412698,-0.23809523809523808,-0.5555555555555556,-321.8253968253968
286.1111111111111,-160.07936507936506,-325.0,-31.666666666666664,-38.49206349206349,3.095238095238095,-266.58730158730157,241.98412698412696,-325.0,325.0,-107.22222222222221,-204.2063492063492,-325.0,325.0,-325.0,176.9047619047619,-46.74603174603175,2.7777777777777777,-205.63492063492063,-35.15873015873016,-31.507936507936506,-1.0317460317460316,-0.3968253968253968,-321.8253968253968
286.1111111111111,-160.07936507936506,-325.0,-31.666666666666664,-38.49206349206349,3.095238095238095,-266.58730158730157,241.98412698412696,-325.0,325.0,-107.22222222222221,-204.2063492063492,-325.0,325.0,-325.0,176.9047619047619,-46.74603174603175,2.7777777777777777,-205.63492063492063,-35.15873015873016,-31.507936507936506,-1.0317460317460316,-0.3968253968253968,-321.8253968253968
325.0,-157.38095238095238,-325.0,-31.19047619047619,-38.01587301587301,0.23809523809523808,-261.984126984127,237.85714285714283,-325.0,325.0,-105.15873015873015,-200.55555555555554,-325.0,325.0,-325.0,320.07936507936506,-45.63492063492063,-0.3968253968253968,-202.3015873015873,-34.52380952380952,-31.349206349206348,-0.873015873015873,-0.7142857142857142,-321.8253968253968
325.0,-157.38095238095238,-325.0,-31.19047619047619,-38.01587301587301,0.23809523809523808,-261.984126984127,237.85714285714283,-325.0,325.0,-105.15873015873015,-200.55555555555554,-325.0,325.0,-325.0,320.07936507936506,-45.63492063492063,-0.3968253968253968,-202.3015873015873,-34.52380952380952,-31.349206349206348,-0.873015873015873,-0.7142857142857142,-321.8253968253968
325.0,-154.84126984126982,-322.46031746031747,-30.71428571428571,-37.22222222222222,0.7142857142857142,-257.6984126984127,234.04761904761904,-325.0,325.0,-103.57142857142857,-197.38095238095238,-325.0,325.0,-325.0,322.46031746031747,-45.0,0.23809523809523808,-198.96825396825395,-34.047619047619044,-23.41269841269841,-0.5555555555555556,-0.3968253968253968,-321.8253968253968
325.0,-154.84126984126982,-322.46031746031747,-30.71428571428571,-37.22222222222222,0.7142857142857142,-257.6984126984127,234.04761904761904,-325.0,325.0,-103.57142857142857,-197.38095238095238,-325.0,325.0,-325.0,322.46031746031747,-45.0,0.23809523809523808,-198.96825396825395,-34.047619047619044,-23.41269841269841,-0.5555555555555556,-0.3968253968253968,-321.8253968253968
325.0,-151.03174603174602,-317.06349206349205,-29.920634920634917,-36.269841269841265,-0.07936507936507936,-251.34920634920633,228.49206349206347,-325.0,325.0,-101.19047619047619,-192.46031746031744,-325.0,325.0,-322.9365079365079,325.0,-43.888888888888886,0.23809523809523808,-194.2063492063492,-33.25396825396825,53.888888888888886,0.07936507936507936,-0.5555555555555556,-166.26984126984127
325.0,-151.03174603174602,-317.06349206349205,-29.920634920634917,-36.269841269841265,-0.07936507936507936,-251.34920634920633,228.49206349206347,-325.0,325.0,-101.19047619047619,-192.46031746031744,-325.0,325.0,-322.9365079365079,325.0,-43.888888888888886,0.23809523809523808,-194.2063492063492,-33.25396825396825,53.888888888888886,0.07936507936507936,-0.5555555555555556,-166.26984126984127
325.0,-147.85714285714286,-310.39682539682536,-29.285714285714285,-35.63492063492063,0.07936507936507936,-246.26984126984127,223.7301587301587,-325.0,325.0,-98.96825396825396,-188.4920634920635,-325.0,325.0,-317.06349206349205,325.0,-42.93650793650794,0.7142857142857142,-190.23809523809524,-32.460317460317455,255.95238095238093,-0.7142857142857142,-0.873015873015873,-166.26984126984127
325.0,-147.85714285714286,-310.39682539682536,-29.285714285714285,-35.63492063492063,0.07936507936507936,-246.26984126984127,223.7301587301587,-325.0,325.0,-98.96825396825396,-188.4920634920635,-325.0,325.0,-317.06349206349205,325.0,-42.93650793650794,0.7142857142857142,-190.23809523809524,-32.460317460317455,255.95238095238093,-0.7142857142857142,-0.873015873015873,-166.26984126984127
325.0,-146.11111111111111,-306.58730158730157,-28.809523809523807,-35.317460317460316,-2.7777777777777777,-242.93650793650792,220.87301587301587,-325.0,325.0,-97.6984126984127,-186.11111111111111,-325.0,325.0,-312.9365079365079,325.0,-42.460317460317455,-2.46031746031746,-187.69841269841268,-32.3015873015873,325.0,-0.07936507936507936,0.5555555555555556,-166.26984126984127
325.0,-146.11111111111111,-306.58730158730157,-28.809523809523807,-35.317460317460316,-2.7777777777777777,-242.93650793650792,220.87301587301587,-325.0,325.0,-97.6984126984127,-186.11111111111111,-325.0,325.0,-312.9365079365079,325.0,-42.460317460317455,-2.46031746031746,-187.69841269841268,-32.3015873015873,325.0,-0.07936507936507936,0.5555555555555556,-166.26984126984127
325.0,-131.03174603174602,-275.0,-25.79365079365079,-32.14285714285714,-1.6666666666666665,-218.17460317460316,198.8095238095238,-309.6031746031746,325.0,-87.6984126984127,-166.9047619047619,-301.3492063492063,325.0,-281.8253968253968,322.1428571428571,-38.01587301587301,-0.7142857142857142,-168.4920634920635,-29.126984126984127,325.0,0.3968253968253968,-0.7142857142857142,-166.26984126984127
325.0,-131.03174603174602,-275.0,-25.79365079365079,-32.14285714285714,-1.6666666666666665,-218.17460317460316,198.8095238095238,-309.6031746031746,325.0,-87.6984126984127,-166.9047619047619,-301.3492063492063,325.0,-281.8253968253968,322.1428571428571,-38.01587301587301,-0.7142857142857142,-168.4920634920635,-29.126984126984127,325.0,0.3968253968253968,-0.7142857142857142,-166.26984126984127
325.0,-126.58730158730158,-265.7936507936508,-25.0,-31.03174603174603,1.984126984126984,-210.7142857142857,192.14285714285714,-299.4444444444444,325.0,-84.84126984126983,-161.19047619047618,-291.19047619047615,325.0,-272.6190476190476,319.4444444444444,-36.42857142857142,3.095238095238095,-162.93650793650792,-28.015873015873016,325.0,0.5555555555555556,-0.873015873015873,-166.26984126984127
325.0,-126.58730158730158,-265.7936507936508,-25.0,-31.03174603174603,1.984126984126984,-210.7142857142857,192.14285714285714,-299.4444444444444,325.0,-84.84126984126983,-161.19047619047618,-291.19047619047615,325.0,-272.6190476190476,319.4444444444444,-36.42857142857142,3.095238095238095,-162.93650793650792,-28.015873015873016,325.0,0.5555555555555556,-0.873015873015873,-166.26984126984127
191.34920634920633,-101.19047619047619,-211.98412698412696,82.77777777777777,-8.174603174603174,-1.349206349206349,-168.015873015873,153.73015873015873,-239.60317460317458,325.0,-67.6984126984127,-128.015873015873,-231.98412698412696,325.0,-218.8095238095238,255.0,-29.126984126984127,1.1904761904761905,-130.07936507936506,325.0,325.0,-0.7142857142857142,-0.3968253968253968,-321.8253968253968
191.34920634920633,-101.19047619047619,-211.98412698412696,82.77777777777777,-8.174603174603174,-1.349206349206349,-168.015873015873,153.73015873015873,-239.60317460317458,325.0,-67.6984126984127,-128.015873015873,-231.98412698412696,325.0,-218.8095238095238,255.0,-29.126984126984127,1.1904761904761905,-130.07936507936506,325.0,325.0,-0.7142857142857142,-0.3968253968253968,-321.8253968253968
325.0,-97.85714285714285,-204.84126984126982,325.0,7.698412698412698,-7.063492063492063,-162.61904761904762,148.8095238095238,-231.8253968253968,325.0,-65.47619047619047,-124.04761904761904,-224.2063492063492,325.0,-211.98412698412696,246.74603174603172,-28.015873015873016,-4.0476190476190474,-125.79365079365078,325.0,325.0,-0.3968253968253968,-0.7142857142857142,-321.8253968253968
325.0,-97.85714285714285,-204.84126984126982,325.0,7.698412698412698,-7.063492063492063,-162.61904761904762,148.8095238095238,-231.8253968253968,325.0,-65.47619047619047,-124.04761904761904,-224.2063492063492,325.0,-211.98412698412696,246.74603174603172,-28.015873015873016,-4.0476190476190474,-125.79365079365078,325.0,325.0,-0.3968253968253968,-0.7142857142857142,-321.8253968253968
325.0,-96.9047619047619,-203.09523809523807,325.0,11.984126984126984,-8.65079365079365,-161.34920634920633,147.69841269841268,-229.9206349206349,325.0,-65.0,-122.93650793650794,-222.3015873015873,325.0,-210.2380952380952,244.68253968253967,-27.857142857142854,-5.476190476190476,-124.68253968253967,325.0,325.0,-0.7142857142857142,-0.7142857142857142,-321.8253968253968
325.0,-96.9047619047619,-203.09523809523807,325.0,11.984126984126984,-8.65079365079365,-161.34920634920633,147.69841269841268,-229.9206349206349,325.0,-65.0,-122.93650793650794,-222.3015873015873,325.0,-210.2380952380952,244.68253968253967,-27.857142857142854,-5.476190476190476,-124.68253968253967,325.0,325.0,-0.7142857142857142,-0.7142857142857142,-321.8253968253968
325.0,-96.9047619047619,-203.09523809523807,325.0,11.984126984126984,-8.65079365079365,-161.34920634920633,147.69841269841268,-229.9206349206349,325.0,-65.0,-122.93650793650794,-222.3015873015873,325.0,-210.2380952380952,244.68253968253967,-27.857142857142854,-5.476190476190476,-124.68253968253967,325.0,325.0,-0.7142857142857142,-0.7142857142857142,-321.8253968253968
325.0,-96.9047619047619,-203.09523809523807,325.0,11.984126984126984,-8.65079365079365,-161.34920634920633,147.69841269841268,-229.9206349206349,325.0,-65.0,-122.93650793650794,-222.3015873015873,325.0,-210.2380952380952,244.68253968253967,-27.857142857142854,-5.476190476190476,-124.68253968253967,325.0,325.0,-0.7142857142857142,-0.7142857142857142,-321.8253968253968
325.0,-79.28571428571428,325.0,325.0,325.0,-39.76190476190476,325.0,119.92063492063491,325.0,277.85714285714283,325.0,-99.92063492063491,325.0,325.0,325.0,198.33333333333331,325.0,-39.285714285714285,-101.66666666666666,325.0,-210.55555555555554,-0.7142857142857142,-0.23809523809523808,-321.8253968253968
325.0,-79.28571428571428,325.0,325.0,325.0,-39.76190476190476,325.0,119.92063492063491,325.0,277.85714285714283,325.0,-99.92063492063491,325.0,325.0,325.0,198.33333333333331,325.0,-39.285714285714285,-101.66666666666666,325.0,-210.55555555555554,-0.7142857142857142,-0.23809523809523808,-321.8253968253968
325.0,-78.65079365079364,325.0,325.0,325.0,-37.22222222222222,325.0,118.96825396825396,325.0,275.4761904761905,325.0,-98.96825396825396,325.0,325.0,325.0,196.74603174603175,325.0,-36.42857142857142,-100.71428571428571,325.0,-165.95238095238093,-0.7142857142857142,0.7142857142857142,-166.26984126984127
325.0,-78.65079365079364,325.0,325.0,325.0,-37.22222222222222,325.0,118.96825396825396,325.0,275.4761904761905,325.0,-98.96825396825396,325.0,325.0,325.0,196.74603174603175,325.0,-36.42857142857142,-100.71428571428571,325.0,-165.95238095238093,-0.7142857142857142,0.7142857142857142,-166.26984126984127
-325.0,-38.65079365079365,-325.0,325.0,-325.0,24.68253968253968,-325.0,59.76190476190476,-325.0,134.68253968253967,-325.0,-48.01587301587301,-325.0,169.12698412698413,-325.0,97.22222222222221,-325.0,32.61904761904762,-49.12698412698413,318.8095238095238,298.8095238095238,0.07936507936507936,-0.23809523809523808,-166.26984126984127
-325.0,-38.65079365079365,-325.0,325.0,-325.0,24.68253968253968,-325.0,59.76190476190476,-325.0,134.68253968253967,-325.0,-48.01587301587301,-325.0,169.12698412698413,-325.0,97.22222222222221,-325.0,32.61904761904762,-49.12698412698413,318.8095238095238,298.8095238095238,0.07936507936507936,-0.23809523809523808,-166.26984126984127
-325.0,-37.53968253968254,-325.0,325.0,-325.0,30.238095238095237,-325.0,58.01587301587301,-325.0,130.87301587301587,-325.0,-46.58730158730158,-325.0,163.73015873015873,-325.0,94.36507936507935,-325.0,38.49206349206349,-48.01587301587301,309.9206349206349,289.9206349206349,-0.5555555555555556,-0.07936507936507936,-166.26984126984127
-325.0,-37.53968253968254,-325.0,325.0,-325.0,30.238095238095237,-325.0,58.01587301587301,-325.0,130.87301587301587,-325.0,-46.58730158730158,-325.0,163.73015873015873,-325.0,94.36507936507935,-325.0,38.49206349206349,-48.01587301587301,309.9206349206349,289.9206349206349,-0.5555555555555556,-0.07936507936507936,-166.26984126984127
-325.0,-37.06349206349206,-325.0,325.0,-325.0,28.333333333333332,-325.0,57.22222222222222,-325.0,128.96825396825395,-325.0,-46.11111111111111,-325.0,161.8253968253968,-325.0,93.09523809523809,-325.0,36.269841269841265,-47.38095238095238,305.7936507936508,286.1111111111111,-1.0317460317460316,0.23809523809523808,-166.26984126984127
-325.0,-37.06349206349206,-325.0,325.0,-325.0,28.333333333333332,-325.0,57.22222222222222,-325.0,128.96825396825395,-325.0,-46.11111111111111,-325.0,161.8253968253968,-325.0,93.09523809523809,-325.0,36.269841269841265,-47.38095238095238,305.7936507936508,286.1111111111111,-1.0317460317460316,0.23809523809523808,-166.26984126984127
-325.0,-36.42857142857142,-325.0,325.0,-325.0,22.619047619047617,-325.0,56.269841269841265,-325.0,127.06349206349206,-325.0,-45.15873015873016,-325.0,158.65079365079364,-325.0,91.5079365079365,-325.0,31.03174603174603,-47.06349206349206,300.87301587301585,281.3492063492063,-1.1904761904761905,-0.7142857142857142,-166.26984126984127
-325.0,-36.42857142857142,-325.0,325.0,-325.0,22.619047619047617,-325.0,56.269841269841265,-325.0,127.06349206349206,-325.0,-45.15873015873016,-325.0,158.65079365079364,-325.0,91.5079365079365,-325.0,31.03174603174603,-47.06349206349206,300.87301587301585,281.3492063492063,-1.1904761904761905,-0.7142857142857142,-166.26984126984127
314.04761904761904,-35.79365079365079,-325.0,325.0,-325.0,23.095238095238095,-325.0,55.15873015873016,-325.0,124.2063492063492,-325.0,-44.52380952380952,-325.0,155.3174603174603,-325.0,89.76190476190476,-325.0,31.666666666666664,-45.79365079365079,243.09523809523807,275.1587301587301,-0.5555555555555556,-0.07936507936507936,-321.8253968253968
314.04761904761904,-35.79365079365079,-325.0,325.0,-325.0,23.095238095238095,-325.0,55.15873015873016,-325.0,124.2063492063492,-325.0,-44.52380952380952,-325.0,155.3174603174603,-325.0,89.76190476190476,-325.0,31.666666666666664,-45.79365079365079,243.09523809523807,275.1587301587301,-0.5555555555555556,-0.07936507936507936,-321.8253968253968
325.0,-35.317460317460316,-325.0,325.0,-325.0,25.952380952380953,-325.0,54.2063492063492,-325.0,121.98412698412697,-325.0,-43.888888888888886,-325.0,152.61904761904762,-325.0,88.17460317460316,-325.0,33.888888888888886,-45.317460317460316,287.6984126984127,270.39682539682536,-0.5555555555555556,-0.7142857142857142,-321.8253968253968
325.0,-35.317460317460316,-325.0,325.0,-325.0,25.952380952380953,-325.0,54.2063492063492,-325.0,121.98412698412697,-325.0,-43.888888888888886,-325.0,152.61904761904762,-325.0,88.17460317460316,-325.0,33.888888888888886,-45.317460317460316,287.6984126984127,270.39682539682536,-0.5555555555555556,-0.7142857142857142,-321.8253968253968
325.0,-34.682539682539684,-325.0,324.8412698412698,-325.0,26.11111111111111,-325.0,53.41269841269841,-325.0,120.07936507936508,-325.0,-43.25396825396825,-325.0,149.9206349206349,-325.0,86.74603174603175,-325.0,34.84126984126984,-44.52380952380952,286.90476190476187,265.7936507936508,-0.3968253968253968,-0.7142857142857142,-321.8253968253968
325.0,-34.682539682539684,-325.0,324.8412698412698,-325.0,26.11111111111111,-325.0,53.41269841269841,-325.0,120.07936507936508,-325.0,-43.25396825396825,-325.0,149.9206349206349,-325.0,86.74603174603175,-325.0,34.84126984126984,-44.52380952380952,286.90476190476187,265.7936507936508,-0.3968253968253968,-0.7142857142857142,-321.8253968253968
325.0,-34.2063492063492,-325.0,321.984126984127,-325.0,28.49206349206349,-325.0,52.61904761904761,-325.0,118.65079365079364,-325.0,-42.460317460317455,-325.0,147.85714285714286,-325.0,85.47619047619047,-325.0,36.904761904761905,-44.047619047619044,282.77777777777777,262.46031746031747,0.07936507936507936,0.23809523809523808,-321.8253968253968
325.0,-34.2063492063492,-325.0,321.984126984127,-325.0,28.49206349206349,-325.0,52.61904761904761,-325.0,118.65079365079364,-325.0,-42.460317460317455,-325.0,147.85714285714286,-325.0,85.47619047619047,-325.0,36.904761904761905,-44.047619047619044,282.77777777777777,262.46031746031747,0.07936507936507936,0.23809523809523808,-321.8253968253968
-116.42857142857142,-33.57142857142857,-325.0,315.0,-325.0,31.349206349206348,-325.0,51.666666666666664,-325.0,115.95238095238095,-325.0,-41.666666666666664,-325.0,144.68253968253967,-325.0,83.88888888888889,-325.0,39.6031746031746,-43.095238095238095,277.06349206349205,256.74603174603175,0.3968253968253968,-0.07936507936507936,-321.8253968253968
-116.42857142857142,-33.57142857142857,-325.0,315.0,-325.0,31.349206349206348,-325.0,51.666666666666664,-325.0,115.95238095238095,-325.0,-41.666666666666664,-325.0,144.68253968253967,-325.0,83.88888888888889,-325.0,39.6031746031746,-43.095238095238095,277.06349206349205,256.74603174603175,0.3968253968253968,-0.07936507936507936,-321.8253968253968
-325.0,-33.095238095238095,-325.0,309.76190476190476,-325.0,22.936507936507937,-325.0,50.71428571428571,-325.0,114.04761904761904,-325.0,-41.03174603174603,-325.0,142.14285714285714,-325.0,82.46031746031746,-324.8412698412698,31.349206349206348,-42.3015873015873,272.46031746031747,252.3015873015873,0.5555555555555556,-0.873015873015873,-166.26984126984127
-325.0,-33.095238095238095,-325.0,309.76190476190476,-325.0,22.936507936507937,-325.0,50.71428571428571,-325.0,114.04761904761904,-325.0,-41.03174603174603,-325.0,142.14285714285714,-325.0,82.46031746031746,-324.8412698412698,31.349206349206348,-42.3015873015873,272.46031746031747,252.3015873015873,0.5555555555555556,-0.873015873015873,-166.26984126984127
-325.0,-32.460317460317455,-325.0,301.984126984127,-322.1428571428571,27.22222222222222,-325.0,49.285714285714285,-325.0,111.03174603174602,-323.88888888888886,-39.92063492063492,-325.0,138.4920634920635,-325.0,80.23809523809523,-317.53968253968253,35.79365079365079,-41.34920634920635,265.6349206349206,245.79365079365078,-1.0317460317460316,-0.23809523809523808,-166.26984126984127
-325.0,-32.460317460317455,-325.0,301.984126984127,-322.1428571428571,27.22222222222222,-325.0,49.285714285714285,-325.0,111.03174603174602,-323.88888888888886,-39.92063492063492,-325.0,138.4920634920635,-325.0,80.23809523809523,-317.53968253968253,35.79365079365079,-41.34920634920635,265.6349206349206,245.79365079365078,-1.0317460317460316,-0.23809523809523808,-166.26984126984127
-325.0,-31.98412698412698,-324.2063492063492,298.17460317460313,-318.17460317460313,31.825396825396822,-324.5238095238095,48.80952380952381,-325.0,109.76190476190476,-320.07936507936506,-39.285714285714285,-325.0,136.58730158730157,-325.0,79.12698412698413,-313.25396825396825,40.39682539682539,-40.87301587301587,262.46031746031747,242.6190476190476,-0.23809523809523808,-0.23809523809523808,-166.26984126984127
-325.0,-31.98412698412698,-324.2063492063492,298.17460317460313,-318.17460317460313,31.825396825396822,-324.5238095238095,48.80952380952381,-325.0,109.76190476190476,-320.07936507936506,-39.285714285714285,-325.0,136.58730158730157,-325.0,79.12698412698413,-313.25396825396825,40.39682539682539,-40.87301587301587,262.46031746031747,242.6190476190476,-0.23809523809523808,-0.23809523809523808,-166.26984126984127
-325.0,-31.349206349206348,-321.19047619047615,293.4126984126984,-312.9365079365079,35.0,-320.87301587301585,48.01587301587301,-325.0,107.6984126984127,-314.68253968253964,-38.80952380952381,-322.46031746031747,134.36507936507937,-325.0,77.85714285714285,-307.85714285714283,42.460317460317455,-40.079365079365076,258.015873015873,238.49206349206347,0.3968253968253968,-0.23809523809523808,-166.26984126984127
-325.0,-31.349206349206348,-321.19047619047615,293.4126984126984,-312.9365079365079,35.0,-320.87301587301585,48.01587301587301,-325.0,107.6984126984127,-314.68253968253964,-38.80952380952381,-322.46031746031747,134.36507936507937,-325.0,77.85714285714285,-307.85714285714283,42.460317460317455,-40.079365079365076,258.015873015873,238.49206349206347,0.3968253968253968,-0.23809523809523808,-166.26984126984127
-325.0,-31.03174603174603,-315.6349206349206,288.4920634920635,-307.69841269841265,31.349206349206348,-315.4761904761905,47.22222222222222,-321.19047619047615,105.79365079365078,-309.6031746031746,-38.01587301587301,-316.74603174603175,131.984126984127,-321.8253968253968,76.74603174603175,-302.46031746031747,39.285714285714285,-39.44444444444444,253.88888888888889,234.36507936507934,-0.873015873015873,-0.5555555555555556,-166.26984126984127
-325.0,-31.03174603174603,-315.6349206349206,288.4920634920635,-307.69841269841265,31.349206349206348,-315.4761904761905,47.22222222222222,-321.19047619047615,105.79365079365078,-309.6031746031746,-38.01587301587301,-316.74603174603175,131.984126984127,-321.8253968253968,76.74603174603175,-302.46031746031747,39.285714285714285,-39.44444444444444,253.88888888888889,234.36507936507934,-0.873015873015873,-0.5555555555555556,-166.26984126984127
-325.0,-30.396825396825395,-310.07936507936506,283.4126984126984,-302.6190476190476,28.65079365079365,-310.23809523809524,46.42857142857142,-315.95238095238096,104.04761904761904,-304.36507936507934,-37.53968253968254,-311.3492063492063,129.6031746031746,-316.58730158730157,75.15873015873015,-297.22222222222223,36.42857142857142,-38.96825396825397,249.44444444444443,230.55555555555554,0.07936507936507936,0.07936507936507936,-321.8253968253968
-325.0,-30.396825396825395,-310.07936507936506,283.4126984126984,-302.6190476190476,28.65079365079365,-310.23809523809524,46.42857142857142,-315.95238095238096,104.04761904761904,-304.36507936507934,-37.53968253968254,-311.3492063492063,129.6031746031746,-316.58730158730157,75.15873015873015,-297.22222222222223,36.42857142857142,-38.96825396825397,249.44444444444443,230.55555555555554,0.07936507936507936,0.07936507936507936,-321.8253968253968
-325.0,-30.238095238095237,-306.1111111111111,279.76190476190476,-298.8095238095238,34.047619047619044,-306.4285714285714,45.95238095238095,-312.1428571428571,102.61904761904762,-300.55555555555554,-37.22222222222222,-307.38095238095235,127.85714285714285,-312.6190476190476,74.36507936507937,-293.57142857142856,41.98412698412698,-38.49206349206349,246.26984126984127,227.53968253968253,0.23809523809523808,-0.3968253968253968,-321.8253968253968
-325.0,-30.238095238095237,-306.1111111111111,279.76190476190476,-298.8095238095238,34.047619047619044,-306.4285714285714,45.95238095238095,-312.1428571428571,102.61904761904762,-300.55555555555554,-37.22222222222222,-307.38095238095235,127.85714285714285,-312.6190476190476,74.36507936507937,-293.57142857142856,41.98412698412698,-38.49206349206349,246.26984126984127,227.53968253968253,0.23809523809523808,-0.3968253968253968,-321.8253968253968
-223.88888888888889,-29.444444444444443,-298.17460317460313,272.6190476190476,-291.5079365079365,37.22222222222222,-298.8095238095238,44.84126984126984,-304.2063492063492,100.07936507936508,-293.25396825396825,-36.269841269841265,-299.4444444444444,124.52380952380952,-304.8412698412698,72.46031746031746,-285.95238095238096,44.52380952380952,-37.53968253968254,240.07936507936506,221.34920634920633,0.3968253968253968,-0.3968253968253968,-321.8253968253968
-223.88888888888889,-29.444444444444443,-298.17460317460313,272.6190476190476,-291.5079365079365,37.22222222222222,-298.8095238095238,44.84126984126984,-304.2063492063492,100.07936507936508,-293.25396825396825,-36.269841269841265,-299.4444444444444,124.52380952380952,-304.8412698412698,72.46031746031746,-285.95238095238096,44.52380952380952,-37.53968253968254,240.07936507936506,221.34920634920633,0.3968253968253968,-0.3968253968253968,-321.8253968253968
325.0,-28.96825396825397,-293.0952380952381,268.17460317460313,-286.74603174603175,29.444444444444443,-293.57142857142856,44.047619047619044,-298.968253968254,98.33333333333333,-288.4920634920635,-35.79365079365079,-294.36507936507934,122.30158730158729,-300.07936507936506,71.34920634920634,-281.031746031746,37.38095238095238,-37.06349206349206,236.26984126984127,217.53968253968253,-0.7142857142857142,-1.0317460317460316,-321.8253968253968
325.0,-28.96825396825397,-293.0952380952381,268.17460317460313,-286.74603174603175,29.444444444444443,-293.57142857142856,44.047619047619044,-298.968253968254,98.33333333333333,-288.4920634920635,-35.79365079365079,-294.36507936507934,122.30158730158729,-300.07936507936506,71.34920634920634,-281.031746031746,37.38095238095238,-37.06349206349206,236.26984126984127,217.53968253968253,-0.7142857142857142,-1.0317460317460316,-321.8253968253968
325.0,-28.65079365079365,-288.17460317460313,263.73015873015873,-282.1428571428571,33.73015873015873,-288.6507936507936,43.41269841269841,-294.04761904761904,96.58730158730158,-283.73015873015873,-35.15873015873016,-289.4444444444444,120.23809523809523,-295.0,65.15873015873015,-276.1111111111111,41.34920634920635,-36.58730158730159,232.3015873015873,213.7301587301587,0.873015873015873,-0.07936507936507936,-321.8253968253968
325.0,-28.65079365079365,-288.17460317460313,263.73015873015873,-282.1428571428571,33.73015873015873,-288.6507936507936,43.41269841269841,-294.04761904761904,96.58730158730158,-283.73015873015873,-35.15873015873016,-289.4444444444444,120.23809523809523,-295.0,65.15873015873015,-276.1111111111111,41.34920634920635,-36.58730158730159,232.3015873015873,213.7301587301587,0.873015873015873,-0.07936507936507936,-321.8253968253968
325.0,-28.65079365079365,-286.90476190476187,262.6190476190476,-281.19047619047615,35.476190476190474,-287.38095238095235,43.25396825396825,-292.77777777777777,96.26984126984127,-282.46031746031747,-35.15873015873016,-288.015873015873,119.76190476190476,-293.88888888888886,65.79365079365078,-275.0,43.095238095238095,-36.42857142857142,231.19047619047618,212.93650793650792,0.7142857142857142,0.07936507936507936,-166.26984126984127
325.0,-28.65079365079365,-286.90476190476187,262.6190476190476,-281.19047619047615,35.476190476190474,-287.38095238095235,43.25396825396825,-292.77777777777777,96.26984126984127,-282.46031746031747,-35.15873015873016,-288.015873015873,119.76190476190476,-293.88888888888886,65.79365079365078,-275.0,43.095238095238095,-36.42857142857142,231.19047619047618,212.93650793650792,0.7142857142857142,0.07936507936507936,-166.26984126984127
325.0,-28.65079365079365,-286.90476190476187,262.6190476190476,-281.19047619047615,35.476190476190474,-287.38095238095235,43.25396825396825,-292.77777777777777,96.26984126984127,-282.46031746031747,-35.15873015873016,-288.015873015873,119.76190476190476,-293.88888888888886,65.79365079365078,-275.0,43.095238095238095,-36.42857142857142,231.19047619047618,212.93650793650792,0.7142857142857142,0.07936507936507936,-166.26984126984127
325.0,-28.65079365079365,-286.90476190476187,262.6190476190476,-281.19047619047615,35.476190476190474,-287.38095238095235,43.25396825396825,-292.77777777777777,96.26984126984127,-282.46031746031747,-35.15873015873016,-288.015873015873,119.76190476190476,-293.88888888888886,65.79365079365078,-275.0,43.095238095238095,-36.42857142857142,231.19047619047618,212.93650793650792,0.7142857142857142,0.07936507936507936,-166.26984126984127
325.0,-28.65079365079365,-286.90476190476187,262.6190476190476,-281.19047619047615,35.476190476190474,-287.38095238095235,43.25396825396825,-292.77777777777777,96.26984126984127,-282.46031746031747,-35.15873015873016,-288.015873015873,119.76190476190476,-293.88888888888886,65.79365079365078,-275.0,43.095238095238095,-36.42857142857142,231.19047619047618,212.93650793650792,0.7142857142857142,0.07936507936507936,-166.26984126984127
325.0,-28.65079365079365,-286.90476190476187,262.6190476190476,-281.19047619047615,35.476190476190474,-287.38095238095235,43.25396825396825,-292.77777777777777,96.26984126984127,-282.46031746031747,-35.15873015873016,-288.015873015873,119.76190476190476,-293.88888888888886,65.79365079365078,-275.0,43.095238095238095,-36.42857142857142,231.19047619047618,212.93650793650792,0.7142857142857142,0.07936507936507936,-166.26984126984127
325.0,-28.65079365079365,-286.90476190476187,262.6190476190476,-281.19047619047615,35.476190476190474,-287.38095238095235,43.25396825396825,-292.77777777777777,96.26984126984127,-282.46031746031747,-35.15873015873016,-288.015873015873,119.76190476190476,-293.88888888888886,65.79365079365078,-275.0,43.095238095238095,-36.42857142857142,231.19047619047618,212.93650793650792,0.7142857142857142,0.07936507936507936,-166.26984126984127
325.0,-28.65079365079365,-286.90476190476187,262.6190476190476,-281.19047619047615,35.476190476190474,-287.38095238095235,43.25396825396825,-292.77777777777777,96.26984126984127,-282.46031746031747,-35.15873015873016,-288.015873015873,119.76190476190476,-293.88888888888886,65.79365079365078,-275.0,43.095238095238095,-36.42857142857142,231.19047619047618,212.93650793650792,0.7142857142857142,0.07936507936507936,-166.26984126984127
325.0,-28.65079365079365,-286.90476190476187,262.6190476190476,-281.19047619047615,35.476190476190474,-287.38095238095235,43.25396825396825,-292.77777777777777,96.26984126984127,-282.46031746031747,-35.15873015873016,-288.015873015873,119.76190476190476,-293.88888888888886,65.79365079365078,-275.0,43.095238095238095,-36.42857142857142,231.19047619047618,212.93650793650792,0.7142857142857142,0.07936507936507936,-166.26984126984127
325.0,-28.65079365079365,-286.90476190476187,262.6190476190476,-281.19047619047615,35.476190476190474,-287.38095238095235,43.25396825396825,-292.77777777777777,96.26984126984127,-282.46031746031747,-35.15873015873016,-288.015873015873,119.76190476190476,-293.88888888888886,65.79365079365078,-275.0,43.095238095238095,-36.42857142857142,231.19047619047618,212.93650793650792,0.7142857142857142,0.07936507936507936,-166.26984126984127
325.0,-28.65079365079365,-286.90476190476187,262.6190476190476,-281.19047619047615,35.476190476190474,-287.38095238095235,43.25396825396825,-292.77777777777777,96.26984126984127,-282.46031746031747,-35.15873015873016,-288.015873015873,119.76190476190476,-293.88888888888886,65.79365079365078,-275.0,43.095238095238095,-36.42857142857142,231.19047619047618,212.93650793650792,0.7142857142857142,0.07936507936507936,-321.8253968253968
325.0,-28.65079365079365,-286.90476190476187,262.6190476190476,-281.19047619047615,35.476190476190474,-287.38095238095235,43.25396825396825,-292.77777777777777,96.26984126984127,-282.46031746031747,-35.15873015873016,-288.015873015873,119.76190476190476,-293.88888888888886,65.79365079365078,-275.0,43.095238095238095,-36.42857142857142,231.19047619047618,212.93650793650792,0.7142857142857142,0.07936507936507936,-321.8253968253968
325.0,-28.65079365079365,-286.90476190476187,262.6190476190476,-281.19047619047615,35.476190476190474,-287.38095238095235,43.25396825396825,-292.77777777777777,96.26984126984127,-282.46031746031747,-35.15873015873016,-288.015873015873,119.76190476190476,-293.88888888888886,65.79365079365078,-275.0,43.095238095238095,-36.42857142857142,231.19047619047618,212.93650793650792,0.7142857142857142,0.07936507936507936,-321.8253968253968
325.0,-28.65079365079365,-286.90476190476187,262.6190476190476,-281.19047619047615,35.476190476190474,-287.38095238095235,43.25396825396825,-292.77777777777777,96.26984126984127,-282.46031746031747,-35.15873015873016,-288.015873015873,119.76190476190476,-293.88888888888886,65.79365079365078,-275.0,43.095238095238095,-36.42857142857142,231.19047619047618,212.93650793650792,0.7142857142857142,0.07936507936507936,-321.8253968253968
325.0,-28.65079365079365,-286.90476190476187,262.6190476190476,-281.19047619047615,35.476190476190474,-287.38095238095235,43.25396825396825,-292.77777777777777,96.26984126984127,-282.46031746031747,-35.15873015873016,-288.015873015873,119.76190476190476,-293.88888888888886,65.79365079365078,-275.0,43.095238095238095,-36.42857142857142,231.19047619047618,212.93650793650792,0.7142857142857142,0.07936507936507936,-321.8253968253968
325.0,-28.65079365079365,-286.90476190476187,262.6190476190476,-281.19047619047615,35.476190476190474,-287.38095238095235,43.25396825396825,-292.77777777777777,96.26984126984127,-282.46031746031747,-35.15873015873016,-288.015873015873,119.76190476190476,-293.88888888888886,65.79365079365078,-275.0,43.095238095238095,-36.42857142857142,231.19047619047618,212.93650793650792,0.7142857142857142,0.07936507936507936,-321.8253968253968
325.0,-28.65079365079365,-286.90476190476187,262.6190476190476,-281.19047619047615,35.476190476190474,-287.38095238095235,43.25396825396825,-292.77777777777777,96.26984126984127,-282.46031746031747,-35.15873015873016,-288.015873015873,119.76190476190476,-293.88888888888886,65.79365079365078,-275.0,43.095238095238095,-36.42857142857142,231.19047619047618,212.93650793650792,0.7142857142857142,0.07936507936507936,-321.8253968253968
325.0,-28.65079365079365,-286.90476190476187,262.6190476190476,-281.19047619047615,35.476190476190474,-287.38095238095235,43.25396825396825,-292.77777777777777,96.26984126984127,-282.46031746031747,-35.15873015873016,-288.015873015873,119.76190476190476,-293.88888888888886,65.79365079365078,-275.0,43.095238095238095,-36.42857142857142,231.19047619047618,212.93650793650792,0.7142857142857142,0.07936507936507936,-321.8253968253968
325.0,-28.65079365079365,-286.90476190476187,262.6190476190476,-281.19047619047615,35.476190476190474,-287.38095238095235,43.25396825396825,-292.77777777777777,96.26984126984127,-282.46031746031747,-35.15873015873016,-288.015873015873,119.76190476190476,-293.88888888888886,65.79365079365078,-275.0,43.095238095238095,-36.42857142857142,231.19047619047618,212.93650793650792,0.7142857142857142,0.07936507936507936,-321.8253968253968
325.0,-28.65079365079365,-286.90476190476187,262.6190476190476,-281.19047619047615,35.476190476190474,-287.38095238095235,43.25396825396825,-292.77777777777777,96.26984126984127,-282.46031746031747,-35.15873015873016,-288.015873015873,119.76190476190476,-293.88888888888886,65.79365079365078,-275.0,43.095238095238095,-36.42857142857142,231.19047619047618,212.93650793650792,0.7142857142857142,0.07936507936507936,-321.8253968253968
325.0,-28.65079365079365,-286.90476190476187,262.6190476190476,-281.19047619047615,35.476190476190474,-287.38095238095235,43.25396825396825,-292.77777777777777,96.26984126984127,-282.46031746031747,-35.15873015873016,-288.015873015873,119.76190476190476,-293.88888888888886,65.79365079365078,-275.0,43.095238095238095,-36.42857142857142,231.19047619047618,212.93650793650792,0.7142857142857142,0.07936507936507936,-166.26984126984127
325.0,-28.65079365079365,-286.90476190476187,262.6190476190476,-281.19047619047615,35.476190476190474,-287.38095238095235,43.25396825396825,-292.77777777777777,96.26984126984127,-282.46031746031747,-35.15873015873016,-288.015873015873,119.76190476190476,-293.88888888888886,65.79365079365078,-275.0,43.095238095238095,-36.42857142857142,231.19047619047618,212.93650793650792,0.7142857142857142,0.07936507936507936,-166.26984126984127
325.0,-28.65079365079365,-286.90476190476187,262.6190476190476,-281.19047619047615,35.476190476190474,-287.38095238095235,43.25396825396825,-292.77777777777777,96.26984126984127,-282.46031746031747,-35.15873015873016,-288.015873015873,119.76190476190476,-293.88888888888886,65.79365079365078,-275.0,43.095238095238095,-36.42857142857142,231.19047619047618,212.93650793650792,0.7142857142857142,0.07936507936507936,-166.26984126984127
325.0,-28.65079365079365,-286.90476190476187,262.6190476190476,-281.19047619047615,35.476190476190474,-287.38095238095235,43.25396825396825,-292.77777777777777,96.26984126984127,-282.46031746031747,-35.15873015873016,-288.015873015873,119.76190476190476,-293.88888888888886,65.79365079365078,-275.0,43.095238095238095,-36.42857142857142,231.19047619047618,212.93650793650792,0.7142857142857142,0.07936507936507936,-166.26984126984127
325.0,-28.65079365079365,-286.90476190476187,262.6190476190476,-281.19047619047615,35.476190476190474,-287.38095238095235,43.25396825396825,-292.77777777777777,96.26984126984127,-282.46031746031747,-35.15873015873016,-288.015873015873,119.76190476190476,-293.88888888888886,65.79365079365078,-275.0,43.095238095238095,-36.42857142857142,231.19047619047618,212.93650793650792,0.7142857142857142,0.07936507936507936,-166.26984126984127
325.0,-28.65079365079365,-286.90476190476187,262.6190476190476,-281.19047619047615,35.476190476190474,-287.38095238095235,43.25396825396825,-292.77777777777777,96.26984126984127,-282.46031746031747,-35.15873015873016,-288.015873015873,119.76190476190476,-293.88888888888886,65.79365079365078,-275.0,43.095238095238095,-36.42857142857142,231.19047619047618,212.93650793650792,0.7142857142857142,0.07936507936507936,-166.26984126984127
325.0,-28.65079365079365,-286.90476190476187,262.6190476190476,-281.19047619047615,35.476190476190474,-287.38095238095235,43.25396825396825,-292.77777777777777,96.26984126984127,-282.46031746031747,-35.15873015873016,-288.015873015873,119.76190476190476,-293.88888888888886,65.79365079365078,-275.0,43.095238095238095,-36.42857142857142,231.19047619047618,212.93650793650792,0.7142857142857142,0.07936507936507936,-166.26984126984127
325.0,-28.65079365079365,-286.90476190476187,262.6190476190476,-281.19047619047615,35.476190476190474,-287.38095238095235,43.25396825396825,-292.77777777777777,96.26984126984127,-282.46031746031747,-35.15873015873016,-288.015873015873,119.76190476190476,-293.88888888888886,65.79365079365078,-275.0,43.095238095238095,-36.42857142857142,231.19047619047618,212.93650793650792,0.7142857142857142,0.07936507936507936,-166.26984126984127
325.0,-28.65079365079365,-286.90476190476187,262.6190476190476,-281.19047619047615,35.476190476190474,-287.38095238095235,43.25396825396825,-292.77777777777777,96.26984126984127,-282.46031746031747,-35.15873015873016,-288.015873015873,119.76190476190476,-293.88888888888886,65.79365079365078,-275.0,43.095238095238095,-36.42857142857142,231.19047619047618,212.93650793650792,0.7142857142857142,0.07936507936507936,-166.26984126984127
325.0,-28.65079365079365,-286.90476190476187,262.6190476190476,-281.19047619047615,35.476190476190474,-287.38095238095235,43.25396825396825,-292.77777777777777,96.26984126984127,-282.46031746031747,-35.15873015873016,-288.015873015873,119.76190476190476,-293.88888888888886,65.79365079365078,-275.0,43.095238095238095,-36.42857142857142,231.19047619047618,212.93650793650792,0.7142857142857142,0.07936507936507936,-166.26984126984127
325.0,-28.65079365079365,-286.90476190476187,262.6190476190476,-281.19047619047615,35.476190476190474,-287.38095238095235,43.25396825396825,-292.77777777777777,96.26984126984127,-282.46031746031747,-35.15873015873016,-288.015873015873,119.76190476190476,-293.88888888888886,65.79365079365078,-275.0,43.095238095238095,-36.42857142857142,231.19047619047618,212.93650793650792,0.7142857142857142,0.07936507936507936,-321.8253968253968
325.0,-28.65079365079365,-286.90476190476187,262.6190476190476,-281.19047619047615,35.476190476190474,-287.38095238095235,43.25396825396825,-292.77777777777777,96.26984126984127,-282.46031746031747,-35.15873015873016,-288.015873015873,119.76190476190476,-293.88888888888886,65.79365079365078,-275.0,43.095238095238095,-36.42857142857142,231.19047619047618,212.93650793650792,0.7142857142857142,0.07936507936507936,-321.8253968253968
325.0,-28.65079365079365,-286.90476190476187,262.6190476190476,-281.19047619047615,35.476190476190474,-287.38095238095235,43.25396825396825,-292.77777777777777,96.26984126984127,-282.46031746031747,-35.15873015873016,-288.015873015873,119.76190476190476,-293.88888888888886,65.79365079365078,-275.0,43.095238095238095,-36.42857142857142,231.19047619047618,212.93650793650792,0.7142857142857142,0.07936507936507936,-321.8253968253968
325.0,-28.65079365079365,-286.90476190476187,262.6190476190476,-281.19047619047615,35.476190476190474,-287.38095238095235,43.25396825396825,-292.77777777777777,96.26984126984127,-282.46031746031747,-35.15873015873016,-288.015873015873,119.76190476190476,-293.88888888888886,65.79365079365078,-275.0,43.095238095238095,-36.42857142857142,231.19047619047618,212.93650793650792,0.7142857142857142,0.07936507936507936,-321.8253968253968
325.0,-28.65079365079365,-286.90476190476187,262.6190476190476,-281.19047619047615,35.476190476190474,-287.38095238095235,43.25396825396825,-292.77777777777777,96.26984126984127,-282.46031746031747,-35.15873015873016,-288.015873015873,119.76190476190476,-293.88888888888886,65.79365079365078,-275.0,43.095238095238095,-36.42857142857142,231.19047619047618,212.93650793650792,0.7142857142857142,0.07936507936507936,-321.8253968253968
325.0,-28.65079365079365,-286.90476190476187,262.6190476190476,-281.19047619047615,35.476190476190474,-287.38095238095235,43.25396825396825,-292.77777777777777,96.26984126984127,-282.46031746031747,-35.15873015873016,-288.015873015873,119.76190476190476,-293.88888888888886,65.79365079365078,-275.0,43.095238095238095,-36.42857142857142,231.19047619047618,212.93650793650792,0.7142857142857142,0.07936507936507936,-321.8253968253968
325.0,-28.65079365079365,-286.90476190476187,262.6190476190476,-281.19047619047615,35.476190476190474,-287.38095238095235,43.25396825396825,-292.77777777777777,96.26984126984127,-282.46031746031747,-35.15873015873016,-288.015873015873,119.76190476190476,-293.88888888888886,65.79365079365078,-275.0,43.095238095238095,-36.42857142857142,231.19047619047618,212.93650793650792,0.7142857142857142,0.07936507936507936,-321.8253968253968
325.0,-28.65079365079365,-286.90476190476187,262.6190476190476,-281.19047619047615,35.476190476190474,-287.38095238095235,43.25396825396825,-292.77777777777777,96.26984126984127,-282.46031746031747,-35.15873015873016,-288.015873015873,119.76190476190476,-293.88888888888886,65.79365079365078,-275.0,43.095238095238095,-36.42857142857142,231.19047619047618,212.93650793650792,0.7142857142857142,0.07936507936507936,-321.8253968253968
325.0,-24.84126984126984,-245.0,224.52380952380952,21.825396825396822,21.349206349206348,-245.79365079365078,37.22222222222222,-250.87301587301585,82.14285714285714,-110.07936507936508,-30.555555555555554,-245.95238095238093,101.82539682539682,-252.14285714285714,57.857142857142854,-234.36507936507934,27.38095238095238,-31.507936507936506,198.17460317460316,181.34920634920633,0.23809523809523808,-0.07936507936507936,-321.8253968253968
325.0,-24.84126984126984,-245.0,224.52380952380952,21.825396825396822,21.349206349206348,-245.79365079365078,37.22222222222222,-250.87301587301585,82.14285714285714,-110.07936507936508,-30.555555555555554,-245.95238095238093,101.82539682539682,-252.14285714285714,57.857142857142854,-234.36507936507934,27.38095238095238,-31.507936507936506,198.17460317460316,181.34920634920633,0.23809523809523808,-0.07936507936507936,-321.8253968253968
325.0,-20.873015873015873,-203.09523809523807,186.42857142857142,325.0,7.3809523809523805,-204.04761904761904,31.19047619047619,-208.96825396825395,68.17460317460318,62.3015873015873,-25.79365079365079,-203.88888888888889,84.04761904761904,-210.2380952380952,50.079365079365076,-193.57142857142856,11.666666666666666,-26.428571428571427,165.15873015873015,149.9206349206349,-0.07936507936507936,-0.23809523809523808,-166.26984126984127
325.0,-20.873015873015873,-203.09523809523807,186.42857142857142,325.0,7.3809523809523805,-204.04761904761904,31.19047619047619,-208.96825396825395,68.17460317460318,62.3015873015873,-25.79365079365079,-203.88888888888889,84.04761904761904,-210.2380952380952,50.079365079365076,-193.57142857142856,11.666666666666666,-26.428571428571427,165.15873015873015,149.9206349206349,-0.07936507936507936,-0.23809523809523808,-166.26984126984127
316.90476190476187,4.523809523809524,-171.34920634920633,158.015873015873,325.0,2.9365079365079363,-171.8253968253968,26.587301587301585,-176.9047619047619,57.38095238095238,193.57142857142856,-21.984126984126984,-171.984126984127,70.39682539682539,-178.17460317460316,42.3015873015873,65.63492063492063,5.952380952380952,-22.777777777777775,139.28571428571428,125.79365079365078,-0.23809523809523808,-0.3968253968253968,-166.26984126984127
316.90476190476187,4.523809523809524,-171.34920634920633,158.015873015873,325.0,2.9365079365079363,-171.8253968253968,26.587301587301585,-176.9047619047619,57.38095238095238,193.57142857142856,-21.984126984126984,-171.984126984127,70.39682539682539,-178.17460317460316,42.3015873015873,65.63492063492063,5.952380952380952,-22.777777777777775,139.28571428571428,125.79365079365078,-0.23809523809523808,-0.3968253968253968,-166.26984126984127
304.8412698412698,30.238095238095237,-137.69841269841268,128.17460317460316,325.0,-1.349206349206349,-138.015873015873,21.349206349206348,-142.93650793650792,45.95238095238095,325.0,-17.857142857142858,-138.4920634920635,56.11111111111111,-144.36507936507937,34.2063492063492,325.0,-0.07936507936507936,-18.65079365079365,112.14285714285714,100.23809523809523,0.3968253968253968,-0.07936507936507936,-166.26984126984127
304.8412698412698,30.238095238095237,-137.69841269841268,128.17460317460316,325.0,-1.349206349206349,-138.015873015873,21.349206349206348,-142.93650793650792,45.95238095238095,325.0,-17.857142857142858,-138.4920634920635,56.11111111111111,-144.36507936507937,34.2063492063492,325.0,-0.07936507936507936,-18.65079365079365,112.14285714285714,100.23809523809523,0.3968253968253968,-0.07936507936507936,-166.26984126984127
299.6031746031746,23.41269841269841,-135.3174603174603,126.1111111111111,325.0,2.619047619047619,-135.47619047619048,21.19047619047619,-140.55555555555554,45.15873015873016,325.0,-17.539682539682538,-136.11111111111111,55.0,-141.984126984127,33.57142857142857,325.0,3.888888888888889,-18.333333333333332,110.23809523809523,98.49206349206348,-0.07936507936507936,-0.3968253968253968,-166.26984126984127
299.6031746031746,23.41269841269841,-135.3174603174603,126.1111111111111,325.0,2.619047619047619,-135.47619047619048,21.19047619047619,-140.55555555555554,45.15873015873016,325.0,-17.539682539682538,-136.11111111111111,55.0,-141.984126984127,33.57142857142857,325.0,3.888888888888889,-18.333333333333332,110.23809523809523,98.49206349206348,-0.07936507936507936,-0.3968253968253968,-166.26984126984127
294.5238095238095,33.25396825396825,-133.25396825396825,123.88888888888889,325.0,5.7936507936507935,-133.25396825396825,20.873015873015873,-138.17460317460316,44.36507936507936,325.0,-17.22222222222222,-133.73015873015873,54.2063492063492,-139.76190476190476,33.095238095238095,325.0,7.222222222222221,-18.174603174603174,108.33333333333333,96.74603174603175,-0.07936507936507936,-0.3968253968253968,-166.26984126984127
294.5238095238095,33.25396825396825,-133.25396825396825,123.88888888888889,325.0,5.7936507936507935,-133.25396825396825,20.873015873015873,-138.17460317460316,44.36507936507936,325.0,-17.22222222222222,-133.73015873015873,54.2063492063492,-139.76190476190476,33.095238095238095,325.0,7.222222222222221,-18.174603174603174,108.33333333333333,96.74603174603175,-0.07936507936507936,-0.3968253968253968,-166.26984126984127
290.7142857142857,33.095238095238095,-131.66666666666666,122.30158730158729,325.0,3.4126984126984126,-131.5079365079365,20.71428571428571,-136.42857142857142,43.888888888888886,325.0,-17.22222222222222,-131.984126984127,53.41269841269841,-138.015873015873,32.77777777777778,325.0,3.888888888888889,-17.857142857142858,106.9047619047619,95.63492063492063,-0.07936507936507936,-0.873015873015873,-321.8253968253968
290.7142857142857,33.095238095238095,-131.66666666666666,122.30158730158729,325.0,3.4126984126984126,-131.5079365079365,20.71428571428571,-136.42857142857142,43.888888888888886,325.0,-17.22222222222222,-131.984126984127,53.41269841269841,-138.015873015873,32.77777777777778,325.0,3.888888888888889,-17.857142857142858,106.9047619047619,95.63492063492063,-0.07936507936507936,-0.873015873015873,-321.8253968253968
284.36507936507934,74.04761904761904,-128.65079365079364,119.44444444444444,325.0,1.507936507936508,-128.96825396825395,20.07936507936508,-133.57142857142856,42.93650793650794,325.0,-16.904761904761905,-129.28571428571428,52.3015873015873,-135.15873015873015,31.98412698412698,325.0,2.3015873015873014,-17.539682539682538,104.68253968253968,93.4126984126984,-0.7142857142857142,-0.3968253968253968,-321.8253968253968
284.36507936507934,74.04761904761904,-128.65079365079364,119.44444444444444,325.0,1.507936507936508,-128.96825396825395,20.07936507936508,-133.57142857142856,42.93650793650794,325.0,-16.904761904761905,-129.28571428571428,52.3015873015873,-135.15873015873015,31.98412698412698,325.0,2.3015873015873014,-17.539682539682538,104.68253968253968,93.4126984126984,-0.7142857142857142,-0.3968253968253968,-321.8253968253968
279.44444444444446,115.0,-126.58730158730158,117.6984126984127,325.0,0.873015873015873,-126.58730158730158,19.92063492063492,-131.34920634920636,42.14285714285714,325.0,-16.587301587301585,-127.06349206349206,51.34920634920635,-133.0952380952381,31.507936507936506,325.0,1.507936507936508,-17.38095238095238,102.93650793650794,91.82539682539682,-0.23809523809523808,-0.23809523809523808,-321.8253968253968
279.44444444444446,115.0,-126.58730158730158,117.6984126984127,325.0,0.873015873015873,-126.58730158730158,19.92063492063492,-131.34920634920636,42.14285714285714,325.0,-16.587301587301585,-127.06349206349206,51.34920634920635,-133.0952380952381,31.507936507936506,325.0,1.507936507936508,-17.38095238095238,102.93650793650794,91.82539682539682,-0.23809523809523808,-0.23809523809523808,-321.8253968253968
274.5238095238095,109.92063492063491,-124.2063492063492,115.31746031746032,325.0,5.7936507936507935,-124.52380952380952,19.6031746031746,-129.28571428571428,41.507936507936506,325.0,-16.428571428571427,-124.84126984126983,50.39682539682539,-130.7142857142857,30.87301587301587,325.0,6.428571428571428,-17.063492063492063,101.03174603174602,90.23809523809523,0.7142857142857142,-0.5555555555555556,-321.8253968253968
274.5238095238095,109.92063492063491,-124.2063492063492,115.31746031746032,325.0,5.7936507936507935,-124.52380952380952,19.6031746031746,-129.28571428571428,41.507936507936506,325.0,-16.428571428571427,-124.84126984126983,50.39682539682539,-130.7142857142857,30.87301587301587,325.0,6.428571428571428,-17.063492063492063,101.03174603174602,90.23809523809523,0.7142857142857142,-0.5555555555555556,-321.8253968253968
271.031746031746,110.71428571428571,-122.77777777777777,111.82539682539682,325.0,6.746031746031746,-122.93650793650794,19.444444444444443,-127.53968253968253,41.19047619047619,325.0,-16.11111111111111,-123.09523809523809,49.76190476190476,-128.96825396825395,30.71428571428571,325.0,7.5396825396825395,-16.904761904761905,100.07936507936508,88.80952380952381,0.7142857142857142,-1.8253968253968254,-321.8253968253968
271.031746031746,110.71428571428571,-122.77777777777777,111.82539682539682,325.0,6.746031746031746,-122.93650793650794,19.444444444444443,-127.53968253968253,41.19047619047619,325.0,-16.11111111111111,-123.09523809523809,49.76190476190476,-128.96825396825395,30.71428571428571,325.0,7.5396825396825395,-16.904761904761905,100.07936507936508,88.80952380952381,0.7142857142857142,-1.8253968253968254,-321.8253968253968
267.53968253968253,103.73015873015872,-121.19047619047619,-8.809523809523808,325.0,1.349206349206349,-121.34920634920634,19.126984126984127,-125.95238095238095,40.55555555555555,325.0,-15.95238095238095,-121.5079365079365,49.12698412698413,-127.53968253968253,30.238095238095237,325.0,1.984126984126984,-16.587301587301585,98.65079365079364,87.6984126984127,0.23809523809523808,-0.7142857142857142,-166.26984126984127
267.53968253968253,103.73015873015872,-121.19047619047619,-8.809523809523808,325.0,1.349206349206349,-121.34920634920634,19.126984126984127,-125.95238095238095,40.55555555555555,325.0,-15.95238095238095,-121.5079365079365,49.12698412698413,-127.53968253968253,30.238095238095237,325.0,1.984126984126984,-16.587301587301585,98.65079365079364,87.6984126984127,0.23809523809523808,-0.7142857142857142,-166.26984126984127
258.6507936507936,107.38095238095238,-117.6984126984127,48.17460317460317,325.0,2.9365079365079363,-117.85714285714285,18.49206349206349,-121.82539682539682,39.44444444444444,325.0,-15.476190476190474,-118.01587301587301,47.53968253968254,-123.88888888888889,29.444444444444443,325.0,3.4126984126984126,-16.26984126984127,95.79365079365078,85.0,-0.873015873015873,-0.23809523809523808,-166.26984126984127
258.6507936507936,107.38095238095238,-117.6984126984127,48.17460317460317,325.0,2.9365079365079363,-117.85714285714285,18.49206349206349,-121.82539682539682,39.44444444444444,325.0,-15.476190476190474,-118.01587301587301,47.53968253968254,-123.88888888888889,29.444444444444443,325.0,3.4126984126984126,-16.26984126984127,95.79365079365078,85.0,-0.873015873015873,-0.23809523809523808,-166.26984126984127
253.88888888888889,120.39682539682539,-115.15873015873015,117.06349206349206,325.0,4.0476190476190474,-115.47619047619047,18.174603174603174,-105.95238095238095,38.49206349206349,325.0,-15.317460317460316,-115.47619047619047,46.58730158730158,-121.5079365079365,28.809523809523807,325.0,4.2063492063492065,-16.11111111111111,93.73015873015872,83.25396825396825,-1.0317460317460316,0.3968253968253968,-166.26984126984127
253.88888888888889,120.39682539682539,-115.15873015873015,117.06349206349206,325.0,4.0476190476190474,-115.47619047619047,18.174603174603174,-105.95238095238095,38.49206349206349,325.0,-15.317460317460316,-115.47619047619047,46.58730158730158,-121.5079365079365,28.809523809523807,325.0,4.2063492063492065,-16.11111111111111,93.73015873015872,83.25396825396825,-1.0317460317460316,0.3968253968253968,-166.26984126984127
250.3968253968254,131.19047619047618,-113.57142857142857,113.4126984126984,325.0,-0.23809523809523808,-113.88888888888889,18.174603174603174,-80.07936507936508,38.01587301587301,325.0,-15.0,-114.04761904761904,45.95238095238095,-119.92063492063491,28.49206349206349,325.0,-0.07936507936507936,-15.95238095238095,92.46031746031746,82.14285714285714,-1.0317460317460316,0.07936507936507936,-166.26984126984127
250.3968253968254,131.19047619047618,-113.57142857142857,113.4126984126984,325.0,-0.23809523809523808,-113.88888888888889,18.174603174603174,-80.07936507936508,38.01587301587301,325.0,-15.0,-114.04761904761904,45.95238095238095,-119.92063492063491,28.49206349206349,325.0,-0.07936507936507936,-15.95238095238095,92.46031746031746,82.14285714285714,-1.0317460317460316,0.07936507936507936,-166.26984126984127
245.3174603174603,137.69841269841268,-111.34920634920634,110.87301587301587,325.0,-2.3015873015873014,-111.66666666666666,17.698412698412696,-49.285714285714285,37.22222222222222,325.0,-14.682539682539682,-111.82539682539682,44.84126984126984,-117.53968253968253,27.857142857142854,325.0,-2.619047619047619,-15.476190476190474,90.55555555555556,80.39682539682539,-1.349206349206349,-0.07936507936507936,-166.26984126984127
245.3174603174603,137.69841269841268,-111.34920634920634,110.87301587301587,325.0,-2.3015873015873014,-111.66666666666666,17.698412698412696,-49.285714285714285,37.22222222222222,325.0,-14.682539682539682,-111.82539682539682,44.84126984126984,-117.53968253968253,27.857142857142854,325.0,-2.619047619047619,-15.476190476190474,90.55555555555556,80.39682539682539,-1.349206349206349,-0.07936507936507936,-166.26984126984127
240.87301587301587,142.77777777777777,-109.44444444444444,108.96825396825396,325.0,-5.476190476190476,-109.6031746031746,17.22222222222222,-20.873015873015873,36.58730158730159,325.0,-14.523809523809524,-109.76190476190476,44.2063492063492,-115.63492063492063,27.38095238095238,325.0,-5.634920634920634,-15.158730158730158,89.12698412698413,78.96825396825396,0.07936507936507936,-0.3968253968253968,-321.8253968253968
240.87301587301587,142.77777777777777,-109.44444444444444,108.96825396825396,325.0,-5.476190476190476,-109.6031746031746,17.22222222222222,-20.873015873015873,36.58730158730159,325.0,-14.523809523809524,-109.76190476190476,44.2063492063492,-115.63492063492063,27.38095238095238,325.0,-5.634920634920634,-15.158730158730158,89.12698412698413,78.96825396825396,0.07936507936507936,-0.3968253968253968,-321.8253968253968
236.74603174603175,140.07936507936506,-107.53968253968253,106.9047619047619,325.0,-5.0,-107.85714285714285,17.063492063492063,4.2063492063492065,35.79365079365079,325.0,-14.206349206349206,-108.01587301587301,43.41269841269841,-113.57142857142857,26.746031746031743,325.0,-5.476190476190476,-15.0,87.38095238095238,77.53968253968253,-0.5555555555555556,-1.6666666666666665,-321.8253968253968
236.74603174603175,140.07936507936506,-107.53968253968253,106.9047619047619,325.0,-5.0,-107.85714285714285,17.063492063492063,4.2063492063492065,35.79365079365079,325.0,-14.206349206349206,-108.01587301587301,43.41269841269841,-113.57142857142857,26.746031746031743,325.0,-5.476190476190476,-15.0,87.38095238095238,77.53968253968253,-0.5555555555555556,-1.6666666666666665,-321.8253968253968
232.77777777777777,149.6031746031746,-105.63492063492063,105.0,325.0,0.07936507936507936,-105.95238095238095,16.746031746031743,5.634920634920634,35.317460317460316,325.0,-14.047619047619047,-106.1111111111111,42.61904761904761,-111.82539682539682,26.587301587301585,325.0,-0.23809523809523808,-14.84126984126984,85.95238095238095,76.26984126984127,0.23809523809523808,-0.7142857142857142,-321.8253968253968
232.77777777777777,149.6031746031746,-105.63492063492063,105.0,325.0,0.07936507936507936,-105.95238095238095,16.746031746031743,5.634920634920634,35.317460317460316,325.0,-14.047619047619047,-106.1111111111111,42.61904761904761,-111.82539682539682,26.587301587301585,325.0,-0.23809523809523808,-14.84126984126984,85.95238095238095,76.26984126984127,0.23809523809523808,-0.7142857142857142,-321.8253968253968
228.49206349206347,154.04761904761904,-104.04761904761904,103.25396825396825,325.0,4.365079365079365,-104.2063492063492,16.587301587301585,18.96825396825397,34.84126984126984,325.0,-13.888888888888888,-104.36507936507935,41.98412698412698,-110.07936507936508,26.11111111111111,325.0,3.888888888888889,-14.523809523809524,84.52380952380952,75.0,0.07936507936507936,-0.23809523809523808,-321.8253968253968
228.49206349206347,154.04761904761904,-104.04761904761904,103.25396825396825,325.0,4.365079365079365,-104.2063492063492,16.587301587301585,18.96825396825397,34.84126984126984,325.0,-13.888888888888888,-104.36507936507935,41.98412698412698,-110.07936507936508,26.11111111111111,325.0,3.888888888888889,-14.523809523809524,84.52380952380952,75.0,0.07936507936507936,-0.23809523809523808,-321.8253968253968
227.69841269841268,153.73015873015873,-103.4126984126984,102.77777777777777,325.0,5.476190476190476,-103.88888888888889,16.746031746031743,25.79365079365079,34.52380952380952,325.0,-13.73015873015873,-104.04761904761904,41.82539682539682,-109.6031746031746,25.952380952380953,325.0,4.841269841269841,-14.523809523809524,83.88888888888889,74.68253968253968,0.3968253968253968,0.07936507936507936,-321.8253968253968
227.69841269841268,153.73015873015873,-103.4126984126984,102.77777777777777,325.0,5.476190476190476,-103.88888888888889,16.746031746031743,25.79365079365079,34.52380952380952,325.0,-13.73015873015873,-104.04761904761904,41.82539682539682,-109.6031746031746,25.952380952380953,325.0,4.841269841269841,-14.523809523809524,83.88888888888889,74.68253968253968,0.3968253968253968,0.07936507936507936,-321.8253968253968
220.55555555555554,139.44444444444443,-100.55555555555554,99.6031746031746,325.0,-3.253968253968254,-100.71428571428571,16.11111111111111,71.5079365079365,33.57142857142857,325.0,-13.571428571428571,-100.87301587301587,40.39682539682539,-106.42857142857142,25.317460317460316,325.0,-4.2063492063492065,-14.365079365079364,81.82539682539682,72.3015873015873,-0.873015873015873,0.3968253968253968,-166.26984126984127
220.55555555555554,139.44444444444443,-100.55555555555554,99.6031746031746,325.0,-3.253968253968254,-100.71428571428571,16.11111111111111,71.5079365079365,33.57142857142857,325.0,-13.571428571428571,-100.87301587301587,40.39682539682539,-106.42857142857142,25.317460317460316,325.0,-4.2063492063492065,-14.365079365079364,81.82539682539682,72.3015873015873,-0.873015873015873,0.3968253968253968,-166.26984126984127
216.74603174603175,132.77777777777777,-98.96825396825396,97.85714285714285,325.0,-6.428571428571428,-98.96825396825396,15.793650793650793,97.22222222222221,33.095238095238095,325.0,-13.253968253968253,-99.12698412698413,39.76190476190476,-104.84126984126983,24.84126984126984,325.0,-7.3809523809523805,-13.888888888888888,80.39682539682539,71.03174603174602,-0.5555555555555556,-0.5555555555555556,-166.26984126984127
216.74603174603175,132.77777777777777,-98.96825396825396,97.85714285714285,325.0,-6.428571428571428,-98.96825396825396,15.793650793650793,97.22222222222221,33.095238095238095,325.0,-13.253968253968253,-99.12698412698413,39.76190476190476,-104.84126984126983,24.84126984126984,325.0,-7.3809523809523805,-13.888888888888888,80.39682539682539,71.03174603174602,-0.5555555555555556,-0.5555555555555556,-166.26984126984127
212.3015873015873,133.73015873015873,-96.9047619047619,95.95238095238095,325.0,-2.3015873015873014,-96.74603174603175,15.317460317460316,86.58730158730158,32.3015873015873,325.0,-12.936507936507935,-97.06349206349206,38.96825396825397,-102.61904761904762,24.206349206349206,325.0,-3.888888888888889,-13.571428571428571,78.65079365079364,69.44444444444444,-0.5555555555555556,-0.5555555555555556,-166.26984126984127
212.3015873015873,133.73015873015873,-96.9047619047619,95.95238095238095,325.0,-2.3015873015873014,-96.74603174603175,15.317460317460316,86.58730158730158,32.3015873015873,325.0,-12.936507936507935,-97.06349206349206,38.96825396825397,-102.61904761904762,24.206349206349206,325.0,-3.888888888888889,-13.571428571428571,78.65079365079364,69.44444444444444,-0.5555555555555556,-0.5555555555555556,-166.26984126984127
204.04761904761904,139.6031746031746,-93.09523809523809,91.98412698412697,325.0,-3.73015873015873,-93.4126984126984,15.0,103.88888888888889,31.03174603174603,325.0,-12.46031746031746,-93.4126984126984,37.38095238095238,-98.80952380952381,23.41269841269841,325.0,-4.682539682539682,-13.253968253968253,75.63492063492063,66.58730158730158,0.23809523809523808,-0.7142857142857142,-166.26984126984127
204.04761904761904,139.6031746031746,-93.09523809523809,91.98412698412697,325.0,-3.73015873015873,-93.4126984126984,15.0,103.88888888888889,31.03174603174603,325.0,-12.46031746031746,-93.4126984126984,37.38095238095238,-98.80952380952381,23.41269841269841,325.0,-4.682539682539682,-13.253968253968253,75.63492063492063,66.58730158730158,0.23809523809523808,-0.7142857142857142,-166.26984126984127
201.19047619047618,130.07936507936506,-91.82539682539682,90.71428571428571,325.0,-0.873015873015873,-92.14285714285714,14.84126984126984,127.06349206349206,30.71428571428571,325.0,-12.142857142857142,-92.14285714285714,36.904761904761905,-97.38095238095238,23.095238095238095,325.0,-1.984126984126984,-13.095238095238095,74.84126984126983,65.79365079365078,-0.23809523809523808,-0.3968253968253968,-166.26984126984127
201.19047619047618,130.07936507936506,-91.82539682539682,90.71428571428571,325.0,-0.873015873015873,-92.14285714285714,14.84126984126984,127.06349206349206,30.71428571428571,325.0,-12.142857142857142,-92.14285714285714,36.904761904761905,-97.38095238095238,23.095238095238095,325.0,-1.984126984126984,-13.095238095238095,74.84126984126983,65.79365079365078,-0.23809523809523808,-0.3968253968253968,-166.26984126984127
196.9047619047619,142.77777777777777,-89.92063492063491,88.80952380952381,325.0,-1.984126984126984,-90.23809523809523,14.523809523809524,137.85714285714286,30.07936507936508,325.0,-12.142857142857142,-90.23809523809523,36.269841269841265,-95.63492063492063,22.777777777777775,325.0,-3.4126984126984126,-12.777777777777777,73.25396825396825,64.36507936507937,0.23809523809523808,0.3968253968253968,-321.8253968253968
196.9047619047619,142.77777777777777,-89.92063492063491,88.80952380952381,325.0,-1.984126984126984,-90.23809523809523,14.523809523809524,137.85714285714286,30.07936507936508,325.0,-12.142857142857142,-90.23809523809523,36.269841269841265,-95.63492063492063,22.777777777777775,325.0,-3.4126984126984126,-12.777777777777777,73.25396825396825,64.36507936507937,0.23809523809523808,0.3968253968253968,-321.8253968253968
193.4126984126984,153.88888888888889,-88.4920634920635,87.22222222222221,325.0,-6.587301587301587,-88.80952380952381,14.206349206349206,159.44444444444443,29.6031746031746,325.0,-11.984126984126984,-88.65079365079364,35.317460317460316,-94.04761904761904,22.3015873015873,325.0,-8.333333333333332,-12.619047619047619,71.82539682539682,63.25396825396825,-0.3968253968253968,-1.1904761904761905,-321.8253968253968
193.4126984126984,153.88888888888889,-88.4920634920635,87.22222222222221,325.0,-6.587301587301587,-88.80952380952381,14.206349206349206,159.44444444444443,29.6031746031746,325.0,-11.984126984126984,-88.65079365079364,35.317460317460316,-94.04761904761904,22.3015873015873,325.0,-8.333333333333332,-12.619047619047619,71.82539682539682,63.25396825396825,-0.3968253968253968,-1.1904761904761905,-321.8253968253968
189.28571428571428,146.74603174603175,-86.42857142857143,85.15873015873015,325.0,-9.126984126984127,-86.9047619047619,14.047619047619047,178.33333333333331,28.96825396825397,325.0,-11.825396825396824,-86.58730158730158,34.52380952380952,-92.14285714285714,21.825396825396822,325.0,-10.396825396825395,-12.46031746031746,70.39682539682539,61.98412698412698,-0.7142857142857142,-0.3968253968253968,-321.8253968253968
189.28571428571428,146.74603174603175,-86.42857142857143,85.15873015873015,325.0,-9.126984126984127,-86.9047619047619,14.047619047619047,178.33333333333331,28.96825396825397,325.0,-11.825396825396824,-86.58730158730158,34.52380952380952,-92.14285714285714,21.825396825396822,325.0,-10.396825396825395,-12.46031746031746,70.39682539682539,61.98412698412698,-0.7142857142857142,-0.3968253968253968,-321.8253968253968
185.15873015873015,145.95238095238093,-84.84126984126983,83.57142857142857,324.5238095238095,-5.634920634920634,-85.0,13.73015873015873,152.61904761904762,28.333333333333332,325.0,-11.666666666666666,-84.84126984126983,33.888888888888886,-90.39682539682539,21.507936507936506,325.0,-7.5396825396825395,-12.142857142857142,68.80952380952381,60.71428571428571,-0.5555555555555556,-0.3968253968253968,-321.8253968253968
185.15873015873015,145.95238095238093,-84.84126984126983,83.57142857142857,324.5238095238095,-5.634920634920634,-85.0,13.73015873015873,152.61904761904762,28.333333333333332,325.0,-11.666666666666666,-84.84126984126983,33.888888888888886,-90.39682539682539,21.507936507936506,325.0,-7.5396825396825395,-12.142857142857142,68.80952380952381,60.71428571428571,-0.5555555555555556,-0.3968253968253968,-321.8253968253968
181.984126984127,100.71428571428571,-83.4126984126984,82.14285714285714,320.23809523809524,-1.6666666666666665,-83.57142857142857,13.571428571428571,190.87301587301587,27.857142857142854,325.0,-11.349206349206348,-83.57142857142857,33.41269841269841,-88.80952380952381,20.873015873015873,325.0,-3.571428571428571,-11.984126984126984,67.53968253968253,59.6031746031746,-1.0317460317460316,-0.07936507936507936,-321.8253968253968
181.984126984127,100.71428571428571,-83.4126984126984,82.14285714285714,320.23809523809524,-1.6666666666666665,-83.57142857142857,13.571428571428571,190.87301587301587,27.857142857142854,325.0,-11.349206349206348,-83.57142857142857,33.41269841269841,-88.80952380952381,20.873015873015873,325.0,-3.571428571428571,-11.984126984126984,67.53968253968253,59.6031746031746,-1.0317460317460316,-0.07936507936507936,-321.8253968253968
-173.4126984126984,65.15873015873015,-81.82539682539682,80.55555555555556,315.1587301587301,-7.3809523809523805,-82.14285714285714,12.142857142857142,193.7301587301587,27.38095238095238,325.0,-11.19047619047619,-82.14285714285714,32.77777777777778,-87.22222222222221,20.873015873015873,325.0,-9.603174603174603,-11.825396825396824,66.58730158730158,58.33333333333333,0.873015873015873,-0.5555555555555556,-166.26984126984127
-173.4126984126984,65.15873015873015,-81.82539682539682,80.55555555555556,315.1587301587301,-7.3809523809523805,-82.14285714285714,12.142857142857142,193.7301587301587,27.38095238095238,325.0,-11.19047619047619,-82.14285714285714,32.77777777777778,-87.22222222222221,20.873015873015873,325.0,-9.603174603174603,-11.825396825396824,66.58730158730158,58.33333333333333,0.873015873015873,-0.5555555555555556,-166.26984126984127
-325.0,79.6031746031746,-80.39682539682539,79.12698412698413,310.07936507936506,-7.857142857142857,-80.71428571428571,11.825396825396824,175.79365079365078,26.9047619047619,325.0,-10.873015873015872,-80.39682539682539,32.3015873015873,-85.79365079365078,20.396825396825395,325.0,-9.603174603174603,-11.349206349206348,65.47619047619047,57.38095238095238,-0.07936507936507936,-0.23809523809523808,-166.26984126984127
-325.0,79.6031746031746,-80.39682539682539,79.12698412698413,310.07936507936506,-7.857142857142857,-80.71428571428571,11.825396825396824,175.79365079365078,26.9047619047619,325.0,-10.873015873015872,-80.39682539682539,32.3015873015873,-85.79365079365078,20.396825396825395,325.0,-9.603174603174603,-11.349206349206348,65.47619047619047,57.38095238095238,-0.07936507936507936,-0.23809523809523808,-166.26984126984127
-139.9206349206349,73.4126984126984,-79.28571428571428,78.17460317460316,305.95238095238096,-7.857142857142857,-79.76190476190476,8.174603174603174,178.65079365079364,26.428571428571427,325.0,-11.031746031746032,-79.44444444444444,31.825396825396822,-84.84126984126983,20.238095238095237,325.0,-9.761904761904761,-11.19047619047619,64.52380952380952,56.74603174603174,-1.1904761904761905,-0.3968253968253968,-166.26984126984127
-139.9206349206349,73.4126984126984,-79.28571428571428,78.17460317460316,305.95238095238096,-7.857142857142857,-79.76190476190476,8.174603174603174,178.65079365079364,26.428571428571427,325.0,-11.031746031746032,-79.44444444444444,31.825396825396822,-84.84126984126983,20.238095238095237,325.0,-9.761904761904761,-11.19047619047619,64.52380952380952,56.74603174603174,-1.1904761904761905,-0.3968253968253968,-166.26984126984127
120.07936507936508,60.238095238095234,-77.6984126984127,76.42857142857143,300.23809523809524,-1.6666666666666665,-78.17460317460316,3.253968253968254,195.63492063492063,25.952380952380953,325.0,-10.714285714285714,-78.01587301587301,31.03174603174603,-83.09523809523809,19.76190476190476,325.0,-3.571428571428571,-11.349206349206348,63.095238095238095,55.476190476190474,-0.873015873015873,-0.3968253968253968,-166.26984126984127
120.07936507936508,60.238095238095234,-77.6984126984127,76.42857142857143,300.23809523809524,-1.6666666666666665,-78.17460317460316,3.253968253968254,195.63492063492063,25.952380952380953,325.0,-10.714285714285714,-78.01587301587301,31.03174603174603,-83.09523809523809,19.76190476190476,325.0,-3.571428571428571,-11.349206349206348,63.095238095238095,55.476190476190474,-0.873015873015873,-0.3968253968253968,-166.26984126984127
17.22222222222222,49.6031746031746,-76.58730158730158,75.0,295.3174603174603,6.587301587301587,-76.74603174603175,-4.682539682539682,203.25396825396825,25.79365079365079,325.0,-10.714285714285714,-76.58730158730158,30.555555555555554,-81.82539682539682,19.444444444444443,325.0,4.682539682539682,-11.19047619047619,62.14285714285714,54.36507936507936,-0.3968253968253968,-0.3968253968253968,-166.26984126984127
17.22222222222222,49.6031746031746,-76.58730158730158,75.0,295.3174603174603,6.587301587301587,-76.74603174603175,-4.682539682539682,203.25396825396825,25.79365079365079,325.0,-10.714285714285714,-76.58730158730158,30.555555555555554,-81.82539682539682,19.444444444444443,325.0,4.682539682539682,-11.19047619047619,62.14285714285714,54.36507936507936,-0.3968253968253968,-0.3968253968253968,-166.26984126984127
