Fp1[1],Fp2[2],F3[3],F4[4],C3[5],C4[6],P3[7],P4[8],O1[9],O2[10],F7[11],F8[12],T3[13],T4[14],T5[15],T6[16],Fz[17],Pz[18],Cz[19],Pg1[20],Pg2[21],EOGR[22],EOOGL[23],EMG[24]
-38.17460317460317,106.1111111111111,21.825396825396822,-16.904761904761905,-114.04761904761904,9.920634920634921,17.22222222222222,-10.396825396825395,10.873015873015872,-138.8095238095238,-20.07936507936508,13.412698412698411,24.523809523809522,-16.587301587301585,23.57142857142857,-16.11111111111111,-18.65079365079365,-6.111111111111111,11.349206349206348,-34.52380952380952,-23.41269841269841,-0.873015873015873,-0.23809523809523808,-166.26984126984127
-38.17460317460317,106.1111111111111,21.825396825396822,-16.904761904761905,-114.04761904761904,9.920634920634921,17.22222222222222,-10.396825396825395,10.873015873015872,-138.8095238095238,-20.07936507936508,13.412698412698411,24.523809523809522,-16.587301587301585,23.57142857142857,-16.11111111111111,-18.65079365079365,-6.111111111111111,11.349206349206348,-34.52380952380952,-23.41269841269841,-0.873015873015873,-0.23809523809523808,-166.26984126984127
-38.17460317460317,106.1111111111111,21.825396825396822,-16.904761904761905,-114.04761904761904,9.920634920634921,17.22222222222222,-10.396825396825395,10.873015873015872,-138.8095238095238,-20.07936507936508,13.412698412698411,24.523809523809522,-16.587301587301585,23.57142857142857,-16.11111111111111,-18.65079365079365,-6.111111111111111,11.349206349206348,-34.52380952380952,-23.41269841269841,-0.873015873015873,-0.23809523809523808,-166.26984126984127
-38.17460317460317,106.1111111111111,21.825396825396822,-16.904761904761905,-114.04761904761904,9.920634920634921,17.22222222222222,-10.396825396825395,10.873015873015872,-138.8095238095238,-20.07936507936508,13.412698412698411,24.523809523809522,-16.587301587301585,23.57142857142857,-16.11111111111111,-18.65079365079365,-6.111111111111111,11.349206349206348,-34.52380952380952,-23.41269841269841,-0.873015873015873,-0.23809523809523808,-166.26984126984127
-38.17460317460317,106.1111111111111,21.825396825396822,-16.904761904761905,-114.04761904761904,9.920634920634921,17.22222222222222,-10.396825396825395,10.873015873015872,-138.8095238095238,-20.07936507936508,13.412698412698411,24.523809523809522,-16.587301587301585,23.57142857142857,-16.11111111111111,-18.65079365079365,-6.111111111111111,11.349206349206348,-34.52380952380952,-23.41269841269841,-0.873015873015873,-0.23809523809523808,-166.26984126984127
-38.17460317460317,106.1111111111111,21.825396825396822,-16.904761904761905,-114.04761904761904,9.920634920634921,17.22222222222222,-10.396825396825395,10.873015873015872,-138.8095238095238,-20.07936507936508,13.412698412698411,24.523809523809522,-16.587301587301585,23.57142857142857,-16.11111111111111,-18.65079365079365,-6.111111111111111,11.349206349206348,-34.52380952380952,-23.41269841269841,-0.873015873015873,-0.23809523809523808,-166.26984126984127
-36.11111111111111,98.96825396825396,20.396825396825395,-16.11111111111111,-107.85714285714285,46.11111111111111,16.26984126984127,-10.079365079365079,10.238095238095237,-129.9206349206349,-19.126984126984127,12.46031746031746,23.253968253968253,-15.793650793650793,22.3015873015873,-15.317460317460316,-18.015873015873016,27.063492063492063,10.555555555555555,-32.77777777777778,-22.142857142857142,-1.1904761904761905,-0.873015873015873,-166.26984126984127
-36.11111111111111,98.96825396825396,20.396825396825395,-16.11111111111111,-107.85714285714285,46.11111111111111,16.26984126984127,-10.079365079365079,10.238095238095237,-129.9206349206349,-19.126984126984127,12.46031746031746,23.253968253968253,-15.793650793650793,22.3015873015873,-15.317460317460316,-18.015873015873016,27.063492063492063,10.555555555555555,-32.77777777777778,-22.142857142857142,-1.1904761904761905,-0.873015873015873,-166.26984126984127
-32.460317460317455,87.22222222222221,18.174603174603174,-14.523809523809524,-97.38095238095238,98.49206349206348,14.84126984126984,-9.444444444444445,9.285714285714285,-114.68253968253967,-17.38095238095238,11.19047619047619,20.873015873015873,-14.365079365079364,19.76190476190476,-14.047619047619047,-16.26984126984127,76.58730158730158,9.444444444444445,-29.76190476190476,-20.238095238095237,-0.5555555555555556,-0.3968253968253968,-166.26984126984127
-32.460317460317455,87.22222222222221,18.174603174603174,-14.523809523809524,-97.38095238095238,98.49206349206348,14.84126984126984,-9.444444444444445,9.285714285714285,-114.68253968253967,-17.38095238095238,11.19047619047619,20.873015873015873,-14.365079365079364,19.76190476190476,-14.047619047619047,-16.26984126984127,76.58730158730158,9.444444444444445,-29.76190476190476,-20.238095238095237,-0.5555555555555556,-0.3968253968253968,-166.26984126984127
-30.238095238095237,79.6031746031746,16.904761904761905,-13.571428571428571,-90.39682539682539,127.38095238095238,13.73015873015873,-8.968253968253968,8.65079365079365,-105.0,-16.428571428571427,10.238095238095237,19.6031746031746,-13.73015873015873,18.333333333333332,-12.936507936507935,-15.317460317460316,108.01587301587301,8.809523809523808,-27.698412698412696,-18.65079365079365,0.07936507936507936,-0.23809523809523808,-321.8253968253968
-30.238095238095237,79.6031746031746,16.904761904761905,-13.571428571428571,-90.39682539682539,127.38095238095238,13.73015873015873,-8.968253968253968,8.65079365079365,-105.0,-16.428571428571427,10.238095238095237,19.6031746031746,-13.73015873015873,18.333333333333332,-12.936507936507935,-15.317460317460316,108.01587301587301,8.809523809523808,-27.698412698412696,-18.65079365079365,0.07936507936507936,-0.23809523809523808,-321.8253968253968
-28.65079365079365,73.88888888888889,15.793650793650793,-13.095238095238095,-85.15873015873015,151.5079365079365,12.936507936507935,-8.492063492063492,8.333333333333332,-97.6984126984127,-15.634920634920634,9.761904761904761,18.49206349206349,-13.095238095238095,17.539682539682538,-12.46031746031746,-14.365079365079364,137.53968253968253,8.174603174603174,-25.952380952380953,-17.698412698412696,-0.3968253968253968,-0.5555555555555556,-321.8253968253968
-28.65079365079365,73.88888888888889,15.793650793650793,-13.095238095238095,-85.15873015873015,151.5079365079365,12.936507936507935,-8.492063492063492,8.333333333333332,-97.6984126984127,-15.634920634920634,9.761904761904761,18.49206349206349,-13.095238095238095,17.539682539682538,-12.46031746031746,-14.365079365079364,137.53968253968253,8.174603174603174,-25.952380952380953,-17.698412698412696,-0.3968253968253968,-0.5555555555555556,-321.8253968253968
-28.015873015873016,71.82539682539682,15.476190476190474,-12.936507936507935,-83.09523809523809,160.23809523809524,12.619047619047619,-8.174603174603174,8.174603174603174,-95.0,-15.317460317460316,9.603174603174603,18.015873015873016,-12.777777777777777,17.22222222222222,-12.142857142857142,-14.047619047619047,148.96825396825395,8.015873015873016,-25.317460317460316,-17.38095238095238,-0.873015873015873,-0.5555555555555556,-321.8253968253968
-28.015873015873016,71.82539682539682,15.476190476190474,-12.936507936507935,-83.09523809523809,160.23809523809524,12.619047619047619,-8.174603174603174,8.174603174603174,-95.0,-15.317460317460316,9.603174603174603,18.015873015873016,-12.777777777777777,17.22222222222222,-12.142857142857142,-14.047619047619047,148.96825396825395,8.015873015873016,-25.317460317460316,-17.38095238095238,-0.873015873015873,-0.5555555555555556,-321.8253968253968
-24.68253968253968,61.03174603174603,13.571428571428571,-11.666666666666666,-72.93650793650794,196.9047619047619,11.031746031746032,-7.698412698412698,7.222222222222221,-81.34920634920634,-13.888888888888888,8.333333333333332,15.793650793650793,-11.507936507936508,14.84126984126984,-11.031746031746032,-12.777777777777777,192.77777777777777,7.063492063492063,-22.619047619047617,-15.476190476190474,-0.3968253968253968,-0.7142857142857142,-321.8253968253968
-24.68253968253968,61.03174603174603,13.571428571428571,-11.666666666666666,-72.93650793650794,196.9047619047619,11.031746031746032,-7.698412698412698,7.222222222222221,-81.34920634920634,-13.888888888888888,8.333333333333332,15.793650793650793,-11.507936507936508,14.84126984126984,-11.031746031746032,-12.777777777777777,192.77777777777777,7.063492063492063,-22.619047619047617,-15.476190476190474,-0.3968253968253968,-0.7142857142857142,-321.8253968253968
-21.03174603174603,48.96825396825397,11.19047619047619,-9.920634920634921,-61.34920634920635,233.4126984126984,9.285714285714285,-7.222222222222221,6.26984126984127,-66.11111111111111,-12.142857142857142,6.904761904761904,13.412698412698411,-10.079365079365079,12.3015873015873,-9.603174603174603,-11.19047619047619,236.9047619047619,6.26984126984127,-19.285714285714285,-13.253968253968253,0.07936507936507936,-0.5555555555555556,-321.8253968253968
-21.03174603174603,48.96825396825397,11.19047619047619,-9.920634920634921,-61.34920634920635,233.4126984126984,9.285714285714285,-7.222222222222221,6.26984126984127,-66.11111111111111,-12.142857142857142,6.904761904761904,13.412698412698411,-10.079365079365079,12.3015873015873,-9.603174603174603,-11.19047619047619,236.9047619047619,6.26984126984127,-19.285714285714285,-13.253968253968253,0.07936507936507936,-0.5555555555555556,-321.8253968253968
-20.555555555555554,48.49206349206349,11.19047619047619,-10.079365079365079,-60.71428571428571,232.46031746031744,9.126984126984127,-7.063492063492063,6.111111111111111,-65.15873015873015,-11.825396825396824,6.904761904761904,13.412698412698411,-10.079365079365079,12.142857142857142,-9.444444444444445,-10.873015873015872,236.74603174603175,6.111111111111111,-19.126984126984127,-13.095238095238095,0.3968253968253968,-0.3968253968253968,-166.26984126984127
-20.555555555555554,48.49206349206349,11.19047619047619,-10.079365079365079,-60.71428571428571,232.46031746031744,9.126984126984127,-7.063492063492063,6.111111111111111,-65.15873015873015,-11.825396825396824,6.904761904761904,13.412698412698411,-10.079365079365079,12.142857142857142,-9.444444444444445,-10.873015873015872,236.74603174603175,6.111111111111111,-19.126984126984127,-13.095238095238095,0.3968253968253968,-0.3968253968253968,-166.26984126984127
-19.76190476190476,45.95238095238095,10.714285714285714,-9.603174603174603,-58.49206349206349,235.63492063492063,8.809523809523808,-6.904761904761904,6.111111111111111,-62.3015873015873,-11.666666666666666,6.746031746031746,12.777777777777777,-9.920634920634921,11.507936507936508,-9.285714285714285,-10.714285714285714,241.03174603174602,5.7936507936507935,-18.65079365079365,-12.619047619047619,-0.7142857142857142,0.07936507936507936,-166.26984126984127
-19.76190476190476,45.95238095238095,10.714285714285714,-9.603174603174603,-58.49206349206349,235.63492063492063,8.809523809523808,-6.904761904761904,6.111111111111111,-62.3015873015873,-11.666666666666666,6.746031746031746,12.777777777777777,-9.920634920634921,11.507936507936508,-9.285714285714285,-10.714285714285714,241.03174603174602,5.7936507936507935,-18.65079365079365,-12.619047619047619,-0.7142857142857142,0.07936507936507936,-166.26984126984127
-18.80952380952381,42.93650793650794,10.079365079365079,-9.285714285714285,-55.317460317460316,230.3968253968254,8.333333333333332,-6.746031746031746,5.7936507936507935,-58.8095238095238,-11.19047619047619,6.428571428571428,12.142857142857142,-9.285714285714285,11.031746031746032,-8.968253968253968,-10.238095238095237,237.06349206349205,5.634920634920634,-17.539682539682538,-12.142857142857142,-0.23809523809523808,0.3968253968253968,-166.26984126984127
-18.80952380952381,42.93650793650794,10.079365079365079,-9.285714285714285,-55.317460317460316,230.3968253968254,8.333333333333332,-6.746031746031746,5.7936507936507935,-58.8095238095238,-11.19047619047619,6.428571428571428,12.142857142857142,-9.285714285714285,11.031746031746032,-8.968253968253968,-10.238095238095237,237.06349206349205,5.634920634920634,-17.539682539682538,-12.142857142857142,-0.23809523809523808,0.3968253968253968,-166.26984126984127
-18.65079365079365,41.34920634920635,9.761904761904761,-9.285714285714285,-53.25396825396825,231.03174603174602,8.015873015873016,-6.587301587301587,5.476190476190476,-56.11111111111111,-11.031746031746032,6.111111111111111,11.825396825396824,-9.444444444444445,10.714285714285714,-8.65079365079365,-9.920634920634921,239.44444444444443,5.317460317460317,-16.904761904761905,-11.666666666666666,-0.23809523809523808,-0.23809523809523808,-166.26984126984127
-18.65079365079365,41.34920634920635,9.761904761904761,-9.285714285714285,-53.25396825396825,231.03174603174602,8.015873015873016,-6.587301587301587,5.476190476190476,-56.11111111111111,-11.031746031746032,6.111111111111111,11.825396825396824,-9.444444444444445,10.714285714285714,-8.65079365079365,-9.920634920634921,239.44444444444443,5.317460317460317,-16.904761904761905,-11.666666666666666,-0.23809523809523808,-0.23809523809523808,-166.26984126984127
-18.49206349206349,40.87301587301587,9.761904761904761,-9.285714285714285,-52.93650793650794,230.2380952380952,8.015873015873016,-6.428571428571428,5.476190476190476,-55.63492063492063,-10.873015873015872,6.111111111111111,11.825396825396824,-9.444444444444445,10.714285714285714,-8.65079365079365,-9.920634920634921,238.96825396825395,5.158730158730158,-16.904761904761905,-11.507936507936508,0.3968253968253968,0.3968253968253968,-166.26984126984127
-18.49206349206349,40.87301587301587,9.761904761904761,-9.285714285714285,-52.93650793650794,230.2380952380952,8.015873015873016,-6.428571428571428,5.476190476190476,-55.63492063492063,-10.873015873015872,6.111111111111111,11.825396825396824,-9.444444444444445,10.714285714285714,-8.65079365079365,-9.920634920634921,238.96825396825395,5.158730158730158,-16.904761904761905,-11.507936507936508,0.3968253968253968,0.3968253968253968,-166.26984126984127
-18.49206349206349,40.87301587301587,9.761904761904761,-9.285714285714285,-52.93650793650794,230.2380952380952,8.015873015873016,-6.428571428571428,5.476190476190476,-55.63492063492063,-10.873015873015872,6.111111111111111,11.825396825396824,-9.444444444444445,10.714285714285714,-8.65079365079365,-9.920634920634921,238.96825396825395,5.158730158730158,-16.904761904761905,-11.507936507936508,0.3968253968253968,0.3968253968253968,-321.8253968253968
-18.49206349206349,40.87301587301587,9.761904761904761,-9.285714285714285,-52.93650793650794,230.2380952380952,8.015873015873016,-6.428571428571428,5.476190476190476,-55.63492063492063,-10.873015873015872,6.111111111111111,11.825396825396824,-9.444444444444445,10.714285714285714,-8.65079365079365,-9.920634920634921,238.96825396825395,5.158730158730158,-16.904761904761905,-11.507936507936508,0.3968253968253968,0.3968253968253968,-321.8253968253968
-14.047619047619047,-325.0,7.222222222222221,-7.3809523809523805,-40.238095238095234,205.15873015873015,6.111111111111111,-5.634920634920634,4.365079365079365,-40.39682539682539,-8.809523809523808,4.2063492063492065,9.126984126984127,-7.222222222222221,8.015873015873016,-6.904761904761904,-7.857142857142857,220.07936507936506,-61.34920634920635,-13.095238095238095,-9.126984126984127,-0.07936507936507936,-0.5555555555555556,-321.8253968253968
-14.047619047619047,-325.0,7.222222222222221,-7.3809523809523805,-40.238095238095234,205.15873015873015,6.111111111111111,-5.634920634920634,4.365079365079365,-40.39682539682539,-8.809523809523808,4.2063492063492065,9.126984126984127,-7.222222222222221,8.015873015873016,-6.904761904761904,-7.857142857142857,220.07936507936506,-61.34920634920635,-13.095238095238095,-9.126984126984127,-0.07936507936507936,-0.5555555555555556,-321.8253968253968
-13.412698412698411,-325.0,-155.63492063492063,-17.22222222222222,-28.015873015873016,184.68253968253967,-156.58730158730157,-15.634920634920634,14.523809523809524,-37.698412698412696,143.88888888888889,-105.63492063492063,-153.88888888888889,-17.22222222222222,-144.84126984126982,-16.746031746031743,-7.3809523809523805,210.87301587301587,-260.55555555555554,-12.619047619047619,-8.492063492063492,0.3968253968253968,-0.3968253968253968,-321.8253968253968
-13.412698412698411,-325.0,-155.63492063492063,-17.22222222222222,-28.015873015873016,184.68253968253967,-156.58730158730157,-15.634920634920634,14.523809523809524,-37.698412698412696,143.88888888888889,-105.63492063492063,-153.88888888888889,-17.22222222222222,-144.84126984126982,-16.746031746031743,-7.3809523809523805,210.87301587301587,-260.55555555555554,-12.619047619047619,-8.492063492063492,0.3968253968253968,-0.3968253968253968,-321.8253968253968
-13.412698412698411,-325.0,-318.17460317460313,-27.38095238095238,-17.857142857142858,174.52380952380952,-319.1269841269841,-25.79365079365079,24.68253968253968,-37.698412698412696,296.26984126984127,-115.79365079365078,-316.4285714285714,-27.38095238095238,-297.22222222222223,-26.9047619047619,-7.3809523809523805,210.87301587301587,-260.55555555555554,-12.619047619047619,-8.492063492063492,0.3968253968253968,-0.3968253968253968,-321.8253968253968
-13.412698412698411,-325.0,-318.17460317460313,-27.38095238095238,-17.857142857142858,174.52380952380952,-319.1269841269841,-25.79365079365079,24.68253968253968,-37.698412698412696,296.26984126984127,-115.79365079365078,-316.4285714285714,-27.38095238095238,-297.22222222222223,-26.9047619047619,-7.3809523809523805,210.87301587301587,-260.55555555555554,-12.619047619047619,-8.492063492063492,0.3968253968253968,-0.3968253968253968,-321.8253968253968
-11.349206349206348,-325.0,5.952380952380952,-6.111111111111111,-32.3015873015873,174.2063492063492,5.0,325.0,4.0476190476190474,-31.349206349206348,-7.3809523809523805,-325.0,7.222222222222221,-6.26984126984127,6.587301587301587,-5.7936507936507935,-6.428571428571428,192.61904761904762,-325.0,-10.714285714285714,-7.5396825396825395,-0.5555555555555556,-0.7142857142857142,-321.8253968253968
-11.349206349206348,-325.0,5.952380952380952,-6.111111111111111,-32.3015873015873,174.2063492063492,5.0,325.0,4.0476190476190474,-31.349206349206348,-7.3809523809523805,-325.0,7.222222222222221,-6.26984126984127,6.587301587301587,-5.7936507936507935,-6.428571428571428,192.61904761904762,-325.0,-10.714285714285714,-7.5396825396825395,-0.5555555555555556,-0.7142857142857142,-321.8253968253968
-11.349206349206348,-325.0,5.952380952380952,-6.111111111111111,-32.3015873015873,174.2063492063492,5.0,325.0,4.0476190476190474,-31.349206349206348,-7.3809523809523805,-325.0,7.222222222222221,-6.26984126984127,6.587301587301587,-5.7936507936507935,-6.428571428571428,192.61904761904762,-325.0,-10.714285714285714,-7.5396825396825395,-0.5555555555555556,-0.7142857142857142,-166.26984126984127
-11.349206349206348,-325.0,5.952380952380952,-6.111111111111111,-32.3015873015873,174.2063492063492,5.0,325.0,4.0476190476190474,-31.349206349206348,-7.3809523809523805,-325.0,7.222222222222221,-6.26984126984127,6.587301587301587,-5.7936507936507935,-6.428571428571428,192.61904761904762,-325.0,-10.714285714285714,-7.5396825396825395,-0.5555555555555556,-0.7142857142857142,-166.26984126984127
-11.349206349206348,-325.0,5.952380952380952,-6.111111111111111,-32.3015873015873,174.2063492063492,5.0,325.0,4.0476190476190474,-31.349206349206348,-7.3809523809523805,-325.0,7.222222222222221,-6.26984126984127,6.587301587301587,-5.7936507936507935,-6.428571428571428,192.61904761904762,-325.0,-10.714285714285714,-7.5396825396825395,-0.5555555555555556,-0.7142857142857142,-166.26984126984127
-11.349206349206348,-325.0,5.952380952380952,-6.111111111111111,-32.3015873015873,174.2063492063492,5.0,325.0,4.0476190476190474,-31.349206349206348,-7.3809523809523805,-325.0,7.222222222222221,-6.26984126984127,6.587301587301587,-5.7936507936507935,-6.428571428571428,192.61904761904762,-325.0,-10.714285714285714,-7.5396825396825395,-0.5555555555555556,-0.7142857142857142,-166.26984126984127
-11.349206349206348,-325.0,5.952380952380952,-6.111111111111111,-32.3015873015873,174.2063492063492,5.0,325.0,4.0476190476190474,-31.349206349206348,-7.3809523809523805,-325.0,7.222222222222221,-6.26984126984127,6.587301587301587,-5.7936507936507935,-6.428571428571428,192.61904761904762,-325.0,-10.714285714285714,-7.5396825396825395,-0.5555555555555556,-0.7142857142857142,-166.26984126984127
-11.349206349206348,-325.0,5.952380952380952,-6.111111111111111,-32.3015873015873,174.2063492063492,5.0,325.0,4.0476190476190474,-31.349206349206348,-7.3809523809523805,-325.0,7.222222222222221,-6.26984126984127,6.587301587301587,-5.7936507936507935,-6.428571428571428,192.61904761904762,-325.0,-10.714285714285714,-7.5396825396825395,-0.5555555555555556,-0.7142857142857142,-166.26984126984127
-11.349206349206348,-325.0,5.952380952380952,-6.111111111111111,-32.3015873015873,174.2063492063492,5.0,325.0,4.0476190476190474,-31.349206349206348,-7.3809523809523805,-325.0,7.222222222222221,-6.26984126984127,6.587301587301587,-5.7936507936507935,-6.428571428571428,192.61904761904762,-325.0,-10.714285714285714,-7.5396825396825395,-0.5555555555555556,-0.7142857142857142,-166.26984126984127
-11.349206349206348,-325.0,5.952380952380952,-6.111111111111111,-32.3015873015873,174.2063492063492,5.0,325.0,4.0476190476190474,-31.349206349206348,-7.3809523809523805,-325.0,7.222222222222221,-6.26984126984127,6.587301587301587,-5.7936507936507935,-6.428571428571428,192.61904761904762,-325.0,-10.714285714285714,-7.5396825396825395,-0.5555555555555556,-0.7142857142857142,-166.26984126984127
-11.349206349206348,-325.0,5.952380952380952,-6.111111111111111,-32.3015873015873,174.2063492063492,5.0,325.0,4.0476190476190474,-31.349206349206348,-7.3809523809523805,-325.0,7.222222222222221,-6.26984126984127,6.587301587301587,-5.7936507936507935,-6.428571428571428,192.61904761904762,-325.0,-10.714285714285714,-7.5396825396825395,-0.5555555555555556,-0.7142857142857142,-166.26984126984127
-11.349206349206348,-325.0,5.952380952380952,-6.111111111111111,-32.3015873015873,174.2063492063492,5.0,325.0,4.0476190476190474,-31.349206349206348,-7.3809523809523805,-325.0,7.222222222222221,-6.26984126984127,6.587301587301587,-5.7936507936507935,-6.428571428571428,192.61904761904762,-325.0,-10.714285714285714,-7.5396825396825395,-0.5555555555555556,-0.7142857142857142,-166.26984126984127
-11.349206349206348,-325.0,5.952380952380952,-6.111111111111111,-32.3015873015873,174.2063492063492,5.0,325.0,4.0476190476190474,-31.349206349206348,-7.3809523809523805,-325.0,7.222222222222221,-6.26984126984127,6.587301587301587,-5.7936507936507935,-6.428571428571428,192.61904761904762,-325.0,-10.714285714285714,-7.5396825396825395,-0.5555555555555556,-0.7142857142857142,-321.8253968253968
-11.349206349206348,-325.0,5.952380952380952,-6.111111111111111,-32.3015873015873,174.2063492063492,5.0,325.0,4.0476190476190474,-31.349206349206348,-7.3809523809523805,-325.0,7.222222222222221,-6.26984126984127,6.587301587301587,-5.7936507936507935,-6.428571428571428,192.61904761904762,-325.0,-10.714285714285714,-7.5396825396825395,-0.5555555555555556,-0.7142857142857142,-321.8253968253968
-11.349206349206348,-325.0,5.952380952380952,-6.111111111111111,-32.3015873015873,174.2063492063492,5.0,325.0,4.0476190476190474,-31.349206349206348,-7.3809523809523805,-325.0,7.222222222222221,-6.26984126984127,6.587301587301587,-5.7936507936507935,-6.428571428571428,192.61904761904762,-325.0,-10.714285714285714,-7.5396825396825395,-0.5555555555555556,-0.7142857142857142,-321.8253968253968
-11.349206349206348,-325.0,5.952380952380952,-6.111111111111111,-32.3015873015873,174.2063492063492,5.0,325.0,4.0476190476190474,-31.349206349206348,-7.3809523809523805,-325.0,7.222222222222221,-6.26984126984127,6.587301587301587,-5.7936507936507935,-6.428571428571428,192.61904761904762,-325.0,-10.714285714285714,-7.5396825396825395,-0.5555555555555556,-0.7142857142857142,-321.8253968253968
-11.349206349206348,-325.0,5.952380952380952,-6.111111111111111,-32.3015873015873,174.2063492063492,5.0,325.0,4.0476190476190474,-31.349206349206348,-7.3809523809523805,-325.0,7.222222222222221,-6.26984126984127,6.587301587301587,-5.7936507936507935,-6.428571428571428,192.61904761904762,-325.0,-10.714285714285714,-7.5396825396825395,-0.5555555555555556,-0.7142857142857142,-321.8253968253968
-11.349206349206348,-325.0,5.952380952380952,-6.111111111111111,-32.3015873015873,174.2063492063492,5.0,325.0,4.0476190476190474,-31.349206349206348,-7.3809523809523805,-325.0,7.222222222222221,-6.26984126984127,6.587301587301587,-5.7936507936507935,-6.428571428571428,192.61904761904762,-325.0,-10.714285714285714,-7.5396825396825395,-0.5555555555555556,-0.7142857142857142,-321.8253968253968
-11.349206349206348,-325.0,5.952380952380952,-6.111111111111111,-32.3015873015873,174.2063492063492,5.0,325.0,4.0476190476190474,-31.349206349206348,-7.3809523809523805,-325.0,7.222222222222221,-6.26984126984127,6.587301587301587,-5.7936507936507935,-6.428571428571428,192.61904761904762,-325.0,-10.714285714285714,-7.5396825396825395,-0.5555555555555556,-0.7142857142857142,-321.8253968253968
-11.349206349206348,-325.0,5.952380952380952,-6.111111111111111,-32.3015873015873,174.2063492063492,5.0,325.0,4.0476190476190474,-31.349206349206348,-7.3809523809523805,-325.0,7.222222222222221,-6.26984126984127,6.587301587301587,-5.7936507936507935,-6.428571428571428,192.61904761904762,-325.0,-10.714285714285714,-7.5396825396825395,-0.5555555555555556,-0.7142857142857142,-321.8253968253968
-7.857142857142857,-325.0,3.73015873015873,-4.523809523809524,-21.03174603174603,113.88888888888889,-325.0,325.0,-325.0,-18.80952380952381,-5.476190476190476,-325.0,5.158730158730158,114.36507936507935,4.2063492063492065,325.0,-4.682539682539682,134.68253968253967,-325.0,-7.3809523809523805,-5.317460317460317,-0.3968253968253968,-0.873015873015873,-321.8253968253968
-7.857142857142857,-325.0,3.73015873015873,-4.523809523809524,-21.03174603174603,113.88888888888889,-325.0,325.0,-325.0,-18.80952380952381,-5.476190476190476,-325.0,5.158730158730158,114.36507936507935,4.2063492063492065,325.0,-4.682539682539682,134.68253968253967,-325.0,-7.3809523809523805,-5.317460317460317,-0.3968253968253968,-0.873015873015873,-321.8253968253968
-7.698412698412698,-325.0,3.73015873015873,-4.523809523809524,-20.873015873015873,113.88888888888889,-325.0,325.0,-325.0,-18.65079365079365,-5.317460317460317,-325.0,5.317460317460317,150.7142857142857,4.2063492063492065,325.0,-4.682539682539682,135.47619047619048,-325.0,-7.222222222222221,-5.317460317460317,-0.3968253968253968,-1.0317460317460316,-166.26984126984127
-7.698412698412698,-325.0,3.73015873015873,-4.523809523809524,-20.873015873015873,113.88888888888889,-325.0,325.0,-325.0,-18.65079365079365,-5.317460317460317,-325.0,5.317460317460317,150.7142857142857,4.2063492063492065,325.0,-4.682539682539682,135.47619047619048,-325.0,-7.222222222222221,-5.317460317460317,-0.3968253968253968,-1.0317460317460316,-166.26984126984127
-7.5396825396825395,-325.0,3.4126984126984126,-4.2063492063492065,-20.396825396825395,110.39682539682539,-325.0,325.0,-325.0,-18.174603174603174,-5.317460317460317,-325.0,5.158730158730158,325.0,4.0476190476190474,325.0,-4.523809523809524,130.7142857142857,-325.0,-7.222222222222221,-5.158730158730158,0.7142857142857142,-0.3968253968253968,-166.26984126984127
-7.5396825396825395,-325.0,3.4126984126984126,-4.2063492063492065,-20.396825396825395,110.39682539682539,-325.0,325.0,-325.0,-18.174603174603174,-5.317460317460317,-325.0,5.158730158730158,325.0,4.0476190476190474,325.0,-4.523809523809524,130.7142857142857,-325.0,-7.222222222222221,-5.158730158730158,0.7142857142857142,-0.3968253968253968,-166.26984126984127
-7.5396825396825395,-325.0,3.73015873015873,-4.365079365079365,-19.76190476190476,103.88888888888889,-325.0,325.0,-325.0,-17.857142857142858,-5.158730158730158,-325.0,5.0,325.0,4.0476190476190474,325.0,-4.682539682539682,125.31746031746032,-325.0,-7.063492063492063,-5.0,-1.0317460317460316,-0.873015873015873,-166.26984126984127
-7.5396825396825395,-325.0,3.73015873015873,-4.365079365079365,-19.76190476190476,103.88888888888889,-325.0,325.0,-325.0,-17.857142857142858,-5.158730158730158,-325.0,5.0,325.0,4.0476190476190474,325.0,-4.682539682539682,125.31746031746032,-325.0,-7.063492063492063,-5.0,-1.0317460317460316,-0.873015873015873,-166.26984126984127
-7.5396825396825395,-325.0,3.73015873015873,-4.365079365079365,-19.76190476190476,103.88888888888889,-325.0,325.0,-325.0,-17.857142857142858,-5.158730158730158,-325.0,5.0,325.0,4.0476190476190474,325.0,-4.682539682539682,125.31746031746032,-325.0,-7.063492063492063,-5.0,-1.0317460317460316,-0.873015873015873,-166.26984126984127
-7.5396825396825395,-325.0,3.73015873015873,-4.365079365079365,-19.76190476190476,103.88888888888889,-325.0,325.0,-325.0,-17.857142857142858,-5.158730158730158,-325.0,5.0,325.0,4.0476190476190474,325.0,-4.682539682539682,125.31746031746032,-325.0,-7.063492063492063,-5.0,-1.0317460317460316,-0.873015873015873,-166.26984126984127
-7.5396825396825395,-325.0,3.73015873015873,-4.365079365079365,-19.76190476190476,103.88888888888889,-325.0,325.0,-325.0,-17.857142857142858,-5.158730158730158,-325.0,5.0,325.0,4.0476190476190474,325.0,-4.682539682539682,125.31746031746032,-325.0,-7.063492063492063,-5.0,-1.0317460317460316,-0.873015873015873,-166.26984126984127
-7.5396825396825395,-325.0,3.73015873015873,-4.365079365079365,-19.76190476190476,103.88888888888889,-325.0,325.0,-325.0,-17.857142857142858,-5.158730158730158,-325.0,5.0,325.0,4.0476190476190474,325.0,-4.682539682539682,125.31746031746032,-325.0,-7.063492063492063,-5.0,-1.0317460317460316,-0.873015873015873,-166.26984126984127
-7.5396825396825395,-325.0,3.73015873015873,-4.365079365079365,-19.76190476190476,103.88888888888889,-325.0,325.0,-325.0,-17.857142857142858,-5.158730158730158,-325.0,5.0,325.0,4.0476190476190474,325.0,-4.682539682539682,125.31746031746032,-325.0,-7.063492063492063,-5.0,-1.0317460317460316,-0.873015873015873,-321.8253968253968
-7.5396825396825395,-325.0,3.73015873015873,-4.365079365079365,-19.76190476190476,103.88888888888889,-325.0,325.0,-325.0,-17.857142857142858,-5.158730158730158,-325.0,5.0,325.0,4.0476190476190474,325.0,-4.682539682539682,125.31746031746032,-325.0,-7.063492063492063,-5.0,-1.0317460317460316,-0.873015873015873,-321.8253968253968
-7.5396825396825395,-325.0,3.73015873015873,-4.365079365079365,-19.76190476190476,103.88888888888889,-325.0,325.0,-325.0,-17.857142857142858,-5.158730158730158,-325.0,5.0,325.0,4.0476190476190474,325.0,-4.682539682539682,125.31746031746032,-325.0,-7.063492063492063,-5.0,-1.0317460317460316,-0.873015873015873,-321.8253968253968
-7.5396825396825395,-325.0,3.73015873015873,-4.365079365079365,-19.76190476190476,103.88888888888889,-325.0,325.0,-325.0,-17.857142857142858,-5.158730158730158,-325.0,5.0,325.0,4.0476190476190474,325.0,-4.682539682539682,125.31746031746032,-325.0,-7.063492063492063,-5.0,-1.0317460317460316,-0.873015873015873,-321.8253968253968
-7.063492063492063,-325.0,-102.30158730158729,-4.0476190476190474,-18.49206349206349,99.6031746031746,-325.0,325.0,-325.0,22.142857142857142,-5.0,-325.0,4.682539682539682,325.0,-258.4920634920635,325.0,-4.523809523809524,121.5079365079365,-325.0,-6.746031746031746,-4.841269841269841,-0.07936507936507936,-1.0317460317460316,-321.8253968253968
-7.063492063492063,-325.0,-102.30158730158729,-4.0476190476190474,-18.49206349206349,99.6031746031746,-325.0,325.0,-325.0,22.142857142857142,-5.0,-325.0,4.682539682539682,325.0,-258.4920634920635,325.0,-4.523809523809524,121.5079365079365,-325.0,-6.746031746031746,-4.841269841269841,-0.07936507936507936,-1.0317460317460316,-321.8253968253968
-6.904761904761904,-324.5238095238095,-254.36507936507934,-4.0476190476190474,-18.333333333333332,102.46031746031746,-325.0,325.0,-325.0,78.01587301587301,-4.841269841269841,-325.0,4.523809523809524,325.0,-325.0,325.0,-4.365079365079365,124.2063492063492,-325.0,-6.746031746031746,-4.682539682539682,-0.23809523809523808,-0.5555555555555556,-321.8253968253968
-6.904761904761904,-324.5238095238095,-254.36507936507934,-4.0476190476190474,-18.333333333333332,102.46031746031746,-325.0,325.0,-325.0,78.01587301587301,-4.841269841269841,-325.0,4.523809523809524,325.0,-325.0,325.0,-4.365079365079365,124.2063492063492,-325.0,-6.746031746031746,-4.682539682539682,-0.23809523809523808,-0.5555555555555556,-321.8253968253968
-6.904761904761904,-320.07936507936506,-325.0,-3.888888888888889,-17.857142857142858,95.31746031746032,-325.0,325.0,-325.0,113.25396825396825,-4.841269841269841,-325.0,4.682539682539682,325.0,-325.0,325.0,-4.0476190476190474,117.22222222222221,-325.0,-6.26984126984127,-4.523809523809524,-0.873015873015873,-1.1904761904761905,-321.8253968253968
-6.904761904761904,-320.07936507936506,-325.0,-3.888888888888889,-17.857142857142858,95.31746031746032,-325.0,325.0,-325.0,113.25396825396825,-4.841269841269841,-325.0,4.682539682539682,325.0,-325.0,325.0,-4.0476190476190474,117.22222222222221,-325.0,-6.26984126984127,-4.523809523809524,-0.873015873015873,-1.1904761904761905,-321.8253968253968
-6.587301587301587,-314.8412698412698,-325.0,-3.73015873015873,-17.698412698412696,94.68253968253968,-325.0,325.0,-325.0,140.7142857142857,-4.841269841269841,-325.0,-50.71428571428571,325.0,-325.0,325.0,-4.0476190476190474,116.58730158730158,-325.0,-6.26984126984127,-4.523809523809524,0.5555555555555556,-0.5555555555555556,-166.26984126984127
-6.587301587301587,-314.8412698412698,-325.0,-3.73015873015873,-17.698412698412696,94.68253968253968,-325.0,325.0,-325.0,140.7142857142857,-4.841269841269841,-325.0,-50.71428571428571,325.0,-325.0,325.0,-4.0476190476190474,116.58730158730158,-325.0,-6.26984126984127,-4.523809523809524,0.5555555555555556,-0.5555555555555556,-166.26984126984127
-6.587301587301587,-309.6031746031746,-325.0,-3.888888888888889,-17.22222222222222,97.38095238095238,-325.0,325.0,-325.0,181.5079365079365,-4.682539682539682,-325.0,-186.9047619047619,325.0,-325.0,325.0,-4.0476190476190474,119.44444444444444,-325.0,-6.111111111111111,-4.365079365079365,-0.07936507936507936,-0.3968253968253968,-166.26984126984127
-6.587301587301587,-309.6031746031746,-325.0,-3.888888888888889,-17.22222222222222,97.38095238095238,-325.0,325.0,-325.0,181.5079365079365,-4.682539682539682,-325.0,-186.9047619047619,325.0,-325.0,325.0,-4.0476190476190474,119.44444444444444,-325.0,-6.111111111111111,-4.365079365079365,-0.07936507936507936,-0.3968253968253968,-166.26984126984127
-6.428571428571428,-302.1428571428571,-325.0,-3.571428571428571,-16.904761904761905,95.15873015873015,-325.0,325.0,-325.0,241.98412698412696,-4.523809523809524,-325.0,-315.0,325.0,-325.0,325.0,-3.888888888888889,117.06349206349206,-325.0,-6.111111111111111,-4.365079365079365,-0.7142857142857142,-0.5555555555555556,-166.26984126984127
-6.428571428571428,-302.1428571428571,-325.0,-3.571428571428571,-16.904761904761905,95.15873015873015,-325.0,325.0,-325.0,241.98412698412696,-4.523809523809524,-325.0,-315.0,325.0,-325.0,325.0,-3.888888888888889,117.06349206349206,-325.0,-6.111111111111111,-4.365079365079365,-0.7142857142857142,-0.5555555555555556,-166.26984126984127
-6.26984126984127,-295.95238095238096,-325.0,-3.571428571428571,-16.587301587301585,90.07936507936508,-325.0,325.0,-325.0,278.8095238095238,-4.365079365079365,-325.0,-325.0,325.0,-325.0,325.0,-3.888888888888889,111.66666666666666,-325.0,-5.952380952380952,-4.2063492063492065,-0.3968253968253968,-0.23809523809523808,-166.26984126984127
-6.26984126984127,-295.95238095238096,-325.0,-3.571428571428571,-16.587301587301585,90.07936507936508,-325.0,325.0,-325.0,278.8095238095238,-4.365079365079365,-325.0,-325.0,325.0,-325.0,325.0,-3.888888888888889,111.66666666666666,-325.0,-5.952380952380952,-4.2063492063492065,-0.3968253968253968,-0.23809523809523808,-166.26984126984127
-6.26984126984127,-295.95238095238096,-325.0,-3.571428571428571,-16.587301587301585,90.07936507936508,-325.0,325.0,-325.0,278.8095238095238,-4.365079365079365,-325.0,-325.0,325.0,-325.0,325.0,-3.888888888888889,111.66666666666666,-325.0,-5.952380952380952,-4.2063492063492065,-0.3968253968253968,-0.23809523809523808,-166.26984126984127
-6.26984126984127,-295.95238095238096,-325.0,-3.571428571428571,-16.587301587301585,90.07936507936508,-325.0,325.0,-325.0,278.8095238095238,-4.365079365079365,-325.0,-325.0,325.0,-325.0,325.0,-3.888888888888889,111.66666666666666,-325.0,-5.952380952380952,-4.2063492063492065,-0.3968253968253968,-0.23809523809523808,-166.26984126984127
-6.26984126984127,-295.95238095238096,-325.0,-3.571428571428571,-16.587301587301585,90.07936507936508,-325.0,325.0,-325.0,278.8095238095238,-4.365079365079365,-325.0,-325.0,325.0,-325.0,325.0,-3.888888888888889,111.66666666666666,-325.0,-5.952380952380952,-4.2063492063492065,-0.3968253968253968,-0.23809523809523808,-321.8253968253968
-6.26984126984127,-295.95238095238096,-325.0,-3.571428571428571,-16.587301587301585,90.07936507936508,-325.0,325.0,-325.0,278.8095238095238,-4.365079365079365,-325.0,-325.0,325.0,-325.0,325.0,-3.888888888888889,111.66666666666666,-325.0,-5.952380952380952,-4.2063492063492065,-0.3968253968253968,-0.23809523809523808,-321.8253968253968
-5.952380952380952,-280.55555555555554,-325.0,-3.571428571428571,-15.634920634920634,83.09523809523809,-325.0,325.0,-325.0,325.0,-4.2063492063492065,-325.0,-325.0,325.0,-325.0,325.0,-3.888888888888889,104.68253968253968,-325.0,-5.476190476190476,-4.0476190476190474,-0.23809523809523808,-0.23809523809523808,-321.8253968253968
-5.952380952380952,-280.55555555555554,-325.0,-3.571428571428571,-15.634920634920634,83.09523809523809,-325.0,325.0,-325.0,325.0,-4.2063492063492065,-325.0,-325.0,325.0,-325.0,325.0,-3.888888888888889,104.68253968253968,-325.0,-5.476190476190476,-4.0476190476190474,-0.23809523809523808,-0.23809523809523808,-321.8253968253968
-5.952380952380952,-276.1111111111111,-325.0,-3.4126984126984126,-15.476190476190474,85.79365079365078,-325.0,325.0,-325.0,325.0,-4.365079365079365,-325.0,-325.0,325.0,-325.0,325.0,-3.73015873015873,107.6984126984127,-325.0,-5.476190476190476,-4.0476190476190474,-0.07936507936507936,-1.1904761904761905,-321.8253968253968
-5.952380952380952,-276.1111111111111,-325.0,-3.4126984126984126,-15.476190476190474,85.79365079365078,-325.0,325.0,-325.0,325.0,-4.365079365079365,-325.0,-325.0,325.0,-325.0,325.0,-3.73015873015873,107.6984126984127,-325.0,-5.476190476190476,-4.0476190476190474,-0.07936507936507936,-1.1904761904761905,-321.8253968253968
-5.952380952380952,-271.66666666666663,-325.0,-3.4126984126984126,-15.317460317460316,94.68253968253968,-325.0,325.0,-325.0,325.0,-4.365079365079365,-325.0,-325.0,325.0,-325.0,325.0,-3.888888888888889,116.42857142857142,-325.0,-5.634920634920634,-4.0476190476190474,0.23809523809523808,-1.507936507936508,-321.8253968253968
-5.952380952380952,-271.66666666666663,-325.0,-3.4126984126984126,-15.317460317460316,94.68253968253968,-325.0,325.0,-325.0,325.0,-4.365079365079365,-325.0,-325.0,325.0,-325.0,325.0,-3.888888888888889,116.42857142857142,-325.0,-5.634920634920634,-4.0476190476190474,0.23809523809523808,-1.507936507936508,-321.8253968253968
-5.7936507936507935,-267.06349206349205,-325.0,-3.4126984126984126,-15.158730158730158,90.39682539682539,-325.0,325.0,-325.0,325.0,-4.365079365079365,-324.2063492063492,-325.0,325.0,-325.0,325.0,-3.73015873015873,111.98412698412697,-324.2063492063492,-5.634920634920634,-4.0476190476190474,0.3968253968253968,-0.3968253968253968,-321.8253968253968
-5.7936507936507935,-267.06349206349205,-325.0,-3.4126984126984126,-15.158730158730158,90.39682539682539,-325.0,325.0,-325.0,325.0,-4.365079365079365,-324.2063492063492,-325.0,325.0,-325.0,325.0,-3.73015873015873,111.98412698412697,-324.2063492063492,-5.634920634920634,-4.0476190476190474,0.3968253968253968,-0.3968253968253968,-321.8253968253968
-5.952380952380952,-262.77777777777777,-325.0,-3.4126984126984126,-14.84126984126984,89.44444444444444,-325.0,325.0,-325.0,325.0,-4.2063492063492065,-319.1269841269841,-325.0,325.0,-325.0,325.0,-3.73015873015873,110.71428571428571,-319.4444444444444,-5.317460317460317,-4.0476190476190474,-0.873015873015873,-0.3968253968253968,-166.26984126984127
-5.952380952380952,-262.77777777777777,-325.0,-3.4126984126984126,-14.84126984126984,89.44444444444444,-325.0,325.0,-325.0,325.0,-4.2063492063492065,-319.1269841269841,-325.0,325.0,-325.0,325.0,-3.73015873015873,110.71428571428571,-319.4444444444444,-5.317460317460317,-4.0476190476190474,-0.873015873015873,-0.3968253968253968,-166.26984126984127
-3.888888888888889,-258.4920634920635,-325.0,-3.4126984126984126,-14.682539682539682,92.61904761904762,-325.0,325.0,-325.0,325.0,-4.2063492063492065,-313.88888888888886,-325.0,325.0,-325.0,325.0,-3.571428571428571,113.73015873015872,-314.04761904761904,-5.476190476190476,-3.888888888888889,-0.23809523809523808,-0.07936507936507936,-166.26984126984127
-3.888888888888889,-258.4920634920635,-325.0,-3.4126984126984126,-14.682539682539682,92.61904761904762,-325.0,325.0,-325.0,325.0,-4.2063492063492065,-313.88888888888886,-325.0,325.0,-325.0,325.0,-3.571428571428571,113.73015873015872,-314.04761904761904,-5.476190476190476,-3.888888888888889,-0.23809523809523808,-0.07936507936507936,-166.26984126984127
-5.7936507936507935,-253.25396825396825,-325.0,-3.571428571428571,-14.365079365079364,89.6031746031746,-325.0,325.0,-325.0,325.0,-4.2063492063492065,-307.38095238095235,-325.0,325.0,-325.0,325.0,-3.571428571428571,110.71428571428571,-307.85714285714283,-5.317460317460317,-3.888888888888889,-0.873015873015873,-1.1904761904761905,-166.26984126984127
-5.7936507936507935,-253.25396825396825,-325.0,-3.571428571428571,-14.365079365079364,89.6031746031746,-325.0,325.0,-325.0,325.0,-4.2063492063492065,-307.38095238095235,-325.0,325.0,-325.0,325.0,-3.571428571428571,110.71428571428571,-307.85714285714283,-5.317460317460317,-3.888888888888889,-0.873015873015873,-1.1904761904761905,-166.26984126984127
-5.634920634920634,-246.9047619047619,-325.0,-3.095238095238095,-14.206349206349206,82.93650793650794,-325.0,325.0,-325.0,325.0,-4.0476190476190474,-299.76190476190476,-325.0,325.0,-325.0,325.0,-3.571428571428571,103.88888888888889,-300.23809523809524,-5.158730158730158,-3.73015873015873,-0.23809523809523808,-0.5555555555555556,-166.26984126984127
-5.634920634920634,-246.9047619047619,-325.0,-3.095238095238095,-14.206349206349206,82.93650793650794,-325.0,325.0,-325.0,325.0,-4.0476190476190474,-299.76190476190476,-325.0,325.0,-325.0,325.0,-3.571428571428571,103.88888888888889,-300.23809523809524,-5.158730158730158,-3.73015873015873,-0.23809523809523808,-0.5555555555555556,-166.26984126984127
-5.476190476190476,-241.98412698412696,-325.0,-3.4126984126984126,-13.73015873015873,87.85714285714285,-325.0,325.0,-325.0,325.0,-3.888888888888889,-293.57142857142856,-325.0,325.0,-325.0,325.0,-3.571428571428571,108.33333333333333,-294.2063492063492,-5.158730158730158,-3.73015873015873,-0.5555555555555556,-0.7142857142857142,-166.26984126984127
-5.476190476190476,-241.98412698412696,-325.0,-3.4126984126984126,-13.73015873015873,87.85714285714285,-325.0,325.0,-325.0,325.0,-3.888888888888889,-293.57142857142856,-325.0,325.0,-325.0,325.0,-3.571428571428571,108.33333333333333,-294.2063492063492,-5.158730158730158,-3.73015873015873,-0.5555555555555556,-0.7142857142857142,-166.26984126984127
-5.317460317460317,-238.015873015873,-325.0,-3.253968253968254,-13.73015873015873,87.38095238095238,-325.0,325.0,-325.0,325.0,-4.0476190476190474,-288.6507936507936,-325.0,325.0,-325.0,325.0,-3.571428571428571,107.85714285714285,-289.2857142857143,-5.158730158730158,-3.73015873015873,0.07936507936507936,-0.7142857142857142,-321.8253968253968
-5.317460317460317,-238.015873015873,-325.0,-3.253968253968254,-13.73015873015873,87.38095238095238,-325.0,325.0,-325.0,325.0,-4.0476190476190474,-288.6507936507936,-325.0,325.0,-325.0,325.0,-3.571428571428571,107.85714285714285,-289.2857142857143,-5.158730158730158,-3.73015873015873,0.07936507936507936,-0.7142857142857142,-321.8253968253968
93.88888888888889,-235.0,-325.0,-3.4126984126984126,-13.412698412698411,80.87301587301587,-325.0,325.0,-325.0,325.0,-3.888888888888889,-285.0,-325.0,325.0,-325.0,325.0,-3.253968253968254,100.87301587301587,-285.7936507936508,-5.0,-3.73015873015873,0.5555555555555556,-0.3968253968253968,-321.8253968253968
93.88888888888889,-235.0,-325.0,-3.4126984126984126,-13.412698412698411,80.87301587301587,-325.0,325.0,-325.0,325.0,-3.888888888888889,-285.0,-325.0,325.0,-325.0,325.0,-3.253968253968254,100.87301587301587,-285.7936507936508,-5.0,-3.73015873015873,0.5555555555555556,-0.3968253968253968,-321.8253968253968
93.88888888888889,-235.0,-325.0,-3.4126984126984126,-13.412698412698411,80.87301587301587,-325.0,325.0,-325.0,325.0,-3.888888888888889,-285.0,-325.0,325.0,-325.0,325.0,-3.253968253968254,100.87301587301587,-285.7936507936508,-5.0,-3.73015873015873,0.5555555555555556,-0.3968253968253968,-321.8253968253968
93.88888888888889,-235.0,-325.0,-3.4126984126984126,-13.412698412698411,80.87301587301587,-325.0,325.0,-325.0,325.0,-3.888888888888889,-285.0,-325.0,325.0,-325.0,325.0,-3.253968253968254,100.87301587301587,-285.7936507936508,-5.0,-3.73015873015873,0.5555555555555556,-0.3968253968253968,-321.8253968253968
93.88888888888889,-235.0,-325.0,-3.4126984126984126,-13.412698412698411,80.87301587301587,-325.0,325.0,-325.0,325.0,-3.888888888888889,-285.0,-325.0,325.0,-325.0,325.0,-3.253968253968254,100.87301587301587,-285.7936507936508,-5.0,-3.73015873015873,0.5555555555555556,-0.3968253968253968,-321.8253968253968
93.88888888888889,-235.0,-325.0,-3.4126984126984126,-13.412698412698411,80.87301587301587,-325.0,325.0,-325.0,325.0,-3.888888888888889,-285.0,-325.0,325.0,-325.0,325.0,-3.253968253968254,100.87301587301587,-285.7936507936508,-5.0,-3.73015873015873,0.5555555555555556,-0.3968253968253968,-321.8253968253968
93.88888888888889,-235.0,-325.0,-3.4126984126984126,-13.412698412698411,80.87301587301587,-325.0,325.0,-325.0,325.0,-3.888888888888889,-285.0,-325.0,325.0,-325.0,325.0,-3.253968253968254,100.87301587301587,-285.7936507936508,-5.0,-3.73015873015873,0.5555555555555556,-0.3968253968253968,-321.8253968253968
93.88888888888889,-235.0,-325.0,-3.4126984126984126,-13.412698412698411,80.87301587301587,-325.0,325.0,-325.0,325.0,-3.888888888888889,-285.0,-325.0,325.0,-325.0,325.0,-3.253968253968254,100.87301587301587,-285.7936507936508,-5.0,-3.73015873015873,0.5555555555555556,-0.3968253968253968,-321.8253968253968
93.88888888888889,-235.0,-325.0,-3.4126984126984126,-13.412698412698411,80.87301587301587,-325.0,325.0,-325.0,325.0,-3.888888888888889,-285.0,-325.0,325.0,-325.0,325.0,-3.253968253968254,100.87301587301587,-285.7936507936508,-5.0,-3.73015873015873,0.5555555555555556,-0.3968253968253968,-166.26984126984127
93.88888888888889,-235.0,-325.0,-3.4126984126984126,-13.412698412698411,80.87301587301587,-325.0,325.0,-325.0,325.0,-3.888888888888889,-285.0,-325.0,325.0,-325.0,325.0,-3.253968253968254,100.87301587301587,-285.7936507936508,-5.0,-3.73015873015873,0.5555555555555556,-0.3968253968253968,-166.26984126984127
93.88888888888889,-235.0,-325.0,-3.4126984126984126,-13.412698412698411,80.87301587301587,-325.0,325.0,-325.0,325.0,-3.888888888888889,-285.0,-325.0,325.0,-325.0,325.0,-3.253968253968254,100.87301587301587,-285.7936507936508,-5.0,-3.73015873015873,0.5555555555555556,-0.3968253968253968,-166.26984126984127
93.88888888888889,-235.0,-325.0,-3.4126984126984126,-13.412698412698411,80.87301587301587,-325.0,325.0,-325.0,325.0,-3.888888888888889,-285.0,-325.0,325.0,-325.0,325.0,-3.253968253968254,100.87301587301587,-285.7936507936508,-5.0,-3.73015873015873,0.5555555555555556,-0.3968253968253968,-166.26984126984127
93.88888888888889,-235.0,-325.0,-3.4126984126984126,-13.412698412698411,80.87301587301587,-325.0,325.0,-325.0,325.0,-3.888888888888889,-285.0,-325.0,325.0,-325.0,325.0,-3.253968253968254,100.87301587301587,-285.7936507936508,-5.0,-3.73015873015873,0.5555555555555556,-0.3968253968253968,-166.26984126984127
93.88888888888889,-235.0,-325.0,-3.4126984126984126,-13.412698412698411,80.87301587301587,-325.0,325.0,-325.0,325.0,-3.888888888888889,-285.0,-325.0,325.0,-325.0,325.0,-3.253968253968254,100.87301587301587,-285.7936507936508,-5.0,-3.73015873015873,0.5555555555555556,-0.3968253968253968,-166.26984126984127
93.88888888888889,-235.0,-325.0,-3.4126984126984126,-13.412698412698411,80.87301587301587,-325.0,325.0,-325.0,325.0,-3.888888888888889,-285.0,-325.0,325.0,-325.0,325.0,-3.253968253968254,100.87301587301587,-285.7936507936508,-5.0,-3.73015873015873,0.5555555555555556,-0.3968253968253968,-166.26984126984127
93.88888888888889,-235.0,-325.0,-3.4126984126984126,-13.412698412698411,80.87301587301587,-325.0,325.0,-325.0,325.0,-3.888888888888889,-285.0,-325.0,325.0,-325.0,325.0,-3.253968253968254,100.87301587301587,-285.7936507936508,-5.0,-3.73015873015873,0.5555555555555556,-0.3968253968253968,-166.26984126984127
93.88888888888889,-235.0,-325.0,-3.4126984126984126,-13.412698412698411,80.87301587301587,-325.0,325.0,-325.0,325.0,-3.888888888888889,-285.0,-325.0,325.0,-325.0,325.0,-3.253968253968254,100.87301587301587,-285.7936507936508,-5.0,-3.73015873015873,0.5555555555555556,-0.3968253968253968,-166.26984126984127
93.88888888888889,-235.0,-325.0,-3.4126984126984126,-13.412698412698411,80.87301587301587,-325.0,325.0,-325.0,325.0,-3.888888888888889,-285.0,-325.0,325.0,-325.0,325.0,-3.253968253968254,100.87301587301587,-285.7936507936508,-5.0,-3.73015873015873,0.5555555555555556,-0.3968253968253968,-166.26984126984127
93.88888888888889,-235.0,-325.0,-3.4126984126984126,-13.412698412698411,80.87301587301587,-325.0,325.0,-325.0,325.0,-3.888888888888889,-285.0,-325.0,325.0,-325.0,325.0,-3.253968253968254,100.87301587301587,-285.7936507936508,-5.0,-3.73015873015873,0.5555555555555556,-0.3968253968253968,-321.8253968253968
93.88888888888889,-235.0,-325.0,-3.4126984126984126,-13.412698412698411,80.87301587301587,-325.0,325.0,-325.0,325.0,-3.888888888888889,-285.0,-325.0,325.0,-325.0,325.0,-3.253968253968254,100.87301587301587,-285.7936507936508,-5.0,-3.73015873015873,0.5555555555555556,-0.3968253968253968,-321.8253968253968
93.88888888888889,-235.0,-325.0,-3.4126984126984126,-13.412698412698411,80.87301587301587,-325.0,325.0,-325.0,325.0,-3.888888888888889,-285.0,-325.0,325.0,-325.0,325.0,-3.253968253968254,100.87301587301587,-285.7936507936508,-5.0,-3.73015873015873,0.5555555555555556,-0.3968253968253968,-321.8253968253968
93.88888888888889,-235.0,-325.0,-3.4126984126984126,-13.412698412698411,80.87301587301587,-325.0,325.0,-325.0,325.0,-3.888888888888889,-285.0,-325.0,325.0,-325.0,325.0,-3.253968253968254,100.87301587301587,-285.7936507936508,-5.0,-3.73015873015873,0.5555555555555556,-0.3968253968253968,-321.8253968253968
325.0,-196.11111111111111,-325.0,-2.7777777777777777,-11.984126984126984,83.25396825396825,-325.0,310.7142857142857,-325.0,325.0,-3.571428571428571,-237.2222222222222,-325.0,325.0,-325.0,325.0,-3.253968253968254,99.28571428571428,-238.17460317460316,-4.523809523809524,-3.253968253968254,0.07936507936507936,0.5555555555555556,-321.8253968253968
325.0,-196.11111111111111,-325.0,-2.7777777777777777,-11.984126984126984,83.25396825396825,-325.0,310.7142857142857,-325.0,325.0,-3.571428571428571,-237.2222222222222,-325.0,325.0,-325.0,325.0,-3.253968253968254,99.28571428571428,-238.17460317460316,-4.523809523809524,-3.253968253968254,0.07936507936507936,0.5555555555555556,-321.8253968253968
325.0,-192.77777777777777,-325.0,-3.095238095238095,-11.507936507936508,81.03174603174602,-325.0,305.95238095238096,-322.3015873015873,325.0,-3.73015873015873,-233.09523809523807,-325.0,325.0,-325.0,325.0,-3.095238095238095,97.06349206349206,-234.36507936507934,-4.365079365079365,-3.253968253968254,-0.7142857142857142,-1.349206349206349,-321.8253968253968
325.0,-192.77777777777777,-325.0,-3.095238095238095,-11.507936507936508,81.03174603174602,-325.0,305.95238095238096,-322.3015873015873,325.0,-3.73015873015873,-233.09523809523807,-325.0,325.0,-325.0,325.0,-3.095238095238095,97.06349206349206,-234.36507936507934,-4.365079365079365,-3.253968253968254,-0.7142857142857142,-1.349206349206349,-321.8253968253968
325.0,-192.77777777777777,-325.0,-3.095238095238095,-11.507936507936508,81.03174603174602,-325.0,305.95238095238096,-322.3015873015873,325.0,-3.73015873015873,-233.09523809523807,-325.0,325.0,-325.0,325.0,-3.095238095238095,97.06349206349206,-234.36507936507934,-4.365079365079365,-3.253968253968254,-0.7142857142857142,-1.349206349206349,-321.8253968253968
325.0,-192.77777777777777,-325.0,-3.095238095238095,-11.507936507936508,81.03174603174602,-325.0,305.95238095238096,-322.3015873015873,325.0,-3.73015873015873,-233.09523809523807,-325.0,325.0,-325.0,325.0,-3.095238095238095,97.06349206349206,-234.36507936507934,-4.365079365079365,-3.253968253968254,-0.7142857142857142,-1.349206349206349,-321.8253968253968
325.0,-192.77777777777777,-325.0,-3.095238095238095,-11.507936507936508,81.03174603174602,-325.0,305.95238095238096,-322.3015873015873,325.0,-3.73015873015873,-233.09523809523807,-325.0,325.0,-325.0,325.0,-3.095238095238095,97.06349206349206,-234.36507936507934,-4.365079365079365,-3.253968253968254,-0.7142857142857142,-1.349206349206349,-166.26984126984127
325.0,-192.77777777777777,-325.0,-3.095238095238095,-11.507936507936508,81.03174603174602,-325.0,305.95238095238096,-322.3015873015873,325.0,-3.73015873015873,-233.09523809523807,-325.0,325.0,-325.0,325.0,-3.095238095238095,97.06349206349206,-234.36507936507934,-4.365079365079365,-3.253968253968254,-0.7142857142857142,-1.349206349206349,-166.26984126984127
325.0,-192.77777777777777,-325.0,-3.095238095238095,-11.507936507936508,81.03174603174602,-325.0,305.95238095238096,-322.3015873015873,325.0,-3.73015873015873,-233.09523809523807,-325.0,325.0,-325.0,325.0,-3.095238095238095,97.06349206349206,-234.36507936507934,-4.365079365079365,-3.253968253968254,-0.7142857142857142,-1.349206349206349,-166.26984126984127
325.0,-192.77777777777777,-325.0,-3.095238095238095,-11.507936507936508,81.03174603174602,-325.0,305.95238095238096,-322.3015873015873,325.0,-3.73015873015873,-233.09523809523807,-325.0,325.0,-325.0,325.0,-3.095238095238095,97.06349206349206,-234.36507936507934,-4.365079365079365,-3.253968253968254,-0.7142857142857142,-1.349206349206349,-166.26984126984127
325.0,-192.77777777777777,-325.0,-3.095238095238095,-11.507936507936508,81.03174603174602,-325.0,305.95238095238096,-322.3015873015873,325.0,-3.73015873015873,-233.09523809523807,-325.0,325.0,-325.0,325.0,-3.095238095238095,97.06349206349206,-234.36507936507934,-4.365079365079365,-3.253968253968254,-0.7142857142857142,-1.349206349206349,-166.26984126984127
325.0,-192.77777777777777,-325.0,-3.095238095238095,-11.507936507936508,81.03174603174602,-325.0,305.95238095238096,-322.3015873015873,325.0,-3.73015873015873,-233.09523809523807,-325.0,325.0,-325.0,325.0,-3.095238095238095,97.06349206349206,-234.36507936507934,-4.365079365079365,-3.253968253968254,-0.7142857142857142,-1.349206349206349,-166.26984126984127
325.0,-192.77777777777777,-325.0,-3.095238095238095,-11.507936507936508,81.03174603174602,-325.0,305.95238095238096,-322.3015873015873,325.0,-3.73015873015873,-233.09523809523807,-325.0,325.0,-325.0,325.0,-3.095238095238095,97.06349206349206,-234.36507936507934,-4.365079365079365,-3.253968253968254,-0.7142857142857142,-1.349206349206349,-166.26984126984127
325.0,-192.77777777777777,-325.0,-3.095238095238095,-11.507936507936508,81.03174603174602,-325.0,305.95238095238096,-322.3015873015873,325.0,-3.73015873015873,-233.09523809523807,-325.0,325.0,-325.0,325.0,-3.095238095238095,97.06349206349206,-234.36507936507934,-4.365079365079365,-3.253968253968254,-0.7142857142857142,-1.349206349206349,-166.26984126984127
325.0,-192.77777777777777,-325.0,-3.095238095238095,-11.507936507936508,81.03174603174602,-325.0,305.95238095238096,-322.3015873015873,325.0,-3.73015873015873,-233.09523809523807,-325.0,325.0,-325.0,325.0,-3.095238095238095,97.06349206349206,-234.36507936507934,-4.365079365079365,-3.253968253968254,-0.7142857142857142,-1.349206349206349,-166.26984126984127
325.0,-192.77777777777777,-325.0,-3.095238095238095,-11.507936507936508,81.03174603174602,-325.0,305.95238095238096,-322.3015873015873,325.0,-3.73015873015873,-233.09523809523807,-325.0,325.0,-325.0,325.0,-3.095238095238095,97.06349206349206,-234.36507936507934,-4.365079365079365,-3.253968253968254,-0.7142857142857142,-1.349206349206349,-166.26984126984127
325.0,-192.77777777777777,-325.0,-3.095238095238095,-11.507936507936508,81.03174603174602,-325.0,305.95238095238096,-322.3015873015873,325.0,-3.73015873015873,-233.09523809523807,-325.0,325.0,-325.0,325.0,-3.095238095238095,97.06349206349206,-234.36507936507934,-4.365079365079365,-3.253968253968254,-0.7142857142857142,-1.349206349206349,-321.8253968253968
325.0,-192.77777777777777,-325.0,-3.095238095238095,-11.507936507936508,81.03174603174602,-325.0,305.95238095238096,-322.3015873015873,325.0,-3.73015873015873,-233.09523809523807,-325.0,325.0,-325.0,325.0,-3.095238095238095,97.06349206349206,-234.36507936507934,-4.365079365079365,-3.253968253968254,-0.7142857142857142,-1.349206349206349,-321.8253968253968
325.0,-192.77777777777777,-325.0,-3.095238095238095,-11.507936507936508,81.03174603174602,-325.0,305.95238095238096,-322.3015873015873,325.0,-3.73015873015873,-233.09523809523807,-325.0,325.0,-325.0,325.0,-3.095238095238095,97.06349206349206,-234.36507936507934,-4.365079365079365,-3.253968253968254,-0.7142857142857142,-1.349206349206349,-321.8253968253968
325.0,-192.77777777777777,-325.0,-3.095238095238095,-11.507936507936508,81.03174603174602,-325.0,305.95238095238096,-322.3015873015873,325.0,-3.73015873015873,-233.09523809523807,-325.0,325.0,-325.0,325.0,-3.095238095238095,97.06349206349206,-234.36507936507934,-4.365079365079365,-3.253968253968254,-0.7142857142857142,-1.349206349206349,-321.8253968253968
325.0,-192.77777777777777,-325.0,-3.095238095238095,-11.507936507936508,81.03174603174602,-325.0,305.95238095238096,-322.3015873015873,325.0,-3.73015873015873,-233.09523809523807,-325.0,325.0,-325.0,325.0,-3.095238095238095,97.06349206349206,-234.36507936507934,-4.365079365079365,-3.253968253968254,-0.7142857142857142,-1.349206349206349,-321.8253968253968
325.0,-192.77777777777777,-325.0,-3.095238095238095,-11.507936507936508,81.03174603174602,-325.0,305.95238095238096,-322.3015873015873,325.0,-3.73015873015873,-233.09523809523807,-325.0,325.0,-325.0,325.0,-3.095238095238095,97.06349206349206,-234.36507936507934,-4.365079365079365,-3.253968253968254,-0.7142857142857142,-1.349206349206349,-321.8253968253968
325.0,-192.77777777777777,-325.0,-3.095238095238095,-11.507936507936508,81.03174603174602,-325.0,305.95238095238096,-322.3015873015873,325.0,-3.73015873015873,-233.09523809523807,-325.0,325.0,-325.0,325.0,-3.095238095238095,97.06349206349206,-234.36507936507934,-4.365079365079365,-3.253968253968254,-0.7142857142857142,-1.349206349206349,-321.8253968253968
325.0,-192.77777777777777,-325.0,-3.095238095238095,-11.507936507936508,81.03174603174602,-325.0,305.95238095238096,-322.3015873015873,325.0,-3.73015873015873,-233.09523809523807,-325.0,325.0,-325.0,325.0,-3.095238095238095,97.06349206349206,-234.36507936507934,-4.365079365079365,-3.253968253968254,-0.7142857142857142,-1.349206349206349,-321.8253968253968
325.0,-192.77777777777777,-325.0,-3.095238095238095,-11.507936507936508,81.03174603174602,-325.0,305.95238095238096,-322.3015873015873,325.0,-3.73015873015873,-233.09523809523807,-325.0,325.0,-325.0,325.0,-3.095238095238095,97.06349206349206,-234.36507936507934,-4.365079365079365,-3.253968253968254,-0.7142857142857142,-1.349206349206349,-321.8253968253968
325.0,-192.77777777777777,-325.0,-3.095238095238095,-11.507936507936508,81.03174603174602,-325.0,305.95238095238096,-322.3015873015873,325.0,-3.73015873015873,-233.09523809523807,-325.0,325.0,-325.0,325.0,-3.095238095238095,97.06349206349206,-234.36507936507934,-4.365079365079365,-3.253968253968254,-0.7142857142857142,-1.349206349206349,-321.8253968253968
325.0,-192.77777777777777,-325.0,-3.095238095238095,-11.507936507936508,81.03174603174602,-325.0,305.95238095238096,-322.3015873015873,325.0,-3.73015873015873,-233.09523809523807,-325.0,325.0,-325.0,325.0,-3.095238095238095,97.06349206349206,-234.36507936507934,-4.365079365079365,-3.253968253968254,-0.7142857142857142,-1.349206349206349,-166.26984126984127
325.0,-192.77777777777777,-325.0,-3.095238095238095,-11.507936507936508,81.03174603174602,-325.0,305.95238095238096,-322.3015873015873,325.0,-3.73015873015873,-233.09523809523807,-325.0,325.0,-325.0,325.0,-3.095238095238095,97.06349206349206,-234.36507936507934,-4.365079365079365,-3.253968253968254,-0.7142857142857142,-1.349206349206349,-166.26984126984127
325.0,-192.77777777777777,-325.0,-3.095238095238095,-11.507936507936508,81.03174603174602,-325.0,305.95238095238096,-322.3015873015873,325.0,-3.73015873015873,-233.09523809523807,-325.0,325.0,-325.0,325.0,-3.095238095238095,97.06349206349206,-234.36507936507934,-4.365079365079365,-3.253968253968254,-0.7142857142857142,-1.349206349206349,-166.26984126984127
325.0,-192.77777777777777,-325.0,-3.095238095238095,-11.507936507936508,81.03174603174602,-325.0,305.95238095238096,-322.3015873015873,325.0,-3.73015873015873,-233.09523809523807,-325.0,325.0,-325.0,325.0,-3.095238095238095,97.06349206349206,-234.36507936507934,-4.365079365079365,-3.253968253968254,-0.7142857142857142,-1.349206349206349,-166.26984126984127
325.0,-192.77777777777777,-325.0,-3.095238095238095,-11.507936507936508,81.03174603174602,-325.0,305.95238095238096,-322.3015873015873,325.0,-3.73015873015873,-233.09523809523807,-325.0,325.0,-325.0,325.0,-3.095238095238095,97.06349206349206,-234.36507936507934,-4.365079365079365,-3.253968253968254,-0.7142857142857142,-1.349206349206349,-166.26984126984127
325.0,-192.77777777777777,-325.0,-3.095238095238095,-11.507936507936508,81.03174603174602,-325.0,305.95238095238096,-322.3015873015873,325.0,-3.73015873015873,-233.09523809523807,-325.0,325.0,-325.0,325.0,-3.095238095238095,97.06349206349206,-234.36507936507934,-4.365079365079365,-3.253968253968254,-0.7142857142857142,-1.349206349206349,-166.26984126984127
325.0,-192.77777777777777,-325.0,-3.095238095238095,-11.507936507936508,81.03174603174602,-325.0,305.95238095238096,-322.3015873015873,325.0,-3.73015873015873,-233.09523809523807,-325.0,325.0,-325.0,325.0,-3.095238095238095,97.06349206349206,-234.36507936507934,-4.365079365079365,-3.253968253968254,-0.7142857142857142,-1.349206349206349,-166.26984126984127
325.0,-192.77777777777777,-325.0,-3.095238095238095,-11.507936507936508,81.03174603174602,-325.0,305.95238095238096,-322.3015873015873,325.0,-3.73015873015873,-233.09523809523807,-325.0,325.0,-325.0,325.0,-3.095238095238095,97.06349206349206,-234.36507936507934,-4.365079365079365,-3.253968253968254,-0.7142857142857142,-1.349206349206349,-166.26984126984127
325.0,-192.77777777777777,-325.0,-3.095238095238095,-11.507936507936508,81.03174603174602,-325.0,305.95238095238096,-322.3015873015873,325.0,-3.73015873015873,-233.09523809523807,-325.0,325.0,-325.0,325.0,-3.095238095238095,97.06349206349206,-234.36507936507934,-4.365079365079365,-3.253968253968254,-0.7142857142857142,-1.349206349206349,-166.26984126984127
325.0,-192.77777777777777,-325.0,-3.095238095238095,-11.507936507936508,81.03174603174602,-325.0,305.95238095238096,-322.3015873015873,325.0,-3.73015873015873,-233.09523809523807,-325.0,325.0,-325.0,325.0,-3.095238095238095,97.06349206349206,-234.36507936507934,-4.365079365079365,-3.253968253968254,-0.7142857142857142,-1.349206349206349,-166.26984126984127
325.0,-192.77777777777777,-325.0,-3.095238095238095,-11.507936507936508,81.03174603174602,-325.0,305.95238095238096,-322.3015873015873,325.0,-3.73015873015873,-233.09523809523807,-325.0,325.0,-325.0,325.0,-3.095238095238095,97.06349206349206,-234.36507936507934,-4.365079365079365,-3.253968253968254,-0.7142857142857142,-1.349206349206349,-321.8253968253968
325.0,-192.77777777777777,-325.0,-3.095238095238095,-11.507936507936508,81.03174603174602,-325.0,305.95238095238096,-322.3015873015873,325.0,-3.73015873015873,-233.09523809523807,-325.0,325.0,-325.0,325.0,-3.095238095238095,97.06349206349206,-234.36507936507934,-4.365079365079365,-3.253968253968254,-0.7142857142857142,-1.349206349206349,-321.8253968253968
325.0,-143.09523809523807,-325.0,-2.7777777777777777,-9.444444444444445,43.095238095238095,-322.1428571428571,228.17460317460316,-239.60317460317458,325.0,-3.4126984126984126,-172.3015873015873,-325.0,325.0,-325.0,311.66666666666663,-2.9365079365079363,61.19047619047619,-173.88888888888889,325.0,325.0,0.07936507936507936,-0.3968253968253968,-321.8253968253968
325.0,-143.09523809523807,-325.0,-2.7777777777777777,-9.444444444444445,43.095238095238095,-322.1428571428571,228.17460317460316,-239.60317460317458,325.0,-3.4126984126984126,-172.3015873015873,-325.0,325.0,-325.0,311.66666666666663,-2.9365079365079363,61.19047619047619,-173.88888888888889,325.0,325.0,0.07936507936507936,-0.3968253968253968,-321.8253968253968
325.0,-140.87301587301587,-325.0,-2.7777777777777777,-9.126984126984127,-171.8253968253968,-316.90476190476187,224.68253968253967,-235.79365079365078,325.0,-3.253968253968254,-169.44444444444443,-325.0,325.0,-325.0,306.58730158730157,-3.253968253968254,63.095238095238095,-171.03174603174602,325.0,325.0,-0.5555555555555556,-1.349206349206349,-321.8253968253968
325.0,-140.87301587301587,-325.0,-2.7777777777777777,-9.126984126984127,-171.8253968253968,-316.90476190476187,224.68253968253967,-235.79365079365078,325.0,-3.253968253968254,-169.44444444444443,-325.0,325.0,-325.0,306.58730158730157,-3.253968253968254,63.095238095238095,-171.03174603174602,325.0,325.0,-0.5555555555555556,-1.349206349206349,-321.8253968253968
325.0,-136.74603174603175,-325.0,-2.619047619047619,-9.126984126984127,-325.0,-307.69841269841265,218.17460317460316,-228.96825396825395,325.0,-3.253968253968254,-164.36507936507937,-325.0,322.6190476190476,-325.0,297.53968253968253,-2.7777777777777777,64.52380952380952,-166.11111111111111,325.0,325.0,0.3968253968253968,-0.3968253968253968,-321.8253968253968
325.0,-136.74603174603175,-325.0,-2.619047619047619,-9.126984126984127,-325.0,-307.69841269841265,218.17460317460316,-228.96825396825395,325.0,-3.253968253968254,-164.36507936507937,-325.0,322.6190476190476,-325.0,297.53968253968253,-2.7777777777777777,64.52380952380952,-166.11111111111111,325.0,325.0,0.3968253968253968,-0.3968253968253968,-321.8253968253968
325.0,-133.25396825396825,-325.0,-2.619047619047619,19.285714285714285,-325.0,-300.07936507936506,212.93650793650792,-223.25396825396825,325.0,-3.253968253968254,-160.23809523809524,-325.0,316.1111111111111,-325.0,290.23809523809524,-2.7777777777777777,65.79365079365078,-161.984126984127,325.0,325.0,-0.07936507936507936,-0.23809523809523808,-321.8253968253968
325.0,-133.25396825396825,-325.0,-2.619047619047619,19.285714285714285,-325.0,-300.07936507936506,212.93650793650792,-223.25396825396825,325.0,-3.253968253968254,-160.23809523809524,-325.0,316.1111111111111,-325.0,290.23809523809524,-2.7777777777777777,65.79365079365078,-161.984126984127,325.0,325.0,-0.07936507936507936,-0.23809523809523808,-321.8253968253968
325.0,-131.03174603174602,-325.0,-2.7777777777777777,124.84126984126983,-325.0,-295.1587301587301,209.28571428571428,-219.76190476190476,325.0,-3.095238095238095,-157.53968253968253,-325.0,310.55555555555554,-325.0,285.4761904761905,-2.619047619047619,65.31746031746032,-159.12698412698413,325.0,325.0,-0.07936507936507936,0.07936507936507936,-166.26984126984127
325.0,-131.03174603174602,-325.0,-2.7777777777777777,124.84126984126983,-325.0,-295.1587301587301,209.28571428571428,-219.76190476190476,325.0,-3.095238095238095,-157.53968253968253,-325.0,310.55555555555554,-325.0,285.4761904761905,-2.619047619047619,65.31746031746032,-159.12698412698413,325.0,325.0,-0.07936507936507936,0.07936507936507936,-166.26984126984127
325.0,-129.44444444444443,-325.0,-2.7777777777777777,199.9206349206349,-325.0,-291.5079365079365,206.9047619047619,-217.06349206349205,325.0,-3.095238095238095,-155.63492063492063,-325.0,306.4285714285714,-325.0,281.8253968253968,-2.7777777777777777,61.19047619047619,-157.2222222222222,325.0,325.0,0.3968253968253968,-0.7142857142857142,-166.26984126984127
325.0,-129.44444444444443,-325.0,-2.7777777777777777,199.9206349206349,-325.0,-291.5079365079365,206.9047619047619,-217.06349206349205,325.0,-3.095238095238095,-155.63492063492063,-325.0,306.4285714285714,-325.0,281.8253968253968,-2.7777777777777777,61.19047619047619,-157.2222222222222,325.0,325.0,0.3968253968253968,-0.7142857142857142,-166.26984126984127
325.0,-126.9047619047619,-325.0,-2.46031746031746,313.0952380952381,-325.0,-285.3174603174603,202.46031746031744,-212.46031746031744,325.0,-3.253968253968254,-152.3015873015873,-325.0,300.07936507936506,-325.0,276.1111111111111,-2.619047619047619,58.8095238095238,-154.04761904761904,325.0,325.0,0.23809523809523808,-0.873015873015873,-166.26984126984127
325.0,-126.9047619047619,-325.0,-2.46031746031746,313.0952380952381,-325.0,-285.3174603174603,202.46031746031744,-212.46031746031744,325.0,-3.253968253968254,-152.3015873015873,-325.0,300.07936507936506,-325.0,276.1111111111111,-2.619047619047619,58.8095238095238,-154.04761904761904,325.0,325.0,0.23809523809523808,-0.873015873015873,-166.26984126984127
325.0,-124.68253968253967,-325.0,-2.7777777777777777,325.0,-325.0,-280.87301587301585,199.12698412698413,-209.12698412698413,325.0,-3.253968253968254,-149.76190476190476,-325.0,294.8412698412698,-325.0,271.5079365079365,-2.619047619047619,59.12698412698413,-151.5079365079365,325.0,325.0,0.23809523809523808,-0.5555555555555556,-166.26984126984127
325.0,-124.68253968253967,-325.0,-2.7777777777777777,325.0,-325.0,-280.87301587301585,199.12698412698413,-209.12698412698413,325.0,-3.253968253968254,-149.76190476190476,-325.0,294.8412698412698,-325.0,271.5079365079365,-2.619047619047619,59.12698412698413,-151.5079365079365,325.0,325.0,0.23809523809523808,-0.5555555555555556,-166.26984126984127
325.0,-122.6190476190476,-325.0,-2.7777777777777777,325.0,-325.0,-276.1111111111111,195.95238095238093,-205.63492063492063,325.0,-3.095238095238095,-147.2222222222222,-325.0,289.9206349206349,-325.0,266.90476190476187,-2.619047619047619,55.15873015873016,-148.96825396825395,325.0,325.0,0.7142857142857142,-0.07936507936507936,-166.26984126984127
325.0,-122.6190476190476,-325.0,-2.7777777777777777,325.0,-325.0,-276.1111111111111,195.95238095238093,-205.63492063492063,325.0,-3.095238095238095,-147.2222222222222,-325.0,289.9206349206349,-325.0,266.90476190476187,-2.619047619047619,55.15873015873016,-148.96825396825395,325.0,325.0,0.7142857142857142,-0.07936507936507936,-166.26984126984127
325.0,-121.03174603174602,-324.04761904761904,-2.7777777777777777,325.0,-325.0,-272.9365079365079,193.57142857142856,-203.25396825396825,325.0,-3.095238095238095,-145.3174603174603,-325.0,286.1111111111111,-325.0,263.73015873015873,-2.619047619047619,57.38095238095238,-147.06349206349205,325.0,325.0,0.5555555555555556,-0.23809523809523808,-321.8253968253968
325.0,-121.03174603174602,-324.04761904761904,-2.7777777777777777,325.0,-325.0,-272.9365079365079,193.57142857142856,-203.25396825396825,325.0,-3.095238095238095,-145.3174603174603,-325.0,286.1111111111111,-325.0,263.73015873015873,-2.619047619047619,57.38095238095238,-147.06349206349205,325.0,325.0,0.5555555555555556,-0.23809523809523808,-321.8253968253968
325.0,-117.53968253968253,-316.58730158730157,-2.46031746031746,325.0,-325.0,-264.8412698412698,188.17460317460316,-197.38095238095238,325.0,-3.095238095238095,-141.19047619047618,-325.0,277.38095238095235,-322.3015873015873,256.1111111111111,-2.619047619047619,59.285714285714285,-142.77777777777777,325.0,325.0,-0.3968253968253968,-0.07936507936507936,-321.8253968253968
325.0,-117.53968253968253,-316.58730158730157,-2.46031746031746,325.0,-325.0,-264.8412698412698,188.17460317460316,-197.38095238095238,325.0,-3.095238095238095,-141.19047619047618,-325.0,277.38095238095235,-322.3015873015873,256.1111111111111,-2.619047619047619,59.285714285714285,-142.77777777777777,325.0,325.0,-0.3968253968253968,-0.07936507936507936,-321.8253968253968
325.0,-115.63492063492063,-311.19047619047615,-2.619047619047619,325.0,-325.0,-260.55555555555554,185.15873015873015,-194.04761904761904,325.0,-1.6666666666666665,-138.96825396825395,-325.0,272.6190476190476,-317.22222222222223,251.8253968253968,-2.619047619047619,56.42857142857142,-140.3968253968254,325.0,325.0,0.07936507936507936,-0.873015873015873,-321.8253968253968
325.0,-115.63492063492063,-311.19047619047615,-2.619047619047619,325.0,-325.0,-260.55555555555554,185.15873015873015,-194.04761904761904,325.0,-1.6666666666666665,-138.96825396825395,-325.0,272.6190476190476,-317.22222222222223,251.8253968253968,-2.619047619047619,56.42857142857142,-140.3968253968254,325.0,325.0,0.07936507936507936,-0.873015873015873,-321.8253968253968
325.0,-112.77777777777777,-303.4126984126984,24.68253968253968,325.0,-325.0,-254.04761904761904,180.55555555555554,-189.28571428571428,325.0,72.46031746031746,-135.15873015873015,-320.07936507936506,265.6349206349206,-309.4444444444444,245.47619047619045,-2.46031746031746,54.2063492063492,-136.9047619047619,325.0,325.0,-0.23809523809523808,-0.873015873015873,-321.8253968253968
325.0,-112.77777777777777,-303.4126984126984,24.68253968253968,325.0,-325.0,-254.04761904761904,180.55555555555554,-189.28571428571428,325.0,72.46031746031746,-135.15873015873015,-320.07936507936506,265.6349206349206,-309.4444444444444,245.47619047619045,-2.46031746031746,54.2063492063492,-136.9047619047619,325.0,325.0,-0.23809523809523808,-0.873015873015873,-321.8253968253968
325.0,-111.34920634920634,-299.6031746031746,156.58730158730157,325.0,-325.0,-250.7142857142857,178.33333333333331,-186.9047619047619,325.0,140.55555555555554,-133.4126984126984,-316.1111111111111,262.1428571428571,-305.6349206349206,242.46031746031744,-2.46031746031746,51.82539682539682,-135.15873015873015,325.0,325.0,-0.7142857142857142,-1.1904761904761905,-321.8253968253968
325.0,-111.34920634920634,-299.6031746031746,156.58730158730157,325.0,-325.0,-250.7142857142857,178.33333333333331,-186.9047619047619,325.0,140.55555555555554,-133.4126984126984,-316.1111111111111,262.1428571428571,-305.6349206349206,242.46031746031744,-2.46031746031746,51.82539682539682,-135.15873015873015,325.0,325.0,-0.7142857142857142,-1.1904761904761905,-321.8253968253968
325.0,-101.66666666666666,-273.25396825396825,325.0,325.0,-304.68253968253964,-228.8095238095238,162.77777777777777,-170.7142857142857,325.0,325.0,-121.66666666666666,-288.17460317460313,238.17460317460316,-279.76190476190476,221.03174603174602,16.26984126984127,38.96825396825397,-123.4126984126984,325.0,325.0,-0.5555555555555556,-0.7142857142857142,-166.26984126984127
325.0,-101.66666666666666,-273.25396825396825,325.0,325.0,-304.68253968253964,-228.8095238095238,162.77777777777777,-170.7142857142857,325.0,325.0,-121.66666666666666,-288.17460317460313,238.17460317460316,-279.76190476190476,221.03174603174602,16.26984126984127,38.96825396825397,-123.4126984126984,325.0,325.0,-0.5555555555555556,-0.7142857142857142,-166.26984126984127
325.0,-99.6031746031746,-267.53968253968253,325.0,325.0,-298.3333333333333,-223.88888888888889,159.6031746031746,-167.06349206349205,325.0,325.0,-119.12698412698413,-282.1428571428571,233.09523809523807,-274.04761904761904,216.42857142857142,116.74603174603173,38.17460317460317,-120.71428571428571,325.0,325.0,-0.07936507936507936,-0.3968253968253968,-166.26984126984127
325.0,-99.6031746031746,-267.53968253968253,325.0,325.0,-298.3333333333333,-223.88888888888889,159.6031746031746,-167.06349206349205,325.0,325.0,-119.12698412698413,-282.1428571428571,233.09523809523807,-274.04761904761904,216.42857142857142,116.74603174603173,38.17460317460317,-120.71428571428571,325.0,325.0,-0.07936507936507936,-0.3968253968253968,-166.26984126984127
325.0,-97.85714285714285,-263.0952380952381,325.0,325.0,-293.0952380952381,-220.3968253968254,156.74603174603175,-164.36507936507937,325.0,325.0,-117.06349206349206,-277.53968253968253,228.8095238095238,-269.6031746031746,212.77777777777777,246.1111111111111,41.82539682539682,-118.8095238095238,325.0,325.0,0.23809523809523808,-0.07936507936507936,-166.26984126984127
325.0,-97.85714285714285,-263.0952380952381,325.0,325.0,-293.0952380952381,-220.3968253968254,156.74603174603175,-164.36507936507937,325.0,325.0,-117.06349206349206,-277.53968253968253,228.8095238095238,-269.6031746031746,212.77777777777777,246.1111111111111,41.82539682539682,-118.8095238095238,325.0,325.0,0.23809523809523808,-0.07936507936507936,-166.26984126984127
325.0,-96.74603174603175,-259.9206349206349,325.0,325.0,-289.2857142857143,-217.53968253968253,154.68253968253967,-162.3015873015873,325.0,325.0,-115.47619047619047,-274.2063492063492,225.95238095238093,-266.26984126984127,210.07936507936506,299.6031746031746,42.460317460317455,-117.22222222222221,325.0,325.0,0.3968253968253968,-0.07936507936507936,-166.26984126984127
325.0,-96.74603174603175,-259.9206349206349,325.0,325.0,-289.2857142857143,-217.53968253968253,154.68253968253967,-162.3015873015873,325.0,325.0,-115.47619047619047,-274.2063492063492,225.95238095238093,-266.26984126984127,210.07936507936506,299.6031746031746,42.460317460317455,-117.22222222222221,325.0,325.0,0.3968253968253968,-0.07936507936507936,-166.26984126984127
325.0,-94.68253968253968,-254.36507936507934,325.0,325.0,-282.9365079365079,-213.09523809523807,151.8253968253968,-158.96825396825395,325.0,325.0,-112.93650793650794,-268.3333333333333,221.03174603174602,-260.87301587301585,205.63492063492063,325.0,40.714285714285715,-115.0,325.0,325.0,0.7142857142857142,-1.0317460317460316,-166.26984126984127
325.0,-94.68253968253968,-254.36507936507934,325.0,325.0,-282.9365079365079,-213.09523809523807,151.8253968253968,-158.96825396825395,325.0,325.0,-112.93650793650794,-268.3333333333333,221.03174603174602,-260.87301587301585,205.63492063492063,325.0,40.714285714285715,-115.0,325.0,325.0,0.7142857142857142,-1.0317460317460316,-166.26984126984127
325.0,-93.25396825396825,-250.07936507936506,325.0,325.0,-278.015873015873,-209.60317460317458,149.28571428571428,-156.26984126984127,325.0,325.0,-111.19047619047619,-263.88888888888886,217.2222222222222,-256.58730158730157,202.3015873015873,325.0,32.3015873015873,-112.93650793650794,325.0,325.0,0.07936507936507936,-0.3968253968253968,-321.8253968253968
325.0,-93.25396825396825,-250.07936507936506,325.0,325.0,-278.015873015873,-209.60317460317458,149.28571428571428,-156.26984126984127,325.0,325.0,-111.19047619047619,-263.88888888888886,217.2222222222222,-256.58730158730157,202.3015873015873,325.0,32.3015873015873,-112.93650793650794,325.0,325.0,0.07936507936507936,-0.3968253968253968,-321.8253968253968
325.0,-89.76190476190476,-240.87301587301587,325.0,325.0,-267.38095238095235,-201.8253968253968,143.88888888888889,-150.7142857142857,325.0,325.0,-107.06349206349206,-254.2063492063492,208.96825396825395,-247.38095238095238,194.84126984126982,325.0,36.269841269841265,-108.80952380952381,325.0,325.0,-0.07936507936507936,-0.07936507936507936,-321.8253968253968
325.0,-89.76190476190476,-240.87301587301587,325.0,325.0,-267.38095238095235,-201.8253968253968,143.88888888888889,-150.7142857142857,325.0,325.0,-107.06349206349206,-254.2063492063492,208.96825396825395,-247.38095238095238,194.84126984126982,325.0,36.269841269841265,-108.80952380952381,325.0,325.0,-0.07936507936507936,-0.07936507936507936,-321.8253968253968
325.0,-84.84126984126983,-228.015873015873,325.0,325.0,-252.3015873015873,-191.19047619047618,136.26984126984127,-142.77777777777777,325.0,325.0,-101.5079365079365,-240.3968253968254,197.2222222222222,-234.68253968253967,184.36507936507937,325.0,39.44444444444444,-102.93650793650794,325.0,325.0,-1.349206349206349,-0.07936507936507936,-321.8253968253968
325.0,-84.84126984126983,-228.015873015873,325.0,325.0,-252.3015873015873,-191.19047619047618,136.26984126984127,-142.77777777777777,325.0,325.0,-101.5079365079365,-240.3968253968254,197.2222222222222,-234.68253968253967,184.36507936507937,325.0,39.44444444444444,-102.93650793650794,325.0,325.0,-1.349206349206349,-0.07936507936507936,-321.8253968253968
324.68253968253964,-83.57142857142857,-224.2063492063492,325.0,325.0,-248.015873015873,-187.85714285714283,134.04761904761904,-140.23809523809524,325.0,325.0,-99.76190476190476,-236.42857142857142,193.7301587301587,-230.87301587301587,181.34920634920633,325.0,38.01587301587301,-101.19047619047619,325.0,325.0,-0.07936507936507936,-0.23809523809523808,-321.8253968253968
324.68253968253964,-83.57142857142857,-224.2063492063492,325.0,325.0,-248.015873015873,-187.85714285714283,134.04761904761904,-140.23809523809524,325.0,325.0,-99.76190476190476,-236.42857142857142,193.7301587301587,-230.87301587301587,181.34920634920633,325.0,38.01587301587301,-101.19047619047619,325.0,325.0,-0.07936507936507936,-0.23809523809523808,-321.8253968253968
320.39682539682536,-82.3015873015873,-220.3968253968254,325.0,325.0,-243.57142857142856,-184.68253968253967,131.8253968253968,-137.85714285714286,325.0,325.0,-97.85714285714285,-232.46031746031744,190.3968253968254,-227.2222222222222,178.33333333333331,325.0,39.44444444444444,-99.6031746031746,325.0,325.0,-0.23809523809523808,0.07936507936507936,-321.8253968253968
320.39682539682536,-82.3015873015873,-220.3968253968254,325.0,325.0,-243.57142857142856,-184.68253968253967,131.8253968253968,-137.85714285714286,325.0,325.0,-97.85714285714285,-232.46031746031744,190.3968253968254,-227.2222222222222,178.33333333333331,325.0,39.44444444444444,-99.6031746031746,325.0,325.0,-0.23809523809523808,0.07936507936507936,-321.8253968253968
314.8412698412698,-80.87301587301587,-216.74603174603175,325.0,325.0,-239.28571428571428,-181.66666666666666,129.76190476190476,-135.63492063492063,325.0,325.0,-96.1111111111111,-228.49206349206347,187.06349206349205,-223.4126984126984,175.3174603174603,325.0,40.079365079365076,-98.01587301587301,325.0,325.0,0.07936507936507936,-0.23809523809523808,-166.26984126984127
314.8412698412698,-80.87301587301587,-216.74603174603175,325.0,325.0,-239.28571428571428,-181.66666666666666,129.76190476190476,-135.63492063492063,325.0,325.0,-96.1111111111111,-228.49206349206347,187.06349206349205,-223.4126984126984,175.3174603174603,325.0,40.079365079365076,-98.01587301587301,325.0,325.0,0.07936507936507936,-0.23809523809523808,-166.26984126984127
309.6031746031746,-79.6031746031746,-213.09523809523807,325.0,325.0,-235.15873015873015,-178.4920634920635,127.38095238095238,-133.4126984126984,321.5079365079365,325.0,-94.68253968253968,-224.52380952380952,183.7301587301587,-219.9206349206349,172.46031746031744,325.0,38.96825396825397,-96.42857142857142,325.0,325.0,-1.0317460317460316,-1.0317460317460316,-166.26984126984127
309.6031746031746,-79.6031746031746,-213.09523809523807,325.0,325.0,-235.15873015873015,-178.4920634920635,127.38095238095238,-133.4126984126984,321.5079365079365,325.0,-94.68253968253968,-224.52380952380952,183.7301587301587,-219.9206349206349,172.46031746031744,325.0,38.96825396825397,-96.42857142857142,325.0,325.0,-1.0317460317460316,-1.0317460317460316,-166.26984126984127
304.36507936507934,-78.17460317460316,-209.44444444444443,325.0,325.0,-231.03174603174602,-175.79365079365078,125.31746031746032,-131.19047619047618,316.1111111111111,325.0,-92.93650793650794,-221.03174603174602,180.55555555555554,-216.26984126984127,169.28571428571428,325.0,34.36507936507936,-94.84126984126983,325.0,325.0,-0.873015873015873,-0.5555555555555556,-166.26984126984127
304.36507936507934,-78.17460317460316,-209.44444444444443,325.0,325.0,-231.03174603174602,-175.79365079365078,125.31746031746032,-131.19047619047618,316.1111111111111,325.0,-92.93650793650794,-221.03174603174602,180.55555555555554,-216.26984126984127,169.28571428571428,325.0,34.36507936507936,-94.84126984126983,325.0,325.0,-0.873015873015873,-0.5555555555555556,-166.26984126984127
298.968253968254,-76.9047619047619,-206.1111111111111,325.0,325.0,-226.9047619047619,-172.61904761904762,123.25396825396825,-128.96825396825395,310.87301587301585,325.0,-91.34920634920634,-217.2222222222222,177.38095238095238,-212.77777777777777,166.58730158730157,325.0,36.904761904761905,-93.09523809523809,325.0,325.0,-0.3968253968253968,-0.07936507936507936,-166.26984126984127
298.968253968254,-76.9047619047619,-206.1111111111111,325.0,325.0,-226.9047619047619,-172.61904761904762,123.25396825396825,-128.96825396825395,310.87301587301585,325.0,-91.34920634920634,-217.2222222222222,177.38095238095238,-212.77777777777777,166.58730158730157,325.0,36.904761904761905,-93.09523809523809,325.0,325.0,-0.3968253968253968,-0.07936507936507936,-166.26984126984127
293.88888888888886,-75.63492063492063,-202.61904761904762,325.0,325.0,-222.93650793650792,-169.9206349206349,121.19047619047619,-126.9047619047619,305.7936507936508,325.0,-90.07936507936508,-213.57142857142856,174.36507936507937,-209.28571428571428,163.88888888888889,325.0,40.87301587301587,-91.66666666666666,325.0,325.0,-0.07936507936507936,-1.1904761904761905,-166.26984126984127
293.88888888888886,-75.63492063492063,-202.61904761904762,325.0,325.0,-222.93650793650792,-169.9206349206349,121.19047619047619,-126.9047619047619,305.7936507936508,325.0,-90.07936507936508,-213.57142857142856,174.36507936507937,-209.28571428571428,163.88888888888889,325.0,40.87301587301587,-91.66666666666666,325.0,325.0,-0.07936507936507936,-1.1904761904761905,-166.26984126984127
288.968253968254,-74.36507936507937,-199.12698412698413,325.0,325.0,-219.12698412698413,-166.9047619047619,119.28571428571428,-124.68253968253967,300.39682539682536,325.0,-88.33333333333333,-210.07936507936506,171.34920634920633,-205.95238095238093,161.03174603174602,325.0,38.01587301587301,-90.23809523809523,325.0,325.0,0.23809523809523808,-0.5555555555555556,-321.8253968253968
288.968253968254,-74.36507936507937,-199.12698412698413,325.0,325.0,-219.12698412698413,-166.9047619047619,119.28571428571428,-124.68253968253967,300.39682539682536,325.0,-88.33333333333333,-210.07936507936506,171.34920634920633,-205.95238095238093,161.03174603174602,325.0,38.01587301587301,-90.23809523809523,325.0,325.0,0.23809523809523808,-0.5555555555555556,-321.8253968253968
281.3492063492063,-72.61904761904762,-194.2063492063492,325.0,325.0,-213.4126984126984,-162.77777777777777,116.26984126984127,-121.66666666666666,292.9365079365079,325.0,-86.1111111111111,-204.84126984126982,166.9047619047619,-200.87301587301587,156.9047619047619,325.0,39.285714285714285,-87.6984126984127,325.0,325.0,0.07936507936507936,-0.23809523809523808,-321.8253968253968
281.3492063492063,-72.61904761904762,-194.2063492063492,325.0,325.0,-213.4126984126984,-162.77777777777777,116.26984126984127,-121.66666666666666,292.9365079365079,325.0,-86.1111111111111,-204.84126984126982,166.9047619047619,-200.87301587301587,156.9047619047619,325.0,39.285714285714285,-87.6984126984127,325.0,325.0,0.07936507936507936,-0.23809523809523808,-321.8253968253968
274.2063492063492,-70.55555555555556,-189.28571428571428,325.0,325.0,-207.85714285714283,-158.8095238095238,113.57142857142857,-118.65079365079364,285.4761904761905,325.0,-83.88888888888889,-199.60317460317458,162.46031746031744,-196.11111111111111,153.09523809523807,325.0,38.17460317460317,-85.79365079365078,325.0,325.0,0.23809523809523808,0.07936507936507936,-321.8253968253968
274.2063492063492,-70.55555555555556,-189.28571428571428,325.0,325.0,-207.85714285714283,-158.8095238095238,113.57142857142857,-118.65079365079364,285.4761904761905,325.0,-83.88888888888889,-199.60317460317458,162.46031746031744,-196.11111111111111,153.09523809523807,325.0,38.17460317460317,-85.79365079365078,325.0,325.0,0.23809523809523808,0.07936507936507936,-321.8253968253968
269.6031746031746,-69.44444444444444,-186.11111111111111,325.0,325.0,-204.2063492063492,-156.26984126984127,111.5079365079365,-116.74603174603173,280.7142857142857,325.0,-82.46031746031746,-196.26984126984127,159.6031746031746,-192.93650793650792,150.55555555555554,325.0,39.76190476190476,-84.2063492063492,325.0,325.0,0.23809523809523808,0.07936507936507936,-321.8253968253968
269.6031746031746,-69.44444444444444,-186.11111111111111,325.0,325.0,-204.2063492063492,-156.26984126984127,111.5079365079365,-116.74603174603173,280.7142857142857,325.0,-82.46031746031746,-196.26984126984127,159.6031746031746,-192.93650793650792,150.55555555555554,325.0,39.76190476190476,-84.2063492063492,325.0,325.0,0.23809523809523808,0.07936507936507936,-321.8253968253968
262.6190476190476,-67.6984126984127,-181.5079365079365,325.0,325.0,-198.96825396825395,-152.14285714285714,108.80952380952381,-113.73015873015872,273.57142857142856,325.0,-80.39682539682539,-191.34920634920633,155.3174603174603,-188.17460317460316,146.74603174603175,325.0,41.34920634920635,-82.14285714285714,325.0,325.0,-0.23809523809523808,-0.873015873015873,-321.8253968253968
262.6190476190476,-67.6984126984127,-181.5079365079365,325.0,325.0,-198.96825396825395,-152.14285714285714,108.80952380952381,-113.73015873015872,273.57142857142856,325.0,-80.39682539682539,-191.34920634920633,155.3174603174603,-188.17460317460316,146.74603174603175,325.0,41.34920634920635,-82.14285714285714,325.0,325.0,-0.23809523809523808,-0.873015873015873,-321.8253968253968
258.17460317460313,-66.74603174603175,-178.4920634920635,325.0,325.0,-195.3174603174603,-149.44444444444443,106.9047619047619,-111.98412698412697,268.968253968254,325.0,-79.28571428571428,-188.015873015873,152.61904761904762,-185.15873015873015,144.2063492063492,325.0,36.42857142857142,-80.71428571428571,325.0,325.0,-0.23809523809523808,-0.23809523809523808,-166.26984126984127
258.17460317460313,-66.74603174603175,-178.4920634920635,325.0,325.0,-195.3174603174603,-149.44444444444443,106.9047619047619,-111.98412698412697,268.968253968254,325.0,-79.28571428571428,-188.015873015873,152.61904761904762,-185.15873015873015,144.2063492063492,325.0,36.42857142857142,-80.71428571428571,325.0,325.0,-0.23809523809523808,-0.23809523809523808,-166.26984126984127
253.7301587301587,-65.63492063492063,-175.47619047619045,325.0,325.0,-192.14285714285714,-147.06349206349205,105.31746031746032,-110.07936507936508,264.5238095238095,325.0,-77.85714285714285,-185.0,149.9206349206349,-182.14285714285714,141.8253968253968,325.0,38.65079365079365,-79.44444444444444,325.0,325.0,-0.5555555555555556,-0.7142857142857142,-166.26984126984127
253.7301587301587,-65.63492063492063,-175.47619047619045,325.0,325.0,-192.14285714285714,-147.06349206349205,105.31746031746032,-110.07936507936508,264.5238095238095,325.0,-77.85714285714285,-185.0,149.9206349206349,-182.14285714285714,141.8253968253968,325.0,38.65079365079365,-79.44444444444444,325.0,325.0,-0.5555555555555556,-0.7142857142857142,-166.26984126984127
249.44444444444443,-64.52380952380952,-172.61904761904762,325.0,325.0,-188.8095238095238,-144.68253968253967,103.57142857142857,-108.33333333333333,259.9206349206349,325.0,-76.42857142857143,-181.8253968253968,147.38095238095238,-179.12698412698413,139.44444444444443,325.0,45.15873015873016,-78.17460317460316,325.0,325.0,-1.1904761904761905,-0.07936507936507936,-166.26984126984127
249.44444444444443,-64.52380952380952,-172.61904761904762,325.0,325.0,-188.8095238095238,-144.68253968253967,103.57142857142857,-108.33333333333333,259.9206349206349,325.0,-76.42857142857143,-181.8253968253968,147.38095238095238,-179.12698412698413,139.44444444444443,325.0,45.15873015873016,-78.17460317460316,325.0,325.0,-1.1904761904761905,-0.07936507936507936,-166.26984126984127
246.26984126984127,-63.888888888888886,-170.23809523809524,325.0,325.0,-186.11111111111111,-142.93650793650792,102.30158730158729,-106.9047619047619,256.4285714285714,325.0,-75.47619047619047,-179.60317460317458,145.47619047619048,-177.06349206349205,137.69841269841268,325.0,45.15873015873016,-77.22222222222221,325.0,325.0,-0.873015873015873,-0.07936507936507936,-166.26984126984127
246.26984126984127,-63.888888888888886,-170.23809523809524,325.0,325.0,-186.11111111111111,-142.93650793650792,102.30158730158729,-106.9047619047619,256.4285714285714,325.0,-75.47619047619047,-179.60317460317458,145.47619047619048,-177.06349206349205,137.69841269841268,325.0,45.15873015873016,-77.22222222222221,325.0,325.0,-0.873015873015873,-0.07936507936507936,-166.26984126984127
240.7142857142857,-62.460317460317455,-166.74603174603175,325.0,325.0,-182.14285714285714,-139.76190476190476,100.23809523809523,-104.68253968253968,251.19047619047618,325.0,-74.04761904761904,-175.79365079365078,142.14285714285714,-173.4126984126984,134.84126984126982,325.0,44.2063492063492,-75.47619047619047,325.0,325.0,-0.23809523809523808,0.07936507936507936,-166.26984126984127
240.7142857142857,-62.460317460317455,-166.74603174603175,325.0,325.0,-182.14285714285714,-139.76190476190476,100.23809523809523,-104.68253968253968,251.19047619047618,325.0,-74.04761904761904,-175.79365079365078,142.14285714285714,-173.4126984126984,134.84126984126982,325.0,44.2063492063492,-75.47619047619047,325.0,325.0,-0.23809523809523808,0.07936507936507936,-166.26984126984127
237.53968253968253,-61.507936507936506,-164.68253968253967,325.0,325.0,-179.60317460317458,-138.015873015873,99.12698412698413,-103.25396825396825,248.17460317460316,325.0,-73.09523809523809,-173.4126984126984,140.07936507936506,-171.34920634920633,133.25396825396825,325.0,41.19047619047619,-74.84126984126983,325.0,325.0,-0.5555555555555556,0.07936507936507936,-321.8253968253968
237.53968253968253,-61.507936507936506,-164.68253968253967,325.0,325.0,-179.60317460317458,-138.015873015873,99.12698412698413,-103.25396825396825,248.17460317460316,325.0,-73.09523809523809,-173.4126984126984,140.07936507936506,-171.34920634920633,133.25396825396825,325.0,41.19047619047619,-74.84126984126983,325.0,325.0,-0.5555555555555556,0.07936507936507936,-321.8253968253968
233.57142857142856,-60.39682539682539,-161.8253968253968,325.0,325.0,-176.58730158730157,-135.79365079365078,97.53968253968253,-101.82539682539682,243.88888888888889,325.0,-71.66666666666666,-170.55555555555554,137.85714285714286,-168.33333333333331,131.03174603174602,325.0,38.65079365079365,-73.57142857142857,325.0,325.0,-0.873015873015873,0.07936507936507936,-321.8253968253968
233.57142857142856,-60.39682539682539,-161.8253968253968,325.0,325.0,-176.58730158730157,-135.79365079365078,97.53968253968253,-101.82539682539682,243.88888888888889,325.0,-71.66666666666666,-170.55555555555554,137.85714285714286,-168.33333333333331,131.03174603174602,325.0,38.65079365079365,-73.57142857142857,325.0,325.0,-0.873015873015873,0.07936507936507936,-321.8253968253968
228.49206349206347,-59.285714285714285,-158.4920634920635,325.0,325.0,-172.77777777777777,-132.77777777777777,95.31746031746032,-99.76190476190476,238.8095238095238,325.0,-70.39682539682539,-167.06349206349205,134.84126984126982,-165.0,128.17460317460316,325.0,41.82539682539682,-71.98412698412697,325.0,325.0,0.07936507936507936,0.07936507936507936,-321.8253968253968
228.49206349206347,-59.285714285714285,-158.4920634920635,325.0,325.0,-172.77777777777777,-132.77777777777777,95.31746031746032,-99.76190476190476,238.8095238095238,325.0,-70.39682539682539,-167.06349206349205,134.84126984126982,-165.0,128.17460317460316,325.0,41.82539682539682,-71.98412698412697,325.0,325.0,0.07936507936507936,0.07936507936507936,-321.8253968253968
223.7301587301587,-58.01587301587301,-155.15873015873015,325.0,325.0,-168.96825396825395,-130.07936507936506,93.4126984126984,-97.38095238095238,233.57142857142856,325.0,-68.65079365079364,-163.57142857142856,131.984126984127,-161.66666666666666,125.15873015873015,325.0,35.95238095238095,-70.23809523809524,325.0,325.0,-0.23809523809523808,-0.873015873015873,-321.8253968253968
223.7301587301587,-58.01587301587301,-155.15873015873015,325.0,325.0,-168.96825396825395,-130.07936507936506,93.4126984126984,-97.38095238095238,233.57142857142856,325.0,-68.65079365079364,-163.57142857142856,131.984126984127,-161.66666666666666,125.15873015873015,325.0,35.95238095238095,-70.23809523809524,325.0,325.0,-0.23809523809523808,-0.873015873015873,-321.8253968253968
218.015873015873,-56.74603174603174,-151.19047619047618,325.0,325.0,-164.36507936507937,-126.9047619047619,91.03174603174602,-95.15873015873015,227.69841269841268,325.0,-67.22222222222221,-159.28571428571428,128.4920634920635,-158.015873015873,122.46031746031746,325.0,45.476190476190474,-68.65079365079364,325.0,319.9206349206349,-0.07936507936507936,-0.873015873015873,-321.8253968253968
218.015873015873,-56.74603174603174,-151.19047619047618,325.0,325.0,-164.36507936507937,-126.9047619047619,91.03174603174602,-95.15873015873015,227.69841269841268,325.0,-67.22222222222221,-159.28571428571428,128.4920634920635,-158.015873015873,122.46031746031746,325.0,45.476190476190474,-68.65079365079364,325.0,319.9206349206349,-0.07936507936507936,-0.873015873015873,-321.8253968253968
215.0,-55.95238095238095,-149.28571428571428,325.0,325.0,-162.46031746031744,-125.31746031746032,89.92063492063491,-94.04761904761904,224.84126984126982,325.0,-66.26984126984127,-157.38095238095238,126.58730158730158,-155.95238095238093,120.87301587301586,325.0,45.79365079365079,-67.85714285714285,325.0,315.7936507936508,-0.3968253968253968,-0.5555555555555556,-166.26984126984127
215.0,-55.95238095238095,-149.28571428571428,325.0,325.0,-162.46031746031744,-125.31746031746032,89.92063492063491,-94.04761904761904,224.84126984126982,325.0,-66.26984126984127,-157.38095238095238,126.58730158730158,-155.95238095238093,120.87301587301586,325.0,45.79365079365079,-67.85714285714285,325.0,315.7936507936508,-0.3968253968253968,-0.5555555555555556,-166.26984126984127
209.44444444444443,-54.68253968253968,-145.47619047619048,325.0,325.0,-158.17460317460316,-122.14285714285714,87.85714285714285,-91.5079365079365,218.96825396825395,325.0,-64.52380952380952,-153.4126984126984,123.4126984126984,-151.984126984127,117.53968253968253,325.0,43.73015873015873,-66.11111111111111,325.0,307.69841269841265,0.23809523809523808,0.23809523809523808,-166.26984126984127
209.44444444444443,-54.68253968253968,-145.47619047619048,325.0,325.0,-158.17460317460316,-122.14285714285714,87.85714285714285,-91.5079365079365,218.96825396825395,325.0,-64.52380952380952,-153.4126984126984,123.4126984126984,-151.984126984127,117.53968253968253,325.0,43.73015873015873,-66.11111111111111,325.0,307.69841269841265,0.23809523809523808,0.23809523809523808,-166.26984126984127
205.79365079365078,-53.73015873015873,-142.93650793650792,325.0,325.0,-155.47619047619048,-120.07936507936508,86.1111111111111,-90.07936507936508,215.3174603174603,325.0,-63.57142857142857,-150.7142857142857,121.19047619047619,-149.44444444444443,115.63492063492063,325.0,42.3015873015873,-65.0,321.8253968253968,302.3015873015873,0.23809523809523808,-0.5555555555555556,-166.26984126984127
205.79365079365078,-53.73015873015873,-142.93650793650792,325.0,325.0,-155.47619047619048,-120.07936507936508,86.1111111111111,-90.07936507936508,215.3174603174603,325.0,-63.57142857142857,-150.7142857142857,121.19047619047619,-149.44444444444443,115.63492063492063,325.0,42.3015873015873,-65.0,321.8253968253968,302.3015873015873,0.23809523809523808,-0.5555555555555556,-166.26984126984127
202.3015873015873,-52.77777777777777,-140.55555555555554,325.0,325.0,-152.77777777777777,-118.17460317460316,84.84126984126983,-88.65079365079364,211.66666666666666,325.0,-62.460317460317455,-148.17460317460316,118.96825396825396,-147.06349206349205,113.88888888888889,325.0,41.98412698412698,-63.888888888888886,316.74603174603175,297.22222222222223,-0.7142857142857142,-0.07936507936507936,-166.26984126984127
202.3015873015873,-52.77777777777777,-140.55555555555554,325.0,325.0,-152.77777777777777,-118.17460317460316,84.84126984126983,-88.65079365079364,211.66666666666666,325.0,-62.460317460317455,-148.17460317460316,118.96825396825396,-147.06349206349205,113.88888888888889,325.0,41.98412698412698,-63.888888888888886,316.74603174603175,297.22222222222223,-0.7142857142857142,-0.07936507936507936,-166.26984126984127
197.06349206349205,-51.34920634920635,-137.06349206349205,325.0,325.0,-148.8095238095238,-115.15873015873015,82.77777777777777,-86.26984126984127,206.26984126984127,325.0,-61.03174603174603,-144.36507936507937,115.95238095238095,-143.4126984126984,110.87301587301587,325.0,39.44444444444444,-62.3015873015873,308.968253968254,289.6031746031746,-0.3968253968253968,-0.07936507936507936,-166.26984126984127
197.06349206349205,-51.34920634920635,-137.06349206349205,325.0,325.0,-148.8095238095238,-115.15873015873015,82.77777777777777,-86.26984126984127,206.26984126984127,325.0,-61.03174603174603,-144.36507936507937,115.95238095238095,-143.4126984126984,110.87301587301587,325.0,39.44444444444444,-62.3015873015873,308.968253968254,289.6031746031746,-0.3968253968253968,-0.07936507936507936,-166.26984126984127
193.7301587301587,-50.71428571428571,-134.84126984126982,325.0,325.0,-146.11111111111111,-113.09523809523809,81.34920634920634,-84.84126984126983,202.77777777777777,325.0,-59.92063492063492,-141.8253968253968,113.88888888888889,-141.03174603174602,109.12698412698413,325.0,37.698412698412696,-61.34920634920635,303.88888888888886,284.5238095238095,-0.3968253968253968,-0.23809523809523808,-321.8253968253968
193.7301587301587,-50.71428571428571,-134.84126984126982,325.0,325.0,-146.11111111111111,-113.09523809523809,81.34920634920634,-84.84126984126983,202.77777777777777,325.0,-59.92063492063492,-141.8253968253968,113.88888888888889,-141.03174603174602,109.12698412698413,325.0,37.698412698412696,-61.34920634920635,303.88888888888886,284.5238095238095,-0.3968253968253968,-0.23809523809523808,-321.8253968253968
191.19047619047618,-50.238095238095234,-132.93650793650792,325.0,325.0,-143.88888888888889,-111.82539682539682,80.39682539682539,-83.73015873015872,200.07936507936506,325.0,-58.96825396825397,-140.07936507936506,112.46031746031746,-139.44444444444443,107.6984126984127,325.0,41.19047619047619,-60.55555555555555,299.9206349206349,281.031746031746,-0.5555555555555556,-0.873015873015873,-321.8253968253968
191.19047619047618,-50.238095238095234,-132.93650793650792,325.0,325.0,-143.88888888888889,-111.82539682539682,80.39682539682539,-83.73015873015872,200.07936507936506,325.0,-58.96825396825397,-140.07936507936506,112.46031746031746,-139.44444444444443,107.6984126984127,325.0,41.19047619047619,-60.55555555555555,299.9206349206349,281.031746031746,-0.5555555555555556,-0.873015873015873,-321.8253968253968
187.85714285714283,-49.285714285714285,-130.7142857142857,325.0,325.0,-141.5079365079365,-109.92063492063491,79.12698412698413,-82.46031746031746,196.58730158730157,325.0,-58.01587301587301,-137.69841269841268,110.39682539682539,-137.22222222222223,105.95238095238095,325.0,40.238095238095234,-59.6031746031746,295.1587301587301,276.26984126984127,-0.7142857142857142,-0.7142857142857142,-321.8253968253968
187.85714285714283,-49.285714285714285,-130.7142857142857,325.0,325.0,-141.5079365079365,-109.92063492063491,79.12698412698413,-82.46031746031746,196.58730158730157,325.0,-58.01587301587301,-137.69841269841268,110.39682539682539,-137.22222222222223,105.95238095238095,325.0,40.238095238095234,-59.6031746031746,295.1587301587301,276.26984126984127,-0.7142857142857142,-0.7142857142857142,-321.8253968253968
180.55555555555554,-47.53968253968254,-125.79365079365078,325.0,325.0,-136.11111111111111,-105.95238095238095,75.95238095238095,-79.44444444444444,189.28571428571428,325.0,-55.95238095238095,-132.46031746031744,106.1111111111111,-132.14285714285714,101.82539682539682,325.0,40.238095238095234,-57.53968253968254,284.2063492063492,265.7936507936508,-0.07936507936507936,-0.3968253968253968,-321.8253968253968
180.55555555555554,-47.53968253968254,-125.79365079365078,325.0,325.0,-136.11111111111111,-105.95238095238095,75.95238095238095,-79.44444444444444,189.28571428571428,325.0,-55.95238095238095,-132.46031746031744,106.1111111111111,-132.14285714285714,101.82539682539682,325.0,40.238095238095234,-57.53968253968254,284.2063492063492,265.7936507936508,-0.07936507936507936,-0.3968253968253968,-321.8253968253968
177.38095238095238,-46.74603174603175,-123.88888888888889,325.0,325.0,-133.73015873015873,-104.04761904761904,74.68253968253968,-78.17460317460316,185.95238095238093,325.0,-55.15873015873016,-130.23809523809524,104.2063492063492,-130.07936507936506,100.23809523809523,325.0,34.84126984126984,-56.42857142857142,279.6031746031746,261.031746031746,-0.3968253968253968,0.3968253968253968,-321.8253968253968
177.38095238095238,-46.74603174603175,-123.88888888888889,325.0,325.0,-133.73015873015873,-104.04761904761904,74.68253968253968,-78.17460317460316,185.95238095238093,325.0,-55.15873015873016,-130.23809523809524,104.2063492063492,-130.07936507936506,100.23809523809523,325.0,34.84126984126984,-56.42857142857142,279.6031746031746,261.031746031746,-0.3968253968253968,0.3968253968253968,-321.8253968253968
175.0,-45.79365079365079,-122.14285714285714,325.0,325.0,-131.984126984127,-102.61904761904762,73.88888888888889,-77.06349206349206,183.57142857142856,325.0,-54.2063492063492,-128.4920634920635,102.77777777777777,-128.33333333333331,98.65079365079364,325.0,28.96825396825397,-55.79365079365079,276.1111111111111,257.53968253968253,-0.3968253968253968,0.23809523809523808,-166.26984126984127
175.0,-45.79365079365079,-122.14285714285714,325.0,325.0,-131.984126984127,-102.61904761904762,73.88888888888889,-77.06349206349206,183.57142857142856,325.0,-54.2063492063492,-128.4920634920635,102.77777777777777,-128.33333333333331,98.65079365079364,325.0,28.96825396825397,-55.79365079365079,276.1111111111111,257.53968253968253,-0.3968253968253968,0.23809523809523808,-166.26984126984127
171.34920634920633,-45.15873015873016,-119.6031746031746,325.0,325.0,-129.12698412698413,-100.55555555555554,72.46031746031746,-75.47619047619047,179.60317460317458,325.0,-53.095238095238095,-125.95238095238095,100.55555555555554,-125.79365079365078,96.74603174603175,325.0,26.9047619047619,-54.52380952380952,270.39682539682536,251.98412698412696,-1.0317460317460316,-0.5555555555555556,-166.26984126984127
171.34920634920633,-45.15873015873016,-119.6031746031746,325.0,325.0,-129.12698412698413,-100.55555555555554,72.46031746031746,-75.47619047619047,179.60317460317458,325.0,-53.095238095238095,-125.95238095238095,100.55555555555554,-125.79365079365078,96.74603174603175,325.0,26.9047619047619,-54.52380952380952,270.39682539682536,251.98412698412696,-1.0317460317460316,-0.5555555555555556,-166.26984126984127
168.17460317460316,-44.36507936507936,-117.53968253968253,325.0,325.0,-126.9047619047619,-98.96825396825396,71.19047619047619,-74.36507936507937,176.58730158730157,325.0,-52.3015873015873,-123.73015873015872,98.80952380952381,-123.73015873015872,95.15873015873015,325.0,34.2063492063492,-53.73015873015873,265.95238095238096,247.69841269841268,-1.1904761904761905,-0.07936507936507936,-166.26984126984127
168.17460317460316,-44.36507936507936,-117.53968253968253,325.0,325.0,-126.9047619047619,-98.96825396825396,71.19047619047619,-74.36507936507937,176.58730158730157,325.0,-52.3015873015873,-123.73015873015872,98.80952380952381,-123.73015873015872,95.15873015873015,325.0,34.2063492063492,-53.73015873015873,265.95238095238096,247.69841269841268,-1.1904761904761905,-0.07936507936507936,-166.26984126984127
165.3174603174603,-43.73015873015873,-115.47619047619047,325.0,325.0,-124.52380952380952,-97.22222222222221,69.92063492063491,-73.09523809523809,173.57142857142856,325.0,-51.507936507936506,-121.5079365079365,96.9047619047619,-121.66666666666666,93.57142857142857,325.0,35.317460317460316,-52.77777777777777,261.5079365079365,243.57142857142856,-0.873015873015873,-0.5555555555555556,-166.26984126984127
165.3174603174603,-43.73015873015873,-115.47619047619047,325.0,325.0,-124.52380952380952,-97.22222222222221,69.92063492063491,-73.09523809523809,173.57142857142856,325.0,-51.507936507936506,-121.5079365079365,96.9047619047619,-121.66666666666666,93.57142857142857,325.0,35.317460317460316,-52.77777777777777,261.5079365079365,243.57142857142856,-0.873015873015873,-0.5555555555555556,-166.26984126984127
162.46031746031744,-42.93650793650794,-113.57142857142857,325.0,325.0,-122.30158730158729,-95.63492063492063,68.80952380952381,-71.66666666666666,170.55555555555554,325.0,-50.55555555555555,-119.6031746031746,95.15873015873015,-119.6031746031746,91.82539682539682,325.0,33.41269841269841,-51.98412698412698,257.06349206349205,239.28571428571428,-1.349206349206349,-0.3968253968253968,-166.26984126984127
162.46031746031744,-42.93650793650794,-113.57142857142857,325.0,325.0,-122.30158730158729,-95.63492063492063,68.80952380952381,-71.66666666666666,170.55555555555554,325.0,-50.55555555555555,-119.6031746031746,95.15873015873015,-119.6031746031746,91.82539682539682,325.0,33.41269841269841,-51.98412698412698,257.06349206349205,239.28571428571428,-1.349206349206349,-0.3968253968253968,-166.26984126984127
159.6031746031746,-42.3015873015873,-111.66666666666666,325.0,323.25396825396825,-120.23809523809523,-93.88888888888889,67.6984126984127,-70.55555555555556,167.53968253968253,325.0,-49.6031746031746,-117.6984126984127,93.57142857142857,-117.6984126984127,90.39682539682539,325.0,30.71428571428571,-51.19047619047619,252.93650793650792,235.15873015873015,-0.873015873015873,-0.873015873015873,-321.8253968253968
159.6031746031746,-42.3015873015873,-111.66666666666666,325.0,323.25396825396825,-120.23809523809523,-93.88888888888889,67.6984126984127,-70.55555555555556,167.53968253968253,325.0,-49.6031746031746,-117.6984126984127,93.57142857142857,-117.6984126984127,90.39682539682539,325.0,30.71428571428571,-51.19047619047619,252.93650793650792,235.15873015873015,-0.873015873015873,-0.873015873015873,-321.8253968253968
156.9047619047619,-41.507936507936506,-109.76190476190476,325.0,318.015873015873,-118.17460317460316,-92.46031746031746,66.58730158730158,-69.6031746031746,165.0,325.0,-48.80952380952381,-115.47619047619047,91.98412698412697,-115.79365079365078,88.80952380952381,325.0,30.07936507936508,-50.238095238095234,248.8095238095238,231.19047619047618,-0.873015873015873,-0.7142857142857142,-321.8253968253968
156.9047619047619,-41.507936507936506,-109.76190476190476,325.0,318.015873015873,-118.17460317460316,-92.46031746031746,66.58730158730158,-69.6031746031746,165.0,325.0,-48.80952380952381,-115.47619047619047,91.98412698412697,-115.79365079365078,88.80952380952381,325.0,30.07936507936508,-50.238095238095234,248.8095238095238,231.19047619047618,-0.873015873015873,-0.7142857142857142,-321.8253968253968
154.04761904761904,-40.87301587301587,-107.85714285714285,325.0,312.77777777777777,-115.95238095238095,-90.87301587301587,65.31746031746032,-68.33333333333333,161.984126984127,325.0,-48.17460317460317,-113.57142857142857,90.23809523809523,-113.88888888888889,87.22222222222221,325.0,27.857142857142854,-49.44444444444444,244.52380952380952,227.2222222222222,-0.873015873015873,0.07936507936507936,-321.8253968253968
154.04761904761904,-40.87301587301587,-107.85714285714285,325.0,312.77777777777777,-115.95238095238095,-90.87301587301587,65.31746031746032,-68.33333333333333,161.984126984127,325.0,-48.17460317460317,-113.57142857142857,90.23809523809523,-113.88888888888889,87.22222222222221,325.0,27.857142857142854,-49.44444444444444,244.52380952380952,227.2222222222222,-0.873015873015873,0.07936507936507936,-321.8253968253968
151.984126984127,-40.238095238095234,-106.42857142857142,325.0,308.968253968254,-114.52380952380952,-89.76190476190476,64.52380952380952,-67.53968253968253,159.9206349206349,325.0,-47.38095238095238,-112.14285714285714,89.12698412698413,-112.46031746031746,86.1111111111111,325.0,28.015873015873016,-48.80952380952381,241.5079365079365,224.2063492063492,-0.5555555555555556,-0.3968253968253968,-321.8253968253968
151.984126984127,-40.238095238095234,-106.42857142857142,325.0,308.968253968254,-114.52380952380952,-89.76190476190476,64.52380952380952,-67.53968253968253,159.9206349206349,325.0,-47.38095238095238,-112.14285714285714,89.12698412698413,-112.46031746031746,86.1111111111111,325.0,28.015873015873016,-48.80952380952381,241.5079365079365,224.2063492063492,-0.5555555555555556,-0.3968253968253968,-321.8253968253968
149.28571428571428,-39.6031746031746,-104.68253968253968,324.36507936507934,304.04761904761904,-112.6190476190476,-88.17460317460316,63.57142857142857,-66.26984126984127,157.2222222222222,325.0,-46.58730158730158,-110.23809523809523,87.38095238095238,-110.55555555555554,84.84126984126983,325.0,30.555555555555554,-48.01587301587301,237.69841269841268,220.2380952380952,-1.1904761904761905,-0.5555555555555556,-321.8253968253968
149.28571428571428,-39.6031746031746,-104.68253968253968,324.36507936507934,304.04761904761904,-112.6190476190476,-88.17460317460316,63.57142857142857,-66.26984126984127,157.2222222222222,325.0,-46.58730158730158,-110.23809523809523,87.38095238095238,-110.55555555555554,84.84126984126983,325.0,30.555555555555554,-48.01587301587301,237.69841269841268,220.2380952380952,-1.1904761904761905,-0.5555555555555556,-321.8253968253968
145.47619047619048,-38.80952380952381,-102.14285714285714,318.17460317460313,296.58730158730157,-109.44444444444444,-85.95238095238095,61.98412698412698,-64.68253968253968,152.93650793650792,325.0,-45.476190476190474,-107.38095238095238,85.31746031746032,-107.85714285714285,82.77777777777777,325.0,28.333333333333332,-46.74603174603175,231.66666666666666,214.52380952380952,-0.873015873015873,-0.3968253968253968,-166.26984126984127
145.47619047619048,-38.80952380952381,-102.14285714285714,318.17460317460313,296.58730158730157,-109.44444444444444,-85.95238095238095,61.98412698412698,-64.68253968253968,152.93650793650792,325.0,-45.476190476190474,-107.38095238095238,85.31746031746032,-107.85714285714285,82.77777777777777,325.0,28.333333333333332,-46.74603174603175,231.66666666666666,214.52380952380952,-0.873015873015873,-0.3968253968253968,-166.26984126984127
142.3015873015873,-38.01587301587301,-100.07936507936508,311.19047619047615,290.7142857142857,-107.22222222222221,-84.04761904761904,60.71428571428571,-63.41269841269841,149.76190476190476,325.0,-44.52380952380952,-105.15873015873015,83.25396825396825,-105.63492063492063,81.03174603174602,325.0,31.19047619047619,-45.95238095238095,226.74603174603175,209.76190476190476,-0.5555555555555556,0.07936507936507936,-166.26984126984127
142.3015873015873,-38.01587301587301,-100.07936507936508,311.19047619047615,290.7142857142857,-107.22222222222221,-84.04761904761904,60.71428571428571,-63.41269841269841,149.76190476190476,325.0,-44.52380952380952,-105.15873015873015,83.25396825396825,-105.63492063492063,81.03174603174602,325.0,31.19047619047619,-45.95238095238095,226.74603174603175,209.76190476190476,-0.5555555555555556,0.07936507936507936,-166.26984126984127
139.9206349206349,-37.38095238095238,-98.33333333333333,306.26984126984127,286.1111111111111,-105.31746031746032,-82.77777777777777,59.76190476190476,-62.460317460317455,147.38095238095238,325.0,-43.888888888888886,-103.25396825396825,81.82539682539682,-104.04761904761904,79.76190476190476,325.0,24.84126984126984,-45.15873015873016,223.09523809523807,206.26984126984127,-0.7142857142857142,0.3968253968253968,-166.26984126984127
139.9206349206349,-37.38095238095238,-98.33333333333333,306.26984126984127,286.1111111111111,-105.31746031746032,-82.77777777777777,59.76190476190476,-62.460317460317455,147.38095238095238,325.0,-43.888888888888886,-103.25396825396825,81.82539682539682,-104.04761904761904,79.76190476190476,325.0,24.84126984126984,-45.15873015873016,223.09523809523807,206.26984126984127,-0.7142857142857142,0.3968253968253968,-166.26984126984127
137.38095238095238,-36.74603174603175,-96.58730158730158,301.031746031746,281.5079365079365,-103.57142857142857,-81.34920634920634,58.650793650793645,-61.34920634920635,144.68253968253967,325.0,-43.25396825396825,-101.5079365079365,80.55555555555556,-102.30158730158729,78.17460317460316,325.0,22.777777777777775,-44.36507936507936,219.28571428571428,202.61904761904762,-0.5555555555555556,0.07936507936507936,-166.26984126984127
137.38095238095238,-36.74603174603175,-96.58730158730158,301.031746031746,281.5079365079365,-103.57142857142857,-81.34920634920634,58.650793650793645,-61.34920634920635,144.68253968253967,325.0,-43.25396825396825,-101.5079365079365,80.55555555555556,-102.30158730158729,78.17460317460316,325.0,22.777777777777775,-44.36507936507936,219.28571428571428,202.61904761904762,-0.5555555555555556,0.07936507936507936,-166.26984126984127
137.06349206349205,-36.42857142857142,-96.26984126984127,299.9206349206349,280.39682539682536,-103.25396825396825,-80.87301587301587,58.49206349206349,-61.03174603174603,144.2063492063492,325.0,-42.93650793650794,-101.03174603174602,80.23809523809523,-101.82539682539682,77.85714285714285,325.0,22.777777777777775,-44.047619047619044,218.4920634920635,201.66666666666666,-0.23809523809523808,-0.23809523809523808,-166.26984126984127
137.06349206349205,-36.42857142857142,-96.26984126984127,299.9206349206349,280.39682539682536,-103.25396825396825,-80.87301587301587,58.49206349206349,-61.03174603174603,144.2063492063492,325.0,-42.93650793650794,-101.03174603174602,80.23809523809523,-101.82539682539682,77.85714285714285,325.0,22.777777777777775,-44.047619047619044,218.4920634920635,201.66666666666666,-0.23809523809523808,-0.23809523809523808,-166.26984126984127
132.61904761904762,-35.476190476190474,-93.4126984126984,290.87301587301585,272.46031746031747,-99.92063492063491,-78.65079365079364,56.904761904761905,-59.285714285714285,139.9206349206349,325.0,-41.666666666666664,-98.01587301587301,77.6984126984127,-99.12698412698413,75.63492063492063,325.0,26.428571428571427,-42.93650793650794,211.98412698412696,195.63492063492063,-0.23809523809523808,-0.3968253968253968,-321.8253968253968
132.61904761904762,-35.476190476190474,-93.4126984126984,290.87301587301585,272.46031746031747,-99.92063492063491,-78.65079365079364,56.904761904761905,-59.285714285714285,139.9206349206349,325.0,-41.666666666666664,-98.01587301587301,77.6984126984127,-99.12698412698413,75.63492063492063,325.0,26.428571428571427,-42.93650793650794,211.98412698412696,195.63492063492063,-0.23809523809523808,-0.3968253968253968,-321.8253968253968
130.23809523809524,-35.0,-91.82539682539682,285.7936507936508,268.015873015873,-98.01587301587301,-77.38095238095238,55.95238095238095,-58.49206349206349,137.38095238095238,323.4126984126984,-41.03174603174603,-96.42857142857142,76.26984126984127,-97.38095238095238,74.36507936507937,325.0,33.25396825396825,-42.3015873015873,208.33333333333331,192.3015873015873,-0.07936507936507936,0.07936507936507936,-321.8253968253968
130.23809523809524,-35.0,-91.82539682539682,285.7936507936508,268.015873015873,-98.01587301587301,-77.38095238095238,55.95238095238095,-58.49206349206349,137.38095238095238,323.4126984126984,-41.03174603174603,-96.42857142857142,76.26984126984127,-97.38095238095238,74.36507936507937,325.0,33.25396825396825,-42.3015873015873,208.33333333333331,192.3015873015873,-0.07936507936507936,0.07936507936507936,-321.8253968253968
128.8095238095238,-34.52380952380952,-90.55555555555556,282.6190476190476,264.8412698412698,-96.74603174603175,-76.42857142857143,55.0,-57.38095238095238,135.63492063492063,319.4444444444444,-40.55555555555555,-95.15873015873015,75.31746031746032,-96.1111111111111,73.57142857142857,325.0,31.507936507936506,-41.666666666666664,205.95238095238093,189.76190476190476,0.7142857142857142,0.23809523809523808,-321.8253968253968
128.8095238095238,-34.52380952380952,-90.55555555555556,282.6190476190476,264.8412698412698,-96.74603174603175,-76.42857142857143,55.0,-57.38095238095238,135.63492063492063,319.4444444444444,-40.55555555555555,-95.15873015873015,75.31746031746032,-96.1111111111111,73.57142857142857,325.0,31.507936507936506,-41.666666666666664,205.95238095238093,189.76190476190476,0.7142857142857142,0.23809523809523808,-321.8253968253968
