Fp1[1],Fp2[2],F3[3],F4[4],C3[5],C4[6],P3[7],P4[8],O1[9],O2[10],F7[11],F8[12],T3[13],T4[14],T5[15],T6[16],Fz[17],Pz[18],Cz[19],Pg1[20],Pg2[21],EOGR[22],EOOGL[23],EMG[24]
-325.0,325.0,325.0,325.0,102.14285714285714,-325.0,325.0,325.0,-325.0,325.0,73.88888888888889,325.0,325.0,-325.0,325.0,290.55555555555554,100.55555555555554,0.23809523809523808,325.0,-325.0,-325.0,-0.07936507936507936,-0.07936507936507936,-166.26984126984127
-325.0,325.0,325.0,325.0,102.14285714285714,-325.0,325.0,325.0,-325.0,325.0,73.88888888888889,325.0,325.0,-325.0,325.0,290.55555555555554,100.55555555555554,0.23809523809523808,325.0,-325.0,-325.0,-0.07936507936507936,-0.07936507936507936,-166.26984126984127
-325.0,325.0,325.0,325.0,75.0,-325.0,325.0,325.0,-325.0,325.0,75.95238095238095,325.0,325.0,-325.0,325.0,285.6349206349206,104.68253968253968,4.0476190476190474,325.0,-325.0,-325.0,0.23809523809523808,-0.7142857142857142,-166.26984126984127
-325.0,325.0,325.0,325.0,75.0,-325.0,325.0,325.0,-325.0,325.0,75.95238095238095,325.0,325.0,-325.0,325.0,285.6349206349206,104.68253968253968,4.0476190476190474,325.0,-325.0,-325.0,0.23809523809523808,-0.7142857142857142,-166.26984126984127
-325.0,325.0,325.0,325.0,-325.0,-325.0,325.0,325.0,-325.0,325.0,90.39682539682539,325.0,325.0,-300.39682539682536,325.0,-23.88888888888889,-105.31746031746032,34.682539682539684,325.0,-325.0,-325.0,0.07936507936507936,-0.3968253968253968,-166.26984126984127
-325.0,325.0,325.0,325.0,-325.0,-325.0,325.0,325.0,-325.0,325.0,90.39682539682539,325.0,325.0,-300.39682539682536,325.0,-23.88888888888889,-105.31746031746032,34.682539682539684,325.0,-325.0,-325.0,0.07936507936507936,-0.3968253968253968,-166.26984126984127
-320.07936507936506,325.0,325.0,325.0,-325.0,-325.0,325.0,325.0,-325.0,325.0,92.77777777777777,325.0,325.0,-266.26984126984127,325.0,-325.0,-325.0,55.63492063492063,325.0,-325.0,-325.0,0.07936507936507936,-0.873015873015873,-166.26984126984127
-320.07936507936506,325.0,325.0,325.0,-325.0,-325.0,325.0,325.0,-325.0,325.0,92.77777777777777,325.0,325.0,-266.26984126984127,325.0,-325.0,-325.0,55.63492063492063,325.0,-325.0,-325.0,0.07936507936507936,-0.873015873015873,-166.26984126984127
-309.2857142857143,325.0,325.0,325.0,-325.0,-325.0,325.0,322.77777777777777,-325.0,325.0,85.47619047619047,325.0,325.0,-251.8253968253968,325.0,-325.0,-325.0,56.42857142857142,325.0,-325.0,-325.0,-0.7142857142857142,-0.5555555555555556,-166.26984126984127
-309.2857142857143,325.0,325.0,325.0,-325.0,-325.0,325.0,322.77777777777777,-325.0,325.0,85.47619047619047,325.0,325.0,-251.8253968253968,325.0,-325.0,-325.0,56.42857142857142,325.0,-325.0,-325.0,-0.7142857142857142,-0.5555555555555556,-166.26984126984127
-291.3492063492063,325.0,325.0,325.0,-325.0,-325.0,23.88888888888889,305.95238095238096,-325.0,325.0,79.12698412698413,325.0,325.0,-237.69841269841268,325.0,-325.0,-325.0,57.857142857142854,325.0,-325.0,-325.0,-0.3968253968253968,-0.07936507936507936,-321.8253968253968
-291.3492063492063,325.0,325.0,325.0,-325.0,-325.0,23.88888888888889,305.95238095238096,-325.0,325.0,79.12698412698413,325.0,325.0,-237.69841269841268,325.0,-325.0,-325.0,57.857142857142854,325.0,-325.0,-325.0,-0.3968253968253968,-0.07936507936507936,-321.8253968253968
-283.57142857142856,325.0,325.0,325.0,-325.0,-325.0,-182.3015873015873,298.3333333333333,-325.0,325.0,79.92063492063491,325.0,325.0,-231.34920634920633,325.0,-325.0,-325.0,62.3015873015873,325.0,-325.0,-325.0,-0.3968253968253968,-0.07936507936507936,-321.8253968253968
-283.57142857142856,325.0,325.0,325.0,-325.0,-325.0,-182.3015873015873,298.3333333333333,-325.0,325.0,79.92063492063491,325.0,325.0,-231.34920634920633,325.0,-325.0,-325.0,62.3015873015873,325.0,-325.0,-325.0,-0.3968253968253968,-0.07936507936507936,-321.8253968253968
-275.7936507936508,325.0,325.0,325.0,-325.0,-325.0,-325.0,291.031746031746,-323.57142857142856,325.0,-180.87301587301587,325.0,325.0,-225.15873015873015,325.0,-325.0,-325.0,62.93650793650793,325.0,-325.0,-324.8412698412698,0.23809523809523808,0.23809523809523808,-321.8253968253968
-275.7936507936508,325.0,325.0,325.0,-325.0,-325.0,-325.0,291.031746031746,-323.57142857142856,325.0,-180.87301587301587,325.0,325.0,-225.15873015873015,325.0,-325.0,-325.0,62.93650793650793,325.0,-325.0,-324.8412698412698,0.23809523809523808,0.23809523809523808,-321.8253968253968
-270.7142857142857,325.0,325.0,325.0,-325.0,-324.5238095238095,-325.0,286.1111111111111,-317.53968253968253,325.0,-325.0,325.0,325.0,-221.19047619047618,325.0,-325.0,-325.0,55.15873015873016,325.0,-324.8412698412698,-320.07936507936506,-0.23809523809523808,-0.23809523809523808,-321.8253968253968
-270.7142857142857,325.0,325.0,325.0,-325.0,-324.5238095238095,-325.0,286.1111111111111,-317.53968253968253,325.0,-325.0,325.0,325.0,-221.19047619047618,325.0,-325.0,-325.0,55.15873015873016,325.0,-324.8412698412698,-320.07936507936506,-0.23809523809523808,-0.23809523809523808,-321.8253968253968
-265.6349206349206,325.0,321.8253968253968,325.0,-325.0,-319.9206349206349,-325.0,281.3492063492063,-312.3015873015873,325.0,-325.0,325.0,324.8412698412698,-217.06349206349205,325.0,-325.0,-325.0,55.15873015873016,325.0,-320.39682539682536,-314.5238095238095,0.07936507936507936,-0.873015873015873,-321.8253968253968
-265.6349206349206,325.0,321.8253968253968,325.0,-325.0,-319.9206349206349,-325.0,281.3492063492063,-312.3015873015873,325.0,-325.0,325.0,324.8412698412698,-217.06349206349205,325.0,-325.0,-325.0,55.15873015873016,325.0,-320.39682539682536,-314.5238095238095,0.07936507936507936,-0.873015873015873,-321.8253968253968
-260.87301587301585,325.0,316.26984126984127,325.0,-325.0,-314.36507936507934,-325.0,276.74603174603175,-306.90476190476187,325.0,-325.0,325.0,320.55555555555554,-213.09523809523807,324.2063492063492,-325.0,-325.0,53.41269841269841,325.0,-314.8412698412698,-308.8095238095238,-0.07936507936507936,-1.8253968253968254,-166.26984126984127
-260.87301587301585,325.0,316.26984126984127,325.0,-325.0,-314.36507936507934,-325.0,276.74603174603175,-306.90476190476187,325.0,-325.0,325.0,320.55555555555554,-213.09523809523807,324.2063492063492,-325.0,-325.0,53.41269841269841,325.0,-314.8412698412698,-308.8095238095238,-0.07936507936507936,-1.8253968253968254,-166.26984126984127
-245.95238095238093,325.0,278.6507936507936,323.73015873015873,-325.0,-297.6984126984127,-325.0,262.6190476190476,-290.7142857142857,325.0,-325.0,325.0,302.9365079365079,-201.34920634920633,307.69841269841265,-325.0,-325.0,51.666666666666664,325.0,-298.17460317460313,-291.5079365079365,-0.873015873015873,-0.5555555555555556,-166.26984126984127
-245.95238095238093,325.0,278.6507936507936,323.73015873015873,-325.0,-297.6984126984127,-325.0,262.6190476190476,-290.7142857142857,325.0,-325.0,325.0,302.9365079365079,-201.34920634920633,307.69841269841265,-325.0,-325.0,51.666666666666664,325.0,-298.17460317460313,-291.5079365079365,-0.873015873015873,-0.5555555555555556,-166.26984126984127
-234.84126984126982,325.0,245.0,322.6190476190476,-325.0,-285.0,-325.0,251.66666666666666,-278.17460317460313,325.0,-325.0,325.0,289.76190476190476,-192.3015873015873,294.68253968253964,-325.0,-325.0,48.650793650793645,325.0,-285.0,-278.3333333333333,-1.1904761904761905,-0.7142857142857142,-166.26984126984127
-234.84126984126982,325.0,245.0,322.6190476190476,-325.0,-285.0,-325.0,251.66666666666666,-278.17460317460313,325.0,-325.0,325.0,289.76190476190476,-192.3015873015873,294.68253968253964,-325.0,-325.0,48.650793650793645,325.0,-285.0,-278.3333333333333,-1.1904761904761905,-0.7142857142857142,-166.26984126984127
-234.84126984126982,325.0,245.0,322.6190476190476,-325.0,-285.0,-325.0,251.66666666666666,-278.17460317460313,325.0,-325.0,325.0,289.76190476190476,-192.3015873015873,294.68253968253964,-325.0,-325.0,48.650793650793645,325.0,-285.0,-278.3333333333333,-1.1904761904761905,-0.7142857142857142,-166.26984126984127
-234.84126984126982,325.0,245.0,322.6190476190476,-325.0,-285.0,-325.0,251.66666666666666,-278.17460317460313,325.0,-325.0,325.0,289.76190476190476,-192.3015873015873,294.68253968253964,-325.0,-325.0,48.650793650793645,325.0,-285.0,-278.3333333333333,-1.1904761904761905,-0.7142857142857142,-166.26984126984127
-188.4920634920635,271.3492063492063,-223.7301587301587,261.984126984127,-268.968253968254,-232.3015873015873,-325.0,205.3174603174603,-226.58730158730157,325.0,-325.0,266.1111111111111,-214.36507936507937,-155.0,-128.17460317460316,-325.0,-320.23809523809524,40.714285714285715,290.7142857142857,-231.5079365079365,-224.52380952380952,-1.349206349206349,-0.873015873015873,-166.26984126984127
-188.4920634920635,271.3492063492063,-223.7301587301587,261.984126984127,-268.968253968254,-232.3015873015873,-325.0,205.3174603174603,-226.58730158730157,325.0,-325.0,266.1111111111111,-214.36507936507937,-155.0,-128.17460317460316,-325.0,-320.23809523809524,40.714285714285715,290.7142857142857,-231.5079365079365,-224.52380952380952,-1.349206349206349,-0.873015873015873,-166.26984126984127
-166.58730158730157,241.5079365079365,-274.36507936507934,232.3015873015873,-239.76190476190476,-206.9047619047619,-325.0,183.25396825396825,-201.8253968253968,-0.07936507936507936,-323.0952380952381,236.26984126984127,-269.76190476190476,-137.22222222222223,-226.58730158730157,-325.0,-284.2063492063492,30.07936507936508,-17.22222222222222,-205.79365079365078,-198.65079365079364,-1.507936507936508,-0.3968253968253968,-321.8253968253968
-166.58730158730157,241.5079365079365,-274.36507936507934,232.3015873015873,-239.76190476190476,-206.9047619047619,-325.0,183.25396825396825,-201.8253968253968,-0.07936507936507936,-323.0952380952381,236.26984126984127,-269.76190476190476,-137.22222222222223,-226.58730158730157,-325.0,-284.2063492063492,30.07936507936508,-17.22222222222222,-205.79365079365078,-198.65079365079364,-1.507936507936508,-0.3968253968253968,-321.8253968253968
-128.33333333333331,188.8095238095238,-325.0,180.55555555555554,-188.33333333333331,-161.984126984127,-325.0,-24.206349206349206,-158.015873015873,-325.0,-287.38095238095235,184.04761904761904,-325.0,-106.42857142857142,-325.0,-295.1587301587301,-221.19047619047618,11.825396825396824,-325.0,-160.7142857142857,-153.4126984126984,-0.5555555555555556,-0.3968253968253968,-321.8253968253968
-128.33333333333331,188.8095238095238,-325.0,180.55555555555554,-188.33333333333331,-161.984126984127,-325.0,-24.206349206349206,-158.015873015873,-325.0,-287.38095238095235,184.04761904761904,-325.0,-106.42857142857142,-325.0,-295.1587301587301,-221.19047619047618,11.825396825396824,-325.0,-160.7142857142857,-153.4126984126984,-0.5555555555555556,-0.3968253968253968,-321.8253968253968
-111.98412698412697,165.95238095238093,-325.0,158.4920634920635,-166.26984126984127,-142.46031746031744,-325.0,-209.60317460317458,-138.96825396825395,-325.0,-253.7301587301587,161.5079365079365,-325.0,-93.25396825396825,-325.0,-265.1587301587301,-194.36507936507937,4.2063492063492065,-325.0,-141.34920634920636,-134.04761904761904,0.7142857142857142,-0.7142857142857142,-321.8253968253968
-111.98412698412697,165.95238095238093,-325.0,158.4920634920635,-166.26984126984127,-142.46031746031744,-325.0,-209.60317460317458,-138.96825396825395,-325.0,-253.7301587301587,161.5079365079365,-325.0,-93.25396825396825,-325.0,-265.1587301587301,-194.36507936507937,4.2063492063492065,-325.0,-141.34920634920636,-134.04761904761904,0.7142857142857142,-0.7142857142857142,-321.8253968253968
-91.98412698412697,-325.0,-325.0,130.55555555555554,-138.65079365079364,-118.49206349206348,-272.3015873015873,-325.0,172.46031746031744,-325.0,-211.5079365079365,133.73015873015873,-325.0,-76.74603174603175,-325.0,-221.5079365079365,-160.55555555555554,-325.0,-325.0,-117.22222222222221,-110.39682539682539,-0.873015873015873,-1.507936507936508,-321.8253968253968
-91.98412698412697,-325.0,-325.0,130.55555555555554,-138.65079365079364,-118.49206349206348,-272.3015873015873,-325.0,172.46031746031744,-325.0,-211.5079365079365,133.73015873015873,-325.0,-76.74603174603175,-325.0,-221.5079365079365,-160.55555555555554,-325.0,-325.0,-117.22222222222221,-110.39682539682539,-0.873015873015873,-1.507936507936508,-321.8253968253968
-196.74603174603175,-220.2380952380952,-217.06349206349205,63.57142857142857,-77.6984126984127,-68.01587301587301,-290.55555555555554,-174.68253968253967,223.88888888888889,-314.8412698412698,-55.79365079365079,131.34920634920636,-325.0,-75.31746031746032,-325.0,-227.85714285714283,4.841269841269841,-314.8412698412698,-314.8412698412698,-104.84126984126983,-108.49206349206348,-10.873015873015872,-11.507936507936508,-321.8253968253968
-196.74603174603175,-220.2380952380952,-217.06349206349205,63.57142857142857,-77.6984126984127,-68.01587301587301,-290.55555555555554,-174.68253968253967,223.88888888888889,-314.8412698412698,-55.79365079365079,131.34920634920636,-325.0,-75.31746031746032,-325.0,-227.85714285714283,4.841269841269841,-314.8412698412698,-314.8412698412698,-104.84126984126983,-108.49206349206348,-10.873015873015872,-11.507936507936508,-321.8253968253968
-87.38095238095238,-325.0,-325.0,124.36507936507935,-132.14285714285714,-112.93650793650794,-259.9206349206349,-325.0,317.38095238095235,-325.0,-201.98412698412696,127.53968253968253,-325.0,-72.93650793650794,-325.0,-211.66666666666666,-152.77777777777777,-325.0,-325.0,-111.5079365079365,-105.15873015873015,-0.23809523809523808,-0.07936507936507936,-166.26984126984127
-87.38095238095238,-325.0,-325.0,124.36507936507935,-132.14285714285714,-112.93650793650794,-259.9206349206349,-325.0,317.38095238095235,-325.0,-201.98412698412696,127.53968253968253,-325.0,-72.93650793650794,-325.0,-211.66666666666666,-152.77777777777777,-325.0,-325.0,-111.5079365079365,-105.15873015873015,-0.23809523809523808,-0.07936507936507936,-166.26984126984127
-85.47619047619047,-325.0,-325.0,121.82539682539682,-129.44444444444443,-110.71428571428571,-254.52380952380952,-325.0,325.0,-325.0,-197.85714285714283,124.52380952380952,-325.0,-71.5079365079365,-325.0,-207.06349206349205,-149.6031746031746,-325.0,-325.0,-109.28571428571428,-102.77777777777777,-1.349206349206349,-0.3968253968253968,-166.26984126984127
-85.47619047619047,-325.0,-325.0,121.82539682539682,-129.44444444444443,-110.71428571428571,-254.52380952380952,-325.0,325.0,-325.0,-197.85714285714283,124.52380952380952,-325.0,-71.5079365079365,-325.0,-207.06349206349205,-149.6031746031746,-325.0,-325.0,-109.28571428571428,-102.77777777777777,-1.349206349206349,-0.3968253968253968,-166.26984126984127
-84.04761904761904,-325.0,-325.0,119.6031746031746,-127.22222222222221,-108.80952380952381,-250.3968253968254,-325.0,325.0,-325.0,-194.52380952380952,122.46031746031746,-325.0,-70.23809523809524,-325.0,-60.39682539682539,-146.9047619047619,-325.0,-325.0,-107.38095238095238,-100.87301587301587,-0.873015873015873,-0.873015873015873,-166.26984126984127
-84.04761904761904,-325.0,-325.0,119.6031746031746,-127.22222222222221,-108.80952380952381,-250.3968253968254,-325.0,325.0,-325.0,-194.52380952380952,122.46031746031746,-325.0,-70.23809523809524,-325.0,-60.39682539682539,-146.9047619047619,-325.0,-325.0,-107.38095238095238,-100.87301587301587,-0.873015873015873,-0.873015873015873,-166.26984126984127
-82.46031746031746,-325.0,-325.0,117.53968253968253,-125.31746031746032,-106.9047619047619,-246.26984126984127,-325.0,325.0,-325.0,-191.34920634920633,120.39682539682539,-325.0,-68.96825396825396,-325.0,325.0,-144.36507936507937,-325.0,-325.0,-105.63492063492063,-99.12698412698413,-0.23809523809523808,-0.7142857142857142,-166.26984126984127
-82.46031746031746,-325.0,-325.0,117.53968253968253,-125.31746031746032,-106.9047619047619,-246.26984126984127,-325.0,325.0,-325.0,-191.34920634920633,120.39682539682539,-325.0,-68.96825396825396,-325.0,325.0,-144.36507936507937,-325.0,-325.0,-105.63492063492063,-99.12698412698413,-0.23809523809523808,-0.7142857142857142,-166.26984126984127
-80.87301587301587,-325.0,-325.0,115.47619047619047,-123.09523809523809,-105.15873015873015,-242.14285714285714,-325.0,325.0,-325.0,-188.17460317460316,118.17460317460316,-325.0,-67.85714285714285,-325.0,325.0,-141.8253968253968,-325.0,-325.0,-103.73015873015872,-97.38095238095238,-0.873015873015873,-1.1904761904761905,-166.26984126984127
-80.87301587301587,-325.0,-325.0,115.47619047619047,-123.09523809523809,-105.15873015873015,-242.14285714285714,-325.0,325.0,-325.0,-188.17460317460316,118.17460317460316,-325.0,-67.85714285714285,-325.0,325.0,-141.8253968253968,-325.0,-325.0,-103.73015873015872,-97.38095238095238,-0.873015873015873,-1.1904761904761905,-166.26984126984127
-79.6031746031746,-325.0,-325.0,113.4126984126984,-121.19047619047619,-103.4126984126984,-238.015873015873,-325.0,325.0,-325.0,-185.0,115.0,-325.0,-66.42857142857143,-325.0,325.0,-139.28571428571428,-325.0,-325.0,-101.98412698412697,-95.63492063492063,-0.07936507936507936,-0.23809523809523808,-321.8253968253968
-79.6031746031746,-325.0,-325.0,113.4126984126984,-121.19047619047619,-103.4126984126984,-238.015873015873,-325.0,325.0,-325.0,-185.0,115.0,-325.0,-66.42857142857143,-325.0,325.0,-139.28571428571428,-325.0,-325.0,-101.98412698412697,-95.63492063492063,-0.07936507936507936,-0.23809523809523808,-321.8253968253968
-78.17460317460316,-325.0,-325.0,111.34920634920634,-118.96825396825396,-101.66666666666666,-234.04761904761904,-325.0,325.0,-325.0,-181.984126984127,11.666666666666666,-325.0,-65.31746031746032,-325.0,325.0,-136.9047619047619,-325.0,-325.0,-100.23809523809523,-93.88888888888889,0.3968253968253968,-0.5555555555555556,-321.8253968253968
-78.17460317460316,-325.0,-325.0,111.34920634920634,-118.96825396825396,-101.66666666666666,-234.04761904761904,-325.0,325.0,-325.0,-181.984126984127,11.666666666666666,-325.0,-65.31746031746032,-325.0,325.0,-136.9047619047619,-325.0,-325.0,-100.23809523809523,-93.88888888888889,0.3968253968253968,-0.5555555555555556,-321.8253968253968
-76.58730158730158,-325.0,-325.0,97.06349206349206,-117.06349206349206,-99.92063492063491,-230.2380952380952,-325.0,325.0,-325.0,-178.96825396825395,-199.12698412698413,-325.0,-64.2063492063492,-325.0,325.0,-134.52380952380952,-325.0,-325.0,-98.49206349206348,-92.30158730158729,-0.07936507936507936,-0.3968253968253968,-321.8253968253968
-76.58730158730158,-325.0,-325.0,97.06349206349206,-117.06349206349206,-99.92063492063491,-230.2380952380952,-325.0,325.0,-325.0,-178.96825396825395,-199.12698412698413,-325.0,-64.2063492063492,-325.0,325.0,-134.52380952380952,-325.0,-325.0,-98.49206349206348,-92.30158730158729,-0.07936507936507936,-0.3968253968253968,-321.8253968253968
-75.63492063492063,-325.0,-325.0,-0.23809523809523808,-115.63492063492063,-98.33333333333333,-227.2222222222222,-325.0,325.0,-325.0,-176.42857142857142,-325.0,-325.0,-63.41269841269841,-325.0,325.0,-132.93650793650792,-325.0,-325.0,-97.38095238095238,-90.71428571428571,0.23809523809523808,-1.0317460317460316,-321.8253968253968
-75.63492063492063,-325.0,-325.0,-0.23809523809523808,-115.63492063492063,-98.33333333333333,-227.2222222222222,-325.0,325.0,-325.0,-176.42857142857142,-325.0,-325.0,-63.41269841269841,-325.0,325.0,-132.93650793650792,-325.0,-325.0,-97.38095238095238,-90.71428571428571,0.23809523809523808,-1.0317460317460316,-321.8253968253968
-73.88888888888889,-325.0,-325.0,-251.34920634920633,-113.09523809523809,-96.1111111111111,-222.3015873015873,-325.0,325.0,-325.0,-172.77777777777777,-325.0,-325.0,-61.82539682539682,-325.0,325.0,-129.76190476190476,-325.0,-325.0,-95.0,-88.80952380952381,0.3968253968253968,-0.3968253968253968,-321.8253968253968
-73.88888888888889,-325.0,-325.0,-251.34920634920633,-113.09523809523809,-96.1111111111111,-222.3015873015873,-325.0,325.0,-325.0,-172.77777777777777,-325.0,-325.0,-61.82539682539682,-325.0,325.0,-129.76190476190476,-325.0,-325.0,-95.0,-88.80952380952381,0.3968253968253968,-0.3968253968253968,-321.8253968253968
-72.46031746031746,-325.0,-325.0,-325.0,-111.03174603174602,-94.68253968253968,-218.65079365079364,-325.0,325.0,-325.0,-169.9206349206349,-325.0,-325.0,-60.71428571428571,-325.0,325.0,-127.38095238095238,-325.0,-325.0,-93.4126984126984,-87.22222222222221,-0.3968253968253968,-0.5555555555555556,-166.26984126984127
-72.46031746031746,-325.0,-325.0,-325.0,-111.03174603174602,-94.68253968253968,-218.65079365079364,-325.0,325.0,-325.0,-169.9206349206349,-325.0,-325.0,-60.71428571428571,-325.0,325.0,-127.38095238095238,-325.0,-325.0,-93.4126984126984,-87.22222222222221,-0.3968253968253968,-0.5555555555555556,-166.26984126984127
-71.19047619047619,-325.0,-325.0,-325.0,-109.28571428571428,-92.93650793650794,-215.0,-325.0,325.0,-325.0,-166.9047619047619,-325.0,-325.0,-59.6031746031746,-325.0,325.0,-125.15873015873015,-325.0,-325.0,-91.82539682539682,-85.47619047619047,-0.7142857142857142,-0.5555555555555556,-166.26984126984127
-71.19047619047619,-325.0,-325.0,-325.0,-109.28571428571428,-92.93650793650794,-215.0,-325.0,325.0,-325.0,-166.9047619047619,-325.0,-325.0,-59.6031746031746,-325.0,325.0,-125.15873015873015,-325.0,-325.0,-91.82539682539682,-85.47619047619047,-0.7142857142857142,-0.5555555555555556,-166.26984126984127
-69.92063492063491,-325.0,-325.0,-325.0,-107.53968253968253,-91.34920634920634,-211.19047619047618,-325.0,325.0,-325.0,-164.2063492063492,-325.0,-325.0,-58.650793650793645,-325.0,325.0,-122.93650793650794,-325.0,-325.0,-90.39682539682539,-84.04761904761904,-0.23809523809523808,0.07936507936507936,-166.26984126984127
-69.92063492063491,-325.0,-325.0,-325.0,-107.53968253968253,-91.34920634920634,-211.19047619047618,-325.0,325.0,-325.0,-164.2063492063492,-325.0,-325.0,-58.650793650793645,-325.0,325.0,-122.93650793650794,-325.0,-325.0,-90.39682539682539,-84.04761904761904,-0.23809523809523808,0.07936507936507936,-166.26984126984127
-68.65079365079364,-325.0,-325.0,-325.0,-105.63492063492063,-89.76190476190476,-207.69841269841268,-325.0,325.0,-325.0,-161.34920634920633,-325.0,-325.0,-57.53968253968254,-325.0,325.0,-120.71428571428571,-325.0,-325.0,-88.96825396825396,-82.46031746031746,0.3968253968253968,-0.7142857142857142,-166.26984126984127
-68.65079365079364,-325.0,-325.0,-325.0,-105.63492063492063,-89.76190476190476,-207.69841269841268,-325.0,325.0,-325.0,-161.34920634920633,-325.0,-325.0,-57.53968253968254,-325.0,325.0,-120.71428571428571,-325.0,-325.0,-88.96825396825396,-82.46031746031746,0.3968253968253968,-0.7142857142857142,-166.26984126984127
-66.58730158730158,-325.0,-325.0,-325.0,-103.09523809523809,-87.53968253968253,-202.61904761904762,-325.0,325.0,-325.0,-157.2222222222222,-325.0,-325.0,-55.95238095238095,-325.0,325.0,-117.6984126984127,-325.0,-325.0,-86.42857142857143,-80.39682539682539,-0.23809523809523808,-1.1904761904761905,-166.26984126984127
-66.58730158730158,-325.0,-325.0,-325.0,-103.09523809523809,-87.53968253968253,-202.61904761904762,-325.0,325.0,-325.0,-157.2222222222222,-325.0,-325.0,-55.95238095238095,-325.0,325.0,-117.6984126984127,-325.0,-325.0,-86.42857142857143,-80.39682539682539,-0.23809523809523808,-1.1904761904761905,-166.26984126984127
-65.47619047619047,-325.0,-325.0,-325.0,-101.34920634920634,-86.1111111111111,-199.28571428571428,-325.0,325.0,-325.0,-154.84126984126982,-325.0,-325.0,-55.15873015873016,-325.0,325.0,-115.63492063492063,-325.0,-325.0,-84.84126984126983,-78.96825396825396,-0.7142857142857142,-0.07936507936507936,-321.8253968253968
-65.47619047619047,-325.0,-325.0,-325.0,-101.34920634920634,-86.1111111111111,-199.28571428571428,-325.0,325.0,-325.0,-154.84126984126982,-325.0,-325.0,-55.15873015873016,-325.0,325.0,-115.63492063492063,-325.0,-325.0,-84.84126984126983,-78.96825396825396,-0.7142857142857142,-0.07936507936507936,-321.8253968253968
-64.52380952380952,-325.0,-325.0,-325.0,-99.76190476190476,-84.52380952380952,-195.95238095238093,-325.0,325.0,-324.5238095238095,-152.14285714285714,-325.0,-325.0,-54.2063492063492,-325.0,325.0,-113.57142857142857,-325.0,-325.0,-83.25396825396825,-77.53968253968253,-0.7142857142857142,-0.5555555555555556,-321.8253968253968
-64.52380952380952,-325.0,-325.0,-325.0,-99.76190476190476,-84.52380952380952,-195.95238095238093,-325.0,325.0,-324.5238095238095,-152.14285714285714,-325.0,-325.0,-54.2063492063492,-325.0,325.0,-113.57142857142857,-325.0,-325.0,-83.25396825396825,-77.53968253968253,-0.7142857142857142,-0.5555555555555556,-321.8253968253968
-63.25396825396825,-325.0,-325.0,-325.0,-98.17460317460316,-83.25396825396825,-192.61904761904762,-325.0,325.0,-319.76190476190476,-149.6031746031746,-325.0,-324.36507936507934,-53.25396825396825,-324.04761904761904,325.0,-111.5079365079365,-325.0,-325.0,-81.82539682539682,-76.1111111111111,-0.07936507936507936,0.5555555555555556,-321.8253968253968
-63.25396825396825,-325.0,-325.0,-325.0,-98.17460317460316,-83.25396825396825,-192.61904761904762,-325.0,325.0,-319.76190476190476,-149.6031746031746,-325.0,-324.36507936507934,-53.25396825396825,-324.04761904761904,325.0,-111.5079365079365,-325.0,-325.0,-81.82539682539682,-76.1111111111111,-0.07936507936507936,0.5555555555555556,-321.8253968253968
-62.460317460317455,-325.0,-325.0,-325.0,-96.58730158730158,-82.14285714285714,-190.23809523809524,-325.0,325.0,-315.6349206349206,-147.69841269841268,-325.0,-320.87301587301585,-52.77777777777777,-320.55555555555554,325.0,-109.92063492063491,-325.0,-325.0,-80.55555555555556,-75.15873015873015,-0.7142857142857142,0.5555555555555556,-321.8253968253968
-62.460317460317455,-325.0,-325.0,-325.0,-96.58730158730158,-82.14285714285714,-190.23809523809524,-325.0,325.0,-315.6349206349206,-147.69841269841268,-325.0,-320.87301587301585,-52.77777777777777,-320.55555555555554,325.0,-109.92063492063491,-325.0,-325.0,-80.55555555555556,-75.15873015873015,-0.7142857142857142,0.5555555555555556,-321.8253968253968
-61.19047619047619,-325.0,-325.0,-325.0,-95.0,-80.39682539682539,-186.26984126984127,-325.0,325.0,-309.1269841269841,-144.68253968253967,-325.0,-314.36507936507934,-51.507936507936506,-314.04761904761904,325.0,-107.6984126984127,-325.0,-325.0,-79.12698412698413,-73.4126984126984,-0.23809523809523808,-0.5555555555555556,-321.8253968253968
-61.19047619047619,-325.0,-325.0,-325.0,-95.0,-80.39682539682539,-186.26984126984127,-325.0,325.0,-309.1269841269841,-144.68253968253967,-325.0,-314.36507936507934,-51.507936507936506,-314.04761904761904,325.0,-107.6984126984127,-325.0,-325.0,-79.12698412698413,-73.4126984126984,-0.23809523809523808,-0.5555555555555556,-321.8253968253968
-60.079365079365076,-325.0,-325.0,-325.0,-93.4126984126984,-78.96825396825396,-183.25396825396825,-325.0,325.0,-303.57142857142856,-142.3015873015873,-325.0,-308.968253968254,-50.39682539682539,-309.1269841269841,325.0,-105.79365079365078,-325.0,-322.46031746031747,-77.85714285714285,-72.14285714285714,-0.3968253968253968,-0.7142857142857142,-166.26984126984127
-60.079365079365076,-325.0,-325.0,-325.0,-93.4126984126984,-78.96825396825396,-183.25396825396825,-325.0,325.0,-303.57142857142856,-142.3015873015873,-325.0,-308.968253968254,-50.39682539682539,-309.1269841269841,325.0,-105.79365079365078,-325.0,-322.46031746031747,-77.85714285714285,-72.14285714285714,-0.3968253968253968,-0.7142857142857142,-166.26984126984127
-59.12698412698413,-325.0,-324.8412698412698,-325.0,-91.66666666666666,-77.6984126984127,-180.23809523809524,-325.0,325.0,-298.6507936507936,-139.9206349206349,-325.0,-303.88888888888886,-49.6031746031746,-304.04761904761904,325.0,-104.04761904761904,-325.0,-317.06349206349205,-76.26984126984127,-70.87301587301587,-0.7142857142857142,-0.3968253968253968,-166.26984126984127
-59.12698412698413,-325.0,-324.8412698412698,-325.0,-91.66666666666666,-77.6984126984127,-180.23809523809524,-325.0,325.0,-298.6507936507936,-139.9206349206349,-325.0,-303.88888888888886,-49.6031746031746,-304.04761904761904,325.0,-104.04761904761904,-325.0,-317.06349206349205,-76.26984126984127,-70.87301587301587,-0.7142857142857142,-0.3968253968253968,-166.26984126984127
-57.38095238095238,-325.0,-312.6190476190476,-325.0,-89.6031746031746,-75.47619047619047,-175.63492063492063,-325.0,325.0,-291.031746031746,-136.26984126984127,-325.0,-296.26984126984127,-48.33333333333333,-296.58730158730157,325.0,-101.34920634920634,-325.0,-309.2857142857143,-74.52380952380952,-68.80952380952381,0.23809523809523808,-0.5555555555555556,-166.26984126984127
-57.38095238095238,-325.0,-312.6190476190476,-325.0,-89.6031746031746,-75.47619047619047,-175.63492063492063,-325.0,325.0,-291.031746031746,-136.26984126984127,-325.0,-296.26984126984127,-48.33333333333333,-296.58730158730157,325.0,-101.34920634920634,-325.0,-309.2857142857143,-74.52380952380952,-68.80952380952381,0.23809523809523808,-0.5555555555555556,-166.26984126984127
-56.42857142857142,-325.0,-297.38095238095235,-325.0,-88.01587301587301,-74.52380952380952,-172.77777777777777,-325.0,325.0,-286.1111111111111,-134.04761904761904,-325.0,-291.3492063492063,-47.53968253968254,-291.8253968253968,325.0,-99.6031746031746,-325.0,-304.2063492063492,-73.4126984126984,-67.6984126984127,-0.3968253968253968,-0.23809523809523808,-166.26984126984127
-56.42857142857142,-325.0,-297.38095238095235,-325.0,-88.01587301587301,-74.52380952380952,-172.77777777777777,-325.0,325.0,-286.1111111111111,-134.04761904761904,-325.0,-291.3492063492063,-47.53968253968254,-291.8253968253968,325.0,-99.6031746031746,-325.0,-304.2063492063492,-73.4126984126984,-67.6984126984127,-0.3968253968253968,-0.23809523809523808,-166.26984126984127
-55.317460317460316,-325.0,-286.26984126984127,-325.0,-86.26984126984127,-72.93650793650794,-169.12698412698413,-325.0,325.0,-279.9206349206349,-131.19047619047618,-325.0,-285.0,-46.42857142857142,-285.95238095238096,325.0,-97.38095238095238,-325.0,-297.6984126984127,-71.5079365079365,-66.26984126984127,0.3968253968253968,-1.1904761904761905,-166.26984126984127
-55.317460317460316,-325.0,-286.26984126984127,-325.0,-86.26984126984127,-72.93650793650794,-169.12698412698413,-325.0,325.0,-279.9206349206349,-131.19047619047618,-325.0,-285.0,-46.42857142857142,-285.95238095238096,325.0,-97.38095238095238,-325.0,-297.6984126984127,-71.5079365079365,-66.26984126984127,0.3968253968253968,-1.1904761904761905,-166.26984126984127
-53.57142857142857,-325.0,-275.1587301587301,-325.0,-82.93650793650794,-70.55555555555556,-163.57142857142856,-325.0,325.0,-270.39682539682536,-127.06349206349206,-325.0,-275.6349206349206,34.2063492063492,-276.74603174603175,325.0,-93.88888888888889,-325.0,-288.015873015873,-68.96825396825396,-63.888888888888886,-0.7142857142857142,-0.3968253968253968,-321.8253968253968
-53.57142857142857,-325.0,-275.1587301587301,-325.0,-82.93650793650794,-70.55555555555556,-163.57142857142856,-325.0,325.0,-270.39682539682536,-127.06349206349206,-325.0,-275.6349206349206,34.2063492063492,-276.74603174603175,325.0,-93.88888888888889,-325.0,-288.015873015873,-68.96825396825396,-63.888888888888886,-0.7142857142857142,-0.3968253968253968,-321.8253968253968
-51.98412698412698,-325.0,-259.44444444444446,-325.0,-81.03174603174602,-68.4920634920635,-159.6031746031746,-325.0,325.0,-263.73015873015873,-123.73015873015872,-325.0,-268.6507936507936,211.5079365079365,-270.23809523809524,325.0,-91.66666666666666,-325.0,-281.031746031746,-67.53968253968253,-61.98412698412698,-0.3968253968253968,-1.0317460317460316,-321.8253968253968
-51.98412698412698,-325.0,-259.44444444444446,-325.0,-81.03174603174602,-68.4920634920635,-159.6031746031746,-325.0,325.0,-263.73015873015873,-123.73015873015872,-325.0,-268.6507936507936,211.5079365079365,-270.23809523809524,325.0,-91.66666666666666,-325.0,-281.031746031746,-67.53968253968253,-61.98412698412698,-0.3968253968253968,-1.0317460317460316,-321.8253968253968
-50.87301587301587,-325.0,-254.84126984126982,-325.0,-79.44444444444444,-67.22222222222221,-156.26984126984127,-325.0,325.0,-258.17460317460313,-121.19047619047619,-325.0,-263.0952380952381,325.0,-264.68253968253964,325.0,-89.44444444444444,-321.984126984127,-275.1587301587301,-65.95238095238095,-60.873015873015866,-0.3968253968253968,-1.1904761904761905,-321.8253968253968
-50.87301587301587,-325.0,-254.84126984126982,-325.0,-79.44444444444444,-67.22222222222221,-156.26984126984127,-325.0,325.0,-258.17460317460313,-121.19047619047619,-325.0,-263.0952380952381,325.0,-264.68253968253964,325.0,-89.44444444444444,-321.984126984127,-275.1587301587301,-65.95238095238095,-60.873015873015866,-0.3968253968253968,-1.1904761904761905,-321.8253968253968
-49.6031746031746,-325.0,-233.4126984126984,-325.0,-77.53968253968253,-65.47619047619047,-152.3015873015873,-325.0,325.0,-251.66666666666666,-118.17460317460316,-325.0,-256.26984126984127,325.0,-258.17460317460313,325.0,-87.22222222222221,-314.04761904761904,-268.3333333333333,-64.36507936507937,-59.285714285714285,-0.7142857142857142,-0.23809523809523808,-321.8253968253968
-49.6031746031746,-325.0,-233.4126984126984,-325.0,-77.53968253968253,-65.47619047619047,-152.3015873015873,-325.0,325.0,-251.66666666666666,-118.17460317460316,-325.0,-256.26984126984127,325.0,-258.17460317460313,325.0,-87.22222222222221,-314.04761904761904,-268.3333333333333,-64.36507936507937,-59.285714285714285,-0.7142857142857142,-0.23809523809523808,-321.8253968253968
-49.44444444444444,-325.0,-236.1111111111111,-325.0,-77.06349206349206,-65.15873015873015,-151.66666666666666,-325.0,325.0,-250.7142857142857,-117.6984126984127,-325.0,-255.15873015873015,325.0,-257.22222222222223,325.0,-86.74603174603175,-312.77777777777777,-267.22222222222223,-63.888888888888886,-58.96825396825397,-0.3968253968253968,0.07936507936507936,-321.8253968253968
-49.44444444444444,-325.0,-236.1111111111111,-325.0,-77.06349206349206,-65.15873015873015,-151.66666666666666,-325.0,325.0,-250.7142857142857,-117.6984126984127,-325.0,-255.15873015873015,325.0,-257.22222222222223,325.0,-86.74603174603175,-312.77777777777777,-267.22222222222223,-63.888888888888886,-58.96825396825397,-0.3968253968253968,0.07936507936507936,-321.8253968253968
-47.22222222222222,-325.0,-207.85714285714283,-325.0,-73.57142857142857,-62.14285714285714,-144.84126984126982,-325.0,325.0,-238.96825396825395,-112.46031746031746,-325.0,-243.7301587301587,325.0,-245.95238095238093,216.26984126984127,-82.77777777777777,-298.968253968254,-255.15873015873015,-61.03174603174603,-56.11111111111111,-0.3968253968253968,-0.873015873015873,-166.26984126984127
-47.22222222222222,-325.0,-207.85714285714283,-325.0,-73.57142857142857,-62.14285714285714,-144.84126984126982,-325.0,325.0,-238.96825396825395,-112.46031746031746,-325.0,-243.7301587301587,325.0,-245.95238095238093,216.26984126984127,-82.77777777777777,-298.968253968254,-255.15873015873015,-61.03174603174603,-56.11111111111111,-0.3968253968253968,-0.873015873015873,-166.26984126984127
-45.476190476190474,-325.0,-204.52380952380952,-325.0,-71.19047619047619,-60.238095238095234,-139.9206349206349,-325.0,325.0,-230.87301587301587,-108.65079365079364,-325.0,-235.47619047619045,325.0,-237.85714285714283,314.36507936507934,-79.76190476190476,-289.1269841269841,-246.74603174603172,-58.96825396825397,-54.2063492063492,-0.07936507936507936,-1.349206349206349,-166.26984126984127
-45.476190476190474,-325.0,-204.52380952380952,-325.0,-71.19047619047619,-60.238095238095234,-139.9206349206349,-325.0,325.0,-230.87301587301587,-108.65079365079364,-325.0,-235.47619047619045,325.0,-237.85714285714283,314.36507936507934,-79.76190476190476,-289.1269841269841,-246.74603174603172,-58.96825396825397,-54.2063492063492,-0.07936507936507936,-1.349206349206349,-166.26984126984127
-44.68253968253968,-325.0,-213.7301587301587,-325.0,-70.07936507936508,-59.12698412698413,-137.53968253968253,-325.0,325.0,-227.06349206349205,-106.9047619047619,-325.0,-231.66666666666666,325.0,-234.04761904761904,325.0,-78.4920634920635,-284.5238095238095,-242.77777777777777,-58.01587301587301,-53.25396825396825,0.23809523809523808,-0.23809523809523808,-166.26984126984127
-44.68253968253968,-325.0,-213.7301587301587,-325.0,-70.07936507936508,-59.12698412698413,-137.53968253968253,-325.0,325.0,-227.06349206349205,-106.9047619047619,-325.0,-231.66666666666666,325.0,-234.04761904761904,325.0,-78.4920634920635,-284.5238095238095,-242.77777777777777,-58.01587301587301,-53.25396825396825,0.23809523809523808,-0.23809523809523808,-166.26984126984127
-55.95238095238095,-201.66666666666666,-174.52380952380952,-325.0,128.8095238095238,-149.76190476190476,54.2063492063492,-325.0,49.12698412698413,43.095238095238095,-166.11111111111111,-10.238095238095237,-149.76190476190476,23.253968253968253,-231.66666666666666,134.04761904761904,-63.73015873015873,-147.53968253968253,35.15873015873016,-27.22222222222222,-12.777777777777777,-13.888888888888888,-162.46031746031744,-166.26984126984127
-55.95238095238095,-201.66666666666666,-174.52380952380952,-325.0,128.8095238095238,-149.76190476190476,54.2063492063492,-325.0,49.12698412698413,43.095238095238095,-166.11111111111111,-10.238095238095237,-149.76190476190476,23.253968253968253,-231.66666666666666,134.04761904761904,-63.73015873015873,-147.53968253968253,35.15873015873016,-27.22222222222222,-12.777777777777777,-13.888888888888888,-162.46031746031744,-166.26984126984127
-42.61904761904761,-325.0,-179.44444444444443,-325.0,-66.58730158730158,-56.269841269841265,-130.87301587301587,-325.0,325.0,-215.79365079365078,-101.66666666666666,-325.0,-219.9206349206349,325.0,-222.93650793650792,325.0,-74.52380952380952,-270.55555555555554,-230.7142857142857,-55.0,-50.55555555555555,-0.07936507936507936,-0.3968253968253968,-166.26984126984127
-42.61904761904761,-325.0,-179.44444444444443,-325.0,-66.58730158730158,-56.269841269841265,-130.87301587301587,-325.0,325.0,-215.79365079365078,-101.66666666666666,-325.0,-219.9206349206349,325.0,-222.93650793650792,325.0,-74.52380952380952,-270.55555555555554,-230.7142857142857,-55.0,-50.55555555555555,-0.07936507936507936,-0.3968253968253968,-166.26984126984127
-41.98412698412698,-325.0,-185.15873015873015,-325.0,-65.63492063492063,-55.317460317460316,-128.65079365079364,-325.0,325.0,-211.98412698412696,-100.07936507936508,-325.0,-216.26984126984127,325.0,-219.28571428571428,325.0,-73.09523809523809,-266.1111111111111,-226.9047619047619,-54.2063492063492,-49.6031746031746,0.3968253968253968,-0.3968253968253968,-321.8253968253968
-41.98412698412698,-325.0,-185.15873015873015,-325.0,-65.63492063492063,-55.317460317460316,-128.65079365079364,-325.0,325.0,-211.98412698412696,-100.07936507936508,-325.0,-216.26984126984127,325.0,-219.28571428571428,325.0,-73.09523809523809,-266.1111111111111,-226.9047619047619,-54.2063492063492,-49.6031746031746,0.3968253968253968,-0.3968253968253968,-321.8253968253968
-41.03174603174603,-325.0,-181.19047619047618,-325.0,-64.36507936507937,-54.36507936507936,-126.58730158730158,-325.0,325.0,-208.4920634920635,-98.33333333333333,-325.0,-212.61904761904762,325.0,-215.79365079365078,325.0,-71.98412698412697,-261.8253968253968,-223.09523809523807,-53.25396825396825,-48.80952380952381,-0.3968253968253968,-0.873015873015873,-321.8253968253968
-41.03174603174603,-325.0,-181.19047619047618,-325.0,-64.36507936507937,-54.36507936507936,-126.58730158730158,-325.0,325.0,-208.4920634920635,-98.33333333333333,-325.0,-212.61904761904762,325.0,-215.79365079365078,325.0,-71.98412698412697,-261.8253968253968,-223.09523809523807,-53.25396825396825,-48.80952380952381,-0.3968253968253968,-0.873015873015873,-321.8253968253968
-40.39682539682539,-325.0,-170.87301587301587,-325.0,-63.25396825396825,-53.57142857142857,-124.36507936507935,-325.0,325.0,-204.84126984126982,-96.42857142857142,-325.0,-208.96825396825395,325.0,-212.14285714285714,325.0,-70.55555555555556,-257.53968253968253,-219.44444444444443,-52.3015873015873,-48.01587301587301,0.07936507936507936,-0.3968253968253968,-321.8253968253968
-40.39682539682539,-325.0,-170.87301587301587,-325.0,-63.25396825396825,-53.57142857142857,-124.36507936507935,-325.0,325.0,-204.84126984126982,-96.42857142857142,-325.0,-208.96825396825395,325.0,-212.14285714285714,325.0,-70.55555555555556,-257.53968253968253,-219.44444444444443,-52.3015873015873,-48.01587301587301,0.07936507936507936,-0.3968253968253968,-321.8253968253968
-39.76190476190476,-325.0,-157.85714285714286,-325.0,-62.460317460317455,-52.61904761904761,-122.14285714285714,-325.0,325.0,-201.34920634920633,-95.0,-325.0,-205.63492063492063,325.0,-208.8095238095238,325.0,-69.44444444444444,-253.25396825396825,-215.79365079365078,-51.34920634920635,-47.06349206349206,-0.5555555555555556,-0.7142857142857142,-321.8253968253968
-39.76190476190476,-325.0,-157.85714285714286,-325.0,-62.460317460317455,-52.61904761904761,-122.14285714285714,-325.0,325.0,-201.34920634920633,-95.0,-325.0,-205.63492063492063,325.0,-208.8095238095238,325.0,-69.44444444444444,-253.25396825396825,-215.79365079365078,-51.34920634920635,-47.06349206349206,-0.5555555555555556,-0.7142857142857142,-321.8253968253968
-38.96825396825397,-325.0,-138.8095238095238,-325.0,-61.03174603174603,-51.34920634920635,-118.8095238095238,-320.55555555555554,325.0,-197.06349206349205,-93.25396825396825,-325.0,-201.34920634920633,325.0,-204.52380952380952,325.0,-68.01587301587301,-248.015873015873,-211.34920634920633,-50.39682539682539,-45.95238095238095,-0.5555555555555556,-0.3968253968253968,-321.8253968253968
-38.96825396825397,-325.0,-138.8095238095238,-325.0,-61.03174603174603,-51.34920634920635,-118.8095238095238,-320.55555555555554,325.0,-197.06349206349205,-93.25396825396825,-325.0,-201.34920634920633,325.0,-204.52380952380952,325.0,-68.01587301587301,-248.015873015873,-211.34920634920633,-50.39682539682539,-45.95238095238095,-0.5555555555555556,-0.3968253968253968,-321.8253968253968
-38.01587301587301,-325.0,-138.17460317460316,-325.0,-59.92063492063492,-50.238095238095234,-114.68253968253967,-314.2063492063492,325.0,-192.93650793650792,-91.03174603174602,-325.0,-197.06349206349205,325.0,-200.3968253968254,325.0,-66.42857142857143,-242.93650793650792,-206.9047619047619,-49.285714285714285,-44.84126984126984,-0.3968253968253968,0.23809523809523808,-166.26984126984127
-38.01587301587301,-325.0,-138.17460317460316,-325.0,-59.92063492063492,-50.238095238095234,-114.68253968253967,-314.2063492063492,325.0,-192.93650793650792,-91.03174603174602,-325.0,-197.06349206349205,325.0,-200.3968253968254,325.0,-66.42857142857143,-242.93650793650792,-206.9047619047619,-49.285714285714285,-44.84126984126984,-0.3968253968253968,0.23809523809523808,-166.26984126984127
-37.53968253968254,-322.77777777777777,-121.66666666666666,-325.0,-58.96825396825397,-49.44444444444444,-96.58730158730158,-309.2857142857143,325.0,-189.60317460317458,-89.44444444444444,-325.0,-193.88888888888889,325.0,-197.2222222222222,325.0,-65.31746031746032,-238.96825396825395,-203.4126984126984,-48.49206349206349,-44.2063492063492,0.07936507936507936,-0.23809523809523808,-166.26984126984127
-37.53968253968254,-322.77777777777777,-121.66666666666666,-325.0,-58.96825396825397,-49.44444444444444,-96.58730158730158,-309.2857142857143,325.0,-189.60317460317458,-89.44444444444444,-325.0,-193.88888888888889,325.0,-197.2222222222222,325.0,-65.31746031746032,-238.96825396825395,-203.4126984126984,-48.49206349206349,-44.2063492063492,0.07936507936507936,-0.23809523809523808,-166.26984126984127
-36.904761904761905,-317.53968253968253,-122.93650793650794,-325.0,-58.01587301587301,-48.49206349206349,-77.38095238095238,-304.36507936507934,325.0,-186.42857142857142,-88.01587301587301,-325.0,-190.55555555555554,325.0,-193.88888888888889,325.0,-64.2063492063492,-235.15873015873015,-200.23809523809524,-47.698412698412696,-43.41269841269841,0.873015873015873,-0.23809523809523808,-166.26984126984127
-36.904761904761905,-317.53968253968253,-122.93650793650794,-325.0,-58.01587301587301,-48.49206349206349,-77.38095238095238,-304.36507936507934,325.0,-186.42857142857142,-88.01587301587301,-325.0,-190.55555555555554,325.0,-193.88888888888889,325.0,-64.2063492063492,-235.15873015873015,-200.23809523809524,-47.698412698412696,-43.41269841269841,0.873015873015873,-0.23809523809523808,-166.26984126984127
-36.11111111111111,-312.3015873015873,-137.06349206349205,-325.0,-56.74603174603174,-47.857142857142854,-69.44444444444444,-299.4444444444444,325.0,-183.4126984126984,-86.58730158730158,-325.0,-187.06349206349205,325.0,-190.87301587301587,325.0,-62.93650793650793,-231.19047619047618,-196.74603174603175,-46.904761904761905,-42.77777777777778,0.3968253968253968,-0.5555555555555556,-166.26984126984127
-36.11111111111111,-312.3015873015873,-137.06349206349205,-325.0,-56.74603174603174,-47.857142857142854,-69.44444444444444,-299.4444444444444,325.0,-183.4126984126984,-86.58730158730158,-325.0,-187.06349206349205,325.0,-190.87301587301587,325.0,-62.93650793650793,-231.19047619047618,-196.74603174603175,-46.904761904761905,-42.77777777777778,0.3968253968253968,-0.5555555555555556,-166.26984126984127
-35.476190476190474,-307.38095238095235,-117.22222222222221,-325.0,-55.95238095238095,-47.06349206349206,-60.079365079365076,-294.5238095238095,325.0,-180.07936507936506,-85.15873015873015,-325.0,-184.04761904761904,325.0,-187.69841269841268,325.0,-61.98412698412698,-227.38095238095238,-193.57142857142856,-46.11111111111111,-41.98412698412698,0.23809523809523808,-0.3968253968253968,-166.26984126984127
-35.476190476190474,-307.38095238095235,-117.22222222222221,-325.0,-55.95238095238095,-47.06349206349206,-60.079365079365076,-294.5238095238095,325.0,-180.07936507936506,-85.15873015873015,-325.0,-184.04761904761904,325.0,-187.69841269841268,325.0,-61.98412698412698,-227.38095238095238,-193.57142857142856,-46.11111111111111,-41.98412698412698,0.23809523809523808,-0.3968253968253968,-166.26984126984127
-33.57142857142857,-290.39682539682536,-89.92063492063491,-325.0,-52.93650793650794,-44.52380952380952,-15.95238095238095,-278.8095238095238,325.0,-169.9206349206349,-80.39682539682539,-325.0,-173.73015873015873,325.0,-177.38095238095238,325.0,-58.33333333333333,-214.84126984126982,-182.61904761904762,-43.57142857142857,-39.6031746031746,-0.5555555555555556,-0.07936507936507936,-321.8253968253968
-33.57142857142857,-290.39682539682536,-89.92063492063491,-325.0,-52.93650793650794,-44.52380952380952,-15.95238095238095,-278.8095238095238,325.0,-169.9206349206349,-80.39682539682539,-325.0,-173.73015873015873,325.0,-177.38095238095238,325.0,-58.33333333333333,-214.84126984126982,-182.61904761904762,-43.57142857142857,-39.6031746031746,-0.5555555555555556,-0.07936507936507936,-321.8253968253968
-31.98412698412698,-277.22222222222223,-72.61904761904762,-325.0,-50.55555555555555,-42.61904761904761,19.76190476190476,-266.4285714285714,325.0,-161.66666666666666,-76.74603174603175,-325.0,-165.47619047619045,325.0,-169.28571428571428,325.0,-55.476190476190474,-205.0,-174.2063492063492,-41.34920634920635,-37.698412698412696,-0.07936507936507936,-0.7142857142857142,-321.8253968253968
-31.98412698412698,-277.22222222222223,-72.61904761904762,-325.0,-50.55555555555555,-42.61904761904761,19.76190476190476,-266.4285714285714,325.0,-161.66666666666666,-76.74603174603175,-325.0,-165.47619047619045,325.0,-169.28571428571428,325.0,-55.476190476190474,-205.0,-174.2063492063492,-41.34920634920635,-37.698412698412696,-0.07936507936507936,-0.7142857142857142,-321.8253968253968
-30.396825396825395,-261.8253968253968,-47.698412698412696,-325.0,-47.698412698412696,-39.76190476190476,65.95238095238095,-251.5079365079365,325.0,-152.14285714285714,-72.3015873015873,-325.0,-155.79365079365078,325.0,-159.9206349206349,325.0,-52.3015873015873,-193.4126984126984,-164.52380952380952,-39.12698412698413,-35.15873015873016,-1.1904761904761905,-0.5555555555555556,-321.8253968253968
-30.396825396825395,-261.8253968253968,-47.698412698412696,-325.0,-47.698412698412696,-39.76190476190476,65.95238095238095,-251.5079365079365,325.0,-152.14285714285714,-72.3015873015873,-325.0,-155.79365079365078,325.0,-159.9206349206349,325.0,-52.3015873015873,-193.4126984126984,-164.52380952380952,-39.12698412698413,-35.15873015873016,-1.1904761904761905,-0.5555555555555556,-321.8253968253968
-22.46031746031746,-193.57142857142856,17.857142857142858,-257.06349206349205,-35.317460317460316,-29.285714285714285,158.4920634920635,-187.38095238095238,264.5238095238095,-111.03174603174602,-53.25396825396825,-250.55555555555554,-114.04761904761904,325.0,-118.65079365079364,-325.0,-38.17460317460317,-142.61904761904762,-120.87301587301586,-28.809523809523807,325.0,-0.07936507936507936,0.07936507936507936,-321.8253968253968
-22.46031746031746,-193.57142857142856,17.857142857142858,-257.06349206349205,-35.317460317460316,-29.285714285714285,158.4920634920635,-187.38095238095238,264.5238095238095,-111.03174603174602,-53.25396825396825,-250.55555555555554,-114.04761904761904,325.0,-118.65079365079364,-325.0,-38.17460317460317,-142.61904761904762,-120.87301587301586,-28.809523809523807,325.0,-0.07936507936507936,0.07936507936507936,-321.8253968253968
-22.142857142857142,-191.03174603174602,18.015873015873016,-253.7301587301587,-34.682539682539684,-29.285714285714285,165.15873015873015,-185.15873015873015,261.1904761904762,-109.6031746031746,-52.77777777777777,-247.2222222222222,-112.6190476190476,325.0,-116.74603174603173,-325.0,-37.698412698412696,-140.87301587301587,-119.28571428571428,-28.333333333333332,325.0,0.3968253968253968,-0.873015873015873,-321.8253968253968
-22.142857142857142,-191.03174603174602,18.015873015873016,-253.7301587301587,-34.682539682539684,-29.285714285714285,165.15873015873015,-185.15873015873015,261.1904761904762,-109.6031746031746,-52.77777777777777,-247.2222222222222,-112.6190476190476,325.0,-116.74603174603173,-325.0,-37.698412698412696,-140.87301587301587,-119.28571428571428,-28.333333333333332,325.0,0.3968253968253968,-0.873015873015873,-321.8253968253968
-20.555555555555554,-175.95238095238093,78.01587301587301,-233.09523809523807,-32.14285714285714,-26.9047619047619,197.85714285714283,-170.7142857142857,240.07936507936506,-100.55555555555554,-48.49206349206349,-227.2222222222222,-90.55555555555556,324.5238095238095,-107.6984126984127,-0.07936507936507936,-34.682539682539684,-129.76190476190476,-109.76190476190476,-17.698412698412696,325.0,-0.07936507936507936,-0.5555555555555556,-166.26984126984127
-20.555555555555554,-175.95238095238093,78.01587301587301,-233.09523809523807,-32.14285714285714,-26.9047619047619,197.85714285714283,-170.7142857142857,240.07936507936506,-100.55555555555554,-48.49206349206349,-227.2222222222222,-90.55555555555556,324.5238095238095,-107.6984126984127,-0.07936507936507936,-34.682539682539684,-129.76190476190476,-109.76190476190476,-17.698412698412696,325.0,-0.07936507936507936,-0.5555555555555556,-166.26984126984127
-18.49206349206349,-158.65079365079364,129.44444444444443,-209.44444444444443,-29.285714285714285,-24.365079365079364,225.15873015873015,-154.52380952380952,216.26984126984127,-90.39682539682539,-43.73015873015873,-204.68253968253967,-83.09523809523809,319.76190476190476,-97.38095238095238,325.0,-31.03174603174603,-116.9047619047619,-98.80952380952381,155.95238095238093,325.0,-1.0317460317460316,0.3968253968253968,-166.26984126984127
-18.49206349206349,-158.65079365079364,129.44444444444443,-209.44444444444443,-29.285714285714285,-24.365079365079364,225.15873015873015,-154.52380952380952,216.26984126984127,-90.39682539682539,-43.73015873015873,-204.68253968253967,-83.09523809523809,319.76190476190476,-97.38095238095238,325.0,-31.03174603174603,-116.9047619047619,-98.80952380952381,155.95238095238093,325.0,-1.0317460317460316,0.3968253968253968,-166.26984126984127
-18.333333333333332,-156.11111111111111,111.34920634920634,-205.95238095238093,-28.96825396825397,-23.88888888888889,232.6190476190476,-151.984126984127,212.77777777777777,-88.96825396825396,-43.095238095238095,-201.34920634920633,-83.57142857142857,314.2063492063492,-95.95238095238095,325.0,-30.71428571428571,-114.84126984126983,-97.22222222222221,325.0,325.0,0.07936507936507936,-0.07936507936507936,-166.26984126984127
-18.333333333333332,-156.11111111111111,111.34920634920634,-205.95238095238093,-28.96825396825397,-23.88888888888889,232.6190476190476,-151.984126984127,212.77777777777777,-88.96825396825396,-43.095238095238095,-201.34920634920633,-83.57142857142857,314.2063492063492,-95.95238095238095,325.0,-30.71428571428571,-114.84126984126983,-97.22222222222221,325.0,325.0,0.07936507936507936,-0.07936507936507936,-166.26984126984127
-18.015873015873016,-154.04761904761904,109.92063492063491,-203.57142857142856,-28.49206349206349,-23.57142857142857,235.47619047619045,-149.9206349206349,209.76190476190476,-87.53968253968253,-42.61904761904761,-198.96825396825395,-79.6031746031746,310.23809523809524,-94.68253968253968,325.0,-30.238095238095237,-113.25396825396825,-96.1111111111111,325.0,325.0,0.7142857142857142,0.07936507936507936,-166.26984126984127
-18.015873015873016,-154.04761904761904,109.92063492063491,-203.57142857142856,-28.49206349206349,-23.57142857142857,235.47619047619045,-149.9206349206349,209.76190476190476,-87.53968253968253,-42.61904761904761,-198.96825396825395,-79.6031746031746,310.23809523809524,-94.68253968253968,325.0,-30.238095238095237,-113.25396825396825,-96.1111111111111,325.0,325.0,0.7142857142857142,0.07936507936507936,-166.26984126984127
-17.698412698412696,-150.87301587301587,99.92063492063491,-199.28571428571428,-27.857142857142854,-23.095238095238095,227.06349206349205,-146.74603174603175,205.79365079365078,-85.95238095238095,-41.666666666666664,-194.52380952380952,-72.77777777777777,303.57142857142856,-92.77777777777777,325.0,-29.76190476190476,-111.03174603174602,-93.88888888888889,325.0,325.0,-0.3968253968253968,0.23809523809523808,-166.26984126984127
-17.698412698412696,-150.87301587301587,99.92063492063491,-199.28571428571428,-27.857142857142854,-23.095238095238095,227.06349206349205,-146.74603174603175,205.79365079365078,-85.95238095238095,-41.666666666666664,-194.52380952380952,-72.77777777777777,303.57142857142856,-92.77777777777777,325.0,-29.76190476190476,-111.03174603174602,-93.88888888888889,325.0,325.0,-0.3968253968253968,0.23809523809523808,-166.26984126984127
-17.38095238095238,-148.33333333333331,92.30158730158729,-195.79365079365078,-27.38095238095238,-22.777777777777775,229.60317460317458,-144.52380952380952,202.14285714285714,-84.36507936507937,-40.87301587301587,-191.5079365079365,-49.285714285714285,298.17460317460313,-91.34920634920634,325.0,-28.96825396825397,-109.12698412698413,-92.46031746031746,325.0,325.0,-0.873015873015873,-0.7142857142857142,-321.8253968253968
-17.38095238095238,-148.33333333333331,92.30158730158729,-195.79365079365078,-27.38095238095238,-22.777777777777775,229.60317460317458,-144.52380952380952,202.14285714285714,-84.36507936507937,-40.87301587301587,-191.5079365079365,-49.285714285714285,298.17460317460313,-91.34920634920634,325.0,-28.96825396825397,-109.12698412698413,-92.46031746031746,325.0,325.0,-0.873015873015873,-0.7142857142857142,-321.8253968253968
-17.22222222222222,-145.95238095238093,76.74603174603175,-192.46031746031744,-27.063492063492063,-22.3015873015873,227.38095238095238,-142.3015873015873,198.8095238095238,-82.93650793650794,-40.238095238095234,-188.17460317460316,-53.57142857142857,293.25396825396825,-89.76190476190476,114.52380952380952,-28.65079365079365,-107.38095238095238,-90.87301587301587,325.0,325.0,0.07936507936507936,-0.07936507936507936,-321.8253968253968
-17.22222222222222,-145.95238095238093,76.74603174603175,-192.46031746031744,-27.063492063492063,-22.3015873015873,227.38095238095238,-142.3015873015873,198.8095238095238,-82.93650793650794,-40.238095238095234,-188.17460317460316,-53.57142857142857,293.25396825396825,-89.76190476190476,114.52380952380952,-28.65079365079365,-107.38095238095238,-90.87301587301587,325.0,325.0,0.07936507936507936,-0.07936507936507936,-321.8253968253968
-17.063492063492063,-143.4126984126984,72.93650793650794,-189.28571428571428,-26.587301587301585,-21.984126984126984,224.04761904761904,-139.9206349206349,195.47619047619045,-81.34920634920634,-39.6031746031746,-185.0,-44.68253968253968,288.015873015873,-88.33333333333333,48.49206349206349,-28.174603174603174,-105.63492063492063,-89.28571428571428,325.0,325.0,-0.5555555555555556,-0.23809523809523808,-321.8253968253968
-17.063492063492063,-143.4126984126984,72.93650793650794,-189.28571428571428,-26.587301587301585,-21.984126984126984,224.04761904761904,-139.9206349206349,195.47619047619045,-81.34920634920634,-39.6031746031746,-185.0,-44.68253968253968,288.015873015873,-88.33333333333333,48.49206349206349,-28.174603174603174,-105.63492063492063,-89.28571428571428,325.0,325.0,-0.5555555555555556,-0.23809523809523808,-321.8253968253968
-16.428571428571427,-139.9206349206349,55.0,-184.52380952380952,-25.952380952380953,-21.349206349206348,219.9206349206349,-136.58730158730157,190.55555555555554,-79.28571428571428,-38.65079365079365,-180.23809523809524,-58.96825396825397,280.7142857142857,-86.1111111111111,-199.12698412698413,-27.22222222222222,-102.93650793650794,-87.06349206349206,325.0,325.0,0.07936507936507936,-0.07936507936507936,-321.8253968253968
-16.428571428571427,-139.9206349206349,55.0,-184.52380952380952,-25.952380952380953,-21.349206349206348,219.9206349206349,-136.58730158730157,190.55555555555554,-79.28571428571428,-38.65079365079365,-180.23809523809524,-58.96825396825397,280.7142857142857,-86.1111111111111,-199.12698412698413,-27.22222222222222,-102.93650793650794,-87.06349206349206,325.0,325.0,0.07936507936507936,-0.07936507936507936,-321.8253968253968
-16.11111111111111,-138.015873015873,63.888888888888886,-181.984126984127,-25.317460317460316,-21.03174603174603,222.46031746031744,-134.68253968253967,188.17460317460316,-78.01587301587301,-37.857142857142854,-178.17460317460316,-25.952380952380953,277.06349206349205,-85.15873015873015,-325.0,-26.9047619047619,-101.5079365079365,-85.79365079365078,325.0,325.0,0.07936507936507936,0.5555555555555556,-321.8253968253968
-16.11111111111111,-138.015873015873,63.888888888888886,-181.984126984127,-25.317460317460316,-21.03174603174603,222.46031746031744,-134.68253968253967,188.17460317460316,-78.01587301587301,-37.857142857142854,-178.17460317460316,-25.952380952380953,277.06349206349205,-85.15873015873015,-325.0,-26.9047619047619,-101.5079365079365,-85.79365079365078,325.0,325.0,0.07936507936507936,0.5555555555555556,-321.8253968253968
-16.11111111111111,-138.015873015873,63.888888888888886,-181.984126984127,-25.317460317460316,-21.03174603174603,222.46031746031744,-134.68253968253967,188.17460317460316,-78.01587301587301,-37.857142857142854,-178.17460317460316,-25.952380952380953,277.06349206349205,-85.15873015873015,-325.0,-26.9047619047619,-101.5079365079365,-85.79365079365078,325.0,325.0,0.07936507936507936,0.5555555555555556,-166.26984126984127
-16.11111111111111,-138.015873015873,63.888888888888886,-181.984126984127,-25.317460317460316,-21.03174603174603,222.46031746031744,-134.68253968253967,188.17460317460316,-78.01587301587301,-37.857142857142854,-178.17460317460316,-25.952380952380953,277.06349206349205,-85.15873015873015,-325.0,-26.9047619047619,-101.5079365079365,-85.79365079365078,325.0,325.0,0.07936507936507936,0.5555555555555556,-166.26984126984127
-15.793650793650793,-133.0952380952381,61.98412698412698,-175.3174603174603,-24.68253968253968,-18.65079365079365,219.12698412698413,-130.23809523809524,181.34920634920633,-75.31746031746032,-36.74603174603175,-171.34920634920633,-33.41269841269841,266.4285714285714,-81.98412698412697,-313.73015873015873,-26.11111111111111,-97.85714285714285,-82.61904761904762,325.0,325.0,0.7142857142857142,0.07936507936507936,-166.26984126984127
-15.793650793650793,-133.0952380952381,61.98412698412698,-175.3174603174603,-24.68253968253968,-18.65079365079365,219.12698412698413,-130.23809523809524,181.34920634920633,-75.31746031746032,-36.74603174603175,-171.34920634920633,-33.41269841269841,266.4285714285714,-81.98412698412697,-313.73015873015873,-26.11111111111111,-97.85714285714285,-82.61904761904762,325.0,325.0,0.7142857142857142,0.07936507936507936,-166.26984126984127
-13.888888888888888,-130.87301587301587,65.15873015873015,-172.14285714285714,-24.206349206349206,-8.492063492063492,214.2063492063492,-127.85714285714285,178.17460317460316,-74.04761904761904,-36.11111111111111,-168.4920634920635,-32.3015873015873,261.8253968253968,-80.55555555555556,-325.0,-25.634920634920633,-96.26984126984127,-81.34920634920634,325.0,325.0,-0.23809523809523808,-0.7142857142857142,-166.26984126984127
-13.888888888888888,-130.87301587301587,65.15873015873015,-172.14285714285714,-24.206349206349206,-8.492063492063492,214.2063492063492,-127.85714285714285,178.17460317460316,-74.04761904761904,-36.11111111111111,-168.4920634920635,-32.3015873015873,261.8253968253968,-80.55555555555556,-325.0,-25.634920634920633,-96.26984126984127,-81.34920634920634,325.0,325.0,-0.23809523809523808,-0.7142857142857142,-166.26984126984127
-5.952380952380952,-128.65079365079364,67.38095238095238,-169.28571428571428,-23.88888888888889,0.7142857142857142,224.52380952380952,-125.79365079365078,175.3174603174603,-72.77777777777777,-35.476190476190474,-165.63492063492063,-10.714285714285714,257.38095238095235,-79.28571428571428,-325.0,-25.158730158730158,-94.52380952380952,-79.92063492063491,325.0,325.0,-0.3968253968253968,-0.3968253968253968,-166.26984126984127
-5.952380952380952,-128.65079365079364,67.38095238095238,-169.28571428571428,-23.88888888888889,0.7142857142857142,224.52380952380952,-125.79365079365078,175.3174603174603,-72.77777777777777,-35.476190476190474,-165.63492063492063,-10.714285714285714,257.38095238095235,-79.28571428571428,-325.0,-25.158730158730158,-94.52380952380952,-79.92063492063491,325.0,325.0,-0.3968253968253968,-0.3968253968253968,-166.26984126984127
2.46031746031746,-126.42857142857142,67.06349206349206,-166.42857142857142,-23.41269841269841,8.65079365079365,229.44444444444443,-123.73015873015872,172.3015873015873,-71.5079365079365,-34.84126984126984,-162.93650793650792,-3.095238095238095,252.77777777777777,-77.85714285714285,-325.0,-24.68253968253968,-93.09523809523809,-78.4920634920635,325.0,325.0,-1.507936507936508,-0.3968253968253968,-166.26984126984127
2.46031746031746,-126.42857142857142,67.06349206349206,-166.42857142857142,-23.41269841269841,8.65079365079365,229.44444444444443,-123.73015873015872,172.3015873015873,-71.5079365079365,-34.84126984126984,-162.93650793650792,-3.095238095238095,252.77777777777777,-77.85714285714285,-325.0,-24.68253968253968,-93.09523809523809,-78.4920634920635,325.0,325.0,-1.507936507936508,-0.3968253968253968,-166.26984126984127
11.031746031746032,-124.36507936507935,59.12698412698413,-163.57142857142856,-18.333333333333332,17.063492063492063,224.84126984126982,-121.82539682539682,169.44444444444443,-70.23809523809524,-34.36507936507936,-160.07936507936506,-11.19047619047619,248.49206349206347,-76.58730158730158,-325.0,-24.206349206349206,-91.5079365079365,-77.22222222222221,325.0,325.0,-1.0317460317460316,1.0317460317460316,-321.8253968253968
11.031746031746032,-124.36507936507935,59.12698412698413,-163.57142857142856,-18.333333333333332,17.063492063492063,224.84126984126982,-121.82539682539682,169.44444444444443,-70.23809523809524,-34.36507936507936,-160.07936507936506,-11.19047619047619,248.49206349206347,-76.58730158730158,-325.0,-24.206349206349206,-91.5079365079365,-77.22222222222221,325.0,325.0,-1.0317460317460316,1.0317460317460316,-321.8253968253968
18.80952380952381,-122.30158730158729,58.8095238095238,-160.55555555555554,-9.603174603174603,24.523809523809522,225.63492063492063,-120.07936507936508,166.42857142857142,-69.12698412698413,-33.73015873015873,-157.53968253968253,-1.507936507936508,244.04761904761904,-75.47619047619047,-131.34920634920636,-23.88888888888889,-89.92063492063491,-76.1111111111111,325.0,325.0,-1.349206349206349,-1.0317460317460316,-321.8253968253968
18.80952380952381,-122.30158730158729,58.8095238095238,-160.55555555555554,-9.603174603174603,24.523809523809522,225.63492063492063,-120.07936507936508,166.42857142857142,-69.12698412698413,-33.73015873015873,-157.53968253968253,-1.507936507936508,244.04761904761904,-75.47619047619047,-131.34920634920636,-23.88888888888889,-89.92063492063491,-76.1111111111111,325.0,325.0,-1.349206349206349,-1.0317460317460316,-321.8253968253968
25.79365079365079,-120.23809523809523,68.17460317460318,-158.17460317460316,-1.0317460317460316,31.507936507936506,234.84126984126982,-118.01587301587301,163.73015873015873,-67.85714285714285,-33.25396825396825,-154.84126984126982,27.857142857142854,239.9206349206349,-74.2063492063492,-325.0,-23.41269841269841,-88.4920634920635,-74.84126984126983,325.0,325.0,-0.23809523809523808,-0.873015873015873,-321.8253968253968
25.79365079365079,-120.23809523809523,68.17460317460318,-158.17460317460316,-1.0317460317460316,31.507936507936506,234.84126984126982,-118.01587301587301,163.73015873015873,-67.85714285714285,-33.25396825396825,-154.84126984126982,27.857142857142854,239.9206349206349,-74.2063492063492,-325.0,-23.41269841269841,-88.4920634920635,-74.84126984126983,325.0,325.0,-0.23809523809523808,-0.873015873015873,-321.8253968253968
35.15873015873016,-117.85714285714285,71.66666666666666,-154.68253968253967,9.920634920634921,40.87301587301587,223.4126984126984,-115.47619047619047,160.3968253968254,-66.42857142857143,-32.77777777777778,-151.5079365079365,21.984126984126984,234.52380952380952,-72.77777777777777,-325.0,-22.936507936507937,-86.74603174603175,-73.25396825396825,325.0,325.0,-1.507936507936508,-0.07936507936507936,-321.8253968253968
35.15873015873016,-117.85714285714285,71.66666666666666,-154.68253968253967,9.920634920634921,40.87301587301587,223.4126984126984,-115.47619047619047,160.3968253968254,-66.42857142857143,-32.77777777777778,-151.5079365079365,21.984126984126984,234.52380952380952,-72.77777777777777,-325.0,-22.936507936507937,-86.74603174603175,-73.25396825396825,325.0,325.0,-1.507936507936508,-0.07936507936507936,-321.8253968253968
43.73015873015873,-115.31746031746032,60.238095238095234,-151.34920634920633,20.238095238095237,50.71428571428571,218.17460317460316,-113.25396825396825,156.9047619047619,-65.15873015873015,-31.98412698412698,-148.33333333333331,9.761904761904761,229.60317460317458,-71.34920634920634,-325.0,-22.46031746031746,-84.84126984126983,-71.66666666666666,325.0,325.0,-0.873015873015873,-0.3968253968253968,-321.8253968253968
43.73015873015873,-115.31746031746032,60.238095238095234,-151.34920634920633,20.238095238095237,50.71428571428571,218.17460317460316,-113.25396825396825,156.9047619047619,-65.15873015873015,-31.98412698412698,-148.33333333333331,9.761904761904761,229.60317460317458,-71.34920634920634,-325.0,-22.46031746031746,-84.84126984126983,-71.66666666666666,325.0,325.0,-0.873015873015873,-0.3968253968253968,-321.8253968253968
50.87301587301587,-113.57142857142857,74.2063492063492,-148.96825396825395,28.174603174603174,90.55555555555556,221.98412698412696,-111.5079365079365,154.36507936507937,-63.888888888888886,-31.507936507936506,-145.79365079365078,24.523809523809522,225.63492063492063,-70.07936507936508,-257.6984126984127,-22.142857142857142,-83.4126984126984,-70.55555555555556,325.0,325.0,-1.0317460317460316,-0.07936507936507936,-166.26984126984127
50.87301587301587,-113.57142857142857,74.2063492063492,-148.96825396825395,28.174603174603174,90.55555555555556,221.98412698412696,-111.5079365079365,154.36507936507937,-63.888888888888886,-31.507936507936506,-145.79365079365078,24.523809523809522,225.63492063492063,-70.07936507936508,-257.6984126984127,-22.142857142857142,-83.4126984126984,-70.55555555555556,325.0,325.0,-1.0317460317460316,-0.07936507936507936,-166.26984126984127
55.15873015873016,-111.82539682539682,84.52380952380952,-146.42857142857142,33.73015873015873,179.12698412698413,227.38095238095238,-109.76190476190476,151.66666666666666,-62.93650793650793,-30.87301587301587,-143.4126984126984,39.12698412698413,221.66666666666666,-68.96825396825396,118.33333333333333,-21.825396825396822,-82.3015873015873,-69.44444444444444,325.0,325.0,-0.873015873015873,-1.1904761904761905,-166.26984126984127
55.15873015873016,-111.82539682539682,84.52380952380952,-146.42857142857142,33.73015873015873,179.12698412698413,227.38095238095238,-109.76190476190476,151.66666666666666,-62.93650793650793,-30.87301587301587,-143.4126984126984,39.12698412698413,221.66666666666666,-68.96825396825396,118.33333333333333,-21.825396825396822,-82.3015873015873,-69.44444444444444,325.0,325.0,-0.873015873015873,-1.1904761904761905,-166.26984126984127
59.92063492063492,-109.92063492063491,81.66666666666666,-143.88888888888889,39.6031746031746,282.6190476190476,226.58730158730157,-108.01587301587301,149.12698412698413,-61.98412698412698,-30.555555555555554,-141.03174603174602,51.03174603174603,217.85714285714283,-68.01587301587301,118.8095238095238,-21.666666666666664,-80.87301587301587,-68.33333333333333,325.0,325.0,-0.3968253968253968,-0.873015873015873,-166.26984126984127
59.92063492063492,-109.92063492063491,81.66666666666666,-143.88888888888889,39.6031746031746,282.6190476190476,226.58730158730157,-108.01587301587301,149.12698412698413,-61.98412698412698,-30.555555555555554,-141.03174603174602,51.03174603174603,217.85714285714283,-68.01587301587301,118.8095238095238,-21.666666666666664,-80.87301587301587,-68.33333333333333,325.0,325.0,-0.3968253968253968,-0.873015873015873,-166.26984126984127
64.52380952380952,-108.49206349206348,86.26984126984127,-141.984126984127,44.84126984126984,325.0,222.61904761904762,-106.74603174603175,147.2222222222222,-60.873015873015866,-30.238095238095237,-139.6031746031746,49.12698412698413,215.0,-67.06349206349206,116.74603174603173,-21.507936507936506,-79.76190476190476,-67.38095238095238,325.0,325.0,-0.5555555555555556,-0.23809523809523808,-166.26984126984127
64.52380952380952,-108.49206349206348,86.26984126984127,-141.984126984127,44.84126984126984,325.0,222.61904761904762,-106.74603174603175,147.2222222222222,-60.873015873015866,-30.238095238095237,-139.6031746031746,49.12698412698413,215.0,-67.06349206349206,116.74603174603173,-21.507936507936506,-79.76190476190476,-67.38095238095238,325.0,325.0,-0.5555555555555556,-0.23809523809523808,-166.26984126984127
71.5079365079365,-106.26984126984127,93.09523809523809,-139.12698412698413,53.25396825396825,325.0,224.04761904761904,-104.68253968253968,144.2063492063492,-59.76190476190476,-29.6031746031746,-136.42857142857142,35.95238095238095,210.3968253968254,-65.79365079365078,-76.42857142857143,-18.333333333333332,-78.17460317460316,-65.95238095238095,325.0,325.0,-0.07936507936507936,0.873015873015873,-166.26984126984127
71.5079365079365,-106.26984126984127,93.09523809523809,-139.12698412698413,53.25396825396825,325.0,224.04761904761904,-104.68253968253968,144.2063492063492,-59.76190476190476,-29.6031746031746,-136.42857142857142,35.95238095238095,210.3968253968254,-65.79365079365078,-76.42857142857143,-18.333333333333332,-78.17460317460316,-65.95238095238095,325.0,325.0,-0.07936507936507936,0.873015873015873,-166.26984126984127
79.28571428571428,-104.36507936507935,99.12698412698413,-136.74603174603175,61.98412698412698,325.0,228.65079365079364,-102.77777777777777,141.66666666666666,-58.650793650793645,-28.96825396825397,-133.88888888888889,62.14285714285714,206.58730158730157,-64.68253968253968,-325.0,-7.5396825396825395,-76.9047619047619,-64.84126984126983,325.0,325.0,-0.5555555555555556,-0.7142857142857142,-321.8253968253968
79.28571428571428,-104.36507936507935,99.12698412698413,-136.74603174603175,61.98412698412698,325.0,228.65079365079364,-102.77777777777777,141.66666666666666,-58.650793650793645,-28.96825396825397,-133.88888888888889,62.14285714285714,206.58730158730157,-64.68253968253968,-325.0,-7.5396825396825395,-76.9047619047619,-64.84126984126983,325.0,325.0,-0.5555555555555556,-0.7142857142857142,-321.8253968253968
84.36507936507937,-102.61904761904762,97.6984126984127,-134.52380952380952,68.01587301587301,325.0,238.49206349206347,-101.34920634920634,139.28571428571428,-57.698412698412696,-28.65079365079365,-131.66666666666666,67.53968253968253,203.09523809523807,-63.57142857142857,121.03174603174602,1.349206349206349,-75.63492063492063,-63.73015873015873,325.0,325.0,-1.0317460317460316,-1.6666666666666665,-321.8253968253968
84.36507936507937,-102.61904761904762,97.6984126984127,-134.52380952380952,68.01587301587301,325.0,238.49206349206347,-101.34920634920634,139.28571428571428,-57.698412698412696,-28.65079365079365,-131.66666666666666,67.53968253968253,203.09523809523807,-63.57142857142857,121.03174603174602,1.349206349206349,-75.63492063492063,-63.73015873015873,325.0,325.0,-1.0317460317460316,-1.6666666666666665,-321.8253968253968
86.74603174603175,-101.03174603174602,91.03174603174602,-132.14285714285714,71.5079365079365,325.0,237.85714285714283,-99.6031746031746,136.9047619047619,-56.904761904761905,-28.333333333333332,-129.6031746031746,71.98412698412697,199.60317460317458,-62.77777777777777,212.46031746031744,7.5396825396825395,-74.2063492063492,-62.77777777777777,325.0,325.0,0.07936507936507936,0.3968253968253968,-321.8253968253968
86.74603174603175,-101.03174603174602,91.03174603174602,-132.14285714285714,71.5079365079365,325.0,237.85714285714283,-99.6031746031746,136.9047619047619,-56.904761904761905,-28.333333333333332,-129.6031746031746,71.98412698412697,199.60317460317458,-62.77777777777777,212.46031746031744,7.5396825396825395,-74.2063492063492,-62.77777777777777,325.0,325.0,0.07936507936507936,0.3968253968253968,-321.8253968253968
90.71428571428571,-99.92063492063491,91.82539682539682,-130.23809523809524,75.79365079365078,325.0,232.46031746031744,-98.49206349206348,135.47619047619048,-56.269841269841265,-27.857142857142854,-127.85714285714285,76.26984126984127,197.06349206349205,-61.98412698412698,-27.857142857142854,14.206349206349206,-73.25396825396825,-61.82539682539682,325.0,325.0,0.07936507936507936,0.23809523809523808,-321.8253968253968
90.71428571428571,-99.92063492063491,91.82539682539682,-130.23809523809524,75.79365079365078,325.0,232.46031746031744,-98.49206349206348,135.47619047619048,-56.269841269841265,-27.857142857142854,-127.85714285714285,76.26984126984127,197.06349206349205,-61.98412698412698,-27.857142857142854,14.206349206349206,-73.25396825396825,-61.82539682539682,325.0,325.0,0.07936507936507936,0.23809523809523808,-321.8253968253968
100.39682539682539,-96.9047619047619,105.63492063492063,-126.58730158730158,87.22222222222221,325.0,225.15873015873015,-95.63492063492063,131.34920634920636,-54.36507936507936,-27.063492063492063,-124.04761904761904,58.01587301587301,191.03174603174602,-60.079365079365076,-300.23809523809524,30.07936507936508,-71.19047619047619,-59.92063492063492,325.0,325.0,-0.7142857142857142,-0.23809523809523808,-321.8253968253968
100.39682539682539,-96.9047619047619,105.63492063492063,-126.58730158730158,87.22222222222221,325.0,225.15873015873015,-95.63492063492063,131.34920634920636,-54.36507936507936,-27.063492063492063,-124.04761904761904,58.01587301587301,191.03174603174602,-60.079365079365076,-300.23809523809524,30.07936507936508,-71.19047619047619,-59.92063492063492,325.0,325.0,-0.7142857142857142,-0.23809523809523808,-321.8253968253968
104.36507936507935,-95.31746031746032,102.93650793650794,-124.36507936507935,91.98412698412697,325.0,231.98412698412696,-94.04761904761904,129.12698412698413,-53.41269841269841,-26.746031746031743,-121.82539682539682,79.6031746031746,187.69841269841268,-58.8095238095238,164.52380952380952,37.06349206349206,-70.07936507936508,-59.12698412698413,325.0,325.0,-0.7142857142857142,-0.5555555555555556,-166.26984126984127
104.36507936507935,-95.31746031746032,102.93650793650794,-124.36507936507935,91.98412698412697,325.0,231.98412698412696,-94.04761904761904,129.12698412698413,-53.41269841269841,-26.746031746031743,-121.82539682539682,79.6031746031746,187.69841269841268,-58.8095238095238,164.52380952380952,37.06349206349206,-70.07936507936508,-59.12698412698413,325.0,325.0,-0.7142857142857142,-0.5555555555555556,-166.26984126984127
106.58730158730158,-93.73015873015872,102.77777777777777,-122.46031746031746,95.0,325.0,242.6190476190476,-92.61904761904762,126.9047619047619,-52.460317460317455,-26.428571428571427,-120.07936507936508,105.15873015873015,184.36507936507937,-57.22222222222222,318.3333333333333,42.61904761904761,-68.96825396825396,-58.17460317460317,325.0,325.0,-0.3968253968253968,-0.7142857142857142,-166.26984126984127
106.58730158730158,-93.73015873015872,102.77777777777777,-122.46031746031746,95.0,325.0,242.6190476190476,-92.61904761904762,126.9047619047619,-52.460317460317455,-26.428571428571427,-120.07936507936508,105.15873015873015,184.36507936507937,-57.22222222222222,318.3333333333333,42.61904761904761,-68.96825396825396,-58.17460317460317,325.0,325.0,-0.3968253968253968,-0.7142857142857142,-166.26984126984127
110.23809523809523,-92.30158730158729,90.23809523809523,-120.23809523809523,99.44444444444444,325.0,223.25396825396825,-91.03174603174602,124.84126984126983,-51.82539682539682,-25.79365079365079,-118.01587301587301,69.92063492063491,181.03174603174602,-57.53968253968254,147.69841269841268,49.44444444444444,-67.85714285714285,-57.22222222222222,325.0,325.0,0.07936507936507936,-0.7142857142857142,-166.26984126984127
110.23809523809523,-92.30158730158729,90.23809523809523,-120.23809523809523,99.44444444444444,325.0,223.25396825396825,-91.03174603174602,124.84126984126983,-51.82539682539682,-25.79365079365079,-118.01587301587301,69.92063492063491,181.03174603174602,-57.53968253968254,147.69841269841268,49.44444444444444,-67.85714285714285,-57.22222222222222,325.0,325.0,0.07936507936507936,-0.7142857142857142,-166.26984126984127
114.36507936507935,-90.55555555555556,93.09523809523809,-118.33333333333333,104.36507936507935,325.0,216.58730158730157,-89.6031746031746,122.6190476190476,-50.87301587301587,-25.476190476190474,-116.1111111111111,84.68253968253968,178.015873015873,-54.047619047619044,223.88888888888889,56.58730158730158,-66.74603174603175,-56.269841269841265,325.0,325.0,-0.23809523809523808,-0.873015873015873,-166.26984126984127
114.36507936507935,-90.55555555555556,93.09523809523809,-118.33333333333333,104.36507936507935,325.0,216.58730158730157,-89.6031746031746,122.6190476190476,-50.87301587301587,-25.476190476190474,-116.1111111111111,84.68253968253968,178.015873015873,-54.047619047619044,223.88888888888889,56.58730158730158,-66.74603174603175,-56.269841269841265,325.0,325.0,-0.23809523809523808,-0.873015873015873,-166.26984126984127
116.58730158730158,-89.6031746031746,92.14285714285714,-116.74603174603173,106.9047619047619,325.0,222.46031746031744,-88.65079365079364,121.19047619047619,-50.238095238095234,-25.158730158730158,-114.36507936507935,83.25396825396825,175.79365079365078,-50.079365079365076,325.0,60.71428571428571,-66.11111111111111,-55.476190476190474,325.0,325.0,-0.07936507936507936,-0.5555555555555556,-166.26984126984127
116.58730158730158,-89.6031746031746,92.14285714285714,-116.74603174603173,106.9047619047619,325.0,222.46031746031744,-88.65079365079364,121.19047619047619,-50.238095238095234,-25.158730158730158,-114.36507936507935,83.25396825396825,175.79365079365078,-50.079365079365076,325.0,60.71428571428571,-66.11111111111111,-55.476190476190474,325.0,325.0,-0.07936507936507936,-0.5555555555555556,-166.26984126984127
120.23809523809523,-87.6984126984127,101.98412698412697,-114.2063492063492,111.66666666666666,325.0,224.2063492063492,-86.9047619047619,118.49206349206348,-49.12698412698413,-24.68253968253968,-112.30158730158729,85.0,171.8253968253968,-45.15873015873016,325.0,68.01587301587301,-64.52380952380952,-54.52380952380952,325.0,325.0,0.07936507936507936,-0.7142857142857142,-321.8253968253968
120.23809523809523,-87.6984126984127,101.98412698412697,-114.2063492063492,111.66666666666666,325.0,224.2063492063492,-86.9047619047619,118.49206349206348,-49.12698412698413,-24.68253968253968,-112.30158730158729,85.0,171.8253968253968,-45.15873015873016,325.0,68.01587301587301,-64.52380952380952,-54.52380952380952,325.0,325.0,0.07936507936507936,-0.7142857142857142,-321.8253968253968
123.25396825396825,-86.26984126984127,104.2063492063492,-112.30158730158729,115.31746031746032,325.0,227.06349206349205,-85.31746031746032,116.58730158730158,-48.33333333333333,-24.365079365079364,-110.23809523809523,122.46031746031746,168.65079365079364,-32.93650793650794,325.0,73.73015873015872,-63.57142857142857,-53.57142857142857,325.0,325.0,-0.23809523809523808,-0.7142857142857142,-321.8253968253968
123.25396825396825,-86.26984126984127,104.2063492063492,-112.30158730158729,115.31746031746032,325.0,227.06349206349205,-85.31746031746032,116.58730158730158,-48.33333333333333,-24.365079365079364,-110.23809523809523,122.46031746031746,168.65079365079364,-32.93650793650794,325.0,73.73015873015872,-63.57142857142857,-53.57142857142857,325.0,325.0,-0.23809523809523808,-0.7142857142857142,-321.8253968253968
126.1111111111111,-84.84126984126983,101.82539682539682,-110.55555555555554,118.96825396825396,325.0,226.1111111111111,-84.04761904761904,114.68253968253967,-47.53968253968254,-24.047619047619047,-108.49206349206348,105.0,165.79365079365078,-26.428571428571427,325.0,79.28571428571428,-62.460317460317455,-52.61904761904761,325.0,325.0,-0.7142857142857142,-0.07936507936507936,-321.8253968253968
126.1111111111111,-84.84126984126983,101.82539682539682,-110.55555555555554,118.96825396825396,325.0,226.1111111111111,-84.04761904761904,114.68253968253967,-47.53968253968254,-24.047619047619047,-108.49206349206348,105.0,165.79365079365078,-26.428571428571427,325.0,79.28571428571428,-62.460317460317455,-52.61904761904761,325.0,325.0,-0.7142857142857142,-0.07936507936507936,-321.8253968253968
129.28571428571428,-83.4126984126984,108.49206349206348,-108.49206349206348,122.6190476190476,325.0,226.74603174603175,-82.77777777777777,112.6190476190476,-46.58730158730158,-23.57142857142857,-106.58730158730158,106.1111111111111,162.77777777777777,-16.428571428571427,325.0,85.0,-61.34920634920635,-51.82539682539682,325.0,320.7142857142857,-0.23809523809523808,-0.7142857142857142,-321.8253968253968
129.28571428571428,-83.4126984126984,108.49206349206348,-108.49206349206348,122.6190476190476,325.0,226.74603174603175,-82.77777777777777,112.6190476190476,-46.58730158730158,-23.57142857142857,-106.58730158730158,106.1111111111111,162.77777777777777,-16.428571428571427,325.0,85.0,-61.34920634920635,-51.82539682539682,325.0,320.7142857142857,-0.23809523809523808,-0.7142857142857142,-321.8253968253968
131.984126984127,-81.98412698412697,111.98412698412697,-106.74603174603175,126.1111111111111,325.0,229.76190476190476,-81.34920634920634,110.87301587301587,-45.95238095238095,-23.253968253968253,-104.68253968253968,105.15873015873015,160.07936507936506,-0.23809523809523808,325.0,90.07936507936508,-60.39682539682539,-51.03174603174603,325.0,315.3174603174603,-0.7142857142857142,-0.3968253968253968,-321.8253968253968
131.984126984127,-81.98412698412697,111.98412698412697,-106.74603174603175,126.1111111111111,325.0,229.76190476190476,-81.34920634920634,110.87301587301587,-45.95238095238095,-23.253968253968253,-104.68253968253968,105.15873015873015,160.07936507936506,-0.23809523809523808,325.0,90.07936507936508,-60.39682539682539,-51.03174603174603,325.0,315.3174603174603,-0.7142857142857142,-0.3968253968253968,-321.8253968253968
134.52380952380952,-80.71428571428571,111.82539682539682,-104.84126984126983,129.44444444444443,325.0,221.8253968253968,-79.92063492063491,108.96825396825396,-45.15873015873016,-22.936507936507937,-103.09523809523809,115.95238095238095,157.2222222222222,-1.6666666666666665,325.0,94.84126984126983,-59.44444444444444,-50.238095238095234,325.0,309.9206349206349,-0.873015873015873,-0.23809523809523808,-166.26984126984127
134.52380952380952,-80.71428571428571,111.82539682539682,-104.84126984126983,129.44444444444443,325.0,221.8253968253968,-79.92063492063491,108.96825396825396,-45.15873015873016,-22.936507936507937,-103.09523809523809,115.95238095238095,157.2222222222222,-1.6666666666666665,325.0,94.84126984126983,-59.44444444444444,-50.238095238095234,325.0,309.9206349206349,-0.873015873015873,-0.23809523809523808,-166.26984126984127
137.38095238095238,-79.28571428571428,111.34920634920634,-103.09523809523809,132.77777777777777,325.0,214.04761904761904,-78.65079365079364,106.9047619047619,-44.36507936507936,-22.46031746031746,-101.34920634920634,124.68253968253967,154.52380952380952,2.46031746031746,325.0,100.07936507936508,-58.49206349206349,-49.285714285714285,325.0,304.5238095238095,-0.07936507936507936,-0.23809523809523808,-166.26984126984127
137.38095238095238,-79.28571428571428,111.34920634920634,-103.09523809523809,132.77777777777777,325.0,214.04761904761904,-78.65079365079364,106.9047619047619,-44.36507936507936,-22.46031746031746,-101.34920634920634,124.68253968253967,154.52380952380952,2.46031746031746,325.0,100.07936507936508,-58.49206349206349,-49.285714285714285,325.0,304.5238095238095,-0.07936507936507936,-0.23809523809523808,-166.26984126984127
139.28571428571428,-78.17460317460316,112.6190476190476,-101.66666666666666,135.0,325.0,213.25396825396825,-77.85714285714285,105.79365079365078,-43.888888888888886,-22.142857142857142,-99.76190476190476,125.79365079365078,152.61904761904762,14.206349206349206,325.0,103.73015873015872,-57.698412698412696,-48.650793650793645,325.0,300.39682539682536,-1.349206349206349,-0.07936507936507936,-166.26984126984127
139.28571428571428,-78.17460317460316,112.6190476190476,-101.66666666666666,135.0,325.0,213.25396825396825,-77.85714285714285,105.79365079365078,-43.888888888888886,-22.142857142857142,-99.76190476190476,125.79365079365078,152.61904761904762,14.206349206349206,325.0,103.73015873015872,-57.698412698412696,-48.650793650793645,325.0,300.39682539682536,-1.349206349206349,-0.07936507936507936,-166.26984126984127
141.34920634920636,-77.22222222222221,111.82539682539682,-100.39682539682539,137.53968253968253,325.0,211.66666666666666,-76.9047619047619,104.36507936507935,-43.25396825396825,-21.984126984126984,-98.65079365079364,124.36507936507935,150.55555555555554,15.476190476190474,214.2063492063492,107.38095238095238,-56.904761904761905,-48.01587301587301,325.0,296.58730158730157,-0.23809523809523808,-0.07936507936507936,-166.26984126984127
141.34920634920636,-77.22222222222221,111.82539682539682,-100.39682539682539,137.53968253968253,325.0,211.66666666666666,-76.9047619047619,104.36507936507935,-43.25396825396825,-21.984126984126984,-98.65079365079364,124.36507936507935,150.55555555555554,15.476190476190474,214.2063492063492,107.38095238095238,-56.904761904761905,-48.01587301587301,325.0,296.58730158730157,-0.23809523809523808,-0.07936507936507936,-166.26984126984127
147.69841269841268,-74.2063492063492,112.30158730158729,-96.1111111111111,144.84126984126982,325.0,209.44444444444443,-73.73015873015872,100.07936507936508,-41.507936507936506,-21.03174603174603,-94.52380952380952,113.09523809523809,143.88888888888889,25.0,325.0,118.33333333333333,-54.68253968253968,-46.11111111111111,325.0,284.2063492063492,-0.23809523809523808,-0.873015873015873,-166.26984126984127
147.69841269841268,-74.2063492063492,112.30158730158729,-96.1111111111111,144.84126984126982,325.0,209.44444444444443,-73.73015873015872,100.07936507936508,-41.507936507936506,-21.03174603174603,-94.52380952380952,113.09523809523809,143.88888888888889,25.0,325.0,118.33333333333333,-54.68253968253968,-46.11111111111111,325.0,284.2063492063492,-0.23809523809523808,-0.873015873015873,-166.26984126984127
148.4920634920635,-72.93650793650794,112.46031746031746,-94.52380952380952,146.42857142857142,325.0,206.42857142857142,-72.61904761904762,98.33333333333333,-40.87301587301587,-20.873015873015873,-93.09523809523809,132.3015873015873,141.5079365079365,31.03174603174603,325.0,121.03174603174602,-53.888888888888886,-45.476190476190474,325.0,279.2857142857143,-0.7142857142857142,-0.07936507936507936,-321.8253968253968
148.4920634920635,-72.93650793650794,112.46031746031746,-94.52380952380952,146.42857142857142,325.0,206.42857142857142,-72.61904761904762,98.33333333333333,-40.87301587301587,-20.873015873015873,-93.09523809523809,132.3015873015873,141.5079365079365,31.03174603174603,325.0,121.03174603174602,-53.888888888888886,-45.476190476190474,325.0,279.2857142857143,-0.7142857142857142,-0.07936507936507936,-321.8253968253968
150.07936507936506,-72.14285714285714,103.09523809523809,-93.09523809523809,148.015873015873,325.0,195.95238095238093,-71.82539682539682,97.38095238095238,-40.39682539682539,-20.396825396825395,-91.82539682539682,128.8095238095238,139.6031746031746,24.523809523809522,325.0,123.88888888888889,-53.095238095238095,-44.52380952380952,325.0,275.95238095238096,-0.3968253968253968,-1.349206349206349,-321.8253968253968
150.07936507936506,-72.14285714285714,103.09523809523809,-93.09523809523809,148.015873015873,325.0,195.95238095238093,-71.82539682539682,97.38095238095238,-40.39682539682539,-20.396825396825395,-91.82539682539682,128.8095238095238,139.6031746031746,24.523809523809522,325.0,123.88888888888889,-53.095238095238095,-44.52380952380952,325.0,275.95238095238096,-0.3968253968253968,-1.349206349206349,-321.8253968253968
150.07936507936506,-72.14285714285714,103.09523809523809,-93.09523809523809,148.015873015873,325.0,195.95238095238093,-71.82539682539682,97.38095238095238,-40.39682539682539,-20.396825396825395,-91.82539682539682,128.8095238095238,139.6031746031746,24.523809523809522,325.0,123.88888888888889,-53.095238095238095,-44.52380952380952,325.0,275.95238095238096,-0.3968253968253968,-1.349206349206349,-321.8253968253968
150.07936507936506,-72.14285714285714,103.09523809523809,-93.09523809523809,148.015873015873,325.0,195.95238095238093,-71.82539682539682,97.38095238095238,-40.39682539682539,-20.396825396825395,-91.82539682539682,128.8095238095238,139.6031746031746,24.523809523809522,325.0,123.88888888888889,-53.095238095238095,-44.52380952380952,325.0,275.95238095238096,-0.3968253968253968,-1.349206349206349,-321.8253968253968
155.47619047619048,-69.44444444444444,118.33333333333333,-89.6031746031746,154.68253968253967,325.0,202.3015873015873,-69.12698412698413,93.4126984126984,-38.65079365079365,-1.6666666666666665,-88.33333333333333,131.984126984127,134.04761904761904,49.285714285714285,8.65079365079365,133.4126984126984,-51.03174603174603,-43.095238095238095,325.0,265.1587301587301,-0.23809523809523808,-0.5555555555555556,-321.8253968253968
155.47619047619048,-69.44444444444444,118.33333333333333,-89.6031746031746,154.68253968253967,325.0,202.3015873015873,-69.12698412698413,93.4126984126984,-38.65079365079365,-1.6666666666666665,-88.33333333333333,131.984126984127,134.04761904761904,49.285714285714285,8.65079365079365,133.4126984126984,-51.03174603174603,-43.095238095238095,325.0,265.1587301587301,-0.23809523809523808,-0.5555555555555556,-321.8253968253968
156.9047619047619,-68.01587301587301,116.9047619047619,-87.85714285714285,156.42857142857142,325.0,195.95238095238093,-67.6984126984127,91.5079365079365,-38.01587301587301,8.492063492063492,-86.42857142857143,130.3968253968254,131.19047619047618,52.77777777777777,141.66666666666666,136.58730158730157,-50.079365079365076,-42.3015873015873,325.0,259.6031746031746,0.07936507936507936,-1.0317460317460316,-321.8253968253968
156.9047619047619,-68.01587301587301,116.9047619047619,-87.85714285714285,156.42857142857142,325.0,195.95238095238093,-67.6984126984127,91.5079365079365,-38.01587301587301,8.492063492063492,-86.42857142857143,130.3968253968254,131.19047619047618,52.77777777777777,141.66666666666666,136.58730158730157,-50.079365079365076,-42.3015873015873,325.0,259.6031746031746,0.07936507936507936,-1.0317460317460316,-321.8253968253968
157.38095238095238,-66.58730158730158,115.31746031746032,-86.1111111111111,157.69841269841268,325.0,182.46031746031744,-66.26984126984127,89.6031746031746,-37.22222222222222,17.38095238095238,-84.52380952380952,128.65079365079364,128.33333333333331,48.650793650793645,324.8412698412698,139.12698412698413,-42.93650793650794,-41.34920634920635,325.0,253.88888888888889,-0.5555555555555556,0.07936507936507936,-166.26984126984127
157.38095238095238,-66.58730158730158,115.31746031746032,-86.1111111111111,157.69841269841268,325.0,182.46031746031744,-66.26984126984127,89.6031746031746,-37.22222222222222,17.38095238095238,-84.52380952380952,128.65079365079364,128.33333333333331,48.650793650793645,324.8412698412698,139.12698412698413,-42.93650793650794,-41.34920634920635,325.0,253.88888888888889,-0.5555555555555556,0.07936507936507936,-166.26984126984127
158.4920634920635,-65.47619047619047,112.30158730158729,-84.68253968253968,159.44444444444443,325.0,186.42857142857142,-65.31746031746032,88.01587301587301,-36.58730158730159,25.158730158730158,-83.25396825396825,137.85714285714286,126.1111111111111,61.507936507936506,294.2063492063492,141.8253968253968,-6.587301587301587,-40.714285714285715,325.0,249.44444444444443,-0.7142857142857142,-0.7142857142857142,-166.26984126984127
158.4920634920635,-65.47619047619047,112.30158730158729,-84.68253968253968,159.44444444444443,325.0,186.42857142857142,-65.31746031746032,88.01587301587301,-36.58730158730159,25.158730158730158,-83.25396825396825,137.85714285714286,126.1111111111111,61.507936507936506,294.2063492063492,141.8253968253968,-6.587301587301587,-40.714285714285715,325.0,249.44444444444443,-0.7142857142857142,-0.7142857142857142,-166.26984126984127
159.28571428571428,-64.84126984126983,110.07936507936508,-83.57142857142857,160.7142857142857,325.0,189.60317460317458,-64.52380952380952,86.9047619047619,-36.11111111111111,30.87301587301587,-82.46031746031746,135.47619047619048,124.36507936507935,67.38095238095238,246.58730158730157,143.73015873015873,36.269841269841265,-40.238095238095234,325.0,246.58730158730157,-0.3968253968253968,-0.7142857142857142,-166.26984126984127
159.28571428571428,-64.84126984126983,110.07936507936508,-83.57142857142857,160.7142857142857,325.0,189.60317460317458,-64.52380952380952,86.9047619047619,-36.11111111111111,30.87301587301587,-82.46031746031746,135.47619047619048,124.36507936507935,67.38095238095238,246.58730158730157,143.73015873015873,36.269841269841265,-40.238095238095234,325.0,246.58730158730157,-0.3968253968253968,-0.7142857142857142,-166.26984126984127
161.03174603174602,-63.25396825396825,108.17460317460316,-81.66666666666666,162.46031746031744,325.0,193.25396825396825,-63.25396825396825,85.15873015873015,-35.317460317460316,40.079365079365076,-80.55555555555556,151.19047619047618,121.66666666666666,74.84126984126983,287.85714285714283,147.38095238095238,98.33333333333333,-39.44444444444444,325.0,241.03174603174602,0.7142857142857142,-1.349206349206349,-166.26984126984127
161.03174603174602,-63.25396825396825,108.17460317460316,-81.66666666666666,162.46031746031744,325.0,193.25396825396825,-63.25396825396825,85.15873015873015,-35.317460317460316,40.079365079365076,-80.55555555555556,151.19047619047618,121.66666666666666,74.84126984126983,287.85714285714283,147.38095238095238,98.33333333333333,-39.44444444444444,325.0,241.03174603174602,0.7142857142857142,-1.349206349206349,-166.26984126984127
161.34920634920633,-62.3015873015873,102.61904761904762,-80.39682539682539,163.09523809523807,325.0,187.53968253968253,-62.3015873015873,83.73015873015872,-34.84126984126984,46.11111111111111,-78.96825396825396,139.44444444444443,119.6031746031746,72.93650793650794,325.0,148.8095238095238,140.55555555555554,-38.80952380952381,325.0,236.74603174603175,-0.23809523809523808,-1.8253968253968254,-166.26984126984127
161.34920634920633,-62.3015873015873,102.61904761904762,-80.39682539682539,163.09523809523807,325.0,187.53968253968253,-62.3015873015873,83.73015873015872,-34.84126984126984,46.11111111111111,-78.96825396825396,139.44444444444443,119.6031746031746,72.93650793650794,325.0,148.8095238095238,140.55555555555554,-38.80952380952381,325.0,236.74603174603175,-0.23809523809523808,-1.8253968253968254,-166.26984126984127
162.46031746031744,-61.19047619047619,94.04761904761904,-78.96825396825396,164.68253968253967,325.0,183.7301587301587,-61.19047619047619,82.14285714285714,-34.2063492063492,53.095238095238095,-77.6984126984127,118.65079365079364,117.38095238095238,78.17460317460316,229.9206349206349,151.34920634920633,182.14285714285714,-38.17460317460317,325.0,232.77777777777777,-0.07936507936507936,-0.3968253968253968,-321.8253968253968
162.46031746031744,-61.19047619047619,94.04761904761904,-78.96825396825396,164.68253968253967,325.0,183.7301587301587,-61.19047619047619,82.14285714285714,-34.2063492063492,53.095238095238095,-77.6984126984127,118.65079365079364,117.38095238095238,78.17460317460316,229.9206349206349,151.34920634920633,182.14285714285714,-38.17460317460317,325.0,232.77777777777777,-0.07936507936507936,-0.3968253968253968,-321.8253968253968
163.25396825396825,-60.238095238095234,111.19047619047619,-77.6984126984127,165.63492063492063,325.0,191.98412698412696,-60.238095238095234,80.87301587301587,-33.57142857142857,59.12698412698413,-76.42857142857143,149.44444444444443,115.31746031746032,94.84126984126983,325.0,153.09523809523807,229.9206349206349,-37.53968253968254,325.0,228.65079365079364,-0.3968253968253968,0.07936507936507936,-321.8253968253968
163.25396825396825,-60.238095238095234,111.19047619047619,-77.6984126984127,165.63492063492063,325.0,191.98412698412696,-60.238095238095234,80.87301587301587,-33.57142857142857,59.12698412698413,-76.42857142857143,149.44444444444443,115.31746031746032,94.84126984126983,325.0,153.09523809523807,229.9206349206349,-37.53968253968254,325.0,228.65079365079364,-0.3968253968253968,0.07936507936507936,-321.8253968253968
163.25396825396825,-59.92063492063492,114.2063492063492,-77.38095238095238,165.79365079365078,325.0,194.2063492063492,-59.92063492063492,80.39682539682539,-33.41269841269841,60.55555555555555,-76.1111111111111,150.23809523809524,114.84126984126983,97.85714285714285,325.0,153.4126984126984,241.34920634920633,-37.38095238095238,325.0,227.69841269841268,-0.3968253968253968,-0.07936507936507936,-321.8253968253968
163.25396825396825,-59.92063492063492,114.2063492063492,-77.38095238095238,165.79365079365078,325.0,194.2063492063492,-59.92063492063492,80.39682539682539,-33.41269841269841,60.55555555555555,-76.1111111111111,150.23809523809524,114.84126984126983,97.85714285714285,325.0,153.4126984126984,241.34920634920633,-37.38095238095238,325.0,227.69841269841268,-0.3968253968253968,-0.07936507936507936,-321.8253968253968
325.0,-58.17460317460317,107.53968253968253,-75.15873015873015,167.2222222222222,325.0,193.57142857142856,-58.49206349206349,78.33333333333333,-32.460317460317455,70.71428571428571,-74.04761904761904,148.8095238095238,111.34920634920634,108.65079365079364,263.57142857142856,156.26984126984127,306.74603174603175,-36.42857142857142,325.0,220.87301587301587,0.5555555555555556,-0.7142857142857142,-321.8253968253968
325.0,-58.17460317460317,107.53968253968253,-75.15873015873015,167.2222222222222,325.0,193.57142857142856,-58.49206349206349,78.33333333333333,-32.460317460317455,70.71428571428571,-74.04761904761904,148.8095238095238,111.34920634920634,108.65079365079364,263.57142857142856,156.26984126984127,306.74603174603175,-36.42857142857142,325.0,220.87301587301587,0.5555555555555556,-0.7142857142857142,-321.8253968253968
325.0,-57.53968253968254,106.42857142857142,-74.36507936507937,168.4920634920635,325.0,189.44444444444443,-57.53968253968254,77.38095238095238,-31.98412698412698,75.47619047619047,-72.93650793650794,143.88888888888889,109.76190476190476,107.06349206349206,152.93650793650792,158.33333333333331,321.3492063492063,-36.11111111111111,323.4126984126984,218.015873015873,0.07936507936507936,-0.3968253968253968,-321.8253968253968
325.0,-57.53968253968254,106.42857142857142,-74.36507936507937,168.4920634920635,325.0,189.44444444444443,-57.53968253968254,77.38095238095238,-31.98412698412698,75.47619047619047,-72.93650793650794,143.88888888888889,109.76190476190476,107.06349206349206,152.93650793650792,158.33333333333331,321.3492063492063,-36.11111111111111,323.4126984126984,218.015873015873,0.07936507936507936,-0.3968253968253968,-321.8253968253968
325.0,-56.42857142857142,116.42857142857142,-72.46031746031746,170.7142857142857,325.0,185.79365079365078,-56.42857142857142,75.63492063492063,-31.349206349206348,83.57142857142857,-71.34920634920634,135.15873015873015,107.38095238095238,102.61904761904762,-43.41269841269841,161.5079365079365,325.0,-35.15873015873016,317.85714285714283,213.25396825396825,0.23809523809523808,-0.873015873015873,-166.26984126984127
325.0,-56.42857142857142,116.42857142857142,-72.46031746031746,170.7142857142857,325.0,185.79365079365078,-56.42857142857142,75.63492063492063,-31.349206349206348,83.57142857142857,-71.34920634920634,135.15873015873015,107.38095238095238,102.61904761904762,-43.41269841269841,161.5079365079365,325.0,-35.15873015873016,317.85714285714283,213.25396825396825,0.23809523809523808,-0.873015873015873,-166.26984126984127
325.0,-55.476190476190474,111.03174603174602,-71.03174603174602,171.34920634920633,325.0,185.15873015873015,-55.63492063492063,74.2063492063492,-30.87301587301587,88.80952380952381,-70.23809523809524,152.3015873015873,105.47619047619047,114.68253968253967,197.53968253968253,162.93650793650792,325.0,-34.52380952380952,312.77777777777777,209.60317460317458,-1.507936507936508,-0.23809523809523808,-166.26984126984127
325.0,-55.476190476190474,111.03174603174602,-71.03174603174602,171.34920634920633,325.0,185.15873015873015,-55.63492063492063,74.2063492063492,-30.87301587301587,88.80952380952381,-70.23809523809524,152.3015873015873,105.47619047619047,114.68253968253967,197.53968253968253,162.93650793650792,325.0,-34.52380952380952,312.77777777777777,209.60317460317458,-1.507936507936508,-0.23809523809523808,-166.26984126984127
325.0,-54.36507936507936,106.42857142857142,-70.07936507936508,171.03174603174602,325.0,179.28571428571428,-54.68253968253968,73.09523809523809,-30.396825396825395,92.46031746031746,-69.12698412698413,173.4126984126984,103.88888888888889,105.79365079365078,200.3968253968254,163.09523809523807,325.0,-34.047619047619044,307.53968253968253,205.95238095238093,-0.873015873015873,-0.7142857142857142,-166.26984126984127
325.0,-54.36507936507936,106.42857142857142,-70.07936507936508,171.03174603174602,325.0,179.28571428571428,-54.68253968253968,73.09523809523809,-30.396825396825395,92.46031746031746,-69.12698412698413,173.4126984126984,103.88888888888889,105.79365079365078,200.3968253968254,163.09523809523807,325.0,-34.047619047619044,307.53968253968253,205.95238095238093,-0.873015873015873,-0.7142857142857142,-166.26984126984127
325.0,-53.57142857142857,104.84126984126983,-68.96825396825396,171.34920634920633,325.0,173.88888888888889,-53.888888888888886,71.82539682539682,-29.920634920634917,97.06349206349206,-67.6984126984127,133.88888888888889,101.98412698412697,105.79365079365078,264.04761904761904,164.36507936507937,325.0,-33.41269841269841,302.3015873015873,202.3015873015873,-0.23809523809523808,-0.7142857142857142,-166.26984126984127
325.0,-53.57142857142857,104.84126984126983,-68.96825396825396,171.34920634920633,325.0,173.88888888888889,-53.888888888888886,71.82539682539682,-29.920634920634917,97.06349206349206,-67.6984126984127,133.88888888888889,101.98412698412697,105.79365079365078,264.04761904761904,164.36507936507937,325.0,-33.41269841269841,302.3015873015873,202.3015873015873,-0.23809523809523808,-0.7142857142857142,-166.26984126984127
325.0,-52.77777777777777,96.1111111111111,-67.85714285714285,171.66666666666666,325.0,185.47619047619045,-53.095238095238095,70.71428571428571,-29.444444444444443,101.34920634920634,-66.74603174603175,149.44444444444443,100.07936507936508,123.57142857142857,317.53968253968253,165.15873015873015,325.0,-32.93650793650794,297.38095238095235,198.8095238095238,0.5555555555555556,-1.0317460317460316,-166.26984126984127
325.0,-52.77777777777777,96.1111111111111,-67.85714285714285,171.66666666666666,325.0,185.47619047619045,-53.095238095238095,70.71428571428571,-29.444444444444443,101.34920634920634,-66.74603174603175,149.44444444444443,100.07936507936508,123.57142857142857,317.53968253968253,165.15873015873015,325.0,-32.93650793650794,297.38095238095235,198.8095238095238,0.5555555555555556,-1.0317460317460316,-166.26984126984127
325.0,-51.82539682539682,107.53968253968253,-66.58730158730158,171.984126984127,325.0,186.74603174603175,-52.14285714285714,69.28571428571428,-28.809523809523807,105.31746031746032,-65.79365079365078,148.4920634920635,98.33333333333333,125.47619047619047,309.4444444444444,165.95238095238093,325.0,-32.3015873015873,292.46031746031747,195.47619047619045,-1.0317460317460316,-1.0317460317460316,-321.8253968253968
325.0,-51.82539682539682,107.53968253968253,-66.58730158730158,171.984126984127,325.0,186.74603174603175,-52.14285714285714,69.28571428571428,-28.809523809523807,105.31746031746032,-65.79365079365078,148.4920634920635,98.33333333333333,125.47619047619047,309.4444444444444,165.95238095238093,325.0,-32.3015873015873,292.46031746031747,195.47619047619045,-1.0317460317460316,-1.0317460317460316,-321.8253968253968
325.0,-51.03174603174603,113.57142857142857,-65.47619047619047,172.46031746031744,325.0,182.14285714285714,-51.34920634920635,68.17460317460318,-28.333333333333332,109.92063492063491,-64.52380952380952,148.33333333333331,96.58730158730158,127.53968253968253,304.04761904761904,167.2222222222222,325.0,-31.825396825396822,287.6984126984127,191.98412698412696,-0.3968253968253968,-0.5555555555555556,-321.8253968253968
325.0,-51.03174603174603,113.57142857142857,-65.47619047619047,172.46031746031744,325.0,182.14285714285714,-51.34920634920635,68.17460317460318,-28.333333333333332,109.92063492063491,-64.52380952380952,148.33333333333331,96.58730158730158,127.53968253968253,304.04761904761904,167.2222222222222,325.0,-31.825396825396822,287.6984126984127,191.98412698412696,-0.3968253968253968,-0.5555555555555556,-321.8253968253968
325.0,-50.39682539682539,96.74603174603175,-64.68253968253968,172.93650793650792,325.0,176.58730158730157,-50.87301587301587,67.53968253968253,-13.253968253968253,113.4126984126984,-63.73015873015873,142.93650793650792,95.31746031746032,123.57142857142857,300.23809523809524,168.015873015873,325.0,-31.349206349206348,284.04761904761904,189.44444444444443,0.3968253968253968,-0.873015873015873,-321.8253968253968
325.0,-50.39682539682539,96.74603174603175,-64.68253968253968,172.93650793650792,325.0,176.58730158730157,-50.87301587301587,67.53968253968253,-13.253968253968253,113.4126984126984,-63.73015873015873,142.93650793650792,95.31746031746032,123.57142857142857,300.23809523809524,168.015873015873,325.0,-31.349206349206348,284.04761904761904,189.44444444444443,0.3968253968253968,-0.873015873015873,-321.8253968253968
325.0,-49.285714285714285,82.61904761904762,-63.73015873015873,173.88888888888889,325.0,170.87301587301587,-49.6031746031746,66.26984126984127,35.317460317460316,117.85714285714285,-62.61904761904761,136.74603174603175,93.4126984126984,124.68253968253967,295.1587301587301,169.44444444444443,325.0,-31.19047619047619,279.44444444444446,186.26984126984127,0.07936507936507936,0.23809523809523808,-321.8253968253968
325.0,-49.285714285714285,82.61904761904762,-63.73015873015873,173.88888888888889,325.0,170.87301587301587,-49.6031746031746,66.26984126984127,35.317460317460316,117.85714285714285,-62.61904761904761,136.74603174603175,93.4126984126984,124.68253968253967,295.1587301587301,169.44444444444443,325.0,-31.19047619047619,279.44444444444446,186.26984126984127,0.07936507936507936,0.23809523809523808,-321.8253968253968
282.1428571428571,-46.74603174603175,103.88888888888889,-59.76190476190476,174.84126984126982,325.0,167.38095238095238,-47.22222222222222,62.3015873015873,-21.825396825396822,225.63492063492063,-59.12698412698413,141.5079365079365,88.01587301587301,132.61904761904762,278.015873015873,172.3015873015873,325.0,-29.285714285714285,263.4126984126984,175.15873015873015,0.3968253968253968,-0.873015873015873,-321.8253968253968
282.1428571428571,-46.74603174603175,103.88888888888889,-59.76190476190476,174.84126984126982,325.0,167.38095238095238,-47.22222222222222,62.3015873015873,-21.825396825396822,225.63492063492063,-59.12698412698413,141.5079365079365,88.01587301587301,132.61904761904762,278.015873015873,172.3015873015873,325.0,-29.285714285714285,263.4126984126984,175.15873015873015,0.3968253968253968,-0.873015873015873,-321.8253968253968
325.0,-35.95238095238095,95.79365079365078,-45.79365079365079,173.73015873015873,316.1111111111111,117.53968253968253,-36.74603174603175,47.857142857142854,6.111111111111111,325.0,-45.0,159.76190476190476,66.42857142857143,167.69841269841268,-325.0,325.0,325.0,109.12698412698413,202.3015873015873,132.61904761904762,-1.0317460317460316,-0.873015873015873,-166.26984126984127
325.0,-35.95238095238095,95.79365079365078,-45.79365079365079,173.73015873015873,316.1111111111111,117.53968253968253,-36.74603174603175,47.857142857142854,6.111111111111111,325.0,-45.0,159.76190476190476,66.42857142857143,167.69841269841268,-325.0,325.0,325.0,109.12698412698413,202.3015873015873,132.61904761904762,-1.0317460317460316,-0.873015873015873,-166.26984126984127
325.0,-35.317460317460316,88.4920634920635,-44.84126984126984,173.4126984126984,310.87301587301585,95.15873015873015,-36.11111111111111,47.06349206349206,17.857142857142858,325.0,-44.36507936507936,140.7142857142857,65.15873015873015,135.0,-325.0,325.0,325.0,120.39682539682539,198.96825396825395,130.3968253968254,-0.5555555555555556,-1.0317460317460316,-166.26984126984127
325.0,-35.317460317460316,88.4920634920635,-44.84126984126984,173.4126984126984,310.87301587301585,95.15873015873015,-36.11111111111111,47.06349206349206,17.857142857142858,325.0,-44.36507936507936,140.7142857142857,65.15873015873015,135.0,-325.0,325.0,325.0,120.39682539682539,198.96825396825395,130.3968253968254,-0.5555555555555556,-1.0317460317460316,-166.26984126984127
325.0,-34.84126984126984,87.38095238095238,-44.2063492063492,173.09523809523807,305.7936507936508,101.19047619047619,-35.476190476190474,46.269841269841265,-1.8253968253968254,325.0,-43.57142857142857,155.3174603174603,64.04761904761905,147.69841269841268,-325.0,325.0,325.0,142.77777777777777,195.63492063492063,128.015873015873,-0.3968253968253968,-0.5555555555555556,-166.26984126984127
325.0,-34.84126984126984,87.38095238095238,-44.2063492063492,173.09523809523807,305.7936507936508,101.19047619047619,-35.476190476190474,46.269841269841265,-1.8253968253968254,325.0,-43.57142857142857,155.3174603174603,64.04761904761905,147.69841269841268,-325.0,325.0,325.0,142.77777777777777,195.63492063492063,128.015873015873,-0.3968253968253968,-0.5555555555555556,-166.26984126984127
325.0,-34.2063492063492,83.73015873015872,-43.41269841269841,172.3015873015873,301.8253968253968,98.17460317460316,-35.15873015873016,45.79365079365079,8.65079365079365,325.0,-42.77777777777778,141.66666666666666,63.41269841269841,148.96825396825395,-325.0,325.0,325.0,152.3015873015873,193.09523809523807,126.26984126984127,0.23809523809523808,0.23809523809523808,-166.26984126984127
325.0,-34.2063492063492,83.73015873015872,-43.41269841269841,172.3015873015873,301.8253968253968,98.17460317460316,-35.15873015873016,45.79365079365079,8.65079365079365,325.0,-42.77777777777778,141.66666666666666,63.41269841269841,148.96825396825395,-325.0,325.0,325.0,152.3015873015873,193.09523809523807,126.26984126984127,0.23809523809523808,0.23809523809523808,-166.26984126984127
325.0,-33.57142857142857,22.46031746031746,-42.77777777777778,172.14285714285714,295.95238095238096,23.730158730158728,-34.2063492063492,44.68253968253968,6.746031746031746,325.0,-42.14285714285714,74.84126984126983,61.82539682539682,77.38095238095238,-325.0,325.0,325.0,150.87301587301587,188.96825396825395,123.57142857142857,0.3968253968253968,-0.3968253968253968,-166.26984126984127
325.0,-33.57142857142857,22.46031746031746,-42.77777777777778,172.14285714285714,295.95238095238096,23.730158730158728,-34.2063492063492,44.68253968253968,6.746031746031746,325.0,-42.14285714285714,74.84126984126983,61.82539682539682,77.38095238095238,-325.0,325.0,325.0,150.87301587301587,188.96825396825395,123.57142857142857,0.3968253968253968,-0.3968253968253968,-166.26984126984127
325.0,-32.93650793650794,-6.904761904761904,-41.98412698412698,172.3015873015873,291.19047619047615,-3.73015873015873,-33.73015873015873,43.888888888888886,-10.873015873015872,325.0,-41.34920634920635,44.52380952380952,60.71428571428571,58.01587301587301,-325.0,325.0,325.0,150.23809523809524,185.79365079365078,121.66666666666666,-0.23809523809523808,-0.5555555555555556,-321.8253968253968
325.0,-32.93650793650794,-6.904761904761904,-41.98412698412698,172.3015873015873,291.19047619047615,-3.73015873015873,-33.73015873015873,43.888888888888886,-10.873015873015872,325.0,-41.34920634920635,44.52380952380952,60.71428571428571,58.01587301587301,-325.0,325.0,325.0,150.23809523809524,185.79365079365078,121.66666666666666,-0.23809523809523808,-0.5555555555555556,-321.8253968253968
325.0,-32.460317460317455,-5.952380952380952,-41.19047619047619,171.5079365079365,286.26984126984127,2.619047619047619,-33.25396825396825,43.25396825396825,-1.349206349206349,325.0,-40.714285714285715,42.93650793650794,59.76190476190476,62.93650793650793,-325.0,325.0,325.0,163.4126984126984,182.77777777777777,119.44444444444444,0.23809523809523808,-0.873015873015873,-321.8253968253968
325.0,-32.460317460317455,-5.952380952380952,-41.19047619047619,171.5079365079365,286.26984126984127,2.619047619047619,-33.25396825396825,43.25396825396825,-1.349206349206349,325.0,-40.714285714285715,42.93650793650794,59.76190476190476,62.93650793650793,-325.0,325.0,325.0,163.4126984126984,182.77777777777777,119.44444444444444,0.23809523809523808,-0.873015873015873,-321.8253968253968
325.0,-31.98412698412698,-9.285714285714285,-40.55555555555555,170.55555555555554,281.66666666666663,5.476190476190476,-32.77777777777778,42.460317460317455,12.142857142857142,325.0,-40.079365079365076,60.39682539682539,58.650793650793645,64.04761904761905,-325.0,325.0,325.0,175.95238095238093,179.60317460317458,117.38095238095238,-0.23809523809523808,-0.5555555555555556,-321.8253968253968
325.0,-31.98412698412698,-9.285714285714285,-40.55555555555555,170.55555555555554,281.66666666666663,5.476190476190476,-32.77777777777778,42.460317460317455,12.142857142857142,325.0,-40.079365079365076,60.39682539682539,58.650793650793645,64.04761904761905,-325.0,325.0,325.0,175.95238095238093,179.60317460317458,117.38095238095238,-0.23809523809523808,-0.5555555555555556,-321.8253968253968
325.0,-31.507936507936506,-2.142857142857143,-40.079365079365076,169.76190476190476,276.90476190476187,21.984126984126984,-32.14285714285714,41.82539682539682,43.25396825396825,325.0,-39.44444444444444,69.6031746031746,57.53968253968254,90.71428571428571,-325.0,325.0,325.0,204.68253968253967,176.58730158730157,115.31746031746032,0.23809523809523808,-1.1904761904761905,-321.8253968253968
325.0,-31.507936507936506,-2.142857142857143,-40.079365079365076,169.76190476190476,276.90476190476187,21.984126984126984,-32.14285714285714,41.82539682539682,43.25396825396825,325.0,-39.44444444444444,69.6031746031746,57.53968253968254,90.71428571428571,-325.0,325.0,325.0,204.68253968253967,176.58730158730157,115.31746031746032,0.23809523809523808,-1.1904761904761905,-321.8253968253968
325.0,-31.03174603174603,8.333333333333332,-39.12698412698413,168.8095238095238,272.46031746031747,17.539682539682538,-31.825396825396822,41.03174603174603,71.03174603174602,325.0,-38.80952380952381,65.95238095238095,56.42857142857142,85.63492063492063,-325.0,325.0,325.0,212.93650793650792,173.73015873015873,113.4126984126984,0.7142857142857142,-1.0317460317460316,-321.8253968253968
325.0,-31.03174603174603,8.333333333333332,-39.12698412698413,168.8095238095238,272.46031746031747,17.539682539682538,-31.825396825396822,41.03174603174603,71.03174603174602,325.0,-38.80952380952381,65.95238095238095,56.42857142857142,85.63492063492063,-325.0,325.0,325.0,212.93650793650792,173.73015873015873,113.4126984126984,0.7142857142857142,-1.0317460317460316,-321.8253968253968
325.0,-30.555555555555554,6.26984126984127,-38.65079365079365,168.8095238095238,269.1269841269841,7.857142857142857,-31.349206349206348,40.55555555555555,92.93650793650794,325.0,-38.33333333333333,54.047619047619044,55.95238095238095,74.68253968253968,-325.0,325.0,325.0,210.7142857142857,171.5079365079365,111.82539682539682,1.507936507936508,0.5555555555555556,-166.26984126984127
325.0,-30.555555555555554,6.26984126984127,-38.65079365079365,168.8095238095238,269.1269841269841,7.857142857142857,-31.349206349206348,40.55555555555555,92.93650793650794,325.0,-38.33333333333333,54.047619047619044,55.95238095238095,74.68253968253968,-325.0,325.0,325.0,210.7142857142857,171.5079365079365,111.82539682539682,1.507936507936508,0.5555555555555556,-166.26984126984127
325.0,-30.07936507936508,12.142857142857142,-37.857142857142854,185.79365079365078,263.57142857142856,22.777777777777775,-30.71428571428571,39.6031746031746,100.07936507936508,325.0,-37.53968253968254,55.0,54.68253968253968,96.26984126984127,-325.0,325.0,325.0,222.3015873015873,167.85714285714286,109.28571428571428,-0.23809523809523808,-0.07936507936507936,-166.26984126984127
325.0,-30.07936507936508,12.142857142857142,-37.857142857142854,185.79365079365078,263.57142857142856,22.777777777777775,-30.71428571428571,39.6031746031746,100.07936507936508,325.0,-37.53968253968254,55.0,54.68253968253968,96.26984126984127,-325.0,325.0,325.0,222.3015873015873,167.85714285714286,109.28571428571428,-0.23809523809523808,-0.07936507936507936,-166.26984126984127
325.0,-29.6031746031746,25.634920634920633,-37.38095238095238,236.9047619047619,259.1269841269841,35.63492063492063,-30.238095238095237,38.96825396825397,104.04761904761904,325.0,-36.904761904761905,100.39682539682539,53.73015873015873,108.80952380952381,-325.0,325.0,325.0,230.3968253968254,164.84126984126982,107.38095238095238,-0.23809523809523808,-0.5555555555555556,-166.26984126984127
325.0,-29.6031746031746,25.634920634920633,-37.38095238095238,236.9047619047619,259.1269841269841,35.63492063492063,-30.238095238095237,38.96825396825397,104.04761904761904,325.0,-36.904761904761905,100.39682539682539,53.73015873015873,108.80952380952381,-325.0,325.0,325.0,230.3968253968254,164.84126984126982,107.38095238095238,-0.23809523809523808,-0.5555555555555556,-166.26984126984127
325.0,-29.126984126984127,27.063492063492063,-36.74603174603175,292.6190476190476,255.0,42.14285714285714,-29.76190476190476,38.33333333333333,98.17460317460316,325.0,-36.42857142857142,101.03174603174602,52.77777777777777,109.6031746031746,-325.0,325.0,325.0,244.84126984126982,162.46031746031744,105.47619047619047,-0.23809523809523808,-0.7142857142857142,-166.26984126984127
325.0,-29.126984126984127,27.063492063492063,-36.74603174603175,292.6190476190476,255.0,42.14285714285714,-29.76190476190476,38.33333333333333,98.17460317460316,325.0,-36.42857142857142,101.03174603174602,52.77777777777777,109.6031746031746,-325.0,325.0,325.0,244.84126984126982,162.46031746031744,105.47619047619047,-0.23809523809523808,-0.7142857142857142,-166.26984126984127
325.0,-28.65079365079365,24.047619047619047,-36.269841269841265,314.04761904761904,251.8253968253968,38.49206349206349,-29.6031746031746,37.857142857142854,54.68253968253968,325.0,-35.79365079365079,95.63492063492063,52.14285714285714,103.88888888888889,-325.0,325.0,325.0,253.25396825396825,160.3968253968254,103.88888888888889,0.23809523809523808,-0.7142857142857142,-166.26984126984127
325.0,-28.65079365079365,24.047619047619047,-36.269841269841265,314.04761904761904,251.8253968253968,38.49206349206349,-29.6031746031746,37.857142857142854,54.68253968253968,325.0,-35.79365079365079,95.63492063492063,52.14285714285714,103.88888888888889,-325.0,325.0,325.0,253.25396825396825,160.3968253968254,103.88888888888889,0.23809523809523808,-0.7142857142857142,-166.26984126984127
