Fp1[1],Fp2[2],F3[3],F4[4],C3[5],C4[6],P3[7],P4[8],O1[9],O2[10],F7[11],F8[12],T3[13],T4[14],T5[15],T6[16],Fz[17],Pz[18],Cz[19],Pg1[20],Pg2[21],EOGR[22],EOOGL[23],EMG[24]
-276.74603174603175,325.0,325.0,325.0,-14.047619047619047,-252.3015873015873,325.0,325.0,-256.90476190476187,325.0,257.06349206349205,325.0,325.0,-4.841269841269841,325.0,254.68253968253967,269.76190476190476,172.61904761904762,325.0,-118.65079365079364,-171.66666666666666,0.7142857142857142,-1.0317460317460316,-166.26984126984127
-276.74603174603175,325.0,325.0,325.0,-14.047619047619047,-252.3015873015873,325.0,325.0,-256.90476190476187,325.0,257.06349206349205,325.0,325.0,-4.841269841269841,325.0,254.68253968253967,269.76190476190476,172.61904761904762,325.0,-118.65079365079364,-171.66666666666666,0.7142857142857142,-1.0317460317460316,-166.26984126984127
-261.8253968253968,325.0,325.0,325.0,-13.412698412698411,-238.65079365079364,325.0,325.0,-242.93650793650792,325.0,263.4126984126984,325.0,325.0,-4.682539682539682,325.0,242.14285714285714,73.57142857142857,187.06349206349205,325.0,-111.82539682539682,-161.5079365079365,-0.5555555555555556,-1.349206349206349,-166.26984126984127
-261.8253968253968,325.0,325.0,325.0,-13.412698412698411,-238.65079365079364,325.0,325.0,-242.93650793650792,325.0,263.4126984126984,325.0,325.0,-4.682539682539682,325.0,242.14285714285714,73.57142857142857,187.06349206349205,325.0,-111.82539682539682,-161.5079365079365,-0.5555555555555556,-1.349206349206349,-166.26984126984127
-245.47619047619045,325.0,325.0,325.0,-12.46031746031746,-223.4126984126984,325.0,325.0,-227.2222222222222,325.0,261.8253968253968,325.0,325.0,-4.365079365079365,325.0,228.015873015873,-305.0,197.38095238095238,325.0,-104.04761904761904,-150.3968253968254,-0.07936507936507936,-0.23809523809523808,-166.26984126984127
-245.47619047619045,325.0,325.0,325.0,-12.46031746031746,-223.4126984126984,325.0,325.0,-227.2222222222222,325.0,261.8253968253968,325.0,325.0,-4.365079365079365,325.0,228.015873015873,-305.0,197.38095238095238,325.0,-104.04761904761904,-150.3968253968254,-0.07936507936507936,-0.23809523809523808,-166.26984126984127
-236.42857142857142,325.0,325.0,325.0,-11.984126984126984,-215.15873015873015,325.0,325.0,-218.96825396825395,325.0,252.14285714285714,325.0,325.0,-4.2063492063492065,325.0,220.2380952380952,-294.04761904761904,195.15873015873015,325.0,-100.07936507936508,-144.36507936507937,-0.23809523809523808,-0.7142857142857142,-166.26984126984127
-236.42857142857142,325.0,325.0,325.0,-11.984126984126984,-215.15873015873015,325.0,325.0,-218.96825396825395,325.0,252.14285714285714,325.0,325.0,-4.2063492063492065,325.0,220.2380952380952,-294.04761904761904,195.15873015873015,325.0,-100.07936507936508,-144.36507936507937,-0.23809523809523808,-0.7142857142857142,-166.26984126984127
-231.98412698412696,325.0,325.0,325.0,-11.984126984126984,-211.03174603174602,325.0,325.0,-214.84126984126982,325.0,242.3015873015873,325.0,325.0,-4.2063492063492065,325.0,216.74603174603175,-288.3333333333333,189.28571428571428,325.0,-98.01587301587301,-141.34920634920636,-0.23809523809523808,-0.873015873015873,-166.26984126984127
-231.98412698412696,325.0,325.0,325.0,-11.984126984126984,-211.03174603174602,325.0,325.0,-214.84126984126982,325.0,242.3015873015873,325.0,325.0,-4.2063492063492065,325.0,216.74603174603175,-288.3333333333333,189.28571428571428,325.0,-98.01587301587301,-141.34920634920636,-0.23809523809523808,-0.873015873015873,-166.26984126984127
-228.015873015873,325.0,325.0,325.0,-11.507936507936508,-207.06349206349205,325.0,325.0,-210.87301587301587,325.0,8.333333333333332,325.0,325.0,-4.0476190476190474,325.0,212.93650793650792,-282.9365079365079,197.2222222222222,325.0,-96.1111111111111,-138.65079365079364,-0.5555555555555556,-0.5555555555555556,-321.8253968253968
-228.015873015873,325.0,325.0,325.0,-11.507936507936508,-207.06349206349205,325.0,325.0,-210.87301587301587,325.0,8.333333333333332,325.0,325.0,-4.0476190476190474,325.0,212.93650793650792,-282.9365079365079,197.2222222222222,325.0,-96.1111111111111,-138.65079365079364,-0.5555555555555556,-0.5555555555555556,-321.8253968253968
-223.7301587301587,325.0,325.0,325.0,-11.507936507936508,-203.4126984126984,325.0,325.0,-206.9047619047619,325.0,-314.5238095238095,325.0,325.0,-4.0476190476190474,325.0,209.28571428571428,-277.53968253968253,202.14285714285714,325.0,-94.04761904761904,-135.79365079365078,-0.5555555555555556,-1.0317460317460316,-321.8253968253968
-223.7301587301587,325.0,325.0,325.0,-11.507936507936508,-203.4126984126984,325.0,325.0,-206.9047619047619,325.0,-314.5238095238095,325.0,325.0,-4.0476190476190474,325.0,209.28571428571428,-277.53968253968253,202.14285714285714,325.0,-94.04761904761904,-135.79365079365078,-0.5555555555555556,-1.0317460317460316,-321.8253968253968
-219.60317460317458,325.0,325.0,325.0,-11.349206349206348,-199.44444444444443,325.0,325.0,-202.93650793650792,325.0,-304.8412698412698,325.0,325.0,-3.888888888888889,325.0,205.79365079365078,-272.3015873015873,201.8253968253968,325.0,-92.30158730158729,-133.0952380952381,-0.873015873015873,-0.873015873015873,-321.8253968253968
-219.60317460317458,325.0,325.0,325.0,-11.349206349206348,-199.44444444444443,325.0,325.0,-202.93650793650792,325.0,-304.8412698412698,325.0,325.0,-3.888888888888889,325.0,205.79365079365078,-272.3015873015873,201.8253968253968,325.0,-92.30158730158729,-133.0952380952381,-0.873015873015873,-0.873015873015873,-321.8253968253968
-215.63492063492063,325.0,325.0,325.0,-11.19047619047619,-195.79365079365078,325.0,325.0,-199.28571428571428,325.0,-297.38095238095235,325.0,325.0,-3.888888888888889,325.0,202.3015873015873,-267.06349206349205,202.3015873015873,325.0,-90.39682539682539,-130.23809523809524,-0.07936507936507936,-0.3968253968253968,-321.8253968253968
-215.63492063492063,325.0,325.0,325.0,-11.19047619047619,-195.79365079365078,325.0,325.0,-199.28571428571428,325.0,-297.38095238095235,325.0,325.0,-3.888888888888889,325.0,202.3015873015873,-267.06349206349205,202.3015873015873,325.0,-90.39682539682539,-130.23809523809524,-0.07936507936507936,-0.3968253968253968,-321.8253968253968
-211.5079365079365,325.0,325.0,325.0,-10.873015873015872,-192.3015873015873,325.0,325.0,-195.47619047619045,325.0,-292.1428571428571,325.0,325.0,-3.888888888888889,325.0,196.58730158730157,-262.1428571428571,198.33333333333331,325.0,-88.80952380952381,-127.6984126984127,-1.507936507936508,-0.07936507936507936,-321.8253968253968
-211.5079365079365,325.0,325.0,325.0,-10.873015873015872,-192.3015873015873,325.0,325.0,-195.47619047619045,325.0,-292.1428571428571,325.0,325.0,-3.888888888888889,325.0,196.58730158730157,-262.1428571428571,198.33333333333331,325.0,-88.80952380952381,-127.6984126984127,-1.507936507936508,-0.07936507936507936,-321.8253968253968
-207.69841269841268,325.0,325.0,325.0,-10.714285714285714,-188.8095238095238,325.0,325.0,-191.98412698412696,325.0,-286.74603174603175,325.0,325.0,-3.73015873015873,325.0,-38.96825396825397,-257.06349206349205,198.17460317460316,325.0,-86.9047619047619,-125.15873015873015,-0.7142857142857142,-0.23809523809523808,-166.26984126984127
-207.69841269841268,325.0,325.0,325.0,-10.714285714285714,-188.8095238095238,325.0,325.0,-191.98412698412696,325.0,-286.74603174603175,325.0,325.0,-3.73015873015873,325.0,-38.96825396825397,-257.06349206349205,198.17460317460316,325.0,-86.9047619047619,-125.15873015873015,-0.7142857142857142,-0.23809523809523808,-166.26984126984127
-201.8253968253968,325.0,325.0,325.0,-10.555555555555555,-183.57142857142856,325.0,325.0,-186.74603174603175,325.0,-278.968253968254,325.0,325.0,-3.571428571428571,325.0,-325.0,-249.9206349206349,199.44444444444443,325.0,-84.36507936507937,-121.5079365079365,-1.0317460317460316,-0.873015873015873,-166.26984126984127
-201.8253968253968,325.0,325.0,325.0,-10.555555555555555,-183.57142857142856,325.0,325.0,-186.74603174603175,325.0,-278.968253968254,325.0,325.0,-3.571428571428571,325.0,-325.0,-249.9206349206349,199.44444444444443,325.0,-84.36507936507937,-121.5079365079365,-1.0317460317460316,-0.873015873015873,-166.26984126984127
-166.26984126984127,325.0,262.1428571428571,300.87301587301585,-9.285714285714285,-150.7142857142857,-193.7301587301587,301.66666666666663,-153.25396825396825,305.1587301587301,-229.60317460317458,296.4285714285714,325.0,-3.4126984126984126,325.0,-325.0,-204.52380952380952,196.9047619047619,325.0,-68.4920634920635,-98.33333333333333,-0.7142857142857142,-0.5555555555555556,-166.26984126984127
-166.26984126984127,325.0,262.1428571428571,300.87301587301585,-9.285714285714285,-150.7142857142857,-193.7301587301587,301.66666666666663,-153.25396825396825,305.1587301587301,-229.60317460317458,296.4285714285714,325.0,-3.4126984126984126,325.0,-325.0,-204.52380952380952,196.9047619047619,325.0,-68.4920634920635,-98.33333333333333,-0.7142857142857142,-0.5555555555555556,-166.26984126984127
-147.2222222222222,325.0,199.28571428571428,276.74603174603175,-8.65079365079365,-133.4126984126984,-325.0,278.3333333333333,-135.63492063492063,285.4761904761905,-203.7301587301587,267.85714285714283,325.0,-3.253968253968254,325.0,-325.0,-180.7142857142857,187.85714285714283,325.0,-60.238095238095234,-86.26984126984127,-0.873015873015873,0.5555555555555556,-166.26984126984127
-147.2222222222222,325.0,199.28571428571428,276.74603174603175,-8.65079365079365,-133.4126984126984,-325.0,278.3333333333333,-135.63492063492063,285.4761904761905,-203.7301587301587,267.85714285714283,325.0,-3.253968253968254,325.0,-325.0,-180.7142857142857,187.85714285714283,325.0,-60.238095238095234,-86.26984126984127,-0.873015873015873,0.5555555555555556,-166.26984126984127
-103.57142857142857,-0.07936507936507936,-62.93650793650793,195.95238095238093,-6.746031746031746,-93.88888888888889,-281.8253968253968,-23.41269841269841,-18.96825396825397,-19.76190476190476,-144.2063492063492,190.07936507936506,-0.07936507936507936,-2.7777777777777777,-0.07936507936507936,-294.8412698412698,-126.74603174603173,-12.936507936507935,-0.07936507936507936,-41.98412698412698,-59.6031746031746,-0.873015873015873,-0.3968253968253968,-166.26984126984127
-103.57142857142857,-0.07936507936507936,-62.93650793650793,195.95238095238093,-6.746031746031746,-93.88888888888889,-281.8253968253968,-23.41269841269841,-18.96825396825397,-19.76190476190476,-144.2063492063492,190.07936507936506,-0.07936507936507936,-2.7777777777777777,-0.07936507936507936,-294.8412698412698,-126.74603174603173,-12.936507936507935,-0.07936507936507936,-41.98412698412698,-59.6031746031746,-0.873015873015873,-0.3968253968253968,-166.26984126984127
-59.92063492063492,-325.0,-325.0,115.31746031746032,-4.682539682539682,-54.2063492063492,-238.65079365079364,-325.0,97.85714285714285,-325.0,-84.68253968253968,112.30158730158729,-325.0,-2.142857142857143,-325.0,-264.68253968253964,-72.77777777777777,-213.57142857142856,-325.0,-23.730158730158728,-32.77777777777778,-0.7142857142857142,-1.1904761904761905,-321.8253968253968
-59.92063492063492,-325.0,-325.0,115.31746031746032,-4.682539682539682,-54.2063492063492,-238.65079365079364,-325.0,97.85714285714285,-325.0,-84.68253968253968,112.30158730158729,-325.0,-2.142857142857143,-325.0,-264.68253968253964,-72.77777777777777,-213.57142857142856,-325.0,-23.730158730158728,-32.77777777777778,-0.7142857142857142,-1.1904761904761905,-321.8253968253968
-28.49206349206349,-325.0,-244.36507936507934,-325.0,-4.0476190476190474,-25.476190476190474,-113.73015873015872,-325.0,325.0,-243.09523809523807,-40.079365079365076,-325.0,-213.57142857142856,325.0,-223.09523809523807,-129.44444444444443,-33.25396825396825,-101.5079365079365,-245.15873015873015,-11.507936507936508,-15.158730158730158,-0.07936507936507936,-0.5555555555555556,-321.8253968253968
-28.49206349206349,-325.0,-244.36507936507934,-325.0,-4.0476190476190474,-25.476190476190474,-113.73015873015872,-325.0,325.0,-243.09523809523807,-40.079365079365076,-325.0,-213.57142857142856,325.0,-223.09523809523807,-129.44444444444443,-33.25396825396825,-101.5079365079365,-245.15873015873015,-11.507936507936508,-15.158730158730158,-0.07936507936507936,-0.5555555555555556,-321.8253968253968
-28.015873015873016,-325.0,-235.63492063492063,-325.0,-4.0476190476190474,-25.158730158730158,-111.66666666666666,-325.0,325.0,-238.96825396825395,-39.44444444444444,-325.0,-209.9206349206349,325.0,-219.28571428571428,-97.38095238095238,-32.61904761904762,-99.92063492063491,-241.03174603174602,-11.507936507936508,-14.84126984126984,0.5555555555555556,-0.873015873015873,-321.8253968253968
-28.015873015873016,-325.0,-235.63492063492063,-325.0,-4.0476190476190474,-25.158730158730158,-111.66666666666666,-325.0,325.0,-238.96825396825395,-39.44444444444444,-325.0,-209.9206349206349,325.0,-219.28571428571428,-97.38095238095238,-32.61904761904762,-99.92063492063491,-241.03174603174602,-11.507936507936508,-14.84126984126984,0.5555555555555556,-0.873015873015873,-321.8253968253968
-27.698412698412696,-325.0,-220.7142857142857,-325.0,-3.888888888888889,-24.68253968253968,-109.76190476190476,-325.0,325.0,-234.84126984126982,-38.65079365079365,-325.0,-206.26984126984127,325.0,-215.79365079365078,-96.9047619047619,-31.98412698412698,-98.17460317460316,-237.06349206349205,-11.19047619047619,-14.523809523809524,-0.23809523809523808,-0.3968253968253968,-321.8253968253968
-27.698412698412696,-325.0,-220.7142857142857,-325.0,-3.888888888888889,-24.68253968253968,-109.76190476190476,-325.0,325.0,-234.84126984126982,-38.65079365079365,-325.0,-206.26984126984127,325.0,-215.79365079365078,-96.9047619047619,-31.98412698412698,-98.17460317460316,-237.06349206349205,-11.19047619047619,-14.523809523809524,-0.23809523809523808,-0.3968253968253968,-321.8253968253968
-27.063492063492063,-325.0,-215.79365079365078,-325.0,-3.888888888888889,-24.206349206349206,-107.85714285714285,-325.0,325.0,-230.87301587301587,-38.17460317460317,-325.0,-202.77777777777777,325.0,-211.98412698412696,182.46031746031744,-31.349206349206348,-96.42857142857142,-233.09523809523807,-11.031746031746032,-14.365079365079364,-1.0317460317460316,-0.7142857142857142,-321.8253968253968
-27.063492063492063,-325.0,-215.79365079365078,-325.0,-3.888888888888889,-24.206349206349206,-107.85714285714285,-325.0,325.0,-230.87301587301587,-38.17460317460317,-325.0,-202.77777777777777,325.0,-211.98412698412696,182.46031746031744,-31.349206349206348,-96.42857142857142,-233.09523809523807,-11.031746031746032,-14.365079365079364,-1.0317460317460316,-0.7142857142857142,-321.8253968253968
-26.746031746031743,-325.0,-205.79365079365078,-325.0,-3.888888888888889,-23.88888888888889,-106.1111111111111,-325.0,325.0,-226.9047619047619,-37.38095238095238,-325.0,-199.28571428571428,325.0,-208.65079365079364,188.4920634920635,-30.87301587301587,-94.84126984126983,-229.28571428571428,-10.873015873015872,-14.206349206349206,-1.349206349206349,-0.5555555555555556,-166.26984126984127
-26.746031746031743,-325.0,-205.79365079365078,-325.0,-3.888888888888889,-23.88888888888889,-106.1111111111111,-325.0,325.0,-226.9047619047619,-37.38095238095238,-325.0,-199.28571428571428,325.0,-208.65079365079364,188.4920634920635,-30.87301587301587,-94.84126984126983,-229.28571428571428,-10.873015873015872,-14.206349206349206,-1.349206349206349,-0.5555555555555556,-166.26984126984127
-26.26984126984127,-325.0,-193.25396825396825,-325.0,-3.888888888888889,-23.57142857142857,-104.68253968253968,-325.0,325.0,-224.04761904761904,-36.904761904761905,-325.0,-196.58730158730157,325.0,-205.95238095238093,163.4126984126984,-30.238095238095237,-93.57142857142857,-226.1111111111111,-10.714285714285714,-14.047619047619047,-0.7142857142857142,-0.5555555555555556,-166.26984126984127
-26.26984126984127,-325.0,-193.25396825396825,-325.0,-3.888888888888889,-23.57142857142857,-104.68253968253968,-325.0,325.0,-224.04761904761904,-36.904761904761905,-325.0,-196.58730158730157,325.0,-205.95238095238093,163.4126984126984,-30.238095238095237,-93.57142857142857,-226.1111111111111,-10.714285714285714,-14.047619047619047,-0.7142857142857142,-0.5555555555555556,-166.26984126984127
-25.79365079365079,-325.0,-181.984126984127,-325.0,-3.888888888888889,-22.936507936507937,-102.14285714285714,-325.0,325.0,-218.4920634920635,-35.95238095238095,-325.0,-191.66666666666666,325.0,-201.03174603174602,244.2063492063492,-29.6031746031746,-91.19047619047619,-220.55555555555554,-10.555555555555555,-13.73015873015873,-0.3968253968253968,-0.873015873015873,-166.26984126984127
-25.79365079365079,-325.0,-181.984126984127,-325.0,-3.888888888888889,-22.936507936507937,-102.14285714285714,-325.0,325.0,-218.4920634920635,-35.95238095238095,-325.0,-191.66666666666666,325.0,-201.03174603174602,244.2063492063492,-29.6031746031746,-91.19047619047619,-220.55555555555554,-10.555555555555555,-13.73015873015873,-0.3968253968253968,-0.873015873015873,-166.26984126984127
-23.41269841269841,-308.968253968254,-123.73015873015872,-325.0,-3.888888888888889,-20.71428571428571,-64.36507936507937,-316.26984126984127,325.0,-196.9047619047619,-32.460317460317455,-325.0,-172.77777777777777,325.0,-181.66666666666666,325.0,-26.9047619047619,-82.3015873015873,-199.12698412698413,-9.761904761904761,-12.3015873015873,-0.23809523809523808,-1.1904761904761905,-166.26984126984127
-23.41269841269841,-308.968253968254,-123.73015873015872,-325.0,-3.888888888888889,-20.71428571428571,-64.36507936507937,-316.26984126984127,325.0,-196.9047619047619,-32.460317460317455,-325.0,-172.77777777777777,325.0,-181.66666666666666,325.0,-26.9047619047619,-82.3015873015873,-199.12698412698413,-9.761904761904761,-12.3015873015873,-0.23809523809523808,-1.1904761904761905,-166.26984126984127
-21.507936507936506,-292.9365079365079,-76.74603174603175,-325.0,-3.73015873015873,-18.96825396825397,-29.126984126984127,-307.38095238095235,325.0,-181.03174603174602,-29.920634920634917,-325.0,-158.65079365079364,325.0,-167.2222222222222,325.0,-24.68253968253968,-75.63492063492063,-183.09523809523807,-9.126984126984127,-11.349206349206348,-0.3968253968253968,-1.1904761904761905,-166.26984126984127
-21.507936507936506,-292.9365079365079,-76.74603174603175,-325.0,-3.73015873015873,-18.96825396825397,-29.126984126984127,-307.38095238095235,325.0,-181.03174603174602,-29.920634920634917,-325.0,-158.65079365079364,325.0,-167.2222222222222,325.0,-24.68253968253968,-75.63492063492063,-183.09523809523807,-9.126984126984127,-11.349206349206348,-0.3968253968253968,-1.1904761904761905,-166.26984126984127
-21.507936507936506,-292.9365079365079,-76.74603174603175,-325.0,-3.73015873015873,-18.96825396825397,-29.126984126984127,-307.38095238095235,325.0,-181.03174603174602,-29.920634920634917,-325.0,-158.65079365079364,325.0,-167.2222222222222,325.0,-24.68253968253968,-75.63492063492063,-183.09523809523807,-9.126984126984127,-11.349206349206348,-0.3968253968253968,-1.1904761904761905,-321.8253968253968
-21.507936507936506,-292.9365079365079,-76.74603174603175,-325.0,-3.73015873015873,-18.96825396825397,-29.126984126984127,-307.38095238095235,325.0,-181.03174603174602,-29.920634920634917,-325.0,-158.65079365079364,325.0,-167.2222222222222,325.0,-24.68253968253968,-75.63492063492063,-183.09523809523807,-9.126984126984127,-11.349206349206348,-0.3968253968253968,-1.1904761904761905,-321.8253968253968
-18.015873015873016,-242.6190476190476,-15.793650793650793,-325.0,-3.571428571428571,-15.634920634920634,81.98412698412697,-255.15873015873015,325.0,-148.4920634920635,-24.68253968253968,-323.4126984126984,-129.44444444444443,325.0,-137.85714285714286,325.0,-20.238095238095237,-61.666666666666664,-150.7142857142857,-7.698412698412698,-9.285714285714285,0.5555555555555556,-0.873015873015873,-321.8253968253968
-18.015873015873016,-242.6190476190476,-15.793650793650793,-325.0,-3.571428571428571,-15.634920634920634,81.98412698412697,-255.15873015873015,325.0,-148.4920634920635,-24.68253968253968,-323.4126984126984,-129.44444444444443,325.0,-137.85714285714286,325.0,-20.238095238095237,-61.666666666666664,-150.7142857142857,-7.698412698412698,-9.285714285714285,0.5555555555555556,-0.873015873015873,-321.8253968253968
325.0,-74.04761904761904,93.57142857142857,-98.17460317460316,170.55555555555554,325.0,214.04761904761904,-80.55555555555556,104.52380952380952,-43.57142857142857,96.42857142857142,-97.22222222222221,140.07936507936506,128.96825396825395,27.22222222222222,306.90476190476187,155.0,325.0,-45.317460317460316,325.0,282.6190476190476,-0.3968253968253968,0.3968253968253968,-321.8253968253968
325.0,-74.04761904761904,93.57142857142857,-98.17460317460316,170.55555555555554,325.0,214.04761904761904,-80.55555555555556,104.52380952380952,-43.57142857142857,96.42857142857142,-97.22222222222221,140.07936507936506,128.96825396825395,27.22222222222222,306.90476190476187,155.0,325.0,-45.317460317460316,325.0,282.6190476190476,-0.3968253968253968,0.3968253968253968,-321.8253968253968
325.0,-67.85714285714285,92.46031746031746,-89.76190476190476,175.63492063492063,325.0,211.34920634920633,-74.04761904761904,95.63492063492063,-32.77777777777778,210.7142857142857,-88.80952380952381,149.12698412698413,117.38095238095238,61.82539682539682,184.04761904761904,239.9206349206349,325.0,-41.507936507936506,320.7142857142857,258.015873015873,-0.23809523809523808,-0.3968253968253968,-321.8253968253968
325.0,-67.85714285714285,92.46031746031746,-89.76190476190476,175.63492063492063,325.0,211.34920634920633,-74.04761904761904,95.63492063492063,-32.77777777777778,210.7142857142857,-88.80952380952381,149.12698412698413,117.38095238095238,61.82539682539682,184.04761904761904,239.9206349206349,325.0,-41.507936507936506,320.7142857142857,258.015873015873,-0.23809523809523808,-0.3968253968253968,-321.8253968253968
325.0,-61.507936507936506,91.5079365079365,-81.34920634920634,180.87301587301587,325.0,208.8095238095238,-67.38095238095238,86.9047619047619,-21.825396825396822,325.0,-80.23809523809523,158.17460317460316,105.95238095238095,96.42857142857142,61.19047619047619,325.0,325.0,-37.698412698412696,316.4285714285714,233.4126984126984,0.07936507936507936,-1.0317460317460316,-321.8253968253968
325.0,-61.507936507936506,91.5079365079365,-81.34920634920634,180.87301587301587,325.0,208.8095238095238,-67.38095238095238,86.9047619047619,-21.825396825396822,325.0,-80.23809523809523,158.17460317460316,105.95238095238095,96.42857142857142,61.19047619047619,325.0,325.0,-37.698412698412696,316.4285714285714,233.4126984126984,0.07936507936507936,-1.0317460317460316,-321.8253968253968
325.0,-61.507936507936506,91.5079365079365,-81.34920634920634,180.87301587301587,325.0,208.8095238095238,-67.38095238095238,86.9047619047619,-21.825396825396822,325.0,-80.23809523809523,158.17460317460316,105.95238095238095,96.42857142857142,61.19047619047619,325.0,325.0,-37.698412698412696,316.4285714285714,233.4126984126984,0.07936507936507936,-1.0317460317460316,-166.26984126984127
325.0,-61.507936507936506,91.5079365079365,-81.34920634920634,180.87301587301587,325.0,208.8095238095238,-67.38095238095238,86.9047619047619,-21.825396825396822,325.0,-80.23809523809523,158.17460317460316,105.95238095238095,96.42857142857142,61.19047619047619,325.0,325.0,-37.698412698412696,316.4285714285714,233.4126984126984,0.07936507936507936,-1.0317460317460316,-166.26984126984127
325.0,-57.857142857142854,88.01587301587301,-76.26984126984127,182.93650793650792,325.0,194.2063492063492,-63.57142857142857,81.5079365079365,98.96825396825396,325.0,-75.47619047619047,158.65079365079364,99.28571428571428,105.0,-131.984126984127,325.0,325.0,-35.63492063492063,297.85714285714283,218.96825396825395,0.23809523809523808,-0.5555555555555556,-166.26984126984127
325.0,-57.857142857142854,88.01587301587301,-76.26984126984127,182.93650793650792,325.0,194.2063492063492,-63.57142857142857,81.5079365079365,98.96825396825396,325.0,-75.47619047619047,158.65079365079364,99.28571428571428,105.0,-131.984126984127,325.0,325.0,-35.63492063492063,297.85714285714283,218.96825396825395,0.23809523809523808,-0.5555555555555556,-166.26984126984127
325.0,-54.2063492063492,84.68253968253968,-71.19047619047619,185.15873015873015,325.0,179.76190476190476,-59.6031746031746,76.26984126984127,219.76190476190476,325.0,-70.71428571428571,159.28571428571428,92.77777777777777,113.57142857142857,-325.0,325.0,325.0,-33.41269841269841,279.2857142857143,204.68253968253967,0.3968253968253968,0.07936507936507936,-166.26984126984127
325.0,-54.2063492063492,84.68253968253968,-71.19047619047619,185.15873015873015,325.0,179.76190476190476,-59.6031746031746,76.26984126984127,219.76190476190476,325.0,-70.71428571428571,159.28571428571428,92.77777777777777,113.57142857142857,-325.0,325.0,325.0,-33.41269841269841,279.2857142857143,204.68253968253967,0.3968253968253968,0.07936507936507936,-166.26984126984127
325.0,-42.460317460317455,72.61904761904762,-55.79365079365079,180.07936507936506,266.58730158730157,156.74603174603175,-47.06349206349206,59.6031746031746,325.0,325.0,-55.15873015873016,168.8095238095238,71.66666666666666,154.68253968253967,-325.0,325.0,325.0,-23.253968253968253,218.8095238095238,158.96825396825395,-0.3968253968253968,-0.3968253968253968,-166.26984126984127
325.0,-42.460317460317455,72.61904761904762,-55.79365079365079,180.07936507936506,266.58730158730157,156.74603174603175,-47.06349206349206,59.6031746031746,325.0,325.0,-55.15873015873016,168.8095238095238,71.66666666666666,154.68253968253967,-325.0,325.0,325.0,-23.253968253968253,218.8095238095238,158.96825396825395,-0.3968253968253968,-0.3968253968253968,-166.26984126984127
325.0,-42.460317460317455,72.61904761904762,-55.79365079365079,180.07936507936506,266.58730158730157,156.74603174603175,-47.06349206349206,59.6031746031746,325.0,325.0,-55.15873015873016,168.8095238095238,71.66666666666666,154.68253968253967,-325.0,325.0,325.0,-23.253968253968253,218.8095238095238,158.96825396825395,-0.3968253968253968,-0.3968253968253968,-166.26984126984127
325.0,-42.460317460317455,72.61904761904762,-55.79365079365079,180.07936507936506,266.58730158730157,156.74603174603175,-47.06349206349206,59.6031746031746,325.0,325.0,-55.15873015873016,168.8095238095238,71.66666666666666,154.68253968253967,-325.0,325.0,325.0,-23.253968253968253,218.8095238095238,158.96825396825395,-0.3968253968253968,-0.3968253968253968,-166.26984126984127
325.0,-42.460317460317455,72.61904761904762,-55.79365079365079,180.07936507936506,266.58730158730157,156.74603174603175,-47.06349206349206,59.6031746031746,325.0,325.0,-55.15873015873016,168.8095238095238,71.66666666666666,154.68253968253967,-325.0,325.0,325.0,-23.253968253968253,218.8095238095238,158.96825396825395,-0.3968253968253968,-0.3968253968253968,-321.8253968253968
325.0,-42.460317460317455,72.61904761904762,-55.79365079365079,180.07936507936506,266.58730158730157,156.74603174603175,-47.06349206349206,59.6031746031746,325.0,325.0,-55.15873015873016,168.8095238095238,71.66666666666666,154.68253968253967,-325.0,325.0,325.0,-23.253968253968253,218.8095238095238,158.96825396825395,-0.3968253968253968,-0.3968253968253968,-321.8253968253968
321.19047619047615,-36.11111111111111,70.71428571428571,-47.22222222222222,252.46031746031744,225.63492063492063,134.04761904761904,-40.238095238095234,50.39682539682539,325.0,325.0,-46.74603174603175,165.0,60.079365079365076,165.79365079365078,-0.07936507936507936,325.0,325.0,77.85714285714285,184.84126984126982,133.25396825396825,0.07936507936507936,-0.23809523809523808,-321.8253968253968
321.19047619047615,-36.11111111111111,70.71428571428571,-47.22222222222222,252.46031746031744,225.63492063492063,134.04761904761904,-40.238095238095234,50.39682539682539,325.0,325.0,-46.74603174603175,165.0,60.079365079365076,165.79365079365078,-0.07936507936507936,325.0,325.0,77.85714285714285,184.84126984126982,133.25396825396825,0.07936507936507936,-0.23809523809523808,-321.8253968253968
317.38095238095235,-29.6031746031746,68.96825396825396,-38.49206349206349,325.0,184.68253968253967,111.34920634920634,-33.25396825396825,41.19047619047619,325.0,325.0,-38.17460317460317,161.19047619047618,48.49206349206349,176.9047619047619,325.0,325.0,325.0,179.12698412698413,150.87301587301587,107.6984126984127,0.7142857142857142,-0.07936507936507936,-321.8253968253968
317.38095238095235,-29.6031746031746,68.96825396825396,-38.49206349206349,325.0,184.68253968253967,111.34920634920634,-33.25396825396825,41.19047619047619,325.0,325.0,-38.17460317460317,161.19047619047618,48.49206349206349,176.9047619047619,325.0,325.0,325.0,179.12698412698413,150.87301587301587,107.6984126984127,0.7142857142857142,-0.07936507936507936,-321.8253968253968
191.5079365079365,-18.49206349206349,58.96825396825397,-23.730158730158728,325.0,113.25396825396825,67.38095238095238,-21.03174603174603,-42.3015873015873,98.17460317460316,279.44444444444446,-23.88888888888889,116.58730158730158,28.96825396825397,154.2063492063492,325.0,258.8095238095238,211.5079365079365,302.1428571428571,92.14285714285714,64.52380952380952,-0.3968253968253968,0.23809523809523808,-321.8253968253968
191.5079365079365,-18.49206349206349,58.96825396825397,-23.730158730158728,325.0,113.25396825396825,67.38095238095238,-21.03174603174603,-42.3015873015873,98.17460317460316,279.44444444444446,-23.88888888888889,116.58730158730158,28.96825396825397,154.2063492063492,325.0,258.8095238095238,211.5079365079365,302.1428571428571,92.14285714285714,64.52380952380952,-0.3968253968253968,0.23809523809523808,-321.8253968253968
89.28571428571428,48.17460317460317,45.95238095238095,-11.666666666666666,222.93650793650792,54.36507936507936,38.80952380952381,143.09523809523807,-115.0,102.14285714285714,136.11111111111111,-11.666666666666666,100.71428571428571,13.73015873015873,142.3015873015873,-325.0,122.46031746031746,103.73015873015872,260.55555555555554,43.888888888888886,30.07936507936508,-0.7142857142857142,-0.5555555555555556,-321.8253968253968
89.28571428571428,48.17460317460317,45.95238095238095,-11.666666666666666,222.93650793650792,54.36507936507936,38.80952380952381,143.09523809523807,-115.0,102.14285714285714,136.11111111111111,-11.666666666666666,100.71428571428571,13.73015873015873,142.3015873015873,-325.0,122.46031746031746,103.73015873015872,260.55555555555554,43.888888888888886,30.07936507936508,-0.7142857142857142,-0.5555555555555556,-321.8253968253968
87.6984126984127,34.84126984126984,22.777777777777775,-11.666666666666666,219.28571428571428,53.41269841269841,23.730158730158728,36.269841269841265,-120.87301587301586,90.07936507936508,133.88888888888889,-11.507936507936508,96.42857142857142,13.412698412698411,118.17460317460316,-318.6507936507936,120.39682539682539,101.82539682539682,245.3174603174603,43.095238095238095,29.6031746031746,-0.5555555555555556,-0.873015873015873,-166.26984126984127
87.6984126984127,34.84126984126984,22.777777777777775,-11.666666666666666,219.28571428571428,53.41269841269841,23.730158730158728,36.269841269841265,-120.87301587301586,90.07936507936508,133.88888888888889,-11.507936507936508,96.42857142857142,13.412698412698411,118.17460317460316,-318.6507936507936,120.39682539682539,101.82539682539682,245.3174603174603,43.095238095238095,29.6031746031746,-0.5555555555555556,-0.873015873015873,-166.26984126984127
84.2063492063492,39.76190476190476,23.88888888888889,-11.507936507936508,211.34920634920633,51.507936507936506,22.936507936507937,-0.5555555555555556,-122.93650793650794,75.47619047619047,128.8095238095238,-11.031746031746032,86.58730158730158,12.777777777777777,119.76190476190476,-282.46031746031747,115.79365079365078,98.17460317460316,231.5079365079365,41.666666666666664,28.49206349206349,-0.7142857142857142,-0.5555555555555556,-166.26984126984127
84.2063492063492,39.76190476190476,23.88888888888889,-11.507936507936508,211.34920634920633,51.507936507936506,22.936507936507937,-0.5555555555555556,-122.93650793650794,75.47619047619047,128.8095238095238,-11.031746031746032,86.58730158730158,12.777777777777777,119.76190476190476,-282.46031746031747,115.79365079365078,98.17460317460316,231.5079365079365,41.666666666666664,28.49206349206349,-0.7142857142857142,-0.5555555555555556,-166.26984126984127
49.12698412698413,74.04761904761904,5.952380952380952,48.33333333333333,122.46031746031746,30.07936507936508,4.365079365079365,76.58730158730158,-109.44444444444444,15.0,74.68253968253968,58.33333333333333,54.047619047619044,7.063492063492063,78.33333333333333,-45.63492063492063,66.58730158730158,57.22222222222222,128.96825396825395,9.920634920634921,-72.14285714285714,-0.5555555555555556,-0.23809523809523808,-166.26984126984127
49.12698412698413,74.04761904761904,5.952380952380952,48.33333333333333,122.46031746031746,30.07936507936508,4.365079365079365,76.58730158730158,-109.44444444444444,15.0,74.68253968253968,58.33333333333333,54.047619047619044,7.063492063492063,78.33333333333333,-45.63492063492063,66.58730158730158,57.22222222222222,128.96825396825395,9.920634920634921,-72.14285714285714,-0.5555555555555556,-0.23809523809523808,-166.26984126984127
16.11111111111111,96.42857142857142,-11.031746031746032,111.5079365079365,38.65079365079365,10.079365079365079,-13.412698412698411,121.03174603174602,-94.68253968253968,-34.36507936507936,23.57142857142857,126.9047619047619,20.71428571428571,2.142857142857143,35.476190476190474,231.66666666666666,20.238095238095237,18.65079365079365,34.36507936507936,-27.857142857142854,-172.46031746031744,-0.7142857142857142,-0.3968253968253968,-166.26984126984127
16.11111111111111,96.42857142857142,-11.031746031746032,111.5079365079365,38.65079365079365,10.079365079365079,-13.412698412698411,121.03174603174602,-94.68253968253968,-34.36507936507936,23.57142857142857,126.9047619047619,20.71428571428571,2.142857142857143,35.476190476190474,231.66666666666666,20.238095238095237,18.65079365079365,34.36507936507936,-27.857142857142854,-172.46031746031744,-0.7142857142857142,-0.3968253968253968,-166.26984126984127
15.793650793650793,87.38095238095238,-2.46031746031746,110.55555555555554,37.857142857142854,9.920634920634921,-14.682539682539682,86.42857142857143,-97.53968253968253,-37.38095238095238,22.936507936507937,126.9047619047619,17.698412698412696,1.349206349206349,29.126984126984127,226.74603174603175,19.6031746031746,18.174603174603174,30.396825396825395,-36.74603174603175,-177.85714285714286,-0.5555555555555556,-0.873015873015873,-166.26984126984127
15.793650793650793,87.38095238095238,-2.46031746031746,110.55555555555554,37.857142857142854,9.920634920634921,-14.682539682539682,86.42857142857143,-97.53968253968253,-37.38095238095238,22.936507936507937,126.9047619047619,17.698412698412696,1.349206349206349,29.126984126984127,226.74603174603175,19.6031746031746,18.174603174603174,30.396825396825395,-36.74603174603175,-177.85714285714286,-0.5555555555555556,-0.873015873015873,-166.26984126984127
15.476190476190474,88.96825396825396,3.4126984126984126,113.25396825396825,37.38095238095238,9.761904761904761,-13.571428571428571,82.77777777777777,-95.79365079365078,-36.269841269841265,22.777777777777775,126.58730158730158,10.396825396825395,-0.873015873015873,33.41269841269841,223.7301587301587,19.444444444444443,17.857142857142858,25.634920634920633,-36.269841269841265,-179.44444444444443,0.07936507936507936,-0.5555555555555556,-321.8253968253968
15.476190476190474,88.96825396825396,3.4126984126984126,113.25396825396825,37.38095238095238,9.761904761904761,-13.571428571428571,82.77777777777777,-95.79365079365078,-36.269841269841265,22.777777777777775,126.58730158730158,10.396825396825395,-0.873015873015873,33.41269841269841,223.7301587301587,19.444444444444443,17.857142857142858,25.634920634920633,-36.269841269841265,-179.44444444444443,0.07936507936507936,-0.5555555555555556,-321.8253968253968
15.317460317460316,100.23809523809523,8.809523809523808,120.23809523809523,36.74603174603175,9.603174603174603,-10.714285714285714,65.79365079365078,-92.46031746031746,-32.460317460317455,22.3015873015873,128.96825396825395,22.619047619047617,0.23809523809523808,38.33333333333333,219.9206349206349,19.126984126984127,17.539682539682538,25.317460317460316,-36.74603174603175,-180.7142857142857,-0.3968253968253968,-0.7142857142857142,-321.8253968253968
15.317460317460316,100.23809523809523,8.809523809523808,120.23809523809523,36.74603174603175,9.603174603174603,-10.714285714285714,65.79365079365078,-92.46031746031746,-32.460317460317455,22.3015873015873,128.96825396825395,22.619047619047617,0.23809523809523808,38.33333333333333,219.9206349206349,19.126984126984127,17.539682539682538,25.317460317460316,-36.74603174603175,-180.7142857142857,-0.3968253968253968,-0.7142857142857142,-321.8253968253968
15.0,103.4126984126984,4.2063492063492065,119.44444444444444,35.79365079365079,9.444444444444445,-21.825396825396822,27.22222222222222,-104.36507936507935,-32.3015873015873,21.825396825396822,124.36507936507935,11.666666666666666,-1.349206349206349,24.206349206349206,215.3174603174603,18.80952380952381,17.38095238095238,26.587301587301585,-45.317460317460316,-181.984126984127,-0.3968253968253968,0.3968253968253968,-321.8253968253968
15.0,103.4126984126984,4.2063492063492065,119.44444444444444,35.79365079365079,9.444444444444445,-21.825396825396822,27.22222222222222,-104.36507936507935,-32.3015873015873,21.825396825396822,124.36507936507935,11.666666666666666,-1.349206349206349,24.206349206349206,215.3174603174603,18.80952380952381,17.38095238095238,26.587301587301585,-45.317460317460316,-181.984126984127,-0.3968253968253968,0.3968253968253968,-321.8253968253968
14.523809523809524,109.76190476190476,-1.0317460317460316,121.03174603174602,35.15873015873016,9.285714285714285,-18.80952380952381,70.55555555555556,-102.14285714285714,-40.714285714285715,21.349206349206348,137.69841269841268,4.2063492063492065,0.23809523809523808,25.0,209.76190476190476,18.174603174603174,16.904761904761905,24.84126984126984,-52.61904761904761,-174.84126984126982,-0.3968253968253968,-0.23809523809523808,-321.8253968253968
14.523809523809524,109.76190476190476,-1.0317460317460316,121.03174603174602,35.15873015873016,9.285714285714285,-18.80952380952381,70.55555555555556,-102.14285714285714,-40.714285714285715,21.349206349206348,137.69841269841268,4.2063492063492065,0.23809523809523808,25.0,209.76190476190476,18.174603174603174,16.904761904761905,24.84126984126984,-52.61904761904761,-174.84126984126982,-0.3968253968253968,-0.23809523809523808,-321.8253968253968
14.365079365079364,103.4126984126984,-7.222222222222221,114.84126984126983,34.52380952380952,9.126984126984127,-20.07936507936508,60.39682539682539,-100.39682539682539,-38.65079365079365,21.03174603174603,131.984126984127,6.587301587301587,-7.3809523809523805,24.047619047619047,206.26984126984127,17.857142857142858,16.587301587301585,17.22222222222222,-55.63492063492063,-172.77777777777777,-0.07936507936507936,-1.1904761904761905,-321.8253968253968
14.365079365079364,103.4126984126984,-7.222222222222221,114.84126984126983,34.52380952380952,9.126984126984127,-20.07936507936508,60.39682539682539,-100.39682539682539,-38.65079365079365,21.03174603174603,131.984126984127,6.587301587301587,-7.3809523809523805,24.047619047619047,206.26984126984127,17.857142857142858,16.587301587301585,17.22222222222222,-55.63492063492063,-172.77777777777777,-0.07936507936507936,-1.1904761904761905,-321.8253968253968
14.047619047619047,96.26984126984127,2.3015873015873014,111.66666666666666,33.888888888888886,8.968253968253968,-13.571428571428571,60.39682539682539,-98.80952380952381,-33.57142857142857,20.71428571428571,123.73015873015872,28.809523809523807,-16.746031746031743,33.888888888888886,202.61904761904762,17.698412698412696,16.428571428571427,20.555555555555554,-58.8095238095238,-171.984126984127,-0.5555555555555556,0.07936507936507936,-166.26984126984127
14.047619047619047,96.26984126984127,2.3015873015873014,111.66666666666666,33.888888888888886,8.968253968253968,-13.571428571428571,60.39682539682539,-98.80952380952381,-33.57142857142857,20.71428571428571,123.73015873015872,28.809523809523807,-16.746031746031743,33.888888888888886,202.61904761904762,17.698412698412696,16.428571428571427,20.555555555555554,-58.8095238095238,-171.984126984127,-0.5555555555555556,0.07936507936507936,-166.26984126984127
14.206349206349206,108.80952380952381,10.873015873015872,122.46031746031746,33.41269841269841,8.968253968253968,-21.03174603174603,113.4126984126984,-104.84126984126983,-27.38095238095238,20.396825396825395,131.5079365079365,14.84126984126984,-5.634920634920634,20.873015873015873,200.23809523809524,17.539682539682538,15.95238095238095,23.730158730158728,-62.93650793650793,-170.07936507936506,-0.5555555555555556,-0.7142857142857142,-166.26984126984127
14.206349206349206,108.80952380952381,10.873015873015872,122.46031746031746,33.41269841269841,8.968253968253968,-21.03174603174603,113.4126984126984,-104.84126984126983,-27.38095238095238,20.396825396825395,131.5079365079365,14.84126984126984,-5.634920634920634,20.873015873015873,200.23809523809524,17.539682539682538,15.95238095238095,23.730158730158728,-62.93650793650793,-170.07936507936506,-0.5555555555555556,-0.7142857142857142,-166.26984126984127
13.253968253968253,106.1111111111111,20.71428571428571,131.03174603174602,31.666666666666664,8.809523809523808,-8.174603174603174,124.52380952380952,-91.82539682539682,31.19047619047619,19.444444444444443,135.47619047619048,43.095238095238095,-8.65079365079365,29.76190476190476,190.07936507936506,16.587301587301585,15.317460317460316,35.63492063492063,-68.4920634920635,-187.2222222222222,-1.349206349206349,-0.23809523809523808,-166.26984126984127
13.253968253968253,106.1111111111111,20.71428571428571,131.03174603174602,31.666666666666664,8.809523809523808,-8.174603174603174,124.52380952380952,-91.82539682539682,31.19047619047619,19.444444444444443,135.47619047619048,43.095238095238095,-8.65079365079365,29.76190476190476,190.07936507936506,16.587301587301585,15.317460317460316,35.63492063492063,-68.4920634920635,-187.2222222222222,-1.349206349206349,-0.23809523809523808,-166.26984126984127
21.507936507936506,67.22222222222221,-19.285714285714285,75.79365079365078,5.952380952380952,2.619047619047619,-65.0,182.61904761904762,-71.34920634920634,75.0,-325.0,62.14285714285714,-15.317460317460316,-99.92063492063491,-3.571428571428571,8.809523809523808,3.571428571428571,3.253968253968254,-8.333333333333332,-137.06349206349205,-77.38095238095238,0.3968253968253968,-0.23809523809523808,-166.26984126984127
21.507936507936506,67.22222222222221,-19.285714285714285,75.79365079365078,5.952380952380952,2.619047619047619,-65.0,182.61904761904762,-71.34920634920634,75.0,-325.0,62.14285714285714,-15.317460317460316,-99.92063492063491,-3.571428571428571,8.809523809523808,3.571428571428571,3.253968253968254,-8.333333333333332,-137.06349206349205,-77.38095238095238,0.3968253968253968,-0.23809523809523808,-166.26984126984127
21.19047619047619,69.6031746031746,-21.507936507936506,77.06349206349206,5.7936507936507935,2.46031746031746,-66.11111111111111,179.9206349206349,-68.01587301587301,65.0,-325.0,66.11111111111111,-27.22222222222222,-94.2063492063492,-13.888888888888888,110.23809523809523,3.571428571428571,3.4126984126984126,-5.158730158730158,-138.33333333333331,-85.79365079365078,0.07936507936507936,-0.873015873015873,-166.26984126984127
21.19047619047619,69.6031746031746,-21.507936507936506,77.06349206349206,5.7936507936507935,2.46031746031746,-66.11111111111111,179.9206349206349,-68.01587301587301,65.0,-325.0,66.11111111111111,-27.22222222222222,-94.2063492063492,-13.888888888888888,110.23809523809523,3.571428571428571,3.4126984126984126,-5.158730158730158,-138.33333333333331,-85.79365079365078,0.07936507936507936,-0.873015873015873,-166.26984126984127
20.71428571428571,78.17460317460316,-10.714285714285714,85.15873015873015,5.7936507936507935,2.3015873015873014,-63.888888888888886,171.03174603174602,-63.73015873015873,64.2063492063492,-325.0,77.6984126984127,-15.317460317460316,-92.61904761904762,-16.587301587301585,-205.95238095238093,3.4126984126984126,3.253968253968254,-0.07936507936507936,-132.46031746031744,-75.0,-0.07936507936507936,0.07936507936507936,-321.8253968253968
20.71428571428571,78.17460317460316,-10.714285714285714,85.15873015873015,5.7936507936507935,2.3015873015873014,-63.888888888888886,171.03174603174602,-63.73015873015873,64.2063492063492,-325.0,77.6984126984127,-15.317460317460316,-92.61904761904762,-16.587301587301585,-205.95238095238093,3.4126984126984126,3.253968253968254,-0.07936507936507936,-132.46031746031744,-75.0,-0.07936507936507936,0.07936507936507936,-321.8253968253968
20.238095238095237,78.80952380952381,-11.19047619047619,88.65079365079364,5.634920634920634,2.46031746031746,-58.650793650793645,170.23809523809524,-60.55555555555555,65.15873015873015,-325.0,81.5079365079365,-10.714285714285714,-93.73015873015872,-9.920634920634921,-325.0,3.571428571428571,3.253968253968254,-3.095238095238095,-129.76190476190476,-73.4126984126984,-0.23809523809523808,0.3968253968253968,-321.8253968253968
20.238095238095237,78.80952380952381,-11.19047619047619,88.65079365079364,5.634920634920634,2.46031746031746,-58.650793650793645,170.23809523809524,-60.55555555555555,65.15873015873015,-325.0,81.5079365079365,-10.714285714285714,-93.73015873015872,-9.920634920634921,-325.0,3.571428571428571,3.253968253968254,-3.095238095238095,-129.76190476190476,-73.4126984126984,-0.23809523809523808,0.3968253968253968,-321.8253968253968
19.76190476190476,77.06349206349206,-8.492063492063492,87.38095238095238,5.476190476190476,2.46031746031746,-49.6031746031746,168.4920634920635,-55.476190476190474,65.63492063492063,-325.0,81.5079365079365,-12.46031746031746,-84.2063492063492,4.2063492063492065,-325.0,3.4126984126984126,3.253968253968254,0.23809523809523808,-131.19047619047618,-77.22222222222221,0.7142857142857142,-0.3968253968253968,-321.8253968253968
19.76190476190476,77.06349206349206,-8.492063492063492,87.38095238095238,5.476190476190476,2.46031746031746,-49.6031746031746,168.4920634920635,-55.476190476190474,65.63492063492063,-325.0,81.5079365079365,-12.46031746031746,-84.2063492063492,4.2063492063492065,-325.0,3.4126984126984126,3.253968253968254,0.23809523809523808,-131.19047619047618,-77.22222222222221,0.7142857142857142,-0.3968253968253968,-321.8253968253968
19.6031746031746,76.1111111111111,-8.65079365079365,85.47619047619047,5.634920634920634,2.46031746031746,-45.95238095238095,161.66666666666666,-52.93650793650794,65.15873015873015,-325.0,78.65079365079364,-14.206349206349206,-82.3015873015873,8.968253968253968,-325.0,3.4126984126984126,3.253968253968254,0.7142857142857142,-128.96825396825395,-76.1111111111111,0.3968253968253968,-0.5555555555555556,-321.8253968253968
19.6031746031746,76.1111111111111,-8.65079365079365,85.47619047619047,5.634920634920634,2.46031746031746,-45.95238095238095,161.66666666666666,-52.93650793650794,65.15873015873015,-325.0,78.65079365079364,-14.206349206349206,-82.3015873015873,8.968253968253968,-325.0,3.4126984126984126,3.253968253968254,0.7142857142857142,-128.96825396825395,-76.1111111111111,0.3968253968253968,-0.5555555555555556,-321.8253968253968
19.285714285714285,74.68253968253968,-6.428571428571428,86.1111111111111,5.476190476190476,2.142857142857143,-47.698412698412696,114.52380952380952,-55.79365079365079,66.11111111111111,-325.0,75.15873015873015,-4.365079365079365,-93.09523809523809,5.0,-105.0,3.4126984126984126,3.095238095238095,-1.8253968253968254,-133.88888888888889,-71.98412698412697,0.23809523809523808,-0.873015873015873,-321.8253968253968
19.285714285714285,74.68253968253968,-6.428571428571428,86.1111111111111,5.476190476190476,2.142857142857143,-47.698412698412696,114.52380952380952,-55.79365079365079,66.11111111111111,-325.0,75.15873015873015,-4.365079365079365,-93.09523809523809,5.0,-105.0,3.4126984126984126,3.095238095238095,-1.8253968253968254,-133.88888888888889,-71.98412698412697,0.23809523809523808,-0.873015873015873,-321.8253968253968
18.65079365079365,74.2063492063492,-22.3015873015873,83.25396825396825,5.317460317460317,2.3015873015873014,-50.39682539682539,76.9047619047619,-61.03174603174603,66.42857142857143,-325.0,74.2063492063492,11.507936507936508,-96.1111111111111,-1.0317460317460316,325.0,3.253968253968254,3.095238095238095,-0.3968253968253968,-140.07936507936506,-66.74603174603175,-0.873015873015873,-0.873015873015873,-166.26984126984127
18.65079365079365,74.2063492063492,-22.3015873015873,83.25396825396825,5.317460317460317,2.3015873015873014,-50.39682539682539,76.9047619047619,-61.03174603174603,66.42857142857143,-325.0,74.2063492063492,11.507936507936508,-96.1111111111111,-1.0317460317460316,325.0,3.253968253968254,3.095238095238095,-0.3968253968253968,-140.07936507936506,-66.74603174603175,-0.873015873015873,-0.873015873015873,-166.26984126984127
18.174603174603174,62.77777777777777,-31.349206349206348,71.34920634920634,5.158730158730158,2.46031746031746,-60.873015873015866,26.26984126984127,-69.28571428571428,57.06349206349206,-325.0,63.888888888888886,-16.428571428571427,-79.28571428571428,-16.746031746031743,325.0,3.253968253968254,3.095238095238095,-12.777777777777777,-136.11111111111111,-85.47619047619047,1.349206349206349,0.07936507936507936,-166.26984126984127
18.174603174603174,62.77777777777777,-31.349206349206348,71.34920634920634,5.158730158730158,2.46031746031746,-60.873015873015866,26.26984126984127,-69.28571428571428,57.06349206349206,-325.0,63.888888888888886,-16.428571428571427,-79.28571428571428,-16.746031746031743,325.0,3.253968253968254,3.095238095238095,-12.777777777777777,-136.11111111111111,-85.47619047619047,1.349206349206349,0.07936507936507936,-166.26984126984127
17.539682539682538,42.3015873015873,9.603174603174603,58.96825396825397,5.0,2.142857142857143,-43.888888888888886,-8.968253968253968,-54.047619047619044,11.507936507936508,-325.0,50.238095238095234,11.349206349206348,-66.42857142857143,-6.428571428571428,325.0,3.253968253968254,3.095238095238095,-34.047619047619044,-107.53968253968253,-106.58730158730158,0.07936507936507936,-0.873015873015873,-166.26984126984127
17.539682539682538,42.3015873015873,9.603174603174603,58.96825396825397,5.0,2.142857142857143,-43.888888888888886,-8.968253968253968,-54.047619047619044,11.507936507936508,-325.0,50.238095238095234,11.349206349206348,-66.42857142857143,-6.428571428571428,325.0,3.253968253968254,3.095238095238095,-34.047619047619044,-107.53968253968253,-106.58730158730158,0.07936507936507936,-0.873015873015873,-166.26984126984127
17.22222222222222,54.68253968253968,4.2063492063492065,64.68253968253968,5.0,2.142857142857143,-42.61904761904761,35.0,-53.57142857142857,17.698412698412696,-325.0,58.49206349206349,-5.952380952380952,-56.42857142857142,-3.4126984126984126,325.0,3.095238095238095,3.095238095238095,-24.047619047619047,-111.34920634920634,-95.47619047619047,-1.8253968253968254,-1.349206349206349,-166.26984126984127
17.22222222222222,54.68253968253968,4.2063492063492065,64.68253968253968,5.0,2.142857142857143,-42.61904761904761,35.0,-53.57142857142857,17.698412698412696,-325.0,58.49206349206349,-5.952380952380952,-56.42857142857142,-3.4126984126984126,325.0,3.095238095238095,3.095238095238095,-24.047619047619047,-111.34920634920634,-95.47619047619047,-1.8253968253968254,-1.349206349206349,-166.26984126984127
13.888888888888888,62.77777777777777,16.587301587301585,82.14285714285714,4.2063492063492065,1.8253968253968254,-8.492063492063492,-16.26984126984127,-33.25396825396825,28.96825396825397,-31.507936507936506,68.17460317460318,13.412698412698411,-81.19047619047619,13.412698412698411,-325.0,2.619047619047619,2.619047619047619,-1.1904761904761905,-106.74603174603175,-69.28571428571428,0.23809523809523808,-0.23809523809523808,-166.26984126984127
13.888888888888888,62.77777777777777,16.587301587301585,82.14285714285714,4.2063492063492065,1.8253968253968254,-8.492063492063492,-16.26984126984127,-33.25396825396825,28.96825396825397,-31.507936507936506,68.17460317460318,13.412698412698411,-81.19047619047619,13.412698412698411,-325.0,2.619047619047619,2.619047619047619,-1.1904761904761905,-106.74603174603175,-69.28571428571428,0.23809523809523808,-0.23809523809523808,-166.26984126984127
13.888888888888888,64.84126984126983,17.539682539682538,81.66666666666666,4.0476190476190474,2.142857142857143,2.46031746031746,1.8253968253968254,-27.698412698412696,31.666666666666664,-10.873015873015872,69.12698412698413,24.047619047619047,-80.71428571428571,25.79365079365079,-325.0,2.619047619047619,2.619047619047619,1.507936507936508,-105.15873015873015,-65.31746031746032,0.07936507936507936,0.07936507936507936,-321.8253968253968
13.888888888888888,64.84126984126983,17.539682539682538,81.66666666666666,4.0476190476190474,2.142857142857143,2.46031746031746,1.8253968253968254,-27.698412698412696,31.666666666666664,-10.873015873015872,69.12698412698413,24.047619047619047,-80.71428571428571,25.79365079365079,-325.0,2.619047619047619,2.619047619047619,1.507936507936508,-105.15873015873015,-65.31746031746032,0.07936507936507936,0.07936507936507936,-321.8253968253968
13.888888888888888,64.84126984126983,17.539682539682538,81.66666666666666,4.0476190476190474,2.142857142857143,2.46031746031746,1.8253968253968254,-27.698412698412696,31.666666666666664,-10.873015873015872,69.12698412698413,24.047619047619047,-80.71428571428571,25.79365079365079,-325.0,2.619047619047619,2.619047619047619,1.507936507936508,-105.15873015873015,-65.31746031746032,0.07936507936507936,0.07936507936507936,-321.8253968253968
13.888888888888888,64.84126984126983,17.539682539682538,81.66666666666666,4.0476190476190474,2.142857142857143,2.46031746031746,1.8253968253968254,-27.698412698412696,31.666666666666664,-10.873015873015872,69.12698412698413,24.047619047619047,-80.71428571428571,25.79365079365079,-325.0,2.619047619047619,2.619047619047619,1.507936507936508,-105.15873015873015,-65.31746031746032,0.07936507936507936,0.07936507936507936,-321.8253968253968
13.571428571428571,59.92063492063492,15.793650793650793,74.2063492063492,4.0476190476190474,1.984126984126984,0.3968253968253968,7.857142857142857,-26.428571428571427,28.96825396825397,22.936507936507937,64.84126984126983,11.507936507936508,-85.47619047619047,19.92063492063492,-93.09523809523809,2.619047619047619,2.46031746031746,0.5555555555555556,-106.42857142857142,-68.4920634920635,-0.23809523809523808,-0.23809523809523808,-321.8253968253968
13.571428571428571,59.92063492063492,15.793650793650793,74.2063492063492,4.0476190476190474,1.984126984126984,0.3968253968253968,7.857142857142857,-26.428571428571427,28.96825396825397,22.936507936507937,64.84126984126983,11.507936507936508,-85.47619047619047,19.92063492063492,-93.09523809523809,2.619047619047619,2.46031746031746,0.5555555555555556,-106.42857142857142,-68.4920634920635,-0.23809523809523808,-0.23809523809523808,-321.8253968253968
12.619047619047619,51.34920634920635,8.174603174603174,61.666666666666664,3.888888888888889,1.6666666666666665,1.349206349206349,16.11111111111111,-26.587301587301585,24.047619047619047,88.17460317460316,54.36507936507936,6.904761904761904,-88.33333333333333,17.539682539682538,98.96825396825396,2.46031746031746,2.46031746031746,-6.746031746031746,-108.49206349206348,-78.4920634920635,-0.07936507936507936,-0.23809523809523808,-321.8253968253968
12.619047619047619,51.34920634920635,8.174603174603174,61.666666666666664,3.888888888888889,1.6666666666666665,1.349206349206349,16.11111111111111,-26.587301587301585,24.047619047619047,88.17460317460316,54.36507936507936,6.904761904761904,-88.33333333333333,17.539682539682538,98.96825396825396,2.46031746031746,2.46031746031746,-6.746031746031746,-108.49206349206348,-78.4920634920635,-0.07936507936507936,-0.23809523809523808,-321.8253968253968
-6.26984126984127,41.34920634920635,9.444444444444445,61.82539682539682,3.4126984126984126,0.23809523809523808,18.333333333333332,13.253968253968253,-15.634920634920634,23.57142857142857,215.79365079365078,53.57142857142857,16.587301587301585,-84.52380952380952,22.777777777777775,42.460317460317455,2.142857142857143,2.3015873015873014,-0.23809523809523808,-95.63492063492063,-78.33333333333333,-0.23809523809523808,-0.5555555555555556,-321.8253968253968
-6.26984126984127,41.34920634920635,9.444444444444445,61.82539682539682,3.4126984126984126,0.23809523809523808,18.333333333333332,13.253968253968253,-15.634920634920634,23.57142857142857,215.79365079365078,53.57142857142857,16.587301587301585,-84.52380952380952,22.777777777777775,42.460317460317455,2.142857142857143,2.3015873015873014,-0.23809523809523808,-95.63492063492063,-78.33333333333333,-0.23809523809523808,-0.5555555555555556,-321.8253968253968
-24.84126984126984,37.06349206349206,17.063492063492063,64.84126984126983,2.9365079365079363,-1.1904761904761905,32.14285714285714,-1.6666666666666665,-3.4126984126984126,11.349206349206348,325.0,59.44444444444444,11.19047619047619,-74.2063492063492,24.84126984126984,139.12698412698413,1.984126984126984,2.142857142857143,7.222222222222221,-84.04761904761904,-77.53968253968253,-0.7142857142857142,-0.7142857142857142,-166.26984126984127
-24.84126984126984,37.06349206349206,17.063492063492063,64.84126984126983,2.9365079365079363,-1.1904761904761905,32.14285714285714,-1.6666666666666665,-3.4126984126984126,11.349206349206348,325.0,59.44444444444444,11.19047619047619,-74.2063492063492,24.84126984126984,139.12698412698413,1.984126984126984,2.142857142857143,7.222222222222221,-84.04761904761904,-77.53968253968253,-0.7142857142857142,-0.7142857142857142,-166.26984126984127
-24.84126984126984,37.06349206349206,17.063492063492063,64.84126984126983,2.9365079365079363,-1.1904761904761905,32.14285714285714,-1.6666666666666665,-3.4126984126984126,11.349206349206348,325.0,59.44444444444444,11.19047619047619,-74.2063492063492,24.84126984126984,139.12698412698413,1.984126984126984,2.142857142857143,7.222222222222221,-84.04761904761904,-77.53968253968253,-0.7142857142857142,-0.7142857142857142,-166.26984126984127
-24.84126984126984,37.06349206349206,17.063492063492063,64.84126984126983,2.9365079365079363,-1.1904761904761905,32.14285714285714,-1.6666666666666665,-3.4126984126984126,11.349206349206348,325.0,59.44444444444444,11.19047619047619,-74.2063492063492,24.84126984126984,139.12698412698413,1.984126984126984,2.142857142857143,7.222222222222221,-84.04761904761904,-77.53968253968253,-0.7142857142857142,-0.7142857142857142,-166.26984126984127
-24.84126984126984,37.06349206349206,17.063492063492063,64.84126984126983,2.9365079365079363,-1.1904761904761905,32.14285714285714,-1.6666666666666665,-3.4126984126984126,11.349206349206348,325.0,59.44444444444444,11.19047619047619,-74.2063492063492,24.84126984126984,139.12698412698413,1.984126984126984,2.142857142857143,7.222222222222221,-84.04761904761904,-77.53968253968253,-0.7142857142857142,-0.7142857142857142,-166.26984126984127
-24.84126984126984,37.06349206349206,17.063492063492063,64.84126984126983,2.9365079365079363,-1.1904761904761905,32.14285714285714,-1.6666666666666665,-3.4126984126984126,11.349206349206348,325.0,59.44444444444444,11.19047619047619,-74.2063492063492,24.84126984126984,139.12698412698413,1.984126984126984,2.142857142857143,7.222222222222221,-84.04761904761904,-77.53968253968253,-0.7142857142857142,-0.7142857142857142,-166.26984126984127
-2.619047619047619,34.36507936507936,11.666666666666666,50.87301587301587,2.142857142857143,-20.71428571428571,21.984126984126984,18.174603174603174,-9.444444444444445,4.2063492063492065,321.031746031746,51.82539682539682,7.857142857142857,-66.26984126984127,14.682539682539682,190.55555555555554,1.8253968253968254,1.6666666666666665,-7.857142857142857,-69.12698412698413,-56.11111111111111,-1.0317460317460316,-0.07936507936507936,-166.26984126984127
-2.619047619047619,34.36507936507936,11.666666666666666,50.87301587301587,2.142857142857143,-20.71428571428571,21.984126984126984,18.174603174603174,-9.444444444444445,4.2063492063492065,321.031746031746,51.82539682539682,7.857142857142857,-66.26984126984127,14.682539682539682,190.55555555555554,1.8253968253968254,1.6666666666666665,-7.857142857142857,-69.12698412698413,-56.11111111111111,-1.0317460317460316,-0.07936507936507936,-166.26984126984127
18.80952380952381,32.3015873015873,7.857142857142857,45.63492063492063,1.6666666666666665,-36.42857142857142,17.38095238095238,-24.206349206349206,-11.984126984126984,11.349206349206348,310.39682539682536,45.317460317460316,1.507936507936508,-73.57142857142857,8.968253968253968,125.79365079365078,1.507936507936508,1.349206349206349,-19.126984126984127,-61.666666666666664,-48.01587301587301,-0.07936507936507936,-0.3968253968253968,-166.26984126984127
18.80952380952381,32.3015873015873,7.857142857142857,45.63492063492063,1.6666666666666665,-36.42857142857142,17.38095238095238,-24.206349206349206,-11.984126984126984,11.349206349206348,310.39682539682536,45.317460317460316,1.507936507936508,-73.57142857142857,8.968253968253968,125.79365079365078,1.507936507936508,1.349206349206349,-19.126984126984127,-61.666666666666664,-48.01587301587301,-0.07936507936507936,-0.3968253968253968,-166.26984126984127
18.333333333333332,35.15873015873016,2.142857142857143,44.52380952380952,1.8253968253968254,-47.06349206349206,13.095238095238095,-6.111111111111111,-17.063492063492063,10.396825396825395,306.26984126984127,46.42857142857142,-0.3968253968253968,-73.88888888888889,7.222222222222221,-167.06349206349205,1.507936507936508,1.349206349206349,-19.285714285714285,-62.93650793650793,-51.03174603174603,-0.07936507936507936,-0.3968253968253968,-321.8253968253968
18.333333333333332,35.15873015873016,2.142857142857143,44.52380952380952,1.8253968253968254,-47.06349206349206,13.095238095238095,-6.111111111111111,-17.063492063492063,10.396825396825395,306.26984126984127,46.42857142857142,-0.3968253968253968,-73.88888888888889,7.222222222222221,-167.06349206349205,1.507936507936508,1.349206349206349,-19.285714285714285,-62.93650793650793,-51.03174603174603,-0.07936507936507936,-0.3968253968253968,-321.8253968253968
18.015873015873016,33.57142857142857,8.015873015873016,41.507936507936506,1.6666666666666665,-43.57142857142857,11.984126984126984,-5.0,-21.507936507936506,5.952380952380952,300.07936507936506,42.460317460317455,25.634920634920633,-69.28571428571428,7.5396825396825395,-325.0,1.349206349206349,1.349206349206349,-11.031746031746032,-65.79365079365078,-41.507936507936506,-1.1904761904761905,-0.3968253968253968,-321.8253968253968
18.015873015873016,33.57142857142857,8.015873015873016,41.507936507936506,1.6666666666666665,-43.57142857142857,11.984126984126984,-5.0,-21.507936507936506,5.952380952380952,300.07936507936506,42.460317460317455,25.634920634920633,-69.28571428571428,7.5396825396825395,-325.0,1.349206349206349,1.349206349206349,-11.031746031746032,-65.79365079365078,-41.507936507936506,-1.1904761904761905,-0.3968253968253968,-321.8253968253968
17.539682539682538,29.285714285714285,-11.031746031746032,41.82539682539682,1.6666666666666665,-36.74603174603175,5.7936507936507935,-16.746031746031743,-23.095238095238095,13.095238095238095,295.0,39.285714285714285,11.507936507936508,-70.23809523809524,1.0317460317460316,-325.0,1.349206349206349,1.1904761904761905,-3.571428571428571,-82.46031746031746,-31.825396825396822,-1.349206349206349,-0.5555555555555556,-321.8253968253968
17.539682539682538,29.285714285714285,-11.031746031746032,41.82539682539682,1.6666666666666665,-36.74603174603175,5.7936507936507935,-16.746031746031743,-23.095238095238095,13.095238095238095,295.0,39.285714285714285,11.507936507936508,-70.23809523809524,1.0317460317460316,-325.0,1.349206349206349,1.1904761904761905,-3.571428571428571,-82.46031746031746,-31.825396825396822,-1.349206349206349,-0.5555555555555556,-321.8253968253968
17.22222222222222,29.76190476190476,-4.365079365079365,43.095238095238095,1.6666666666666665,-29.920634920634917,9.603174603174603,34.2063492063492,-18.49206349206349,12.3015873015873,289.9206349206349,37.53968253968254,2.9365079365079363,-74.04761904761904,9.444444444444445,-325.0,1.349206349206349,1.1904761904761905,-5.634920634920634,-70.39682539682539,-30.71428571428571,-0.7142857142857142,-0.23809523809523808,-321.8253968253968
17.22222222222222,29.76190476190476,-4.365079365079365,43.095238095238095,1.6666666666666665,-29.920634920634917,9.603174603174603,34.2063492063492,-18.49206349206349,12.3015873015873,289.9206349206349,37.53968253968254,2.9365079365079363,-74.04761904761904,9.444444444444445,-325.0,1.349206349206349,1.1904761904761905,-5.634920634920634,-70.39682539682539,-30.71428571428571,-0.7142857142857142,-0.23809523809523808,-321.8253968253968
16.904761904761905,26.428571428571427,10.079365079365079,41.34920634920635,1.6666666666666665,-33.41269841269841,18.333333333333332,14.682539682539682,-11.825396825396824,3.4126984126984126,285.1587301587301,37.06349206349206,9.603174603174603,-76.74603174603175,21.349206349206348,-325.0,1.507936507936508,1.1904761904761905,-14.84126984126984,-51.19047619047619,-45.317460317460316,-0.3968253968253968,-1.6666666666666665,-321.8253968253968
16.904761904761905,26.428571428571427,10.079365079365079,41.34920634920635,1.6666666666666665,-33.41269841269841,18.333333333333332,14.682539682539682,-11.825396825396824,3.4126984126984126,285.1587301587301,37.06349206349206,9.603174603174603,-76.74603174603175,21.349206349206348,-325.0,1.507936507936508,1.1904761904761905,-14.84126984126984,-51.19047619047619,-45.317460317460316,-0.3968253968253968,-1.6666666666666665,-321.8253968253968
16.428571428571427,17.063492063492063,5.7936507936507935,30.396825396825395,1.507936507936508,-25.952380952380953,18.65079365079365,-14.206349206349206,-12.142857142857142,-11.825396825396824,280.23809523809524,29.6031746031746,8.968253968253968,-86.26984126984127,15.95238095238095,-325.0,1.349206349206349,1.349206349206349,-25.158730158730158,-53.25396825396825,-56.58730158730158,0.23809523809523808,-0.873015873015873,-166.26984126984127
16.428571428571427,17.063492063492063,5.7936507936507935,30.396825396825395,1.507936507936508,-25.952380952380953,18.65079365079365,-14.206349206349206,-12.142857142857142,-11.825396825396824,280.23809523809524,29.6031746031746,8.968253968253968,-86.26984126984127,15.95238095238095,-325.0,1.349206349206349,1.349206349206349,-25.158730158730158,-53.25396825396825,-56.58730158730158,0.23809523809523808,-0.873015873015873,-166.26984126984127
16.11111111111111,22.936507936507937,8.809523809523808,31.825396825396822,1.6666666666666665,-22.619047619047617,20.07936507936508,25.952380952380953,-11.666666666666666,-12.3015873015873,275.4761904761905,35.15873015873016,11.19047619047619,-86.74603174603175,19.285714285714285,-325.0,1.349206349206349,1.1904761904761905,-19.444444444444443,-61.82539682539682,-49.76190476190476,-0.3968253968253968,0.07936507936507936,-166.26984126984127
16.11111111111111,22.936507936507937,8.809523809523808,31.825396825396822,1.6666666666666665,-22.619047619047617,20.07936507936508,25.952380952380953,-11.666666666666666,-12.3015873015873,275.4761904761905,35.15873015873016,11.19047619047619,-86.74603174603175,19.285714285714285,-325.0,1.349206349206349,1.1904761904761905,-19.444444444444443,-61.82539682539682,-49.76190476190476,-0.3968253968253968,0.07936507936507936,-166.26984126984127
15.95238095238095,25.317460317460316,4.0476190476190474,35.63492063492063,1.8253968253968254,-31.03174603174603,11.19047619047619,49.92063492063492,-15.158730158730158,-2.142857142857143,271.984126984127,41.19047619047619,9.444444444444445,-73.73015873015872,9.603174603174603,-325.0,1.1904761904761905,1.1904761904761905,-16.11111111111111,-68.4920634920635,-42.93650793650794,-0.5555555555555556,-0.7142857142857142,-166.26984126984127
15.95238095238095,25.317460317460316,4.0476190476190474,35.63492063492063,1.8253968253968254,-31.03174603174603,11.19047619047619,49.92063492063492,-15.158730158730158,-2.142857142857143,271.984126984127,41.19047619047619,9.444444444444445,-73.73015873015872,9.603174603174603,-325.0,1.1904761904761905,1.1904761904761905,-16.11111111111111,-68.4920634920635,-42.93650793650794,-0.5555555555555556,-0.7142857142857142,-166.26984126984127
15.476190476190474,28.015873015873016,3.73015873015873,40.238095238095234,1.507936507936508,-40.238095238095234,11.031746031746032,45.476190476190474,-15.634920634920634,-11.031746031746032,266.26984126984127,44.2063492063492,7.857142857142857,-80.39682539682539,9.444444444444445,-325.0,1.1904761904761905,1.1904761904761905,-14.682539682539682,-68.4920634920635,-45.317460317460316,-0.5555555555555556,-0.5555555555555556,-166.26984126984127
15.476190476190474,28.015873015873016,3.73015873015873,40.238095238095234,1.507936507936508,-40.238095238095234,11.031746031746032,45.476190476190474,-15.634920634920634,-11.031746031746032,266.26984126984127,44.2063492063492,7.857142857142857,-80.39682539682539,9.444444444444445,-325.0,1.1904761904761905,1.1904761904761905,-14.682539682539682,-68.4920634920635,-45.317460317460316,-0.5555555555555556,-0.5555555555555556,-166.26984126984127
14.84126984126984,30.71428571428571,10.396825396825395,44.52380952380952,1.349206349206349,-63.73015873015873,17.22222222222222,-11.984126984126984,-9.285714285714285,-21.825396825396822,257.22222222222223,48.49206349206349,-2.46031746031746,-96.58730158730158,12.3015873015873,-325.0,1.349206349206349,1.1904761904761905,-11.666666666666666,-56.58730158730158,-48.17460317460317,-0.3968253968253968,-0.7142857142857142,-166.26984126984127
14.84126984126984,30.71428571428571,10.396825396825395,44.52380952380952,1.349206349206349,-63.73015873015873,17.22222222222222,-11.984126984126984,-9.285714285714285,-21.825396825396822,257.22222222222223,48.49206349206349,-2.46031746031746,-96.58730158730158,12.3015873015873,-325.0,1.349206349206349,1.1904761904761905,-11.666666666666666,-56.58730158730158,-48.17460317460317,-0.3968253968253968,-0.7142857142857142,-166.26984126984127
14.365079365079364,38.17460317460317,8.015873015873016,47.53968253968254,1.8253968253968254,-65.15873015873015,15.0,-78.80952380952381,-11.507936507936508,-13.412698412698411,253.88888888888889,52.77777777777777,4.2063492063492065,-91.82539682539682,7.222222222222221,-325.0,1.507936507936508,1.1904761904761905,-7.3809523809523805,-56.904761904761905,-44.68253968253968,-1.1904761904761905,-0.23809523809523808,-321.8253968253968
14.365079365079364,38.17460317460317,8.015873015873016,47.53968253968254,1.8253968253968254,-65.15873015873015,15.0,-78.80952380952381,-11.507936507936508,-13.412698412698411,253.88888888888889,52.77777777777777,4.2063492063492065,-91.82539682539682,7.222222222222221,-325.0,1.507936507936508,1.1904761904761905,-7.3809523809523805,-56.904761904761905,-44.68253968253968,-1.1904761904761905,-0.23809523809523808,-321.8253968253968
14.047619047619047,46.42857142857142,0.7142857142857142,46.42857142857142,1.6666666666666665,-56.904761904761905,7.698412698412698,-106.1111111111111,-19.6031746031746,-2.619047619047619,249.76190476190476,55.63492063492063,4.841269841269841,-77.53968253968253,4.523809523809524,-325.0,1.349206349206349,1.1904761904761905,-10.555555555555555,-69.92063492063491,-36.42857142857142,-0.873015873015873,-0.23809523809523808,-321.8253968253968
14.047619047619047,46.42857142857142,0.7142857142857142,46.42857142857142,1.6666666666666665,-56.904761904761905,7.698412698412698,-106.1111111111111,-19.6031746031746,-2.619047619047619,249.76190476190476,55.63492063492063,4.841269841269841,-77.53968253968253,4.523809523809524,-325.0,1.349206349206349,1.1904761904761905,-10.555555555555555,-69.92063492063491,-36.42857142857142,-0.873015873015873,-0.23809523809523808,-321.8253968253968
13.888888888888888,39.76190476190476,4.0476190476190474,44.68253968253968,1.6666666666666665,-69.76190476190476,6.587301587301587,-82.3015873015873,-21.03174603174603,-6.26984126984127,244.2063492063492,52.77777777777777,3.888888888888889,-91.82539682539682,6.428571428571428,-325.0,1.349206349206349,1.1904761904761905,-16.26984126984127,-72.14285714285714,-37.857142857142854,-0.5555555555555556,-0.7142857142857142,-321.8253968253968
13.888888888888888,39.76190476190476,4.0476190476190474,44.68253968253968,1.6666666666666665,-69.76190476190476,6.587301587301587,-82.3015873015873,-21.03174603174603,-6.26984126984127,244.2063492063492,52.77777777777777,3.888888888888889,-91.82539682539682,6.428571428571428,-325.0,1.349206349206349,1.1904761904761905,-16.26984126984127,-72.14285714285714,-37.857142857142854,-0.5555555555555556,-0.7142857142857142,-321.8253968253968
13.73015873015873,39.6031746031746,0.23809523809523808,47.22222222222222,1.507936507936508,-70.39682539682539,2.142857142857143,-81.5079365079365,-22.936507936507937,11.507936507936508,241.34920634920633,51.34920634920635,-3.095238095238095,-96.74603174603175,-2.3015873015873014,-325.0,1.1904761904761905,1.1904761904761905,-15.317460317460316,-73.88888888888889,-35.63492063492063,-0.5555555555555556,-0.07936507936507936,-321.8253968253968
13.73015873015873,39.6031746031746,0.23809523809523808,47.22222222222222,1.507936507936508,-70.39682539682539,2.142857142857143,-81.5079365079365,-22.936507936507937,11.507936507936508,241.34920634920633,51.34920634920635,-3.095238095238095,-96.74603174603175,-2.3015873015873014,-325.0,1.1904761904761905,1.1904761904761905,-15.317460317460316,-73.88888888888889,-35.63492063492063,-0.5555555555555556,-0.07936507936507936,-321.8253968253968
13.412698412698411,34.52380952380952,-2.7777777777777777,47.38095238095238,1.349206349206349,-81.19047619047619,2.142857142857143,-94.36507936507935,-21.507936507936506,22.142857142857142,237.06349206349205,44.84126984126984,-4.841269841269841,-97.22222222222221,-2.619047619047619,-325.0,1.349206349206349,1.1904761904761905,-14.84126984126984,-68.17460317460318,-34.682539682539684,0.23809523809523808,-0.5555555555555556,-321.8253968253968
13.412698412698411,34.52380952380952,-2.7777777777777777,47.38095238095238,1.349206349206349,-81.19047619047619,2.142857142857143,-94.36507936507935,-21.507936507936506,22.142857142857142,237.06349206349205,44.84126984126984,-4.841269841269841,-97.22222222222221,-2.619047619047619,-325.0,1.349206349206349,1.1904761904761905,-14.84126984126984,-68.17460317460318,-34.682539682539684,0.23809523809523808,-0.5555555555555556,-321.8253968253968
-63.25396825396825,36.74603174603175,12.46031746031746,58.01587301587301,1.349206349206349,-78.33333333333333,10.396825396825395,-131.984126984127,-17.857142857142858,18.96825396825397,232.14285714285714,55.95238095238095,9.920634920634921,-86.74603174603175,8.492063492063492,-325.0,1.1904761904761905,1.1904761904761905,-1.6666666666666665,-61.507936507936506,-23.730158730158728,-0.07936507936507936,-0.5555555555555556,-166.26984126984127
-63.25396825396825,36.74603174603175,12.46031746031746,58.01587301587301,1.349206349206349,-78.33333333333333,10.396825396825395,-131.984126984127,-17.857142857142858,18.96825396825397,232.14285714285714,55.95238095238095,9.920634920634921,-86.74603174603175,8.492063492063492,-325.0,1.1904761904761905,1.1904761904761905,-1.6666666666666665,-61.507936507936506,-23.730158730158728,-0.07936507936507936,-0.5555555555555556,-166.26984126984127
-205.0,35.63492063492063,14.523809523809524,58.8095238095238,1.349206349206349,-68.65079365079364,11.666666666666666,-104.84126984126983,-17.38095238095238,24.365079365079364,229.12698412698413,50.87301587301587,11.19047619047619,-89.76190476190476,7.3809523809523805,-325.0,1.0317460317460316,1.1904761904761905,2.46031746031746,-60.873015873015866,-31.507936507936506,-0.07936507936507936,-0.7142857142857142,-166.26984126984127
-205.0,35.63492063492063,14.523809523809524,58.8095238095238,1.349206349206349,-68.65079365079364,11.666666666666666,-104.84126984126983,-17.38095238095238,24.365079365079364,229.12698412698413,50.87301587301587,11.19047619047619,-89.76190476190476,7.3809523809523805,-325.0,1.0317460317460316,1.1904761904761905,2.46031746031746,-60.873015873015866,-31.507936507936506,-0.07936507936507936,-0.7142857142857142,-166.26984126984127
-156.42857142857142,37.857142857142854,16.428571428571427,64.04761904761905,1.349206349206349,-61.19047619047619,13.73015873015873,-50.55555555555555,-13.571428571428571,35.317460317460316,225.15873015873015,52.460317460317455,9.444444444444445,-87.53968253968253,6.26984126984127,-325.0,1.1904761904761905,1.1904761904761905,7.698412698412698,-64.52380952380952,-34.84126984126984,-0.5555555555555556,-1.349206349206349,-166.26984126984127
-156.42857142857142,37.857142857142854,16.428571428571427,64.04761904761905,1.349206349206349,-61.19047619047619,13.73015873015873,-50.55555555555555,-13.571428571428571,35.317460317460316,225.15873015873015,52.460317460317455,9.444444444444445,-87.53968253968253,6.26984126984127,-325.0,1.1904761904761905,1.1904761904761905,7.698412698412698,-64.52380952380952,-34.84126984126984,-0.5555555555555556,-1.349206349206349,-166.26984126984127
24.84126984126984,31.98412698412698,15.793650793650793,58.650793650793645,1.1904761904761905,-62.77777777777777,15.634920634920634,-69.44444444444444,-9.920634920634921,14.365079365079364,218.4920634920635,47.22222222222222,10.873015873015872,-75.63492063492063,11.825396825396824,-325.0,1.349206349206349,1.0317460317460316,-2.7777777777777777,-58.8095238095238,-31.19047619047619,0.07936507936507936,-0.7142857142857142,-166.26984126984127
24.84126984126984,31.98412698412698,15.793650793650793,58.650793650793645,1.1904761904761905,-62.77777777777777,15.634920634920634,-69.44444444444444,-9.920634920634921,14.365079365079364,218.4920634920635,47.22222222222222,10.873015873015872,-75.63492063492063,11.825396825396824,-325.0,1.349206349206349,1.0317460317460316,-2.7777777777777777,-58.8095238095238,-31.19047619047619,0.07936507936507936,-0.7142857142857142,-166.26984126984127
21.825396825396822,34.2063492063492,12.936507936507935,58.49206349206349,1.1904761904761905,-64.36507936507937,16.587301587301585,-63.41269841269841,-10.873015873015872,17.38095238095238,215.79365079365078,45.95238095238095,11.507936507936508,-83.09523809523809,15.0,-325.0,1.1904761904761905,1.1904761904761905,0.873015873015873,-56.74603174603174,-35.476190476190474,-0.3968253968253968,-0.873015873015873,-166.26984126984127
21.825396825396822,34.2063492063492,12.936507936507935,58.49206349206349,1.1904761904761905,-64.36507936507937,16.587301587301585,-63.41269841269841,-10.873015873015872,17.38095238095238,215.79365079365078,45.95238095238095,11.507936507936508,-83.09523809523809,15.0,-325.0,1.1904761904761905,1.1904761904761905,0.873015873015873,-56.74603174603174,-35.476190476190474,-0.3968253968253968,-0.873015873015873,-166.26984126984127
21.507936507936506,35.15873015873016,16.26984126984127,57.22222222222222,1.1904761904761905,-68.96825396825396,17.698412698412696,-56.269841269841265,-11.349206349206348,17.857142857142858,212.93650793650792,46.11111111111111,13.73015873015873,-78.65079365079364,14.523809523809524,-325.0,1.1904761904761905,1.0317460317460316,1.984126984126984,-61.34920634920635,-35.0,-0.873015873015873,-0.3968253968253968,-321.8253968253968
21.507936507936506,35.15873015873016,16.26984126984127,57.22222222222222,1.1904761904761905,-68.96825396825396,17.698412698412696,-56.269841269841265,-11.349206349206348,17.857142857142858,212.93650793650792,46.11111111111111,13.73015873015873,-78.65079365079364,14.523809523809524,-325.0,1.1904761904761905,1.0317460317460316,1.984126984126984,-61.34920634920635,-35.0,-0.873015873015873,-0.3968253968253968,-321.8253968253968
20.873015873015873,33.25396825396825,15.476190476190474,56.58730158730158,1.349206349206349,-71.19047619047619,9.603174603174603,-32.93650793650794,-15.476190476190474,18.015873015873016,207.53968253968253,46.42857142857142,-6.587301587301587,-75.63492063492063,5.952380952380952,-325.0,1.0317460317460316,1.0317460317460316,1.349206349206349,-70.23809523809524,-27.539682539682538,-0.5555555555555556,-0.3968253968253968,-321.8253968253968
20.873015873015873,33.25396825396825,15.476190476190474,56.58730158730158,1.349206349206349,-71.19047619047619,9.603174603174603,-32.93650793650794,-15.476190476190474,18.015873015873016,207.53968253968253,46.42857142857142,-6.587301587301587,-75.63492063492063,5.952380952380952,-325.0,1.0317460317460316,1.0317460317460316,1.349206349206349,-70.23809523809524,-27.539682539682538,-0.5555555555555556,-0.3968253968253968,-321.8253968253968
20.555555555555554,24.047619047619047,4.2063492063492065,51.98412698412698,1.349206349206349,-66.9047619047619,1.8253968253968254,-28.49206349206349,-21.03174603174603,15.476190476190474,204.84126984126982,41.34920634920635,-7.5396825396825395,-78.80952380952381,-1.1904761904761905,-325.0,1.349206349206349,1.1904761904761905,-3.571428571428571,-67.06349206349206,-27.698412698412696,-1.0317460317460316,-0.23809523809523808,-321.8253968253968
20.555555555555554,24.047619047619047,4.2063492063492065,51.98412698412698,1.349206349206349,-66.9047619047619,1.8253968253968254,-28.49206349206349,-21.03174603174603,15.476190476190474,204.84126984126982,41.34920634920635,-7.5396825396825395,-78.80952380952381,-1.1904761904761905,-325.0,1.349206349206349,1.1904761904761905,-3.571428571428571,-67.06349206349206,-27.698412698412696,-1.0317460317460316,-0.23809523809523808,-321.8253968253968
19.92063492063492,18.96825396825397,11.666666666666666,41.98412698412698,1.1904761904761905,-65.95238095238095,12.619047619047619,-61.666666666666664,-17.063492063492063,21.984126984126984,200.3968253968254,37.698412698412696,22.777777777777775,-78.4920634920635,10.396825396825395,-325.0,1.1904761904761905,1.0317460317460316,-2.7777777777777777,-55.0,-33.095238095238095,0.07936507936507936,-0.3968253968253968,-321.8253968253968
19.92063492063492,18.96825396825397,11.666666666666666,41.98412698412698,1.1904761904761905,-65.95238095238095,12.619047619047619,-61.666666666666664,-17.063492063492063,21.984126984126984,200.3968253968254,37.698412698412696,22.777777777777775,-78.4920634920635,10.396825396825395,-325.0,1.1904761904761905,1.0317460317460316,-2.7777777777777777,-55.0,-33.095238095238095,0.07936507936507936,-0.3968253968253968,-321.8253968253968
19.6031746031746,17.22222222222222,21.984126984126984,32.3015873015873,1.1904761904761905,-57.06349206349206,15.0,-6.904761904761904,-14.84126984126984,21.349206349206348,197.06349206349205,33.888888888888886,16.587301587301585,-69.76190476190476,9.761904761904761,-314.2063492063492,1.1904761904761905,0.7142857142857142,-9.126984126984127,-53.888888888888886,-34.047619047619044,-1.6666666666666665,-0.873015873015873,-321.8253968253968
19.6031746031746,17.22222222222222,21.984126984126984,32.3015873015873,1.1904761904761905,-57.06349206349206,15.0,-6.904761904761904,-14.84126984126984,21.349206349206348,197.06349206349205,33.888888888888886,16.587301587301585,-69.76190476190476,9.761904761904761,-314.2063492063492,1.1904761904761905,0.7142857142857142,-9.126984126984127,-53.888888888888886,-34.047619047619044,-1.6666666666666665,-0.873015873015873,-321.8253968253968
18.96825396825397,20.555555555555554,7.698412698412698,34.2063492063492,1.0317460317460316,-55.476190476190474,7.063492063492063,-26.746031746031743,-18.65079365079365,14.365079365079364,193.7301587301587,35.95238095238095,10.079365079365079,-72.61904761904762,3.095238095238095,-261.5079365079365,1.0317460317460316,0.873015873015873,-7.063492063492063,-58.33333333333333,-22.46031746031746,-1.349206349206349,-1.507936507936508,-166.26984126984127
18.96825396825397,20.555555555555554,7.698412698412698,34.2063492063492,1.0317460317460316,-55.476190476190474,7.063492063492063,-26.746031746031743,-18.65079365079365,14.365079365079364,193.7301587301587,35.95238095238095,10.079365079365079,-72.61904761904762,3.095238095238095,-261.5079365079365,1.0317460317460316,0.873015873015873,-7.063492063492063,-58.33333333333333,-22.46031746031746,-1.349206349206349,-1.507936507936508,-166.26984126984127
18.80952380952381,17.38095238095238,5.7936507936507935,38.80952380952381,1.0317460317460316,-54.68253968253968,8.333333333333332,-25.634920634920633,-15.476190476190474,2.619047619047619,191.19047619047618,34.2063492063492,8.174603174603174,-73.25396825396825,4.0476190476190474,-246.26984126984127,1.1904761904761905,0.7142857142857142,-8.333333333333332,-59.6031746031746,-26.9047619047619,-1.1904761904761905,-1.1904761904761905,-166.26984126984127
18.80952380952381,17.38095238095238,5.7936507936507935,38.80952380952381,1.0317460317460316,-54.68253968253968,8.333333333333332,-25.634920634920633,-15.476190476190474,2.619047619047619,191.19047619047618,34.2063492063492,8.174603174603174,-73.25396825396825,4.0476190476190474,-246.26984126984127,1.1904761904761905,0.7142857142857142,-8.333333333333332,-59.6031746031746,-26.9047619047619,-1.1904761904761905,-1.1904761904761905,-166.26984126984127
18.015873015873016,19.6031746031746,2.3015873015873014,41.82539682539682,1.0317460317460316,-59.6031746031746,7.857142857142857,16.904761904761905,-13.571428571428571,4.2063492063492065,187.06349206349205,33.41269841269841,6.746031746031746,-72.77777777777777,2.619047619047619,-325.0,1.0317460317460316,1.0317460317460316,-6.587301587301587,-61.666666666666664,-34.2063492063492,0.23809523809523808,-0.7142857142857142,-166.26984126984127
18.015873015873016,19.6031746031746,2.3015873015873014,41.82539682539682,1.0317460317460316,-59.6031746031746,7.857142857142857,16.904761904761905,-13.571428571428571,4.2063492063492065,187.06349206349205,33.41269841269841,6.746031746031746,-72.77777777777777,2.619047619047619,-325.0,1.0317460317460316,1.0317460317460316,-6.587301587301587,-61.666666666666664,-34.2063492063492,0.23809523809523808,-0.7142857142857142,-166.26984126984127
17.38095238095238,21.03174603174603,-0.5555555555555556,39.44444444444444,1.0317460317460316,-65.63492063492063,6.587301587301587,11.19047619047619,-13.888888888888888,4.2063492063492065,184.52380952380952,35.15873015873016,5.952380952380952,-76.1111111111111,-0.23809523809523808,-325.0,1.1904761904761905,0.5555555555555556,-8.968253968253968,-58.96825396825397,-32.93650793650794,-0.07936507936507936,-0.5555555555555556,-166.26984126984127
17.38095238095238,21.03174603174603,-0.5555555555555556,39.44444444444444,1.0317460317460316,-65.63492063492063,6.587301587301587,11.19047619047619,-13.888888888888888,4.2063492063492065,184.52380952380952,35.15873015873016,5.952380952380952,-76.1111111111111,-0.23809523809523808,-325.0,1.1904761904761905,0.5555555555555556,-8.968253968253968,-58.96825396825397,-32.93650793650794,-0.07936507936507936,-0.5555555555555556,-166.26984126984127
17.38095238095238,21.03174603174603,-0.5555555555555556,39.44444444444444,1.0317460317460316,-65.63492063492063,6.587301587301587,11.19047619047619,-13.888888888888888,4.2063492063492065,184.52380952380952,35.15873015873016,5.952380952380952,-76.1111111111111,-0.23809523809523808,-325.0,1.1904761904761905,0.5555555555555556,-8.968253968253968,-58.96825396825397,-32.93650793650794,-0.07936507936507936,-0.5555555555555556,-166.26984126984127
17.38095238095238,21.03174603174603,-0.5555555555555556,39.44444444444444,1.0317460317460316,-65.63492063492063,6.587301587301587,11.19047619047619,-13.888888888888888,4.2063492063492065,184.52380952380952,35.15873015873016,5.952380952380952,-76.1111111111111,-0.23809523809523808,-325.0,1.1904761904761905,0.5555555555555556,-8.968253968253968,-58.96825396825397,-32.93650793650794,-0.07936507936507936,-0.5555555555555556,-166.26984126984127
17.38095238095238,21.03174603174603,-0.5555555555555556,39.44444444444444,1.0317460317460316,-65.63492063492063,6.587301587301587,11.19047619047619,-13.888888888888888,4.2063492063492065,184.52380952380952,35.15873015873016,5.952380952380952,-76.1111111111111,-0.23809523809523808,-325.0,1.1904761904761905,0.5555555555555556,-8.968253968253968,-58.96825396825397,-32.93650793650794,-0.07936507936507936,-0.5555555555555556,-321.8253968253968
17.38095238095238,21.03174603174603,-0.5555555555555556,39.44444444444444,1.0317460317460316,-65.63492063492063,6.587301587301587,11.19047619047619,-13.888888888888888,4.2063492063492065,184.52380952380952,35.15873015873016,5.952380952380952,-76.1111111111111,-0.23809523809523808,-325.0,1.1904761904761905,0.5555555555555556,-8.968253968253968,-58.96825396825397,-32.93650793650794,-0.07936507936507936,-0.5555555555555556,-321.8253968253968
-325.0,16.746031746031743,-1.984126984126984,31.19047619047619,0.873015873015873,-78.65079365079364,4.2063492063492065,20.555555555555554,-15.476190476190474,11.825396825396824,173.88888888888889,32.3015873015873,7.3809523809523805,-60.71428571428571,0.873015873015873,-167.38095238095238,0.07936507936507936,-7.5396825396825395,-11.666666666666666,-63.41269841269841,-47.06349206349206,-1.0317460317460316,-1.6666666666666665,-321.8253968253968
-325.0,16.746031746031743,-1.984126984126984,31.19047619047619,0.873015873015873,-78.65079365079364,4.2063492063492065,20.555555555555554,-15.476190476190474,11.825396825396824,173.88888888888889,32.3015873015873,7.3809523809523805,-60.71428571428571,0.873015873015873,-167.38095238095238,0.07936507936507936,-7.5396825396825395,-11.666666666666666,-63.41269841269841,-47.06349206349206,-1.0317460317460316,-1.6666666666666665,-321.8253968253968
-325.0,11.984126984126984,-9.126984126984127,29.920634920634917,0.873015873015873,-76.26984126984127,1.6666666666666665,5.317460317460317,-19.285714285714285,18.333333333333332,169.9206349206349,30.07936507936508,7.5396825396825395,-70.55555555555556,-1.0317460317460316,7.857142857142857,0.5555555555555556,-16.26984126984127,-16.587301587301585,-68.96825396825396,-22.777777777777775,0.23809523809523808,-0.23809523809523808,-321.8253968253968
-325.0,11.984126984126984,-9.126984126984127,29.920634920634917,0.873015873015873,-76.26984126984127,1.6666666666666665,5.317460317460317,-19.285714285714285,18.333333333333332,169.9206349206349,30.07936507936508,7.5396825396825395,-70.55555555555556,-1.0317460317460316,7.857142857142857,0.5555555555555556,-16.26984126984127,-16.587301587301585,-68.96825396825396,-22.777777777777775,0.23809523809523808,-0.23809523809523808,-321.8253968253968
-289.4444444444444,3.253968253968254,-9.126984126984127,19.444444444444443,1.0317460317460316,-69.6031746031746,2.619047619047619,29.76190476190476,-18.015873015873016,16.904761904761905,167.06349206349205,21.349206349206348,-5.634920634920634,-68.01587301587301,1.984126984126984,261.1904761904762,0.23809523809523808,-25.476190476190474,-24.68253968253968,-56.269841269841265,-25.952380952380953,-0.07936507936507936,0.07936507936507936,-321.8253968253968
-289.4444444444444,3.253968253968254,-9.126984126984127,19.444444444444443,1.0317460317460316,-69.6031746031746,2.619047619047619,29.76190476190476,-18.015873015873016,16.904761904761905,167.06349206349205,21.349206349206348,-5.634920634920634,-68.01587301587301,1.984126984126984,261.1904761904762,0.23809523809523808,-25.476190476190474,-24.68253968253968,-56.269841269841265,-25.952380952380953,-0.07936507936507936,0.07936507936507936,-321.8253968253968
-96.74603174603175,6.587301587301587,0.5555555555555556,25.0,1.0317460317460316,-61.34920634920635,5.952380952380952,72.46031746031746,-15.95238095238095,33.57142857142857,164.2063492063492,25.317460317460316,5.317460317460317,-54.841269841269835,9.603174603174603,325.0,0.7142857142857142,-24.68253968253968,-20.238095238095237,-60.39682539682539,-28.96825396825397,-0.5555555555555556,-0.5555555555555556,-321.8253968253968
-96.74603174603175,6.587301587301587,0.5555555555555556,25.0,1.0317460317460316,-61.34920634920635,5.952380952380952,72.46031746031746,-15.95238095238095,33.57142857142857,164.2063492063492,25.317460317460316,5.317460317460317,-54.841269841269835,9.603174603174603,325.0,0.7142857142857142,-24.68253968253968,-20.238095238095237,-60.39682539682539,-28.96825396825397,-0.5555555555555556,-0.5555555555555556,-321.8253968253968
54.68253968253968,13.412698412698411,2.46031746031746,28.333333333333332,0.873015873015873,-71.03174603174602,-2.7777777777777777,92.46031746031746,-21.666666666666664,40.55555555555555,161.5079365079365,31.507936507936506,11.984126984126984,-43.888888888888886,-2.142857142857143,292.1428571428571,0.5555555555555556,-31.825396825396822,-24.365079365079364,-63.25396825396825,-26.587301587301585,0.07936507936507936,-1.0317460317460316,-166.26984126984127
54.68253968253968,13.412698412698411,2.46031746031746,28.333333333333332,0.873015873015873,-71.03174603174602,-2.7777777777777777,92.46031746031746,-21.666666666666664,40.55555555555555,161.5079365079365,31.507936507936506,11.984126984126984,-43.888888888888886,-2.142857142857143,292.1428571428571,0.5555555555555556,-31.825396825396822,-24.365079365079364,-63.25396825396825,-26.587301587301585,0.07936507936507936,-1.0317460317460316,-166.26984126984127
61.19047619047619,13.888888888888888,-3.73015873015873,27.38095238095238,1.0317460317460316,-86.1111111111111,-7.3809523809523805,94.36507936507935,-24.365079365079364,34.52380952380952,159.28571428571428,33.25396825396825,13.253968253968253,-49.44444444444444,-8.809523809523808,291.19047619047615,0.3968253968253968,-35.79365079365079,-26.746031746031743,-60.873015873015866,-25.476190476190474,0.7142857142857142,0.07936507936507936,-166.26984126984127
61.19047619047619,13.888888888888888,-3.73015873015873,27.38095238095238,1.0317460317460316,-86.1111111111111,-7.3809523809523805,94.36507936507935,-24.365079365079364,34.52380952380952,159.28571428571428,33.25396825396825,13.253968253968253,-49.44444444444444,-8.809523809523808,291.19047619047615,0.3968253968253968,-35.79365079365079,-26.746031746031743,-60.873015873015866,-25.476190476190474,0.7142857142857142,0.07936507936507936,-166.26984126984127
-32.61904761904762,12.936507936507935,-4.682539682539682,27.698412698412696,1.0317460317460316,-84.2063492063492,-4.682539682539682,80.55555555555556,-21.825396825396822,25.476190476190474,157.2222222222222,31.19047619047619,4.2063492063492065,-52.93650793650794,-3.571428571428571,308.015873015873,-0.07936507936507936,-35.79365079365079,-25.0,-59.44444444444444,-32.460317460317455,0.07936507936507936,-0.3968253968253968,-166.26984126984127
-32.61904761904762,12.936507936507935,-4.682539682539682,27.698412698412696,1.0317460317460316,-84.2063492063492,-4.682539682539682,80.55555555555556,-21.825396825396822,25.476190476190474,157.2222222222222,31.19047619047619,4.2063492063492065,-52.93650793650794,-3.571428571428571,308.015873015873,-0.07936507936507936,-35.79365079365079,-25.0,-59.44444444444444,-32.460317460317455,0.07936507936507936,-0.3968253968253968,-166.26984126984127
-126.26984126984127,11.984126984126984,-5.634920634920634,28.015873015873016,1.0317460317460316,-82.3015873015873,-1.984126984126984,66.74603174603175,-19.285714285714285,16.428571428571427,155.3174603174603,29.126984126984127,-4.841269841269841,-56.269841269841265,1.8253968253968254,325.0,-0.3968253968253968,-35.79365079365079,-23.253968253968253,-58.01587301587301,-39.44444444444444,-0.5555555555555556,-0.873015873015873,-166.26984126984127
-126.26984126984127,11.984126984126984,-5.634920634920634,28.015873015873016,1.0317460317460316,-82.3015873015873,-1.984126984126984,66.74603174603175,-19.285714285714285,16.428571428571427,155.3174603174603,29.126984126984127,-4.841269841269841,-56.269841269841265,1.8253968253968254,325.0,-0.3968253968253968,-35.79365079365079,-23.253968253968253,-58.01587301587301,-39.44444444444444,-0.5555555555555556,-0.873015873015873,-166.26984126984127
-126.26984126984127,11.984126984126984,-5.634920634920634,28.015873015873016,1.0317460317460316,-82.3015873015873,-1.984126984126984,66.74603174603175,-19.285714285714285,16.428571428571427,155.3174603174603,29.126984126984127,-4.841269841269841,-56.269841269841265,1.8253968253968254,325.0,-0.3968253968253968,-35.79365079365079,-23.253968253968253,-58.01587301587301,-39.44444444444444,-0.5555555555555556,-0.873015873015873,-166.26984126984127
-126.26984126984127,11.984126984126984,-5.634920634920634,28.015873015873016,1.0317460317460316,-82.3015873015873,-1.984126984126984,66.74603174603175,-19.285714285714285,16.428571428571427,155.3174603174603,29.126984126984127,-4.841269841269841,-56.269841269841265,1.8253968253968254,325.0,-0.3968253968253968,-35.79365079365079,-23.253968253968253,-58.01587301587301,-39.44444444444444,-0.5555555555555556,-0.873015873015873,-166.26984126984127
-126.26984126984127,11.984126984126984,-5.634920634920634,28.015873015873016,1.0317460317460316,-82.3015873015873,-1.984126984126984,66.74603174603175,-19.285714285714285,16.428571428571427,155.3174603174603,29.126984126984127,-4.841269841269841,-56.269841269841265,1.8253968253968254,325.0,-0.3968253968253968,-35.79365079365079,-23.253968253968253,-58.01587301587301,-39.44444444444444,-0.5555555555555556,-0.873015873015873,-321.8253968253968
-126.26984126984127,11.984126984126984,-5.634920634920634,28.015873015873016,1.0317460317460316,-82.3015873015873,-1.984126984126984,66.74603174603175,-19.285714285714285,16.428571428571427,155.3174603174603,29.126984126984127,-4.841269841269841,-56.269841269841265,1.8253968253968254,325.0,-0.3968253968253968,-35.79365079365079,-23.253968253968253,-58.01587301587301,-39.44444444444444,-0.5555555555555556,-0.873015873015873,-321.8253968253968
-99.76190476190476,15.158730158730158,1.8253968253968254,24.365079365079364,-1.1904761904761905,-52.93650793650794,-2.7777777777777777,67.22222222222221,-19.126984126984127,-31.98412698412698,111.19047619047619,23.253968253968253,-1.349206349206349,-33.888888888888886,0.3968253968253968,325.0,-32.460317460317455,-48.650793650793645,-19.6031746031746,-47.698412698412696,-23.57142857142857,-0.23809523809523808,-0.873015873015873,-321.8253968253968
-99.76190476190476,15.158730158730158,1.8253968253968254,24.365079365079364,-1.1904761904761905,-52.93650793650794,-2.7777777777777777,67.22222222222221,-19.126984126984127,-31.98412698412698,111.19047619047619,23.253968253968253,-1.349206349206349,-33.888888888888886,0.3968253968253968,325.0,-32.460317460317455,-48.650793650793645,-19.6031746031746,-47.698412698412696,-23.57142857142857,-0.23809523809523808,-0.873015873015873,-321.8253968253968
-64.36507936507937,19.92063492063492,7.5396825396825395,24.365079365079364,-2.7777777777777777,-22.142857142857142,0.07936507936507936,81.82539682539682,-14.365079365079364,-72.14285714285714,66.58730158730158,22.619047619047617,11.825396825396824,-11.031746031746032,1.8253968253968254,303.4126984126984,-63.25396825396825,-56.11111111111111,-10.873015873015872,-40.39682539682539,-5.7936507936507935,-0.07936507936507936,-1.0317460317460316,-321.8253968253968
-64.36507936507937,19.92063492063492,7.5396825396825395,24.365079365079364,-2.7777777777777777,-22.142857142857142,0.07936507936507936,81.82539682539682,-14.365079365079364,-72.14285714285714,66.58730158730158,22.619047619047617,11.825396825396824,-11.031746031746032,1.8253968253968254,303.4126984126984,-63.25396825396825,-56.11111111111111,-10.873015873015872,-40.39682539682539,-5.7936507936507935,-0.07936507936507936,-1.0317460317460316,-321.8253968253968
-124.04761904761904,11.825396825396824,0.7142857142857142,17.857142857142858,-24.047619047619047,-46.904761904761905,1.984126984126984,104.68253968253968,-11.031746031746032,-105.0,60.71428571428571,16.904761904761905,7.222222222222221,-25.158730158730158,7.857142857142857,-21.666666666666664,-72.46031746031746,-61.666666666666664,-19.126984126984127,-43.41269841269841,-14.84126984126984,-0.23809523809523808,-0.7142857142857142,-321.8253968253968
-124.04761904761904,11.825396825396824,0.7142857142857142,17.857142857142858,-24.047619047619047,-46.904761904761905,1.984126984126984,104.68253968253968,-11.031746031746032,-105.0,60.71428571428571,16.904761904761905,7.222222222222221,-25.158730158730158,7.857142857142857,-21.666666666666664,-72.46031746031746,-61.666666666666664,-19.126984126984127,-43.41269841269841,-14.84126984126984,-0.23809523809523808,-0.7142857142857142,-321.8253968253968
-259.6031746031746,7.063492063492063,-4.365079365079365,9.920634920634921,-43.41269841269841,-75.79365079365078,-1.0317460317460316,92.30158730158729,-13.095238095238095,-145.3174603174603,54.841269841269835,9.285714285714285,6.26984126984127,-33.888888888888886,8.174603174603174,-325.0,-84.52380952380952,-66.42857142857143,-25.476190476190474,-43.41269841269841,-20.396825396825395,1.349206349206349,0.5555555555555556,-321.8253968253968
-259.6031746031746,7.063492063492063,-4.365079365079365,9.920634920634921,-43.41269841269841,-75.79365079365078,-1.0317460317460316,92.30158730158729,-13.095238095238095,-145.3174603174603,54.841269841269835,9.285714285714285,6.26984126984127,-33.888888888888886,8.174603174603174,-325.0,-84.52380952380952,-66.42857142857143,-25.476190476190474,-43.41269841269841,-20.396825396825395,1.349206349206349,0.5555555555555556,-321.8253968253968
80.23809523809523,8.65079365079365,-2.619047619047619,10.555555555555555,-38.65079365079365,-51.82539682539682,1.984126984126984,23.88888888888889,-10.079365079365079,-135.0,53.41269841269841,7.5396825396825395,9.126984126984127,-37.06349206349206,11.825396825396824,-325.0,-54.047619047619044,-37.22222222222222,-21.984126984126984,-19.76190476190476,0.07936507936507936,-0.5555555555555556,-0.873015873015873,-166.26984126984127
80.23809523809523,8.65079365079365,-2.619047619047619,10.555555555555555,-38.65079365079365,-51.82539682539682,1.984126984126984,23.88888888888889,-10.079365079365079,-135.0,53.41269841269841,7.5396825396825395,9.126984126984127,-37.06349206349206,11.825396825396824,-325.0,-54.047619047619044,-37.22222222222222,-21.984126984126984,-19.76190476190476,0.07936507936507936,-0.5555555555555556,-0.873015873015873,-166.26984126984127
253.09523809523807,15.476190476190474,-5.317460317460317,20.71428571428571,-48.650793650793645,-38.96825396825397,-8.492063492063492,15.634920634920634,-19.126984126984127,-127.6984126984127,52.14285714285714,15.158730158730158,-10.079365079365079,-33.73015873015873,2.7777777777777777,-325.0,-40.714285714285715,1.984126984126984,-20.555555555555554,-21.03174603174603,0.23809523809523808,0.23809523809523808,-0.07936507936507936,-166.26984126984127
253.09523809523807,15.476190476190474,-5.317460317460317,20.71428571428571,-48.650793650793645,-38.96825396825397,-8.492063492063492,15.634920634920634,-19.126984126984127,-127.6984126984127,52.14285714285714,15.158730158730158,-10.079365079365079,-33.73015873015873,2.7777777777777777,-325.0,-40.714285714285715,1.984126984126984,-20.555555555555554,-21.03174603174603,0.23809523809523808,0.23809523809523808,-0.07936507936507936,-166.26984126984127
151.34920634920633,22.3015873015873,3.095238095238095,26.428571428571427,-48.96825396825397,-42.61904761904761,-7.222222222222221,35.0,-16.428571428571427,-120.55555555555554,51.507936507936506,19.444444444444443,-10.396825396825395,-36.269841269841265,0.5555555555555556,-325.0,-36.42857142857142,6.111111111111111,-18.015873015873016,-23.41269841269841,2.9365079365079363,-0.3968253968253968,-0.23809523809523808,-166.26984126984127
151.34920634920633,22.3015873015873,3.095238095238095,26.428571428571427,-48.96825396825397,-42.61904761904761,-7.222222222222221,35.0,-16.428571428571427,-120.55555555555554,51.507936507936506,19.444444444444443,-10.396825396825395,-36.269841269841265,0.5555555555555556,-325.0,-36.42857142857142,6.111111111111111,-18.015873015873016,-23.41269841269841,2.9365079365079363,-0.3968253968253968,-0.23809523809523808,-166.26984126984127
-171.8253968253968,14.682539682539682,15.476190476190474,23.88888888888889,-39.76190476190476,-48.96825396825397,6.904761904761904,106.1111111111111,-1.984126984126984,-107.6984126984127,50.39682539682539,20.555555555555554,6.746031746031746,-40.714285714285715,9.444444444444445,-325.0,-20.396825396825395,6.587301587301587,-19.444444444444443,-19.126984126984127,-19.126984126984127,0.07936507936507936,-0.23809523809523808,-166.26984126984127
-171.8253968253968,14.682539682539682,15.476190476190474,23.88888888888889,-39.76190476190476,-48.96825396825397,6.904761904761904,106.1111111111111,-1.984126984126984,-107.6984126984127,50.39682539682539,20.555555555555554,6.746031746031746,-40.714285714285715,9.444444444444445,-325.0,-20.396825396825395,6.587301587301587,-19.444444444444443,-19.126984126984127,-19.126984126984127,0.07936507936507936,-0.23809523809523808,-166.26984126984127
-17.857142857142858,34.36507936507936,14.84126984126984,45.317460317460316,-28.65079365079365,-46.11111111111111,12.619047619047619,82.93650793650794,-2.142857142857143,-36.74603174603175,49.12698412698413,37.22222222222222,21.825396825396822,-20.555555555555554,12.46031746031746,-325.0,-21.825396825396822,14.682539682539682,-0.873015873015873,-27.063492063492063,-4.682539682539682,-1.0317460317460316,-0.23809523809523808,-166.26984126984127
-17.857142857142858,34.36507936507936,14.84126984126984,45.317460317460316,-28.65079365079365,-46.11111111111111,12.619047619047619,82.93650793650794,-2.142857142857143,-36.74603174603175,49.12698412698413,37.22222222222222,21.825396825396822,-20.555555555555554,12.46031746031746,-325.0,-21.825396825396822,14.682539682539682,-0.873015873015873,-27.063492063492063,-4.682539682539682,-1.0317460317460316,-0.23809523809523808,-166.26984126984127
-114.2063492063492,31.507936507936506,8.174603174603174,43.73015873015873,-15.317460317460316,-55.63492063492063,1.507936507936508,59.6031746031746,-7.5396825396825395,-19.76190476190476,48.17460317460317,37.53968253968254,4.0476190476190474,-29.6031746031746,6.111111111111111,-325.0,-48.33333333333333,-1.0317460317460316,-12.3015873015873,-30.555555555555554,-17.698412698412696,1.0317460317460316,-0.07936507936507936,-321.8253968253968
-114.2063492063492,31.507936507936506,8.174603174603174,43.73015873015873,-15.317460317460316,-55.63492063492063,1.507936507936508,59.6031746031746,-7.5396825396825395,-19.76190476190476,48.17460317460317,37.53968253968254,4.0476190476190474,-29.6031746031746,6.111111111111111,-325.0,-48.33333333333333,-1.0317460317460316,-12.3015873015873,-30.555555555555554,-17.698412698412696,1.0317460317460316,-0.07936507936507936,-321.8253968253968
-128.17460317460316,28.015873015873016,16.26984126984127,37.06349206349206,-3.73015873015873,-76.42857142857143,4.2063492063492065,99.76190476190476,-2.46031746031746,-8.174603174603174,47.53968253968254,30.555555555555554,4.682539682539682,-41.98412698412698,12.142857142857142,-325.0,-61.98412698412698,-8.015873015873016,-20.238095238095237,-23.730158730158728,-29.6031746031746,0.5555555555555556,-1.0317460317460316,-321.8253968253968
-128.17460317460316,28.015873015873016,16.26984126984127,37.06349206349206,-3.73015873015873,-76.42857142857143,4.2063492063492065,99.76190476190476,-2.46031746031746,-8.174603174603174,47.53968253968254,30.555555555555554,4.682539682539682,-41.98412698412698,12.142857142857142,-325.0,-61.98412698412698,-8.015873015873016,-20.238095238095237,-23.730158730158728,-29.6031746031746,0.5555555555555556,-1.0317460317460316,-321.8253968253968
125.0,17.698412698412696,22.619047619047617,24.365079365079364,-0.5555555555555556,-89.44444444444444,6.746031746031746,66.42857142857143,-4.2063492063492065,6.26984126984127,46.42857142857142,18.49206349206349,11.984126984126984,-49.6031746031746,16.904761904761905,-325.0,-51.98412698412698,-19.76190476190476,-33.41269841269841,-18.49206349206349,-25.79365079365079,0.23809523809523808,-0.3968253968253968,-321.8253968253968
125.0,17.698412698412696,22.619047619047617,24.365079365079364,-0.5555555555555556,-89.44444444444444,6.746031746031746,66.42857142857143,-4.2063492063492065,6.26984126984127,46.42857142857142,18.49206349206349,11.984126984126984,-49.6031746031746,16.904761904761905,-325.0,-51.98412698412698,-19.76190476190476,-33.41269841269841,-18.49206349206349,-25.79365079365079,0.23809523809523808,-0.3968253968253968,-321.8253968253968
202.61904761904762,10.714285714285714,2.7777777777777777,14.682539682539682,-10.873015873015872,-105.31746031746032,-3.095238095238095,45.95238095238095,-10.079365079365079,11.666666666666666,45.63492063492063,13.73015873015873,-0.5555555555555556,-62.93650793650793,10.714285714285714,-325.0,-72.61904761904762,-28.333333333333332,-39.285714285714285,-38.96825396825397,-25.634920634920633,0.23809523809523808,-1.0317460317460316,-321.8253968253968
202.61904761904762,10.714285714285714,2.7777777777777777,14.682539682539682,-10.873015873015872,-105.31746031746032,-3.095238095238095,45.95238095238095,-10.079365079365079,11.666666666666666,45.63492063492063,13.73015873015873,-0.5555555555555556,-62.93650793650793,10.714285714285714,-325.0,-72.61904761904762,-28.333333333333332,-39.285714285714285,-38.96825396825397,-25.634920634920633,0.23809523809523808,-1.0317460317460316,-321.8253968253968
269.44444444444446,2.7777777777777777,-1.507936507936508,8.174603174603174,-12.936507936507935,-99.92063492063491,-5.317460317460317,26.9047619047619,-11.349206349206348,18.015873015873016,44.84126984126984,10.079365079365079,9.920634920634921,-67.06349206349206,7.063492063492063,-325.0,-80.87301587301587,-32.3015873015873,-41.82539682539682,-31.03174603174603,-24.047619047619047,-0.7142857142857142,-1.0317460317460316,-321.8253968253968
269.44444444444446,2.7777777777777777,-1.507936507936508,8.174603174603174,-12.936507936507935,-99.92063492063491,-5.317460317460317,26.9047619047619,-11.349206349206348,18.015873015873016,44.84126984126984,10.079365079365079,9.920634920634921,-67.06349206349206,7.063492063492063,-325.0,-80.87301587301587,-32.3015873015873,-41.82539682539682,-31.03174603174603,-24.047619047619047,-0.7142857142857142,-1.0317460317460316,-321.8253968253968
290.07936507936506,7.5396825396825395,-0.3968253968253968,18.174603174603174,-11.666666666666666,-96.58730158730158,-4.365079365079365,34.2063492063492,-10.238095238095237,29.76190476190476,44.36507936507936,18.65079365079365,7.063492063492063,-58.96825396825397,8.174603174603174,-325.0,-78.96825396825396,-28.96825396825397,-32.3015873015873,-25.0,-17.38095238095238,-0.5555555555555556,-0.23809523809523808,-166.26984126984127
290.07936507936506,7.5396825396825395,-0.3968253968253968,18.174603174603174,-11.666666666666666,-96.58730158730158,-4.365079365079365,34.2063492063492,-10.238095238095237,29.76190476190476,44.36507936507936,18.65079365079365,7.063492063492063,-58.96825396825397,8.174603174603174,-325.0,-78.96825396825396,-28.96825396825397,-32.3015873015873,-25.0,-17.38095238095238,-0.5555555555555556,-0.23809523809523808,-166.26984126984127
256.74603174603175,4.841269841269841,2.7777777777777777,21.825396825396822,-9.285714285714285,-93.88888888888889,1.8253968253968254,28.96825396825397,-3.095238095238095,32.3015873015873,43.41269841269841,21.19047619047619,10.238095238095237,-48.80952380952381,11.507936507936508,-325.0,-68.01587301587301,-28.015873015873016,-25.634920634920633,-16.904761904761905,-15.95238095238095,-0.07936507936507936,0.07936507936507936,-166.26984126984127
256.74603174603175,4.841269841269841,2.7777777777777777,21.825396825396822,-9.285714285714285,-93.88888888888889,1.8253968253968254,28.96825396825397,-3.095238095238095,32.3015873015873,43.41269841269841,21.19047619047619,10.238095238095237,-48.80952380952381,11.507936507936508,-325.0,-68.01587301587301,-28.015873015873016,-25.634920634920633,-16.904761904761905,-15.95238095238095,-0.07936507936507936,0.07936507936507936,-166.26984126984127
97.06349206349206,-5.158730158730158,6.111111111111111,12.936507936507935,-11.19047619047619,-99.92063492063491,5.158730158730158,1.0317460317460316,0.873015873015873,14.84126984126984,42.77777777777778,13.73015873015873,6.428571428571428,-51.666666666666664,10.555555555555555,-236.26984126984127,-69.76190476190476,-38.33333333333333,-31.666666666666664,-17.063492063492063,-28.174603174603174,-0.23809523809523808,-0.23809523809523808,-166.26984126984127
97.06349206349206,-5.158730158730158,6.111111111111111,12.936507936507935,-11.19047619047619,-99.92063492063491,5.158730158730158,1.0317460317460316,0.873015873015873,14.84126984126984,42.77777777777778,13.73015873015873,6.428571428571428,-51.666666666666664,10.555555555555555,-236.26984126984127,-69.76190476190476,-38.33333333333333,-31.666666666666664,-17.063492063492063,-28.174603174603174,-0.23809523809523808,-0.23809523809523808,-166.26984126984127
-120.07936507936508,-8.65079365079365,-0.3968253968253968,8.65079365079365,-19.444444444444443,-92.46031746031746,0.5555555555555556,-13.253968253968253,-1.0317460317460316,1.349206349206349,41.82539682539682,7.222222222222221,-10.714285714285714,-63.095238095238095,5.158730158730158,110.39682539682539,-81.66666666666666,-47.38095238095238,-35.15873015873016,-26.11111111111111,-29.126984126984127,-0.7142857142857142,-0.3968253968253968,-166.26984126984127
-120.07936507936508,-8.65079365079365,-0.3968253968253968,8.65079365079365,-19.444444444444443,-92.46031746031746,0.5555555555555556,-13.253968253968253,-1.0317460317460316,1.349206349206349,41.82539682539682,7.222222222222221,-10.714285714285714,-63.095238095238095,5.158730158730158,110.39682539682539,-81.66666666666666,-47.38095238095238,-35.15873015873016,-26.11111111111111,-29.126984126984127,-0.7142857142857142,-0.3968253968253968,-166.26984126984127
-318.17460317460313,-17.22222222222222,-15.793650793650793,8.174603174603174,-20.555555555555554,-97.22222222222221,-0.7142857142857142,-45.63492063492063,-1.0317460317460316,21.507936507936506,40.87301587301587,7.063492063492063,-1.984126984126984,-59.6031746031746,9.920634920634921,14.047619047619047,-89.28571428571428,-54.68253968253968,-30.238095238095237,-23.41269841269841,-34.52380952380952,0.23809523809523808,-0.23809523809523808,-166.26984126984127
-318.17460317460313,-17.22222222222222,-15.793650793650793,8.174603174603174,-20.555555555555554,-97.22222222222221,-0.7142857142857142,-45.63492063492063,-1.0317460317460316,21.507936507936506,40.87301587301587,7.063492063492063,-1.984126984126984,-59.6031746031746,9.920634920634921,14.047619047619047,-89.28571428571428,-54.68253968253968,-30.238095238095237,-23.41269841269841,-34.52380952380952,0.23809523809523808,-0.23809523809523808,-166.26984126984127
-325.0,-18.65079365079365,-27.063492063492063,6.587301587301587,-27.539682539682538,-92.61904761904762,-7.698412698412698,-42.77777777777778,-7.3809523809523805,26.11111111111111,40.079365079365076,6.428571428571428,-13.73015873015873,-58.33333333333333,5.7936507936507935,57.698412698412696,-92.93650793650794,-68.4920634920635,-29.285714285714285,-25.634920634920633,-11.507936507936508,-0.873015873015873,-0.3968253968253968,-321.8253968253968
-325.0,-18.65079365079365,-27.063492063492063,6.587301587301587,-27.539682539682538,-92.61904761904762,-7.698412698412698,-42.77777777777778,-7.3809523809523805,26.11111111111111,40.079365079365076,6.428571428571428,-13.73015873015873,-58.33333333333333,5.7936507936507935,57.698412698412696,-92.93650793650794,-68.4920634920635,-29.285714285714285,-25.634920634920633,-11.507936507936508,-0.873015873015873,-0.3968253968253968,-321.8253968253968
-325.0,-10.396825396825395,-0.7142857142857142,4.841269841269841,-17.22222222222222,-69.6031746031746,-1.0317460317460316,-30.71428571428571,-3.4126984126984126,-7.222222222222221,39.285714285714285,4.682539682539682,5.7936507936507935,-70.07936507936508,11.825396825396824,-145.3174603174603,-73.88888888888889,-89.76190476190476,-30.07936507936508,-17.539682539682538,-5.952380952380952,-0.23809523809523808,0.3968253968253968,-321.8253968253968
-325.0,-10.396825396825395,-0.7142857142857142,4.841269841269841,-17.22222222222222,-69.6031746031746,-1.0317460317460316,-30.71428571428571,-3.4126984126984126,-7.222222222222221,39.285714285714285,4.682539682539682,5.7936507936507935,-70.07936507936508,11.825396825396824,-145.3174603174603,-73.88888888888889,-89.76190476190476,-30.07936507936508,-17.539682539682538,-5.952380952380952,-0.23809523809523808,0.3968253968253968,-321.8253968253968
-325.0,-13.73015873015873,0.23809523809523808,2.3015873015873014,-18.174603174603174,-56.74603174603174,0.5555555555555556,-24.68253968253968,-4.523809523809524,-27.063492063492063,38.49206349206349,2.142857142857143,16.26984126984127,-72.93650793650794,14.84126984126984,-144.52380952380952,-73.25396825396825,-104.68253968253968,-34.047619047619044,-17.539682539682538,-15.634920634920634,-0.3968253968253968,0.3968253968253968,-321.8253968253968
-325.0,-13.73015873015873,0.23809523809523808,2.3015873015873014,-18.174603174603174,-56.74603174603174,0.5555555555555556,-24.68253968253968,-4.523809523809524,-27.063492063492063,38.49206349206349,2.142857142857143,16.26984126984127,-72.93650793650794,14.84126984126984,-144.52380952380952,-73.25396825396825,-104.68253968253968,-34.047619047619044,-17.539682539682538,-15.634920634920634,-0.3968253968253968,0.3968253968253968,-321.8253968253968
-325.0,-29.920634920634917,2.142857142857143,-10.873015873015872,-24.206349206349206,-71.19047619047619,-5.158730158730158,-17.539682539682538,-8.015873015873016,-49.76190476190476,37.857142857142854,-14.365079365079364,13.412698412698411,-78.80952380952381,6.587301587301587,9.603174603174603,-80.87301587301587,-124.04761904761904,-48.80952380952381,-15.793650793650793,-27.539682539682538,-0.07936507936507936,-0.7142857142857142,-321.8253968253968
-325.0,-29.920634920634917,2.142857142857143,-10.873015873015872,-24.206349206349206,-71.19047619047619,-5.158730158730158,-17.539682539682538,-8.015873015873016,-49.76190476190476,37.857142857142854,-14.365079365079364,13.412698412698411,-78.80952380952381,6.587301587301587,9.603174603174603,-80.87301587301587,-124.04761904761904,-48.80952380952381,-15.793650793650793,-27.539682539682538,-0.07936507936507936,-0.7142857142857142,-321.8253968253968
-325.0,-34.047619047619044,6.111111111111111,-16.746031746031743,-25.317460317460316,-74.84126984126983,-5.7936507936507935,-30.71428571428571,-7.222222222222221,-57.698412698412696,37.857142857142854,-20.238095238095237,10.714285714285714,-85.63492063492063,6.428571428571428,13.412698412698411,-78.96825396825396,-132.77777777777777,-57.22222222222222,-11.984126984126984,-36.11111111111111,0.07936507936507936,-0.873015873015873,-321.8253968253968
-325.0,-34.047619047619044,6.111111111111111,-16.746031746031743,-25.317460317460316,-74.84126984126983,-5.7936507936507935,-30.71428571428571,-7.222222222222221,-57.698412698412696,37.857142857142854,-20.238095238095237,10.714285714285714,-85.63492063492063,6.428571428571428,13.412698412698411,-78.96825396825396,-132.77777777777777,-57.22222222222222,-11.984126984126984,-36.11111111111111,0.07936507936507936,-0.873015873015873,-321.8253968253968
-325.0,-6.904761904761904,3.253968253968254,22.777777777777775,-26.428571428571427,-49.76190476190476,4.2063492063492065,6.904761904761904,0.3968253968253968,-29.76190476190476,36.74603174603175,2.9365079365079363,0.3968253968253968,-41.98412698412698,16.428571428571427,297.6984126984127,-57.698412698412696,-108.96825396825396,-30.87301587301587,-18.96825396825397,-19.126984126984127,-0.5555555555555556,-0.23809523809523808,-166.26984126984127
-325.0,-6.904761904761904,3.253968253968254,22.777777777777775,-26.428571428571427,-49.76190476190476,4.2063492063492065,6.904761904761904,0.3968253968253968,-29.76190476190476,36.74603174603175,2.9365079365079363,0.3968253968253968,-41.98412698412698,16.428571428571427,297.6984126984127,-57.698412698412696,-108.96825396825396,-30.87301587301587,-18.96825396825397,-19.126984126984127,-0.5555555555555556,-0.23809523809523808,-166.26984126984127
-325.0,-7.857142857142857,14.047619047619047,21.507936507936506,-27.698412698412696,-38.65079365079365,18.015873015873016,20.555555555555554,19.444444444444443,-14.365079365079364,36.11111111111111,7.698412698412698,7.063492063492063,-44.68253968253968,17.22222222222222,325.0,-41.34920634920635,-99.92063492063491,-26.11111111111111,-5.7936507936507935,-16.11111111111111,0.23809523809523808,-0.23809523809523808,-166.26984126984127
