Fp1[1],Fp2[2],F3[3],F4[4],C3[5],C4[6],P3[7],P4[8],O1[9],O2[10],F7[11],F8[12],T3[13],T4[14],T5[15],T6[16],Fz[17],Pz[18],Cz[19],Pg1[20],Pg2[21],EOGR[22],EOOGL[23],EMG[24]
-290.87301587301585,224.68253968253967,325.0,325.0,-165.79365079365078,-325.0,325.0,-325.0,-325.0,-325.0,-325.0,325.0,325.0,-325.0,325.0,325.0,148.96825396825395,-325.0,298.015873015873,-325.0,-325.0,-0.873015873015873,-1.0317460317460316,-166.26984126984127
-290.87301587301585,224.68253968253967,325.0,325.0,-165.79365079365078,-325.0,325.0,-325.0,-325.0,-325.0,-325.0,325.0,325.0,-325.0,325.0,325.0,148.96825396825395,-325.0,298.015873015873,-325.0,-325.0,-0.873015873015873,-1.0317460317460316,-166.26984126984127
-285.3174603174603,220.7142857142857,325.0,325.0,-162.77777777777777,-325.0,325.0,-325.0,-325.0,-325.0,-325.0,325.0,325.0,-325.0,325.0,325.0,155.3174603174603,-325.0,292.9365079365079,-325.0,-325.0,-1.349206349206349,-0.7142857142857142,-166.26984126984127
-285.3174603174603,220.7142857142857,325.0,325.0,-162.77777777777777,-325.0,325.0,-325.0,-325.0,-325.0,-325.0,325.0,325.0,-325.0,325.0,325.0,155.3174603174603,-325.0,292.9365079365079,-325.0,-325.0,-1.349206349206349,-0.7142857142857142,-166.26984126984127
-228.65079365079364,180.23809523809524,325.0,325.0,-131.34920634920636,-325.0,156.42857142857142,-325.0,-325.0,-325.0,-325.0,309.6031746031746,325.0,-325.0,325.0,325.0,-325.0,-325.0,239.76190476190476,-325.0,-325.0,-1.1904761904761905,-1.1904761904761905,-166.26984126984127
-228.65079365079364,180.23809523809524,325.0,325.0,-131.34920634920636,-325.0,156.42857142857142,-325.0,-325.0,-325.0,-325.0,309.6031746031746,325.0,-325.0,325.0,325.0,-325.0,-325.0,239.76190476190476,-325.0,-325.0,-1.1904761904761905,-1.1904761904761905,-166.26984126984127
-213.88888888888889,169.44444444444443,325.0,325.0,-123.25396825396825,-322.46031746031747,-318.8095238095238,-323.57142857142856,-325.0,-325.0,-314.8412698412698,290.87301587301585,325.0,-306.4285714285714,325.0,317.53968253968253,-325.0,-325.0,225.63492063492063,-308.968253968254,-317.53968253968253,0.5555555555555556,-0.3968253968253968,-166.26984126984127
-213.88888888888889,169.44444444444443,325.0,325.0,-123.25396825396825,-322.46031746031747,-318.8095238095238,-323.57142857142856,-325.0,-325.0,-314.8412698412698,290.87301587301585,325.0,-306.4285714285714,325.0,317.53968253968253,-325.0,-325.0,225.63492063492063,-308.968253968254,-317.53968253968253,0.5555555555555556,-0.3968253968253968,-166.26984126984127
-208.015873015873,165.0,325.0,325.0,-119.92063492063491,-313.88888888888886,-325.0,-315.3174603174603,-325.0,-325.0,-306.74603174603175,282.9365079365079,325.0,-298.015873015873,325.0,309.4444444444444,-325.0,-325.0,219.60317460317458,-300.87301587301585,-308.6507936507936,-0.5555555555555556,-1.507936507936508,-166.26984126984127
-208.015873015873,165.0,325.0,325.0,-119.92063492063491,-313.88888888888886,-325.0,-315.3174603174603,-325.0,-325.0,-306.74603174603175,282.9365079365079,325.0,-298.015873015873,325.0,309.4444444444444,-325.0,-325.0,219.60317460317458,-300.87301587301585,-308.6507936507936,-0.5555555555555556,-1.507936507936508,-166.26984126984127
-202.14285714285714,160.7142857142857,325.0,325.0,-116.74603174603173,-305.95238095238096,-325.0,-307.38095238095235,-325.0,-325.0,-298.8095238095238,275.6349206349206,325.0,-290.07936507936506,325.0,301.3492063492063,-325.0,-325.0,214.04761904761904,-292.9365079365079,-300.39682539682536,-0.23809523809523808,-1.1904761904761905,-321.8253968253968
-202.14285714285714,160.7142857142857,325.0,325.0,-116.74603174603173,-305.95238095238096,-325.0,-307.38095238095235,-325.0,-325.0,-298.8095238095238,275.6349206349206,325.0,-290.07936507936506,325.0,301.3492063492063,-325.0,-325.0,214.04761904761904,-292.9365079365079,-300.39682539682536,-0.23809523809523808,-1.1904761904761905,-321.8253968253968
-198.4920634920635,158.015873015873,325.0,325.0,-114.68253968253967,-300.7142857142857,-325.0,-301.984126984127,-325.0,-325.0,-293.73015873015873,270.55555555555554,325.0,-284.8412698412698,325.0,296.1111111111111,-325.0,-325.0,210.2380952380952,-287.6984126984127,-295.0,-0.7142857142857142,-0.5555555555555556,-321.8253968253968
-198.4920634920635,158.015873015873,325.0,325.0,-114.68253968253967,-300.7142857142857,-325.0,-301.984126984127,-325.0,-325.0,-293.73015873015873,270.55555555555554,325.0,-284.8412698412698,325.0,296.1111111111111,-325.0,-325.0,210.2380952380952,-287.6984126984127,-295.0,-0.7142857142857142,-0.5555555555555556,-321.8253968253968
-194.68253968253967,155.3174603174603,325.0,322.1428571428571,-112.6190476190476,-295.4761904761905,-325.0,-296.90476190476187,-325.0,-325.0,-288.6507936507936,265.7936507936508,325.0,-279.6031746031746,325.0,291.031746031746,-325.0,-325.0,206.58730158730157,-282.6190476190476,-289.76190476190476,-0.3968253968253968,-1.1904761904761905,-321.8253968253968
-194.68253968253967,155.3174603174603,325.0,322.1428571428571,-112.6190476190476,-295.4761904761905,-325.0,-296.90476190476187,-325.0,-325.0,-288.6507936507936,265.7936507936508,325.0,-279.6031746031746,325.0,291.031746031746,-325.0,-325.0,206.58730158730157,-282.6190476190476,-289.76190476190476,-0.3968253968253968,-1.1904761904761905,-321.8253968253968
-191.19047619047618,152.46031746031744,325.0,316.58730158730157,-110.55555555555554,-290.55555555555554,-325.0,-291.8253968253968,-325.0,-325.0,-283.73015873015873,261.031746031746,325.0,-274.5238095238095,325.0,285.95238095238096,-325.0,-325.0,203.09523809523807,-277.38095238095235,-284.5238095238095,-0.5555555555555556,-1.349206349206349,-321.8253968253968
-191.19047619047618,152.46031746031744,325.0,316.58730158730157,-110.55555555555554,-290.55555555555554,-325.0,-291.8253968253968,-325.0,-325.0,-283.73015873015873,261.031746031746,325.0,-274.5238095238095,325.0,285.95238095238096,-325.0,-325.0,203.09523809523807,-277.38095238095235,-284.5238095238095,-0.5555555555555556,-1.349206349206349,-321.8253968253968
-187.38095238095238,149.76190476190476,325.0,310.87301587301585,-108.80952380952381,-285.4761904761905,-325.0,-286.90476190476187,-325.0,-325.0,-278.8095238095238,256.26984126984127,325.0,-269.6031746031746,325.0,280.87301587301585,-325.0,-325.0,199.44444444444443,-272.77777777777777,-279.2857142857143,-0.7142857142857142,-1.6666666666666665,-321.8253968253968
-187.38095238095238,149.76190476190476,325.0,310.87301587301585,-108.80952380952381,-285.4761904761905,-325.0,-286.90476190476187,-325.0,-325.0,-278.8095238095238,256.26984126984127,325.0,-269.6031746031746,325.0,280.87301587301585,-325.0,-325.0,199.44444444444443,-272.77777777777777,-279.2857142857143,-0.7142857142857142,-1.6666666666666665,-321.8253968253968
-184.04761904761904,147.06349206349205,325.0,305.3174603174603,-106.9047619047619,-280.55555555555554,-325.0,-282.1428571428571,-325.0,-325.0,-274.2063492063492,251.98412698412696,325.0,-264.68253968253964,325.0,275.95238095238096,-325.0,-325.0,195.95238095238093,-268.015873015873,-274.2063492063492,-1.0317460317460316,-1.0317460317460316,-166.26984126984127
-184.04761904761904,147.06349206349205,325.0,305.3174603174603,-106.9047619047619,-280.55555555555554,-325.0,-282.1428571428571,-325.0,-325.0,-274.2063492063492,251.98412698412696,325.0,-264.68253968253964,325.0,275.95238095238096,-325.0,-325.0,195.95238095238093,-268.015873015873,-274.2063492063492,-1.0317460317460316,-1.0317460317460316,-166.26984126984127
-177.2222222222222,142.14285714285714,325.0,294.5238095238095,-103.25396825396825,-271.031746031746,-325.0,-272.6190476190476,-318.6507936507936,-325.0,-264.8412698412698,243.09523809523807,325.0,-255.15873015873015,325.0,266.4285714285714,-319.4444444444444,-325.0,189.28571428571428,-258.6507936507936,-264.5238095238095,-0.5555555555555556,-0.873015873015873,-166.26984126984127
-177.2222222222222,142.14285714285714,325.0,294.5238095238095,-103.25396825396825,-271.031746031746,-325.0,-272.6190476190476,-318.6507936507936,-325.0,-264.8412698412698,243.09523809523807,325.0,-255.15873015873015,325.0,266.4285714285714,-319.4444444444444,-325.0,189.28571428571428,-258.6507936507936,-264.5238095238095,-0.5555555555555556,-0.873015873015873,-166.26984126984127
-171.34920634920633,137.69841269841268,325.0,285.4761904761905,-100.23809523809523,-262.9365079365079,-325.0,-264.68253968253964,-309.2857142857143,-325.0,-256.74603174603175,235.47619047619045,325.0,-247.06349206349205,325.0,258.3333333333333,-309.6031746031746,-325.0,183.57142857142856,-251.03174603174602,-256.1111111111111,0.873015873015873,0.7142857142857142,-166.26984126984127
-171.34920634920633,137.69841269841268,325.0,285.4761904761905,-100.23809523809523,-262.9365079365079,-325.0,-264.68253968253964,-309.2857142857143,-325.0,-256.74603174603175,235.47619047619045,325.0,-247.06349206349205,325.0,258.3333333333333,-309.6031746031746,-325.0,183.57142857142856,-251.03174603174602,-256.1111111111111,0.873015873015873,0.7142857142857142,-166.26984126984127
-129.12698412698413,105.47619047619047,-118.8095238095238,218.015873015873,-77.06349206349206,-202.46031746031744,-325.0,-204.84126984126982,-240.2380952380952,-257.38095238095235,-198.17460317460316,179.76190476190476,122.93650793650794,-187.69841269841268,-84.84126984126983,198.17460317460316,-236.9047619047619,-325.0,141.03174603174602,-192.46031746031744,-194.68253968253967,0.23809523809523808,-0.23809523809523808,-166.26984126984127
-129.12698412698413,105.47619047619047,-118.8095238095238,218.015873015873,-77.06349206349206,-202.46031746031744,-325.0,-204.84126984126982,-240.2380952380952,-257.38095238095235,-198.17460317460316,179.76190476190476,122.93650793650794,-187.69841269841268,-84.84126984126983,198.17460317460316,-236.9047619047619,-325.0,141.03174603174602,-192.46031746031744,-194.68253968253967,0.23809523809523808,-0.23809523809523808,-166.26984126984127
-129.12698412698413,105.47619047619047,-118.8095238095238,218.015873015873,-77.06349206349206,-202.46031746031744,-325.0,-204.84126984126982,-240.2380952380952,-257.38095238095235,-198.17460317460316,179.76190476190476,122.93650793650794,-187.69841269841268,-84.84126984126983,198.17460317460316,-236.9047619047619,-325.0,141.03174603174602,-192.46031746031744,-194.68253968253967,0.23809523809523808,-0.23809523809523808,-166.26984126984127
-129.12698412698413,105.47619047619047,-118.8095238095238,218.015873015873,-77.06349206349206,-202.46031746031744,-325.0,-204.84126984126982,-240.2380952380952,-257.38095238095235,-198.17460317460316,179.76190476190476,122.93650793650794,-187.69841269841268,-84.84126984126983,198.17460317460316,-236.9047619047619,-325.0,141.03174603174602,-192.46031746031744,-194.68253968253967,0.23809523809523808,-0.23809523809523808,-166.26984126984127
-87.53968253968253,-197.85714285714283,-325.0,150.55555555555554,-53.57142857142857,-141.5079365079365,-276.1111111111111,-144.04761904761904,-169.28571428571428,325.0,-138.65079365079364,124.2063492063492,-325.0,-128.8095238095238,-325.0,137.53968253968253,-164.2063492063492,-251.34920634920633,98.01587301587301,-133.4126984126984,-133.4126984126984,0.5555555555555556,-0.23809523809523808,-321.8253968253968
-87.53968253968253,-197.85714285714283,-325.0,150.55555555555554,-53.57142857142857,-141.5079365079365,-276.1111111111111,-144.04761904761904,-169.28571428571428,325.0,-138.65079365079364,124.2063492063492,-325.0,-128.8095238095238,-325.0,137.53968253968253,-164.2063492063492,-251.34920634920633,98.01587301587301,-133.4126984126984,-133.4126984126984,0.5555555555555556,-0.23809523809523808,-321.8253968253968
-87.53968253968253,-197.85714285714283,-325.0,150.55555555555554,-53.57142857142857,-141.5079365079365,-276.1111111111111,-144.04761904761904,-169.28571428571428,325.0,-138.65079365079364,124.2063492063492,-325.0,-128.8095238095238,-325.0,137.53968253968253,-164.2063492063492,-251.34920634920633,98.01587301587301,-133.4126984126984,-133.4126984126984,0.5555555555555556,-0.23809523809523808,-321.8253968253968
-87.53968253968253,-197.85714285714283,-325.0,150.55555555555554,-53.57142857142857,-141.5079365079365,-276.1111111111111,-144.04761904761904,-169.28571428571428,325.0,-138.65079365079364,124.2063492063492,-325.0,-128.8095238095238,-325.0,137.53968253968253,-164.2063492063492,-251.34920634920633,98.01587301587301,-133.4126984126984,-133.4126984126984,0.5555555555555556,-0.23809523809523808,-321.8253968253968
-87.53968253968253,-197.85714285714283,-325.0,150.55555555555554,-53.57142857142857,-141.5079365079365,-276.1111111111111,-144.04761904761904,-169.28571428571428,325.0,-138.65079365079364,124.2063492063492,-325.0,-128.8095238095238,-325.0,137.53968253968253,-164.2063492063492,-251.34920634920633,98.01587301587301,-133.4126984126984,-133.4126984126984,0.5555555555555556,-0.23809523809523808,-321.8253968253968
-87.53968253968253,-197.85714285714283,-325.0,150.55555555555554,-53.57142857142857,-141.5079365079365,-276.1111111111111,-144.04761904761904,-169.28571428571428,325.0,-138.65079365079364,124.2063492063492,-325.0,-128.8095238095238,-325.0,137.53968253968253,-164.2063492063492,-251.34920634920633,98.01587301587301,-133.4126984126984,-133.4126984126984,0.5555555555555556,-0.23809523809523808,-321.8253968253968
-22.619047619047617,-260.39682539682536,-169.76190476190476,-325.0,-16.904761904761905,-39.12698412698413,231.34920634920633,-40.714285714285715,325.0,202.46031746031744,-39.12698412698413,-325.0,-174.2063492063492,325.0,-181.984126984127,-302.77777777777777,-43.888888888888886,-75.0,-325.0,-36.42857142857142,-34.682539682539684,-0.07936507936507936,-1.1904761904761905,-321.8253968253968
-22.619047619047617,-260.39682539682536,-169.76190476190476,-325.0,-16.904761904761905,-39.12698412698413,231.34920634920633,-40.714285714285715,325.0,202.46031746031744,-39.12698412698413,-325.0,-174.2063492063492,325.0,-181.984126984127,-302.77777777777777,-43.888888888888886,-75.0,-325.0,-36.42857142857142,-34.682539682539684,-0.07936507936507936,-1.1904761904761905,-321.8253968253968
-22.142857142857142,-255.15873015873015,-166.11111111111111,-325.0,-16.746031746031743,-38.33333333333333,245.63492063492063,-40.238095238095234,325.0,197.85714285714283,-38.33333333333333,-325.0,-170.3968253968254,325.0,-178.33333333333331,-296.58730158730157,-42.77777777777778,-73.57142857142857,-320.39682539682536,-35.63492063492063,-34.047619047619044,0.23809523809523808,-1.1904761904761905,-321.8253968253968
-22.142857142857142,-255.15873015873015,-166.11111111111111,-325.0,-16.746031746031743,-38.33333333333333,245.63492063492063,-40.238095238095234,325.0,197.85714285714283,-38.33333333333333,-325.0,-170.3968253968254,325.0,-178.33333333333331,-296.58730158730157,-42.77777777777778,-73.57142857142857,-320.39682539682536,-35.63492063492063,-34.047619047619044,0.23809523809523808,-1.1904761904761905,-321.8253968253968
-21.825396825396822,-251.03174603174602,-163.4126984126984,-324.8412698412698,-16.428571428571427,-37.698412698412696,249.28571428571428,-39.6031746031746,325.0,194.68253968253967,-37.698412698412696,-323.88888888888886,-167.53968253968253,325.0,-175.47619047619045,-291.66666666666663,-41.98412698412698,-72.3015873015873,-315.1587301587301,-35.0,-33.41269841269841,0.23809523809523808,-1.349206349206349,-166.26984126984127
-21.825396825396822,-251.03174603174602,-163.4126984126984,-324.8412698412698,-16.428571428571427,-37.698412698412696,249.28571428571428,-39.6031746031746,325.0,194.68253968253967,-37.698412698412696,-323.88888888888886,-167.53968253968253,325.0,-175.47619047619045,-291.66666666666663,-41.98412698412698,-72.3015873015873,-315.1587301587301,-35.0,-33.41269841269841,0.23809523809523808,-1.349206349206349,-166.26984126984127
-21.825396825396822,-247.85714285714283,-161.19047619047618,-321.984126984127,-15.95238095238095,-37.22222222222222,237.69841269841268,-39.12698412698413,325.0,192.3015873015873,-37.38095238095238,-319.76190476190476,-165.47619047619045,325.0,-173.25396825396825,-288.17460317460313,-41.34920634920635,-71.5079365079365,-311.3492063492063,-34.36507936507936,-32.93650793650794,-0.5555555555555556,-0.3968253968253968,-166.26984126984127
-21.825396825396822,-247.85714285714283,-161.19047619047618,-321.984126984127,-15.95238095238095,-37.22222222222222,237.69841269841268,-39.12698412698413,325.0,192.3015873015873,-37.38095238095238,-319.76190476190476,-165.47619047619045,325.0,-173.25396825396825,-288.17460317460313,-41.34920634920635,-71.5079365079365,-311.3492063492063,-34.36507936507936,-32.93650793650794,-0.5555555555555556,-0.3968253968253968,-166.26984126984127
-20.873015873015873,-240.07936507936506,-155.79365079365078,-311.3492063492063,-15.793650793650793,-35.79365079365079,241.66666666666666,-37.698412698412696,325.0,185.63492063492063,-35.79365079365079,-309.4444444444444,-159.9206349206349,325.0,-167.85714285714286,-278.8095238095238,-40.39682539682539,-69.12698412698413,-301.19047619047615,-33.41269841269841,-31.666666666666664,-0.7142857142857142,-0.873015873015873,-166.26984126984127
-20.873015873015873,-240.07936507936506,-155.79365079365078,-311.3492063492063,-15.793650793650793,-35.79365079365079,241.66666666666666,-37.698412698412696,325.0,185.63492063492063,-35.79365079365079,-309.4444444444444,-159.9206349206349,325.0,-167.85714285714286,-278.8095238095238,-40.39682539682539,-69.12698412698413,-301.19047619047615,-33.41269841269841,-31.666666666666664,-0.7142857142857142,-0.873015873015873,-166.26984126984127
-20.07936507936508,-230.07936507936506,-149.12698412698413,-298.4920634920635,-15.158730158730158,-34.36507936507936,249.12698412698413,-36.11111111111111,325.0,177.85714285714286,-34.36507936507936,-296.74603174603175,-152.93650793650792,325.0,-160.87301587301587,-267.38095238095235,-38.17460317460317,-66.26984126984127,-288.968253968254,-31.825396825396822,-30.396825396825395,-0.3968253968253968,-1.349206349206349,-166.26984126984127
-20.07936507936508,-230.07936507936506,-149.12698412698413,-298.4920634920635,-15.158730158730158,-34.36507936507936,249.12698412698413,-36.11111111111111,325.0,177.85714285714286,-34.36507936507936,-296.74603174603175,-152.93650793650792,325.0,-160.87301587301587,-267.38095238095235,-38.17460317460317,-66.26984126984127,-288.968253968254,-31.825396825396822,-30.396825396825395,-0.3968253968253968,-1.349206349206349,-166.26984126984127
-18.333333333333332,-211.8253968253968,-136.9047619047619,-274.04761904761904,-14.206349206349206,-31.666666666666664,257.85714285714283,144.36507936507937,302.6190476190476,162.93650793650792,-31.666666666666664,-272.77777777777777,-140.3968253968254,325.0,-148.17460317460316,-246.1111111111111,-35.0,-61.03174603174603,-265.95238095238096,-29.285714285714285,55.317460317460316,-1.0317460317460316,-1.1904761904761905,-166.26984126984127
-18.333333333333332,-211.8253968253968,-136.9047619047619,-274.04761904761904,-14.206349206349206,-31.666666666666664,257.85714285714283,144.36507936507937,302.6190476190476,162.93650793650792,-31.666666666666664,-272.77777777777777,-140.3968253968254,325.0,-148.17460317460316,-246.1111111111111,-35.0,-61.03174603174603,-265.95238095238096,-29.285714285714285,55.317460317460316,-1.0317460317460316,-1.1904761904761905,-166.26984126984127
-16.587301587301585,-191.19047619047618,-123.25396825396825,-246.74603174603172,-13.095238095238095,-28.333333333333332,273.73015873015873,325.0,277.06349206349205,146.11111111111111,-28.65079365079365,-245.63492063492063,-126.42857142857142,325.0,-133.73015873015873,-222.14285714285714,-31.666666666666664,-55.317460317460316,-239.9206349206349,-26.428571428571427,305.0,-0.3968253968253968,0.3968253968253968,-321.8253968253968
-16.587301587301585,-191.19047619047618,-123.25396825396825,-246.74603174603172,-13.095238095238095,-28.333333333333332,273.73015873015873,325.0,277.06349206349205,146.11111111111111,-28.65079365079365,-245.63492063492063,-126.42857142857142,325.0,-133.73015873015873,-222.14285714285714,-31.666666666666664,-55.317460317460316,-239.9206349206349,-26.428571428571427,305.0,-0.3968253968253968,0.3968253968253968,-321.8253968253968
-16.11111111111111,-185.63492063492063,-119.76190476190476,-239.44444444444443,-12.777777777777777,-27.698412698412696,253.25396825396825,325.0,268.968253968254,141.66666666666666,-28.015873015873016,-238.49206349206347,-122.6190476190476,325.0,-129.9206349206349,-215.79365079365078,-30.396825396825395,-53.73015873015873,-233.09523809523807,-25.634920634920633,325.0,0.3968253968253968,-0.7142857142857142,-321.8253968253968
-16.11111111111111,-185.63492063492063,-119.76190476190476,-239.44444444444443,-12.777777777777777,-27.698412698412696,253.25396825396825,325.0,268.968253968254,141.66666666666666,-28.015873015873016,-238.49206349206347,-122.6190476190476,325.0,-129.9206349206349,-215.79365079365078,-30.396825396825395,-53.73015873015873,-233.09523809523807,-25.634920634920633,325.0,0.3968253968253968,-0.7142857142857142,-321.8253968253968
-15.476190476190474,-182.61904761904762,-117.6984126984127,-235.15873015873015,-12.777777777777777,-27.063492063492063,237.2222222222222,325.0,264.5238095238095,138.96825396825395,-27.38095238095238,-234.68253968253967,-120.39682539682539,325.0,-127.85714285714285,-212.14285714285714,-29.920634920634917,-52.77777777777777,-229.12698412698413,-25.158730158730158,325.0,0.5555555555555556,-1.507936507936508,-321.8253968253968
-15.476190476190474,-182.61904761904762,-117.6984126984127,-235.15873015873015,-12.777777777777777,-27.063492063492063,237.2222222222222,325.0,264.5238095238095,138.96825396825395,-27.38095238095238,-234.68253968253967,-120.39682539682539,325.0,-127.85714285714285,-212.14285714285714,-29.920634920634917,-52.77777777777777,-229.12698412698413,-25.158730158730158,325.0,0.5555555555555556,-1.507936507936508,-321.8253968253968
-15.317460317460316,-178.015873015873,-114.84126984126983,-229.28571428571428,-12.3015873015873,-26.587301587301585,278.8095238095238,325.0,258.17460317460313,135.63492063492063,-26.746031746031743,-228.49206349206347,-117.53968253968253,325.0,-124.36507936507935,-207.06349206349205,-29.285714285714285,-51.666666666666664,-223.57142857142856,-24.365079365079364,325.0,0.07936507936507936,-0.873015873015873,-321.8253968253968
-15.317460317460316,-178.015873015873,-114.84126984126983,-229.28571428571428,-12.3015873015873,-26.587301587301585,278.8095238095238,325.0,258.17460317460313,135.63492063492063,-26.746031746031743,-228.49206349206347,-117.53968253968253,325.0,-124.36507936507935,-207.06349206349205,-29.285714285714285,-51.666666666666664,-223.57142857142856,-24.365079365079364,325.0,0.07936507936507936,-0.873015873015873,-321.8253968253968
-15.317460317460316,-178.015873015873,-114.84126984126983,-229.28571428571428,-12.3015873015873,-26.587301587301585,278.8095238095238,325.0,258.17460317460313,135.63492063492063,-26.746031746031743,-228.49206349206347,-117.53968253968253,325.0,-124.36507936507935,-207.06349206349205,-29.285714285714285,-51.666666666666664,-223.57142857142856,-24.365079365079364,325.0,0.07936507936507936,-0.873015873015873,-321.8253968253968
-15.317460317460316,-178.015873015873,-114.84126984126983,-229.28571428571428,-12.3015873015873,-26.587301587301585,278.8095238095238,325.0,258.17460317460313,135.63492063492063,-26.746031746031743,-228.49206349206347,-117.53968253968253,325.0,-124.36507936507935,-207.06349206349205,-29.285714285714285,-51.666666666666664,-223.57142857142856,-24.365079365079364,325.0,0.07936507936507936,-0.873015873015873,-321.8253968253968
-15.317460317460316,-178.015873015873,-114.84126984126983,-229.28571428571428,-12.3015873015873,-26.587301587301585,278.8095238095238,325.0,258.17460317460313,135.63492063492063,-26.746031746031743,-228.49206349206347,-117.53968253968253,325.0,-124.36507936507935,-207.06349206349205,-29.285714285714285,-51.666666666666664,-223.57142857142856,-24.365079365079364,325.0,0.07936507936507936,-0.873015873015873,-166.26984126984127
-15.317460317460316,-178.015873015873,-114.84126984126983,-229.28571428571428,-12.3015873015873,-26.587301587301585,278.8095238095238,325.0,258.17460317460313,135.63492063492063,-26.746031746031743,-228.49206349206347,-117.53968253968253,325.0,-124.36507936507935,-207.06349206349205,-29.285714285714285,-51.666666666666664,-223.57142857142856,-24.365079365079364,325.0,0.07936507936507936,-0.873015873015873,-166.26984126984127
78.80952380952381,-110.71428571428571,24.84126984126984,-141.34920634920636,94.68253968253968,138.015873015873,157.06349206349205,274.5238095238095,134.52380952380952,78.4920634920635,74.2063492063492,-141.19047619047618,-35.63492063492063,213.25396825396825,0.7142857142857142,-128.65079365079364,5.0,116.58730158730158,-138.65079365079364,118.17460317460316,255.79365079365078,-0.07936507936507936,-0.7142857142857142,-166.26984126984127
78.80952380952381,-110.71428571428571,24.84126984126984,-141.34920634920636,94.68253968253968,138.015873015873,157.06349206349205,274.5238095238095,134.52380952380952,78.4920634920635,74.2063492063492,-141.19047619047618,-35.63492063492063,213.25396825396825,0.7142857142857142,-128.65079365079364,5.0,116.58730158730158,-138.65079365079364,118.17460317460316,255.79365079365078,-0.07936507936507936,-0.7142857142857142,-166.26984126984127
173.09523809523807,-43.25396825396825,164.52380952380952,-53.41269841269841,201.8253968253968,302.77777777777777,35.476190476190474,224.04761904761904,10.873015873015872,21.507936507936506,175.15873015873015,-53.73015873015873,46.269841269841265,101.5079365079365,125.95238095238095,-50.079365079365076,39.44444444444444,285.0,-53.73015873015873,260.7142857142857,186.58730158730157,-0.23809523809523808,-0.3968253968253968,-166.26984126984127
173.09523809523807,-43.25396825396825,164.52380952380952,-53.41269841269841,201.8253968253968,302.77777777777777,35.476190476190474,224.04761904761904,10.873015873015872,21.507936507936506,175.15873015873015,-53.73015873015873,46.269841269841265,101.5079365079365,125.95238095238095,-50.079365079365076,39.44444444444444,285.0,-53.73015873015873,260.7142857142857,186.58730158730157,-0.23809523809523808,-0.3968253968253968,-166.26984126984127
173.09523809523807,-53.41269841269841,164.52380952380952,-53.41269841269841,201.8253968253968,302.77777777777777,35.476190476190474,224.04761904761904,10.873015873015872,21.507936507936506,175.15873015873015,-53.73015873015873,46.269841269841265,101.5079365079365,125.95238095238095,-50.079365079365076,39.44444444444444,285.0,-53.73015873015873,260.7142857142857,186.58730158730157,-0.23809523809523808,-0.3968253968253968,-166.26984126984127
173.09523809523807,-53.41269841269841,164.52380952380952,-53.41269841269841,201.8253968253968,302.77777777777777,35.476190476190474,224.04761904761904,10.873015873015872,21.507936507936506,175.15873015873015,-53.73015873015873,46.269841269841265,101.5079365079365,125.95238095238095,-50.079365079365076,39.44444444444444,285.0,-53.73015873015873,260.7142857142857,186.58730158730157,-0.23809523809523808,-0.3968253968253968,-166.26984126984127
325.0,-14.84126984126984,209.9206349206349,-17.857142857142858,319.76190476190476,100.07936507936508,79.92063492063491,74.04761904761904,-55.476190476190474,-325.0,325.0,-18.333333333333332,202.46031746031744,31.349206349206348,193.7301587301587,-16.746031746031743,296.4285714285714,95.79365079365078,-18.333333333333332,84.84126984126983,58.33333333333333,0.23809523809523808,-0.7142857142857142,-166.26984126984127
325.0,-14.84126984126984,209.9206349206349,-17.857142857142858,319.76190476190476,100.07936507936508,79.92063492063491,74.04761904761904,-55.476190476190474,-325.0,325.0,-18.333333333333332,202.46031746031744,31.349206349206348,193.7301587301587,-16.746031746031743,296.4285714285714,95.79365079365078,-18.333333333333332,84.84126984126983,58.33333333333333,0.23809523809523808,-0.7142857142857142,-166.26984126984127
325.0,-14.84126984126984,209.9206349206349,-17.857142857142858,319.76190476190476,100.07936507936508,79.92063492063491,74.04761904761904,-55.476190476190474,-325.0,325.0,-18.333333333333332,202.46031746031744,31.349206349206348,193.7301587301587,-16.746031746031743,296.4285714285714,95.79365079365078,-18.333333333333332,84.84126984126983,58.33333333333333,0.23809523809523808,-0.7142857142857142,-321.8253968253968
325.0,-14.84126984126984,209.9206349206349,-17.857142857142858,319.76190476190476,100.07936507936508,79.92063492063491,74.04761904761904,-55.476190476190474,-325.0,325.0,-18.333333333333332,202.46031746031744,31.349206349206348,193.7301587301587,-16.746031746031743,296.4285714285714,95.79365079365078,-18.333333333333332,84.84126984126983,58.33333333333333,0.23809523809523808,-0.7142857142857142,-321.8253968253968
325.0,-14.84126984126984,209.9206349206349,-17.857142857142858,319.76190476190476,100.07936507936508,79.92063492063491,74.04761904761904,-55.476190476190474,-325.0,325.0,-18.333333333333332,202.46031746031744,31.349206349206348,193.7301587301587,-16.746031746031743,296.4285714285714,95.79365079365078,-18.333333333333332,84.84126984126983,58.33333333333333,0.23809523809523808,-0.7142857142857142,-321.8253968253968
325.0,-14.84126984126984,209.9206349206349,-17.857142857142858,319.76190476190476,100.07936507936508,79.92063492063491,74.04761904761904,-55.476190476190474,-325.0,325.0,-18.333333333333332,202.46031746031744,31.349206349206348,193.7301587301587,-16.746031746031743,296.4285714285714,95.79365079365078,-18.333333333333332,84.84126984126983,58.33333333333333,0.23809523809523808,-0.7142857142857142,-321.8253968253968
325.0,-14.84126984126984,209.9206349206349,-17.857142857142858,319.76190476190476,100.07936507936508,79.92063492063491,74.04761904761904,-55.476190476190474,-325.0,325.0,-18.333333333333332,202.46031746031744,31.349206349206348,193.7301587301587,-16.746031746031743,296.4285714285714,95.79365079365078,-18.333333333333332,84.84126984126983,58.33333333333333,0.23809523809523808,-0.7142857142857142,-321.8253968253968
325.0,-14.84126984126984,209.9206349206349,-17.857142857142858,319.76190476190476,100.07936507936508,79.92063492063491,74.04761904761904,-55.476190476190474,-325.0,325.0,-18.333333333333332,202.46031746031744,31.349206349206348,193.7301587301587,-16.746031746031743,296.4285714285714,95.79365079365078,-18.333333333333332,84.84126984126983,58.33333333333333,0.23809523809523808,-0.7142857142857142,-321.8253968253968
325.0,-14.84126984126984,209.9206349206349,-17.857142857142858,319.76190476190476,100.07936507936508,79.92063492063491,74.04761904761904,-55.476190476190474,-325.0,325.0,-18.333333333333332,202.46031746031744,31.349206349206348,193.7301587301587,-16.746031746031743,296.4285714285714,95.79365079365078,-18.333333333333332,84.84126984126983,58.33333333333333,0.23809523809523808,-0.7142857142857142,-321.8253968253968
325.0,-14.84126984126984,209.9206349206349,-17.857142857142858,319.76190476190476,100.07936507936508,79.92063492063491,74.04761904761904,-55.476190476190474,-325.0,325.0,-18.333333333333332,202.46031746031744,31.349206349206348,193.7301587301587,-16.746031746031743,296.4285714285714,95.79365079365078,-18.333333333333332,84.84126984126983,58.33333333333333,0.23809523809523808,-0.7142857142857142,-321.8253968253968
325.0,-14.84126984126984,209.9206349206349,-17.857142857142858,319.76190476190476,100.07936507936508,79.92063492063491,74.04761904761904,-55.476190476190474,-325.0,325.0,-18.333333333333332,202.46031746031744,31.349206349206348,193.7301587301587,-16.746031746031743,296.4285714285714,95.79365079365078,-18.333333333333332,84.84126984126983,58.33333333333333,0.23809523809523808,-0.7142857142857142,-321.8253968253968
325.0,-14.84126984126984,209.9206349206349,-17.857142857142858,319.76190476190476,100.07936507936508,79.92063492063491,74.04761904761904,-55.476190476190474,-325.0,325.0,-18.333333333333332,202.46031746031744,31.349206349206348,193.7301587301587,-16.746031746031743,296.4285714285714,95.79365079365078,-18.333333333333332,84.84126984126983,58.33333333333333,0.23809523809523808,-0.7142857142857142,-321.8253968253968
325.0,-14.84126984126984,209.9206349206349,-17.857142857142858,319.76190476190476,100.07936507936508,79.92063492063491,74.04761904761904,-55.476190476190474,-325.0,325.0,-18.333333333333332,202.46031746031744,31.349206349206348,193.7301587301587,-16.746031746031743,296.4285714285714,95.79365079365078,-18.333333333333332,84.84126984126983,58.33333333333333,0.23809523809523808,-0.7142857142857142,-166.26984126984127
325.0,-14.84126984126984,209.9206349206349,-17.857142857142858,319.76190476190476,100.07936507936508,79.92063492063491,74.04761904761904,-55.476190476190474,-325.0,325.0,-18.333333333333332,202.46031746031744,31.349206349206348,193.7301587301587,-16.746031746031743,296.4285714285714,95.79365079365078,-18.333333333333332,84.84126984126983,58.33333333333333,0.23809523809523808,-0.7142857142857142,-166.26984126984127
159.76190476190476,183.57142857142856,182.61904761904762,-3.253968253968254,150.23809523809524,-325.0,71.66666666666666,-184.36507936507937,-104.68253968253968,-324.36507936507934,172.46031746031744,94.2063492063492,228.015873015873,14.206349206349206,174.52380952380952,54.68253968253968,134.68253968253967,44.52380952380952,-8.968253968253968,38.96825396825397,26.11111111111111,-0.3968253968253968,-0.5555555555555556,-166.26984126984127
159.76190476190476,183.57142857142856,182.61904761904762,-3.253968253968254,150.23809523809524,-325.0,71.66666666666666,-184.36507936507937,-104.68253968253968,-324.36507936507934,172.46031746031744,94.2063492063492,228.015873015873,14.206349206349206,174.52380952380952,54.68253968253968,134.68253968253967,44.52380952380952,-8.968253968253968,38.96825396825397,26.11111111111111,-0.3968253968253968,-0.5555555555555556,-166.26984126984127
156.9047619047619,181.03174603174602,165.0,-3.571428571428571,147.85714285714286,-325.0,67.85714285714285,-144.36507936507937,-95.15873015873015,-319.6031746031746,169.60317460317458,83.4126984126984,199.12698412698413,13.888888888888888,165.63492063492063,45.0,132.3015873015873,43.73015873015873,-9.444444444444445,38.49206349206349,25.952380952380953,-0.5555555555555556,-0.873015873015873,-166.26984126984127
156.9047619047619,181.03174603174602,165.0,-3.571428571428571,147.85714285714286,-325.0,67.85714285714285,-144.36507936507937,-95.15873015873015,-319.6031746031746,169.60317460317458,83.4126984126984,199.12698412698413,13.888888888888888,165.63492063492063,45.0,132.3015873015873,43.73015873015873,-9.444444444444445,38.49206349206349,25.952380952380953,-0.5555555555555556,-0.873015873015873,-166.26984126984127
46.11111111111111,44.36507936507936,8.809523809523808,105.79365079365078,45.95238095238095,325.0,3.888888888888889,85.47619047619047,-56.11111111111111,325.0,52.77777777777777,45.63492063492063,46.58730158730158,4.682539682539682,-20.07936507936508,188.65079365079364,39.6031746031746,14.206349206349206,157.06349206349205,12.619047619047619,5.476190476190476,-0.07936507936507936,-0.7142857142857142,-166.26984126984127
46.11111111111111,44.36507936507936,8.809523809523808,105.79365079365078,45.95238095238095,325.0,3.888888888888889,85.47619047619047,-56.11111111111111,325.0,52.77777777777777,45.63492063492063,46.58730158730158,4.682539682539682,-20.07936507936508,188.65079365079364,39.6031746031746,14.206349206349206,157.06349206349205,12.619047619047619,5.476190476190476,-0.07936507936507936,-0.7142857142857142,-166.26984126984127
45.15873015873016,61.98412698412698,-11.507936507936508,125.31746031746032,45.15873015873016,325.0,-11.19047619047619,83.88888888888889,-64.84126984126983,325.0,51.82539682539682,61.19047619047619,47.06349206349206,1.6666666666666665,-33.25396825396825,205.0,38.96825396825397,13.888888888888888,178.33333333333331,12.3015873015873,7.063492063492063,0.23809523809523808,-0.23809523809523808,-166.26984126984127
45.15873015873016,61.98412698412698,-11.507936507936508,125.31746031746032,45.15873015873016,325.0,-11.19047619047619,83.88888888888889,-64.84126984126983,325.0,51.82539682539682,61.19047619047619,47.06349206349206,1.6666666666666665,-33.25396825396825,205.0,38.96825396825397,13.888888888888888,178.33333333333331,12.3015873015873,7.063492063492063,0.23809523809523808,-0.23809523809523808,-166.26984126984127
44.36507936507936,79.6031746031746,-31.666666666666664,145.0,44.36507936507936,325.0,-26.26984126984127,82.3015873015873,-73.4126984126984,325.0,51.03174603174603,76.74603174603175,47.53968253968254,-1.349206349206349,-46.42857142857142,221.34920634920633,38.33333333333333,13.73015873015873,199.60317460317458,12.142857142857142,8.809523809523808,0.7142857142857142,0.3968253968253968,-321.8253968253968
44.36507936507936,79.6031746031746,-31.666666666666664,145.0,44.36507936507936,325.0,-26.26984126984127,82.3015873015873,-73.4126984126984,325.0,51.03174603174603,76.74603174603175,47.53968253968254,-1.349206349206349,-46.42857142857142,221.34920634920633,38.33333333333333,13.73015873015873,199.60317460317458,12.142857142857142,8.809523809523808,0.7142857142857142,0.3968253968253968,-321.8253968253968
44.36507936507936,79.6031746031746,-31.666666666666664,145.0,44.36507936507936,325.0,-26.26984126984127,82.3015873015873,-73.4126984126984,325.0,51.03174603174603,76.74603174603175,47.53968253968254,-1.349206349206349,-46.42857142857142,221.34920634920633,38.33333333333333,13.73015873015873,199.60317460317458,12.142857142857142,8.809523809523808,0.7142857142857142,0.3968253968253968,-321.8253968253968
44.36507936507936,79.6031746031746,-31.666666666666664,145.0,44.36507936507936,325.0,-26.26984126984127,82.3015873015873,-73.4126984126984,325.0,51.03174603174603,76.74603174603175,47.53968253968254,-1.349206349206349,-46.42857142857142,221.34920634920633,38.33333333333333,13.73015873015873,199.60317460317458,12.142857142857142,8.809523809523808,0.7142857142857142,0.3968253968253968,-321.8253968253968
44.36507936507936,79.6031746031746,-31.666666666666664,145.0,44.36507936507936,325.0,-26.26984126984127,82.3015873015873,-73.4126984126984,325.0,51.03174603174603,76.74603174603175,47.53968253968254,-1.349206349206349,-46.42857142857142,221.34920634920633,38.33333333333333,13.73015873015873,199.60317460317458,12.142857142857142,8.809523809523808,0.7142857142857142,0.3968253968253968,-321.8253968253968
44.36507936507936,79.6031746031746,-31.666666666666664,145.0,44.36507936507936,325.0,-26.26984126984127,82.3015873015873,-73.4126984126984,325.0,51.03174603174603,76.74603174603175,47.53968253968254,-1.349206349206349,-46.42857142857142,221.34920634920633,38.33333333333333,13.73015873015873,199.60317460317458,12.142857142857142,8.809523809523808,0.7142857142857142,0.3968253968253968,-321.8253968253968
34.682539682539684,-5.158730158730158,-34.52380952380952,118.33333333333333,35.0,259.76190476190476,-49.6031746031746,64.52380952380952,-107.85714285714285,325.0,40.238095238095234,46.904761904761905,6.111111111111111,-16.587301587301585,-51.34920634920635,179.76190476190476,30.238095238095237,11.031746031746032,151.66666666666666,7.698412698412698,-30.71428571428571,0.23809523809523808,0.23809523809523808,-321.8253968253968
34.682539682539684,-5.158730158730158,-34.52380952380952,118.33333333333333,35.0,259.76190476190476,-49.6031746031746,64.52380952380952,-107.85714285714285,325.0,40.238095238095234,46.904761904761905,6.111111111111111,-16.587301587301585,-51.34920634920635,179.76190476190476,30.238095238095237,11.031746031746032,151.66666666666666,7.698412698412698,-30.71428571428571,0.23809523809523808,0.23809523809523808,-321.8253968253968
24.84126984126984,-143.4126984126984,-59.92063492063492,32.61904761904762,25.317460317460316,192.14285714285714,-55.63492063492063,45.79365079365079,-131.8253968253968,325.0,29.285714285714285,-36.74603174603175,-30.71428571428571,-36.74603174603175,-26.587301587301585,85.31746031746032,21.666666666666664,8.174603174603174,69.6031746031746,6.111111111111111,-106.42857142857142,-0.7142857142857142,-0.3968253968253968,-321.8253968253968
24.84126984126984,-143.4126984126984,-59.92063492063492,32.61904761904762,25.317460317460316,192.14285714285714,-55.63492063492063,45.79365079365079,-131.8253968253968,325.0,29.285714285714285,-36.74603174603175,-30.71428571428571,-36.74603174603175,-26.587301587301585,85.31746031746032,21.666666666666664,8.174603174603174,69.6031746031746,6.111111111111111,-106.42857142857142,-0.7142857142857142,-0.3968253968253968,-321.8253968253968
24.523809523809522,-138.17460317460316,-70.71428571428571,44.52380952380952,24.84126984126984,188.96825396825395,-58.96825396825397,45.0,-126.26984126984127,325.0,28.809523809523807,-28.333333333333332,-69.44444444444444,-82.61904761904762,-37.857142857142854,89.6031746031746,21.349206349206348,8.015873015873016,80.55555555555556,5.7936507936507935,-98.01587301587301,-0.23809523809523808,-0.07936507936507936,-166.26984126984127
24.523809523809522,-138.17460317460316,-70.71428571428571,44.52380952380952,24.84126984126984,188.96825396825395,-58.96825396825397,45.0,-126.26984126984127,325.0,28.809523809523807,-28.333333333333332,-69.44444444444444,-82.61904761904762,-37.857142857142854,89.6031746031746,21.349206349206348,8.015873015873016,80.55555555555556,5.7936507936507935,-98.01587301587301,-0.23809523809523808,-0.07936507936507936,-166.26984126984127
24.047619047619047,-128.8095238095238,-63.57142857142857,51.19047619047619,24.68253968253968,186.58730158730157,-50.39682539682539,44.52380952380952,-129.12698412698413,325.0,28.333333333333332,-28.96825396825397,-48.49206349206349,-49.6031746031746,-18.80952380952381,79.92063492063491,21.03174603174603,7.857142857142857,89.12698412698413,6.26984126984127,-90.87301587301587,-0.5555555555555556,-1.1904761904761905,-166.26984126984127
24.047619047619047,-128.8095238095238,-63.57142857142857,51.19047619047619,24.68253968253968,186.58730158730157,-50.39682539682539,44.52380952380952,-129.12698412698413,325.0,28.333333333333332,-28.96825396825397,-48.49206349206349,-49.6031746031746,-18.80952380952381,79.92063492063491,21.03174603174603,7.857142857142857,89.12698412698413,6.26984126984127,-90.87301587301587,-0.5555555555555556,-1.1904761904761905,-166.26984126984127
23.730158730158728,-127.06349206349206,-65.63492063492063,39.12698412698413,24.523809523809522,185.0,-54.52380952380952,44.2063492063492,-138.015873015873,325.0,28.174603174603174,-41.507936507936506,-31.98412698412698,-37.06349206349206,-16.587301587301585,65.0,20.873015873015873,7.857142857142857,83.4126984126984,6.587301587301587,-89.6031746031746,0.23809523809523808,-1.8253968253968254,-166.26984126984127
23.730158730158728,-127.06349206349206,-65.63492063492063,39.12698412698413,24.523809523809522,185.0,-54.52380952380952,44.2063492063492,-138.015873015873,325.0,28.174603174603174,-41.507936507936506,-31.98412698412698,-37.06349206349206,-16.587301587301585,65.0,20.873015873015873,7.857142857142857,83.4126984126984,6.587301587301587,-89.6031746031746,0.23809523809523808,-1.8253968253968254,-166.26984126984127
20.71428571428571,-136.58730158730157,-12.777777777777777,11.19047619047619,21.19047619047619,159.9206349206349,-44.68253968253968,33.41269841269841,-113.57142857142857,325.0,24.523809523809522,-28.65079365079365,-39.12698412698413,-68.80952380952381,21.666666666666664,60.873015873015866,18.174603174603174,7.063492063492063,55.63492063492063,3.253968253968254,-156.58730158730157,-1.349206349206349,-0.7142857142857142,-166.26984126984127
20.71428571428571,-136.58730158730157,-12.777777777777777,11.19047619047619,21.19047619047619,159.9206349206349,-44.68253968253968,33.41269841269841,-113.57142857142857,325.0,24.523809523809522,-28.65079365079365,-39.12698412698413,-68.80952380952381,21.666666666666664,60.873015873015866,18.174603174603174,7.063492063492063,55.63492063492063,3.253968253968254,-156.58730158730157,-1.349206349206349,-0.7142857142857142,-166.26984126984127
18.80952380952381,-109.28571428571428,-16.26984126984127,21.984126984126984,19.444444444444443,145.95238095238093,-75.15873015873015,-14.84126984126984,-139.9206349206349,258.968253968254,22.46031746031746,-9.126984126984127,-24.047619047619047,-60.873015873015866,4.682539682539682,59.12698412698413,16.587301587301585,6.428571428571428,58.17460317460317,-13.888888888888888,-158.17460317460316,-0.873015873015873,-0.23809523809523808,-166.26984126984127
18.80952380952381,-109.28571428571428,-16.26984126984127,21.984126984126984,19.444444444444443,145.95238095238093,-75.15873015873015,-14.84126984126984,-139.9206349206349,258.968253968254,22.46031746031746,-9.126984126984127,-24.047619047619047,-60.873015873015866,4.682539682539682,59.12698412698413,16.587301587301585,6.428571428571428,58.17460317460317,-13.888888888888888,-158.17460317460316,-0.873015873015873,-0.23809523809523808,-166.26984126984127
17.063492063492063,-81.98412698412697,-19.6031746031746,32.93650793650794,17.857142857142858,132.14285714285714,-105.47619047619047,-63.095238095238095,-166.11111111111111,192.93650793650792,20.396825396825395,10.396825396825395,-8.809523809523808,-52.93650793650794,-12.3015873015873,57.38095238095238,15.158730158730158,5.7936507936507935,60.71428571428571,-31.03174603174603,-159.76190476190476,-0.3968253968253968,0.3968253968253968,-321.8253968253968
17.063492063492063,-81.98412698412697,-19.6031746031746,32.93650793650794,17.857142857142858,132.14285714285714,-105.47619047619047,-63.095238095238095,-166.11111111111111,192.93650793650792,20.396825396825395,10.396825396825395,-8.809523809523808,-52.93650793650794,-12.3015873015873,57.38095238095238,15.158730158730158,5.7936507936507935,60.71428571428571,-31.03174603174603,-159.76190476190476,-0.3968253968253968,0.3968253968253968,-321.8253968253968
15.95238095238095,-21.825396825396822,47.53968253968254,53.095238095238095,16.11111111111111,121.19047619047619,-78.01587301587301,-23.41269841269841,-129.28571428571428,122.93650793650794,18.80952380952381,18.015873015873016,12.3015873015873,-61.666666666666664,24.365079365079364,83.57142857142857,13.888888888888888,5.476190476190476,96.42857142857142,-57.06349206349206,-158.015873015873,-0.23809523809523808,0.3968253968253968,-321.8253968253968
15.95238095238095,-21.825396825396822,47.53968253968254,53.095238095238095,16.11111111111111,121.19047619047619,-78.01587301587301,-23.41269841269841,-129.28571428571428,122.93650793650794,18.80952380952381,18.015873015873016,12.3015873015873,-61.666666666666664,24.365079365079364,83.57142857142857,13.888888888888888,5.476190476190476,96.42857142857142,-57.06349206349206,-158.015873015873,-0.23809523809523808,0.3968253968253968,-321.8253968253968
14.84126984126984,38.33333333333333,114.68253968253967,73.4126984126984,14.523809523809524,110.39682539682539,-50.39682539682539,16.428571428571427,-92.30158730158729,52.93650793650794,17.38095238095238,25.634920634920633,33.57142857142857,-70.39682539682539,61.19047619047619,109.92063492063491,12.777777777777777,5.158730158730158,132.3015873015873,-82.93650793650794,-156.26984126984127,-0.07936507936507936,0.3968253968253968,-321.8253968253968
14.84126984126984,38.33333333333333,114.68253968253967,73.4126984126984,14.523809523809524,110.39682539682539,-50.39682539682539,16.428571428571427,-92.30158730158729,52.93650793650794,17.38095238095238,25.634920634920633,33.57142857142857,-70.39682539682539,61.19047619047619,109.92063492063491,12.777777777777777,5.158730158730158,132.3015873015873,-82.93650793650794,-156.26984126984127,-0.07936507936507936,0.3968253968253968,-321.8253968253968
13.888888888888888,58.33333333333333,131.66666666666666,93.25396825396825,14.523809523809524,106.42857142857142,-56.58730158730158,2.9365079365079363,-99.28571428571428,71.5079365079365,16.587301587301585,38.33333333333333,30.238095238095237,-59.285714285714285,52.93650793650794,119.76190476190476,12.46031746031746,4.841269841269841,151.984126984127,-101.82539682539682,-152.93650793650792,0.5555555555555556,-0.5555555555555556,-321.8253968253968
13.888888888888888,58.33333333333333,131.66666666666666,93.25396825396825,14.523809523809524,106.42857142857142,-56.58730158730158,2.9365079365079363,-99.28571428571428,71.5079365079365,16.587301587301585,38.33333333333333,30.238095238095237,-59.285714285714285,52.93650793650794,119.76190476190476,12.46031746031746,4.841269841269841,151.984126984127,-101.82539682539682,-152.93650793650792,0.5555555555555556,-0.5555555555555556,-321.8253968253968
13.888888888888888,39.44444444444444,134.04761904761904,80.07936507936508,14.523809523809524,105.63492063492063,-50.71428571428571,-7.5396825396825395,-98.01587301587301,56.269841269841265,16.587301587301585,20.873015873015873,55.317460317460316,-58.33333333333333,66.74603174603175,109.12698412698413,12.46031746031746,4.841269841269841,138.8095238095238,-100.39682539682539,-164.36507936507937,0.5555555555555556,-0.7142857142857142,-321.8253968253968
13.888888888888888,39.44444444444444,134.04761904761904,80.07936507936508,14.523809523809524,105.63492063492063,-50.71428571428571,-7.5396825396825395,-98.01587301587301,56.269841269841265,16.587301587301585,20.873015873015873,55.317460317460316,-58.33333333333333,66.74603174603175,109.12698412698413,12.46031746031746,4.841269841269841,138.8095238095238,-100.39682539682539,-164.36507936507937,0.5555555555555556,-0.7142857142857142,-321.8253968253968
13.888888888888888,39.44444444444444,134.04761904761904,80.07936507936508,14.523809523809524,105.63492063492063,-50.71428571428571,-7.5396825396825395,-98.01587301587301,56.269841269841265,16.587301587301585,20.873015873015873,55.317460317460316,-58.33333333333333,66.74603174603175,109.12698412698413,12.46031746031746,4.841269841269841,138.8095238095238,-100.39682539682539,-164.36507936507937,0.5555555555555556,-0.7142857142857142,-166.26984126984127
13.888888888888888,39.44444444444444,134.04761904761904,80.07936507936508,14.523809523809524,105.63492063492063,-50.71428571428571,-7.5396825396825395,-98.01587301587301,56.269841269841265,16.587301587301585,20.873015873015873,55.317460317460316,-58.33333333333333,66.74603174603175,109.12698412698413,12.46031746031746,4.841269841269841,138.8095238095238,-100.39682539682539,-164.36507936507937,0.5555555555555556,-0.7142857142857142,-166.26984126984127
10.238095238095237,55.317460317460316,141.03174603174602,101.19047619047619,14.047619047619047,102.46031746031746,-49.12698412698413,-2.142857142857143,-95.79365079365078,70.23809523809524,16.11111111111111,46.904761904761905,44.2063492063492,-63.25396825396825,58.33333333333333,130.3968253968254,11.984126984126984,4.682539682539682,160.23809523809524,-119.12698412698413,-158.015873015873,0.5555555555555556,-1.1904761904761905,-166.26984126984127
10.238095238095237,55.317460317460316,141.03174603174602,101.19047619047619,14.047619047619047,102.46031746031746,-49.12698412698413,-2.142857142857143,-95.79365079365078,70.23809523809524,16.11111111111111,46.904761904761905,44.2063492063492,-63.25396825396825,58.33333333333333,130.3968253968254,11.984126984126984,4.682539682539682,160.23809523809524,-119.12698412698413,-158.015873015873,0.5555555555555556,-1.1904761904761905,-166.26984126984127
9.444444444444445,52.61904761904761,151.984126984127,107.53968253968253,13.253968253968253,98.17460317460316,-36.74603174603175,-12.3015873015873,-79.44444444444444,84.04761904761904,15.317460317460316,65.0,16.428571428571427,-30.555555555555554,54.841269841269835,129.6031746031746,11.349206349206348,4.682539682539682,171.19047619047618,-130.07936507936506,-165.95238095238093,-0.23809523809523808,-0.7142857142857142,-166.26984126984127
9.444444444444445,52.61904761904761,151.984126984127,107.53968253968253,13.253968253968253,98.17460317460316,-36.74603174603175,-12.3015873015873,-79.44444444444444,84.04761904761904,15.317460317460316,65.0,16.428571428571427,-30.555555555555554,54.841269841269835,129.6031746031746,11.349206349206348,4.682539682539682,171.19047619047618,-130.07936507936506,-165.95238095238093,-0.23809523809523808,-0.7142857142857142,-166.26984126984127
8.65079365079365,32.77777777777778,142.61904761904762,88.17460317460316,13.253968253968253,98.01587301587301,-52.14285714285714,-33.25396825396825,-86.1111111111111,64.68253968253968,15.476190476190474,48.650793650793645,-21.349206349206348,-48.33333333333333,32.14285714285714,99.92063492063491,11.19047619047619,4.682539682539682,145.95238095238093,-136.58730158730157,-187.38095238095238,-0.7142857142857142,-0.5555555555555556,-166.26984126984127
8.65079365079365,32.77777777777778,142.61904761904762,88.17460317460316,13.253968253968253,98.01587301587301,-52.14285714285714,-33.25396825396825,-86.1111111111111,64.68253968253968,15.476190476190474,48.650793650793645,-21.349206349206348,-48.33333333333333,32.14285714285714,99.92063492063491,11.19047619047619,4.682539682539682,145.95238095238093,-136.58730158730157,-187.38095238095238,-0.7142857142857142,-0.5555555555555556,-166.26984126984127
10.714285714285714,46.58730158730158,132.61904761904762,118.17460317460316,13.095238095238095,96.1111111111111,-39.92063492063492,-15.158730158730158,-82.61904761904762,96.1111111111111,15.158730158730158,83.73015873015872,10.079365079365079,-12.142857142857142,53.57142857142857,160.3968253968254,11.031746031746032,4.523809523809524,185.63492063492063,-141.8253968253968,-151.8253968253968,-1.0317460317460316,-0.7142857142857142,-166.26984126984127
10.714285714285714,46.58730158730158,132.61904761904762,118.17460317460316,13.095238095238095,96.1111111111111,-39.92063492063492,-15.158730158730158,-82.61904761904762,96.1111111111111,15.158730158730158,83.73015873015872,10.079365079365079,-12.142857142857142,53.57142857142857,160.3968253968254,11.031746031746032,4.523809523809524,185.63492063492063,-141.8253968253968,-151.8253968253968,-1.0317460317460316,-0.7142857142857142,-166.26984126984127
-43.25396825396825,48.49206349206349,146.11111111111111,122.46031746031746,12.619047619047619,93.25396825396825,-6.904761904761904,-23.57142857142857,-56.58730158730158,102.14285714285714,14.682539682539682,98.49206349206348,49.6031746031746,-71.19047619047619,86.58730158730158,127.6984126984127,11.031746031746032,4.365079365079365,195.15873015873015,-135.63492063492063,-145.15873015873015,-0.23809523809523808,-1.0317460317460316,-321.8253968253968
-43.25396825396825,48.49206349206349,146.11111111111111,122.46031746031746,12.619047619047619,93.25396825396825,-6.904761904761904,-23.57142857142857,-56.58730158730158,102.14285714285714,14.682539682539682,98.49206349206348,49.6031746031746,-71.19047619047619,86.58730158730158,127.6984126984127,11.031746031746032,4.365079365079365,195.15873015873015,-135.63492063492063,-145.15873015873015,-0.23809523809523808,-1.0317460317460316,-321.8253968253968
-195.0,23.730158730158728,125.79365079365078,89.76190476190476,12.46031746031746,91.66666666666666,-30.71428571428571,-70.55555555555556,-62.77777777777777,64.2063492063492,14.523809523809524,68.80952380952381,-2.9365079365079363,-115.0,38.33333333333333,86.9047619047619,10.873015873015872,4.365079365079365,145.63492063492063,-133.0952380952381,-185.47619047619045,0.3968253968253968,-1.1904761904761905,-321.8253968253968
-195.0,23.730158730158728,125.79365079365078,89.76190476190476,12.46031746031746,91.66666666666666,-30.71428571428571,-70.55555555555556,-62.77777777777777,64.2063492063492,14.523809523809524,68.80952380952381,-2.9365079365079363,-115.0,38.33333333333333,86.9047619047619,10.873015873015872,4.365079365079365,145.63492063492063,-133.0952380952381,-185.47619047619045,0.3968253968253968,-1.1904761904761905,-321.8253968253968
-215.79365079365078,11.984126984126984,93.25396825396825,89.92063492063491,12.3015873015873,90.39682539682539,-34.52380952380952,-81.34920634920634,-71.5079365079365,61.507936507936506,14.206349206349206,75.31746031746032,23.730158730158728,-36.904761904761905,61.82539682539682,117.38095238095238,10.714285714285714,4.2063492063492065,146.42857142857142,-138.17460317460316,-178.33333333333331,-0.3968253968253968,-0.07936507936507936,-321.8253968253968
-215.79365079365078,11.984126984126984,93.25396825396825,89.92063492063491,12.3015873015873,90.39682539682539,-34.52380952380952,-81.34920634920634,-71.5079365079365,61.507936507936506,14.206349206349206,75.31746031746032,23.730158730158728,-36.904761904761905,61.82539682539682,117.38095238095238,10.714285714285714,4.2063492063492065,146.42857142857142,-138.17460317460316,-178.33333333333331,-0.3968253968253968,-0.07936507936507936,-321.8253968253968
-254.2063492063492,26.428571428571427,127.53968253968253,113.88888888888889,11.984126984126984,88.4920634920635,-3.4126984126984126,-46.58730158730158,-53.57142857142857,58.96825396825397,13.888888888888888,104.36507936507935,90.55555555555556,-17.698412698412696,100.23809523809523,143.57142857142856,10.238095238095237,4.2063492063492065,166.26984126984127,-141.8253968253968,-152.3015873015873,-1.349206349206349,-0.7142857142857142,-321.8253968253968
-254.2063492063492,26.428571428571427,127.53968253968253,113.88888888888889,11.984126984126984,88.4920634920635,-3.4126984126984126,-46.58730158730158,-53.57142857142857,58.96825396825397,13.888888888888888,104.36507936507935,90.55555555555556,-17.698412698412696,100.23809523809523,143.57142857142856,10.238095238095237,4.2063492063492065,166.26984126984127,-141.8253968253968,-152.3015873015873,-1.349206349206349,-0.7142857142857142,-321.8253968253968
-312.6190476190476,5.634920634920634,122.77777777777777,89.12698412698413,11.984126984126984,88.17460317460316,-20.396825396825395,-78.01587301587301,-59.44444444444444,30.87301587301587,13.888888888888888,71.66666666666666,45.95238095238095,-65.15873015873015,69.6031746031746,100.71428571428571,10.238095238095237,4.365079365079365,132.77777777777777,-153.88888888888889,-182.46031746031744,-1.6666666666666665,-0.3968253968253968,-321.8253968253968
-312.6190476190476,5.634920634920634,122.77777777777777,89.12698412698413,11.984126984126984,88.17460317460316,-20.396825396825395,-78.01587301587301,-59.44444444444444,30.87301587301587,13.888888888888888,71.66666666666666,45.95238095238095,-65.15873015873015,69.6031746031746,100.71428571428571,10.238095238095237,4.365079365079365,132.77777777777777,-153.88888888888889,-182.46031746031744,-1.6666666666666665,-0.3968253968253968,-321.8253968253968
-72.3015873015873,-4.682539682539682,131.5079365079365,82.77777777777777,11.666666666666666,85.47619047619047,-1.984126984126984,-84.84126984126983,-45.476190476190474,17.063492063492063,13.571428571428571,77.6984126984127,52.61904761904761,-78.96825396825396,105.15873015873015,84.04761904761904,10.079365079365079,4.0476190476190474,125.95238095238095,-104.2063492063492,-178.8095238095238,0.3968253968253968,-1.1904761904761905,-166.26984126984127
-72.3015873015873,-4.682539682539682,131.5079365079365,82.77777777777777,11.666666666666666,85.47619047619047,-1.984126984126984,-84.84126984126983,-45.476190476190474,17.063492063492063,13.571428571428571,77.6984126984127,52.61904761904761,-78.96825396825396,105.15873015873015,84.04761904761904,10.079365079365079,4.0476190476190474,125.95238095238095,-104.2063492063492,-178.8095238095238,0.3968253968253968,-1.1904761904761905,-166.26984126984127
-19.76190476190476,22.936507936507937,137.53968253968253,113.88888888888889,11.507936507936508,84.36507936507937,3.253968253968254,-45.63492063492063,-44.52380952380952,26.26984126984127,13.412698412698411,109.92063492063491,80.23809523809523,-65.63492063492063,115.63492063492063,119.92063492063491,9.920634920634921,4.2063492063492065,149.12698412698413,-116.26984126984127,-155.15873015873015,-0.23809523809523808,-1.0317460317460316,-166.26984126984127
-19.76190476190476,22.936507936507937,137.53968253968253,113.88888888888889,11.507936507936508,84.36507936507937,3.253968253968254,-45.63492063492063,-44.52380952380952,26.26984126984127,13.412698412698411,109.92063492063491,80.23809523809523,-65.63492063492063,115.63492063492063,119.92063492063491,9.920634920634921,4.2063492063492065,149.12698412698413,-116.26984126984127,-155.15873015873015,-0.23809523809523808,-1.0317460317460316,-166.26984126984127
5.476190476190476,33.57142857142857,129.28571428571428,123.4126984126984,11.349206349206348,82.93650793650794,-9.920634920634921,-23.253968253968253,-45.63492063492063,30.07936507936508,13.253968253968253,118.33333333333333,63.41269841269841,-36.11111111111111,93.4126984126984,150.87301587301587,9.761904761904761,4.0476190476190474,159.44444444444443,-132.77777777777777,-149.44444444444443,-0.23809523809523808,-1.0317460317460316,-166.26984126984127
5.476190476190476,33.57142857142857,129.28571428571428,123.4126984126984,11.349206349206348,82.93650793650794,-9.920634920634921,-23.253968253968253,-45.63492063492063,30.07936507936508,13.253968253968253,118.33333333333333,63.41269841269841,-36.11111111111111,93.4126984126984,150.87301587301587,9.761904761904761,4.0476190476190474,159.44444444444443,-132.77777777777777,-149.44444444444443,-0.23809523809523808,-1.0317460317460316,-166.26984126984127
29.285714285714285,32.93650793650794,140.7142857142857,117.06349206349206,11.19047619047619,81.03174603174602,-8.333333333333332,-38.17460317460317,-38.33333333333333,5.0,12.936507936507935,115.47619047619047,48.01587301587301,-32.61904761904762,94.84126984126983,132.93650793650792,9.603174603174603,3.888888888888889,157.38095238095238,-134.04761904761904,-165.79365079365078,-0.23809523809523808,-0.873015873015873,-166.26984126984127
29.285714285714285,32.93650793650794,140.7142857142857,117.06349206349206,11.19047619047619,81.03174603174602,-8.333333333333332,-38.17460317460317,-38.33333333333333,5.0,12.936507936507935,115.47619047619047,48.01587301587301,-32.61904761904762,94.84126984126983,132.93650793650792,9.603174603174603,3.888888888888889,157.38095238095238,-134.04761904761904,-165.79365079365078,-0.23809523809523808,-0.873015873015873,-166.26984126984127
-116.1111111111111,12.619047619047619,113.73015873015872,97.6984126984127,10.873015873015872,79.76190476190476,-33.095238095238095,-65.63492063492063,-45.63492063492063,-30.07936507936508,12.777777777777777,99.92063492063491,14.682539682539682,-72.46031746031746,78.80952380952381,96.74603174603175,9.603174603174603,3.888888888888889,128.65079365079364,-134.68253968253967,-183.25396825396825,0.5555555555555556,-0.5555555555555556,-166.26984126984127
-116.1111111111111,12.619047619047619,113.73015873015872,97.6984126984127,10.873015873015872,79.76190476190476,-33.095238095238095,-65.63492063492063,-45.63492063492063,-30.07936507936508,12.777777777777777,99.92063492063491,14.682539682539682,-72.46031746031746,78.80952380952381,96.74603174603175,9.603174603174603,3.888888888888889,128.65079365079364,-134.68253968253967,-183.25396825396825,0.5555555555555556,-0.5555555555555556,-166.26984126984127
-143.57142857142856,1.984126984126984,123.4126984126984,99.12698412698413,10.873015873015872,78.80952380952381,-17.857142857142858,-62.14285714285714,-31.666666666666664,-46.269841269841265,12.46031746031746,101.66666666666666,26.587301587301585,-68.4920634920635,99.12698412698413,112.6190476190476,9.444444444444445,4.0476190476190474,135.0,-123.73015873015872,-180.3968253968254,-0.07936507936507936,-0.5555555555555556,-321.8253968253968
-143.57142857142856,1.984126984126984,123.4126984126984,99.12698412698413,10.873015873015872,78.80952380952381,-17.857142857142858,-62.14285714285714,-31.666666666666664,-46.269841269841265,12.46031746031746,101.66666666666666,26.587301587301585,-68.4920634920635,99.12698412698413,112.6190476190476,9.444444444444445,4.0476190476190474,135.0,-123.73015873015872,-180.3968253968254,-0.07936507936507936,-0.5555555555555556,-321.8253968253968
-55.63492063492063,7.3809523809523805,115.79365079365078,105.63492063492063,10.555555555555555,77.06349206349206,-23.41269841269841,-56.904761904761905,-31.825396825396822,-83.25396825396825,12.3015873015873,100.07936507936508,33.25396825396825,-61.507936507936506,78.65079365079364,126.26984126984127,9.285714285714285,3.888888888888889,137.22222222222223,-139.76190476190476,-171.34920634920633,-0.5555555555555556,-1.1904761904761905,-321.8253968253968
-55.63492063492063,7.3809523809523805,115.79365079365078,105.63492063492063,10.555555555555555,77.06349206349206,-23.41269841269841,-56.904761904761905,-31.825396825396822,-83.25396825396825,12.3015873015873,100.07936507936508,33.25396825396825,-61.507936507936506,78.65079365079364,126.26984126984127,9.285714285714285,3.888888888888889,137.22222222222223,-139.76190476190476,-171.34920634920633,-0.5555555555555556,-1.1904761904761905,-321.8253968253968
-50.079365079365076,-11.507936507936508,101.03174603174602,84.04761904761904,10.555555555555555,76.74603174603175,-44.2063492063492,-88.33333333333333,-40.238095238095234,-115.79365079365078,12.3015873015873,80.39682539682539,25.476190476190474,-44.84126984126984,45.476190476190474,103.73015873015872,9.126984126984127,3.888888888888889,108.01587301587301,-144.2063492063492,-188.015873015873,0.873015873015873,0.3968253968253968,-321.8253968253968
-50.079365079365076,-11.507936507936508,101.03174603174602,84.04761904761904,10.555555555555555,76.74603174603175,-44.2063492063492,-88.33333333333333,-40.238095238095234,-115.79365079365078,12.3015873015873,80.39682539682539,25.476190476190474,-44.84126984126984,45.476190476190474,103.73015873015872,9.126984126984127,3.888888888888889,108.01587301587301,-144.2063492063492,-188.015873015873,0.873015873015873,0.3968253968253968,-321.8253968253968
6.746031746031746,57.53968253968254,142.3015873015873,158.4920634920635,10.238095238095237,74.52380952380952,6.111111111111111,-14.206349206349206,-10.873015873015872,-155.95238095238093,11.984126984126984,147.85714285714286,48.33333333333333,-33.25396825396825,121.34920634920634,156.74603174603175,8.809523809523808,3.73015873015873,185.15873015873015,-125.0,-136.42857142857142,-0.5555555555555556,-1.6666666666666665,-321.8253968253968
6.746031746031746,57.53968253968254,142.3015873015873,158.4920634920635,10.238095238095237,74.52380952380952,6.111111111111111,-14.206349206349206,-10.873015873015872,-155.95238095238093,11.984126984126984,147.85714285714286,48.33333333333333,-33.25396825396825,121.34920634920634,156.74603174603175,8.809523809523808,3.73015873015873,185.15873015873015,-125.0,-136.42857142857142,-0.5555555555555556,-1.6666666666666665,-321.8253968253968
5.476190476190476,59.285714285714285,126.1111111111111,153.09523809523807,10.238095238095237,74.2063492063492,-8.333333333333332,-7.5396825396825395,-21.19047619047619,-171.03174603174602,11.984126984126984,144.52380952380952,42.14285714285714,-28.174603174603174,105.0,158.015873015873,8.809523809523808,3.888888888888889,182.46031746031744,-135.47619047619048,-135.95238095238093,-0.7142857142857142,-0.7142857142857142,-321.8253968253968
5.476190476190476,59.285714285714285,126.1111111111111,153.09523809523807,10.238095238095237,74.2063492063492,-8.333333333333332,-7.5396825396825395,-21.19047619047619,-171.03174603174602,11.984126984126984,144.52380952380952,42.14285714285714,-28.174603174603174,105.0,158.015873015873,8.809523809523808,3.888888888888889,182.46031746031744,-135.47619047619048,-135.95238095238093,-0.7142857142857142,-0.7142857142857142,-321.8253968253968
24.523809523809522,57.38095238095238,153.4126984126984,142.61904761904762,10.079365079365079,72.93650793650794,13.571428571428571,-27.857142857142854,3.095238095238095,-248.015873015873,11.666666666666666,128.33333333333331,56.269841269841265,-64.52380952380952,115.0,136.26984126984127,8.809523809523808,3.73015873015873,168.65079365079364,-116.1111111111111,-156.11111111111111,-0.7142857142857142,-0.7142857142857142,-166.26984126984127
24.523809523809522,57.38095238095238,153.4126984126984,142.61904761904762,10.079365079365079,72.93650793650794,13.571428571428571,-27.857142857142854,3.095238095238095,-248.015873015873,11.666666666666666,128.33333333333331,56.269841269841265,-64.52380952380952,115.0,136.26984126984127,8.809523809523808,3.73015873015873,168.65079365079364,-116.1111111111111,-156.11111111111111,-0.7142857142857142,-0.7142857142857142,-166.26984126984127
42.93650793650794,113.57142857142857,176.9047619047619,169.60317460317458,9.761904761904761,71.03174603174602,36.74603174603175,-76.26984126984127,16.26984126984127,-325.0,11.507936507936508,139.76190476190476,98.17460317460316,-82.3015873015873,130.07936507936506,130.23809523809524,8.65079365079365,3.4126984126984126,165.3174603174603,-96.9047619047619,-150.3968253968254,0.873015873015873,-1.1904761904761905,-166.26984126984127
42.93650793650794,113.57142857142857,176.9047619047619,169.60317460317458,9.761904761904761,71.03174603174602,36.74603174603175,-76.26984126984127,16.26984126984127,-325.0,11.507936507936508,139.76190476190476,98.17460317460316,-82.3015873015873,130.07936507936506,130.23809523809524,8.65079365079365,3.4126984126984126,165.3174603174603,-96.9047619047619,-150.3968253968254,0.873015873015873,-1.1904761904761905,-166.26984126984127
40.87301587301587,193.09523809523807,158.4920634920635,185.79365079365078,9.603174603174603,69.28571428571428,4.841269841269841,-130.07936507936506,-9.444444444444445,-325.0,11.19047619047619,159.28571428571428,23.41269841269841,-70.55555555555556,89.12698412698413,111.19047619047619,8.333333333333332,3.4126984126984126,161.19047619047618,-112.46031746031746,-143.57142857142856,0.3968253968253968,-0.23809523809523808,-166.26984126984127
40.87301587301587,193.09523809523807,158.4920634920635,185.79365079365078,9.603174603174603,69.28571428571428,4.841269841269841,-130.07936507936506,-9.444444444444445,-325.0,11.19047619047619,159.28571428571428,23.41269841269841,-70.55555555555556,89.12698412698413,111.19047619047619,8.333333333333332,3.4126984126984126,161.19047619047618,-112.46031746031746,-143.57142857142856,0.3968253968253968,-0.23809523809523808,-166.26984126984127
40.079365079365076,207.69841269841268,154.68253968253967,186.11111111111111,9.444444444444445,68.01587301587301,18.80952380952381,-135.47619047619048,8.492063492063492,-325.0,11.031746031746032,169.76190476190476,50.39682539682539,-37.06349206349206,102.93650793650794,124.2063492063492,8.174603174603174,3.4126984126984126,153.25396825396825,-106.74603174603175,-158.33333333333331,-0.23809523809523808,-0.5555555555555556,-166.26984126984127
40.079365079365076,207.69841269841268,154.68253968253967,186.11111111111111,9.444444444444445,68.01587301587301,18.80952380952381,-135.47619047619048,8.492063492063492,-325.0,11.031746031746032,169.76190476190476,50.39682539682539,-37.06349206349206,102.93650793650794,124.2063492063492,8.174603174603174,3.4126984126984126,153.25396825396825,-106.74603174603175,-158.33333333333331,-0.23809523809523808,-0.5555555555555556,-166.26984126984127
39.12698412698413,191.8253968253968,159.9206349206349,179.44444444444443,9.285714285714285,66.9047619047619,28.96825396825397,-157.53968253968253,15.95238095238095,-325.0,10.873015873015872,153.25396825396825,29.6031746031746,-76.58730158730158,101.98412698412697,88.4920634920635,8.015873015873016,3.4126984126984126,131.8253968253968,-96.42857142857142,-179.28571428571428,-0.5555555555555556,-1.0317460317460316,-166.26984126984127
39.12698412698413,191.8253968253968,159.9206349206349,179.44444444444443,9.285714285714285,66.9047619047619,28.96825396825397,-157.53968253968253,15.95238095238095,-325.0,10.873015873015872,153.25396825396825,29.6031746031746,-76.58730158730158,101.98412698412697,88.4920634920635,8.015873015873016,3.4126984126984126,131.8253968253968,-96.42857142857142,-179.28571428571428,-0.5555555555555556,-1.0317460317460316,-166.26984126984127
38.17460317460317,177.2222222222222,122.46031746031746,184.52380952380952,8.968253968253968,65.47619047619047,13.095238095238095,-143.09523809523807,3.253968253968254,-325.0,10.555555555555555,163.09523809523807,14.365079365079364,-71.34920634920634,89.76190476190476,68.4920634920635,8.015873015873016,3.253968253968254,121.19047619047619,-92.77777777777777,-169.12698412698413,0.07936507936507936,-0.7142857142857142,-321.8253968253968
38.17460317460317,177.2222222222222,122.46031746031746,184.52380952380952,8.968253968253968,65.47619047619047,13.095238095238095,-143.09523809523807,3.253968253968254,-325.0,10.555555555555555,163.09523809523807,14.365079365079364,-71.34920634920634,89.76190476190476,68.4920634920635,8.015873015873016,3.253968253968254,121.19047619047619,-92.77777777777777,-169.12698412698413,0.07936507936507936,-0.7142857142857142,-321.8253968253968
17.063492063492063,152.77777777777777,91.98412698412697,182.77777777777777,8.809523809523808,64.68253968253968,-4.682539682539682,-107.38095238095238,-1.984126984126984,-325.0,10.555555555555555,171.19047619047618,29.444444444444443,-74.2063492063492,71.66666666666666,79.76190476190476,7.857142857142857,3.253968253968254,108.01587301587301,-106.1111111111111,-183.7301587301587,-0.5555555555555556,-1.507936507936508,-321.8253968253968
17.063492063492063,152.77777777777777,91.98412698412697,182.77777777777777,8.809523809523808,64.68253968253968,-4.682539682539682,-107.38095238095238,-1.984126984126984,-325.0,10.555555555555555,171.19047619047618,29.444444444444443,-74.2063492063492,71.66666666666666,79.76190476190476,7.857142857142857,3.253968253968254,108.01587301587301,-106.1111111111111,-183.7301587301587,-0.5555555555555556,-1.507936507936508,-321.8253968253968
10.555555555555555,119.6031746031746,95.15873015873015,176.58730158730157,8.809523809523808,63.41269841269841,10.396825396825395,-82.3015873015873,14.365079365079364,-325.0,10.238095238095237,171.984126984127,37.38095238095238,-72.77777777777777,97.22222222222221,83.73015873015872,7.857142857142857,3.253968253968254,106.1111111111111,-96.1111111111111,-186.74603174603175,-1.0317460317460316,-1.984126984126984,-321.8253968253968
10.555555555555555,119.6031746031746,95.15873015873015,176.58730158730157,8.809523809523808,63.41269841269841,10.396825396825395,-82.3015873015873,14.365079365079364,-325.0,10.238095238095237,171.984126984127,37.38095238095238,-72.77777777777777,97.22222222222221,83.73015873015872,7.857142857142857,3.253968253968254,106.1111111111111,-96.1111111111111,-186.74603174603175,-1.0317460317460316,-1.984126984126984,-321.8253968253968
38.33333333333333,68.80952380952381,125.0,145.47619047619048,8.492063492063492,62.14285714285714,21.507936507936506,-109.92063492063491,52.14285714285714,-325.0,10.079365079365079,154.68253968253967,48.33333333333333,-93.57142857142857,143.09523809523807,36.269841269841265,7.698412698412698,3.095238095238095,84.36507936507937,-78.96825396825396,-215.95238095238093,-0.3968253968253968,-0.7142857142857142,-321.8253968253968
38.33333333333333,68.80952380952381,125.0,145.47619047619048,8.492063492063492,62.14285714285714,21.507936507936506,-109.92063492063491,52.14285714285714,-325.0,10.079365079365079,154.68253968253967,48.33333333333333,-93.57142857142857,143.09523809523807,36.269841269841265,7.698412698412698,3.095238095238095,84.36507936507937,-78.96825396825396,-215.95238095238093,-0.3968253968253968,-0.7142857142857142,-321.8253968253968
36.269841269841265,46.269841269841265,59.44444444444444,172.93650793650792,8.333333333333332,61.19047619047619,-48.96825396825397,-102.93650793650794,7.222222222222221,-325.0,9.920634920634921,179.76190476190476,17.063492063492063,-52.93650793650794,91.5079365079365,80.87301587301587,7.3809523809523805,3.095238095238095,92.61904761904762,-95.31746031746032,-183.4126984126984,-1.1904761904761905,-0.5555555555555556,-321.8253968253968
36.269841269841265,46.269841269841265,59.44444444444444,172.93650793650792,8.333333333333332,61.19047619047619,-48.96825396825397,-102.93650793650794,7.222222222222221,-325.0,9.920634920634921,179.76190476190476,17.063492063492063,-52.93650793650794,91.5079365079365,80.87301587301587,7.3809523809523805,3.095238095238095,92.61904761904762,-95.31746031746032,-183.4126984126984,-1.1904761904761905,-0.5555555555555556,-321.8253968253968
35.317460317460316,-8.174603174603174,31.98412698412698,137.22222222222223,8.333333333333332,59.92063492063492,-71.19047619047619,-217.85714285714283,-12.142857142857142,-325.0,9.761904761904761,139.9206349206349,-16.11111111111111,-139.6031746031746,53.888888888888886,4.682539682539682,7.3809523809523805,3.095238095238095,35.63492063492063,-108.49206349206348,-218.33333333333331,-0.07936507936507936,-0.5555555555555556,-166.26984126984127
35.317460317460316,-8.174603174603174,31.98412698412698,137.22222222222223,8.333333333333332,59.92063492063492,-71.19047619047619,-217.85714285714283,-12.142857142857142,-325.0,9.761904761904761,139.9206349206349,-16.11111111111111,-139.6031746031746,53.888888888888886,4.682539682539682,7.3809523809523805,3.095238095238095,35.63492063492063,-108.49206349206348,-218.33333333333331,-0.07936507936507936,-0.5555555555555556,-166.26984126984127
34.52380952380952,40.55555555555555,81.19047619047619,190.87301587301587,8.174603174603174,58.96825396825397,-17.38095238095238,-222.3015873015873,17.22222222222222,-325.0,9.603174603174603,191.03174603174602,37.38095238095238,-75.95238095238095,109.6031746031746,73.88888888888889,7.222222222222221,3.095238095238095,99.76190476190476,-93.09523809523809,-174.68253968253967,-0.7142857142857142,-0.873015873015873,-166.26984126984127
34.52380952380952,40.55555555555555,81.19047619047619,190.87301587301587,8.174603174603174,58.96825396825397,-17.38095238095238,-222.3015873015873,17.22222222222222,-325.0,9.603174603174603,191.03174603174602,37.38095238095238,-75.95238095238095,109.6031746031746,73.88888888888889,7.222222222222221,3.095238095238095,99.76190476190476,-93.09523809523809,-174.68253968253967,-0.7142857142857142,-0.873015873015873,-166.26984126984127
34.2063492063492,2.3015873015873014,42.93650793650794,175.79365079365078,7.857142857142857,58.33333333333333,-43.095238095238095,-225.15873015873015,-0.5555555555555556,-325.0,9.444444444444445,177.69841269841268,-2.46031746031746,-43.095238095238095,69.28571428571428,72.14285714285714,7.222222222222221,3.095238095238095,86.42857142857143,-123.88888888888889,-190.55555555555554,-1.6666666666666665,-1.349206349206349,-166.26984126984127
34.2063492063492,2.3015873015873014,42.93650793650794,175.79365079365078,7.857142857142857,58.33333333333333,-43.095238095238095,-225.15873015873015,-0.5555555555555556,-325.0,9.444444444444445,177.69841269841268,-2.46031746031746,-43.095238095238095,69.28571428571428,72.14285714285714,7.222222222222221,3.095238095238095,86.42857142857143,-123.88888888888889,-190.55555555555554,-1.6666666666666665,-1.349206349206349,-166.26984126984127
33.25396825396825,-39.92063492063492,20.873015873015873,151.8253968253968,7.857142857142857,57.06349206349206,-56.74603174603174,-248.33333333333331,-9.920634920634921,-325.0,9.285714285714285,149.12698412698413,-25.952380952380953,-79.12698412698413,49.12698412698413,51.666666666666664,7.063492063492063,2.9365079365079363,62.14285714285714,-119.6031746031746,-199.76190476190476,-1.507936507936508,-0.7142857142857142,-166.26984126984127
33.25396825396825,-39.92063492063492,20.873015873015873,151.8253968253968,7.857142857142857,57.06349206349206,-56.74603174603174,-248.33333333333331,-9.920634920634921,-325.0,9.285714285714285,149.12698412698413,-25.952380952380953,-79.12698412698413,49.12698412698413,51.666666666666664,7.063492063492063,2.9365079365079363,62.14285714285714,-119.6031746031746,-199.76190476190476,-1.507936507936508,-0.7142857142857142,-166.26984126984127
32.14285714285714,-44.84126984126984,45.63492063492063,151.19047619047618,7.857142857142857,55.63492063492063,-11.031746031746032,-220.7142857142857,7.063492063492063,-325.0,9.126984126984127,145.95238095238093,35.0,-39.6031746031746,109.76190476190476,61.19047619047619,6.904761904761904,2.9365079365079363,85.0,-98.17460317460316,-170.3968253968254,-1.0317460317460316,-1.6666666666666665,-166.26984126984127
32.14285714285714,-44.84126984126984,45.63492063492063,151.19047619047618,7.857142857142857,55.63492063492063,-11.031746031746032,-220.7142857142857,7.063492063492063,-325.0,9.126984126984127,145.95238095238093,35.0,-39.6031746031746,109.76190476190476,61.19047619047619,6.904761904761904,2.9365079365079363,85.0,-98.17460317460316,-170.3968253968254,-1.0317460317460316,-1.6666666666666665,-166.26984126984127
31.666666666666664,-82.46031746031746,45.476190476190474,107.6984126984127,7.698412698412698,55.15873015873016,-19.92063492063492,-249.76190476190476,-0.7142857142857142,-325.0,9.285714285714285,120.71428571428571,35.79365079365079,-32.460317460317455,93.25396825396825,32.460317460317455,6.746031746031746,2.9365079365079363,52.460317460317455,-93.25396825396825,-198.65079365079364,-0.7142857142857142,-0.7142857142857142,-321.8253968253968
31.666666666666664,-82.46031746031746,45.476190476190474,107.6984126984127,7.698412698412698,55.15873015873016,-19.92063492063492,-249.76190476190476,-0.7142857142857142,-325.0,9.285714285714285,120.71428571428571,35.79365079365079,-32.460317460317455,93.25396825396825,32.460317460317455,6.746031746031746,2.9365079365079363,52.460317460317455,-93.25396825396825,-198.65079365079364,-0.7142857142857142,-0.7142857142857142,-321.8253968253968
30.87301587301587,-81.66666666666666,47.53968253968254,123.88888888888889,7.3809523809523805,53.73015873015873,-16.746031746031743,-304.36507936507934,4.523809523809524,-325.0,8.809523809523808,110.23809523809523,35.0,-59.92063492063492,86.58730158730158,38.33333333333333,6.587301587301587,2.7777777777777777,54.2063492063492,-92.30158730158729,-201.03174603174602,0.07936507936507936,-0.23809523809523808,-321.8253968253968
30.87301587301587,-81.66666666666666,47.53968253968254,123.88888888888889,7.3809523809523805,53.73015873015873,-16.746031746031743,-304.36507936507934,4.523809523809524,-325.0,8.809523809523808,110.23809523809523,35.0,-59.92063492063492,86.58730158730158,38.33333333333333,6.587301587301587,2.7777777777777777,54.2063492063492,-92.30158730158729,-201.03174603174602,0.07936507936507936,-0.23809523809523808,-321.8253968253968
30.396825396825395,-78.65079365079364,49.76190476190476,129.9206349206349,7.5396825396825395,53.25396825396825,-14.365079365079364,-325.0,2.142857142857143,-325.0,8.809523809523808,119.76190476190476,36.74603174603175,-105.63492063492063,74.68253968253968,24.523809523809522,6.428571428571428,2.7777777777777777,68.96825396825396,-98.80952380952381,-176.42857142857142,-1.984126984126984,-0.3968253968253968,-321.8253968253968
30.396825396825395,-78.65079365079364,49.76190476190476,129.9206349206349,7.5396825396825395,53.25396825396825,-14.365079365079364,-325.0,2.142857142857143,-325.0,8.809523809523808,119.76190476190476,36.74603174603175,-105.63492063492063,74.68253968253968,24.523809523809522,6.428571428571428,2.7777777777777777,68.96825396825396,-98.80952380952381,-176.42857142857142,-1.984126984126984,-0.3968253968253968,-321.8253968253968
29.6031746031746,-45.15873015873016,-10.873015873015872,159.44444444444443,7.222222222222221,51.98412698412698,-62.460317460317455,-315.4761904761905,-44.68253968253968,-325.0,8.65079365079365,131.34920634920636,-52.3015873015873,-49.76190476190476,22.3015873015873,59.92063492063492,6.428571428571428,2.619047619047619,104.04761904761904,-158.96825396825395,-142.14285714285714,-0.07936507936507936,-0.07936507936507936,-321.8253968253968
29.6031746031746,-45.15873015873016,-10.873015873015872,159.44444444444443,7.222222222222221,51.98412698412698,-62.460317460317455,-315.4761904761905,-44.68253968253968,-325.0,8.65079365079365,131.34920634920636,-52.3015873015873,-49.76190476190476,22.3015873015873,59.92063492063492,6.428571428571428,2.619047619047619,104.04761904761904,-158.96825396825395,-142.14285714285714,-0.07936507936507936,-0.07936507936507936,-321.8253968253968
28.96825396825397,-75.63492063492063,35.0,139.9206349206349,7.3809523809523805,51.19047619047619,-10.396825396825395,-316.90476190476187,-10.555555555555555,-325.0,8.492063492063492,110.87301587301587,33.73015873015873,-36.269841269841265,79.6031746031746,46.58730158730158,6.26984126984127,2.619047619047619,93.57142857142857,-116.26984126984127,-154.36507936507937,-1.1904761904761905,-0.5555555555555556,-321.8253968253968
28.96825396825397,-75.63492063492063,35.0,139.9206349206349,7.3809523809523805,51.19047619047619,-10.396825396825395,-316.90476190476187,-10.555555555555555,-325.0,8.492063492063492,110.87301587301587,33.73015873015873,-36.269841269841265,79.6031746031746,46.58730158730158,6.26984126984127,2.619047619047619,93.57142857142857,-116.26984126984127,-154.36507936507937,-1.1904761904761905,-0.5555555555555556,-321.8253968253968
28.333333333333332,-44.2063492063492,51.34920634920635,166.42857142857142,6.904761904761904,50.238095238095234,12.3015873015873,-268.968253968254,19.92063492063492,-325.0,8.333333333333332,151.984126984127,43.57142857142857,-85.0,90.23809523809523,62.77777777777777,6.111111111111111,2.46031746031746,118.17460317460316,-108.80952380952381,-139.76190476190476,-0.23809523809523808,-0.23809523809523808,-166.26984126984127
28.333333333333332,-44.2063492063492,51.34920634920635,166.42857142857142,6.904761904761904,50.238095238095234,12.3015873015873,-268.968253968254,19.92063492063492,-325.0,8.333333333333332,151.984126984127,43.57142857142857,-85.0,90.23809523809523,62.77777777777777,6.111111111111111,2.46031746031746,118.17460317460316,-108.80952380952381,-139.76190476190476,-0.23809523809523808,-0.23809523809523808,-166.26984126984127
27.698412698412696,-65.95238095238095,36.269841269841265,137.38095238095238,7.063492063492063,49.44444444444444,12.3015873015873,-263.25396825396825,13.73015873015873,-325.0,8.174603174603174,112.6190476190476,-0.23809523809523808,-45.63492063492063,69.92063492063491,47.857142857142854,6.26984126984127,2.619047619047619,91.98412698412697,-112.77777777777777,-158.96825396825395,-0.3968253968253968,-0.23809523809523808,-166.26984126984127
27.698412698412696,-65.95238095238095,36.269841269841265,137.38095238095238,7.063492063492063,49.44444444444444,12.3015873015873,-263.25396825396825,13.73015873015873,-325.0,8.174603174603174,112.6190476190476,-0.23809523809523808,-45.63492063492063,69.92063492063491,47.857142857142854,6.26984126984127,2.619047619047619,91.98412698412697,-112.77777777777777,-158.96825396825395,-0.3968253968253968,-0.23809523809523808,-166.26984126984127
27.063492063492063,-103.4126984126984,34.84126984126984,102.46031746031746,6.746031746031746,48.49206349206349,64.04761904761905,-265.3174603174603,14.365079365079364,-325.0,8.174603174603174,71.03174603174602,30.555555555555554,-69.92063492063491,98.33333333333333,23.88888888888889,6.111111111111111,1.507936507936508,61.82539682539682,-105.79365079365078,-182.93650793650792,-0.23809523809523808,-0.5555555555555556,-166.26984126984127
27.063492063492063,-103.4126984126984,34.84126984126984,102.46031746031746,6.746031746031746,48.49206349206349,64.04761904761905,-265.3174603174603,14.365079365079364,-325.0,8.174603174603174,71.03174603174602,30.555555555555554,-69.92063492063491,98.33333333333333,23.88888888888889,6.111111111111111,1.507936507936508,61.82539682539682,-105.79365079365078,-182.93650793650792,-0.23809523809523808,-0.5555555555555556,-166.26984126984127
27.063492063492063,-93.4126984126984,47.698412698412696,115.0,6.746031746031746,48.49206349206349,88.4920634920635,-248.33333333333331,23.88888888888889,-325.0,8.174603174603174,80.55555555555556,73.09523809523809,-73.09523809523809,123.09523809523809,31.666666666666664,6.111111111111111,0.3968253968253968,75.31746031746032,-95.47619047619047,-169.9206349206349,-0.23809523809523808,-0.5555555555555556,-166.26984126984127
27.063492063492063,-93.4126984126984,47.698412698412696,115.0,6.746031746031746,48.49206349206349,88.4920634920635,-248.33333333333331,23.88888888888889,-325.0,8.174603174603174,80.55555555555556,73.09523809523809,-73.09523809523809,123.09523809523809,31.666666666666664,6.111111111111111,0.3968253968253968,75.31746031746032,-95.47619047619047,-169.9206349206349,-0.23809523809523808,-0.5555555555555556,-166.26984126984127
26.26984126984127,-93.88888888888889,37.53968253968254,111.5079365079365,6.587301587301587,47.06349206349206,56.904761904761905,-255.0,-3.888888888888889,-325.0,7.857142857142857,66.26984126984127,20.07936507936508,-79.92063492063491,87.85714285714285,24.68253968253968,5.952380952380952,2.619047619047619,70.55555555555556,-143.09523809523807,-198.96825396825395,2.142857142857143,0.07936507936507936,-166.26984126984127
26.26984126984127,-93.88888888888889,37.53968253968254,111.5079365079365,6.587301587301587,47.06349206349206,56.904761904761905,-255.0,-3.888888888888889,-325.0,7.857142857142857,66.26984126984127,20.07936507936508,-79.92063492063491,87.85714285714285,24.68253968253968,5.952380952380952,2.619047619047619,70.55555555555556,-143.09523809523807,-198.96825396825395,2.142857142857143,0.07936507936507936,-166.26984126984127
-121.03174603174602,-84.68253968253968,-1.6666666666666665,119.6031746031746,6.26984126984127,46.269841269841265,22.142857142857142,-222.77777777777777,-29.444444444444443,-325.0,7.698412698412698,75.47619047619047,-29.285714285714285,-79.6031746031746,40.238095238095234,41.98412698412698,5.952380952380952,1.8253968253968254,46.269841269841265,-129.6031746031746,-153.88888888888889,-0.23809523809523808,-0.873015873015873,-321.8253968253968
-121.03174603174602,-84.68253968253968,-1.6666666666666665,119.6031746031746,6.26984126984127,46.269841269841265,22.142857142857142,-222.77777777777777,-29.444444444444443,-325.0,7.698412698412698,75.47619047619047,-29.285714285714285,-79.6031746031746,40.238095238095234,41.98412698412698,5.952380952380952,1.8253968253968254,46.269841269841265,-129.6031746031746,-153.88888888888889,-0.23809523809523808,-0.873015873015873,-321.8253968253968
-325.0,-80.23809523809523,5.7936507936507935,105.47619047619047,6.26984126984127,45.476190476190474,31.98412698412698,-176.58730158730157,-32.77777777777778,-325.0,7.698412698412698,76.42857142857143,-0.5555555555555556,-32.14285714285714,56.58730158730158,60.079365079365076,5.7936507936507935,-0.3968253968253968,25.79365079365079,-110.23809523809523,-140.55555555555554,-1.0317460317460316,-0.3968253968253968,-321.8253968253968
-325.0,-80.23809523809523,5.7936507936507935,105.47619047619047,6.26984126984127,45.476190476190474,31.98412698412698,-176.58730158730157,-32.77777777777778,-325.0,7.698412698412698,76.42857142857143,-0.5555555555555556,-32.14285714285714,56.58730158730158,60.079365079365076,5.7936507936507935,-0.3968253968253968,25.79365079365079,-110.23809523809523,-140.55555555555554,-1.0317460317460316,-0.3968253968253968,-321.8253968253968
-325.0,-66.58730158730158,-1.0317460317460316,127.85714285714285,6.111111111111111,44.84126984126984,34.047619047619044,-160.23809523809524,-30.07936507936508,-325.0,7.5396825396825395,84.52380952380952,3.4126984126984126,-47.53968253968254,43.57142857142857,63.25396825396825,5.634920634920634,-2.619047619047619,49.76190476190476,-124.52380952380952,-136.26984126984127,-0.07936507936507936,-0.23809523809523808,-321.8253968253968
-325.0,-66.58730158730158,-1.0317460317460316,127.85714285714285,6.111111111111111,44.84126984126984,34.047619047619044,-160.23809523809524,-30.07936507936508,-325.0,7.5396825396825395,84.52380952380952,3.4126984126984126,-47.53968253968254,43.57142857142857,63.25396825396825,5.634920634920634,-2.619047619047619,49.76190476190476,-124.52380952380952,-136.26984126984127,-0.07936507936507936,-0.23809523809523808,-321.8253968253968
-325.0,-76.9047619047619,4.365079365079365,124.68253968253967,6.428571428571428,44.047619047619044,33.73015873015873,-182.14285714285714,-19.285714285714285,-325.0,7.3809523809523805,68.01587301587301,-35.63492063492063,-77.06349206349206,44.36507936507936,31.666666666666664,5.634920634920634,-4.0476190476190474,32.77777777777778,-131.984126984127,-150.3968253968254,-0.3968253968253968,-0.7142857142857142,-321.8253968253968
-325.0,-76.9047619047619,4.365079365079365,124.68253968253967,6.428571428571428,44.047619047619044,33.73015873015873,-182.14285714285714,-19.285714285714285,-325.0,7.3809523809523805,68.01587301587301,-35.63492063492063,-77.06349206349206,44.36507936507936,31.666666666666664,5.634920634920634,-4.0476190476190474,32.77777777777778,-131.984126984127,-150.3968253968254,-0.3968253968253968,-0.7142857142857142,-321.8253968253968
-325.0,-46.269841269841265,23.41269841269841,148.33333333333331,6.26984126984127,42.93650793650794,41.98412698412698,-131.984126984127,-12.142857142857142,-325.0,7.222222222222221,92.93650793650794,25.952380952380953,-12.619047619047619,81.98412698412697,68.96825396825396,5.476190476190476,-0.07936507936507936,76.26984126984127,-127.6984126984127,-122.77777777777777,-1.349206349206349,0.23809523809523808,-321.8253968253968
-325.0,-46.269841269841265,23.41269841269841,148.33333333333331,6.26984126984127,42.93650793650794,41.98412698412698,-131.984126984127,-12.142857142857142,-325.0,7.222222222222221,92.93650793650794,25.952380952380953,-12.619047619047619,81.98412698412697,68.96825396825396,5.476190476190476,-0.07936507936507936,76.26984126984127,-127.6984126984127,-122.77777777777777,-1.349206349206349,0.23809523809523808,-321.8253968253968
-325.0,-59.92063492063492,15.95238095238095,123.88888888888889,5.952380952380952,42.3015873015873,0.07936507936507936,-147.69841269841268,-20.396825396825395,-325.0,7.063492063492063,73.4126984126984,22.619047619047617,-3.253968253968254,66.11111111111111,54.36507936507936,5.476190476190476,-5.158730158730158,61.03174603174603,-127.85714285714285,-133.0952380952381,0.07936507936507936,-0.23809523809523808,-166.26984126984127
-325.0,-59.92063492063492,15.95238095238095,123.88888888888889,5.952380952380952,42.3015873015873,0.07936507936507936,-147.69841269841268,-20.396825396825395,-325.0,7.063492063492063,73.4126984126984,22.619047619047617,-3.253968253968254,66.11111111111111,54.36507936507936,5.476190476190476,-5.158730158730158,61.03174603174603,-127.85714285714285,-133.0952380952381,0.07936507936507936,-0.23809523809523808,-166.26984126984127
-280.55555555555554,-41.34920634920635,4.2063492063492065,149.12698412698413,6.111111111111111,41.666666666666664,-38.96825396825397,-155.15873015873015,-40.87301587301587,-325.0,7.063492063492063,85.31746031746032,-23.57142857142857,-56.74603174603174,16.746031746031743,45.476190476190474,5.317460317460317,1.6666666666666665,66.26984126984127,-138.65079365079364,-110.87301587301587,-1.1904761904761905,-0.7142857142857142,-166.26984126984127
-280.55555555555554,-41.34920634920635,4.2063492063492065,149.12698412698413,6.111111111111111,41.666666666666664,-38.96825396825397,-155.15873015873015,-40.87301587301587,-325.0,7.063492063492063,85.31746031746032,-23.57142857142857,-56.74603174603174,16.746031746031743,45.476190476190474,5.317460317460317,1.6666666666666665,66.26984126984127,-138.65079365079364,-110.87301587301587,-1.1904761904761905,-0.7142857142857142,-166.26984126984127
-68.96825396825396,-24.84126984126984,6.746031746031746,154.36507936507937,5.952380952380952,41.03174603174603,-19.6031746031746,-114.36507936507935,-29.76190476190476,-325.0,6.904761904761904,101.82539682539682,30.07936507936508,-28.809523809523807,51.34920634920635,93.88888888888889,5.317460317460317,-3.888888888888889,94.36507936507935,-154.36507936507937,-90.55555555555556,-1.1904761904761905,-2.3015873015873014,-166.26984126984127
-68.96825396825396,-24.84126984126984,6.746031746031746,154.36507936507937,5.952380952380952,41.03174603174603,-19.6031746031746,-114.36507936507935,-29.76190476190476,-325.0,6.904761904761904,101.82539682539682,30.07936507936508,-28.809523809523807,51.34920634920635,93.88888888888889,5.317460317460317,-3.888888888888889,94.36507936507935,-154.36507936507937,-90.55555555555556,-1.1904761904761905,-2.3015873015873014,-166.26984126984127
-134.52380952380952,-75.31746031746032,-1.984126984126984,89.12698412698413,5.7936507936507935,40.39682539682539,-34.682539682539684,-166.74603174603175,-36.58730158730159,-325.0,6.746031746031746,41.19047619047619,11.984126984126984,-10.873015873015872,36.904761904761905,36.11111111111111,5.317460317460317,-7.063492063492063,33.41269841269841,-139.28571428571428,-140.3968253968254,0.23809523809523808,-0.3968253968253968,-166.26984126984127
-134.52380952380952,-75.31746031746032,-1.984126984126984,89.12698412698413,5.7936507936507935,40.39682539682539,-34.682539682539684,-166.74603174603175,-36.58730158730159,-325.0,6.746031746031746,41.19047619047619,11.984126984126984,-10.873015873015872,36.904761904761905,36.11111111111111,5.317460317460317,-7.063492063492063,33.41269841269841,-139.28571428571428,-140.3968253968254,0.23809523809523808,-0.3968253968253968,-166.26984126984127
-325.0,-59.12698412698413,-7.857142857142857,106.58730158730158,5.634920634920634,39.12698412698413,-57.698412698412696,-167.69841269841268,-47.22222222222222,-325.0,6.587301587301587,45.63492063492063,-18.65079365079365,-58.650793650793645,1.1904761904761905,48.80952380952381,5.317460317460317,-4.523809523809524,45.15873015873016,-148.65079365079364,-149.6031746031746,0.3968253968253968,-0.3968253968253968,-166.26984126984127
-325.0,-59.12698412698413,-7.857142857142857,106.58730158730158,5.634920634920634,39.12698412698413,-57.698412698412696,-167.69841269841268,-47.22222222222222,-325.0,6.587301587301587,45.63492063492063,-18.65079365079365,-58.650793650793645,1.1904761904761905,48.80952380952381,5.317460317460317,-4.523809523809524,45.15873015873016,-148.65079365079364,-149.6031746031746,0.3968253968253968,-0.3968253968253968,-166.26984126984127
-325.0,-14.523809523809524,-7.698412698412698,140.7142857142857,5.634920634920634,38.65079365079365,-31.507936507936506,-96.42857142857142,-36.11111111111111,-325.0,6.587301587301587,80.71428571428571,-4.0476190476190474,-25.79365079365079,31.98412698412698,93.4126984126984,4.841269841269841,3.253968253968254,95.95238095238095,-159.28571428571428,-107.22222222222221,-0.7142857142857142,-1.349206349206349,-321.8253968253968
-325.0,-14.523809523809524,-7.698412698412698,140.7142857142857,5.634920634920634,38.65079365079365,-31.507936507936506,-96.42857142857142,-36.11111111111111,-325.0,6.587301587301587,80.71428571428571,-4.0476190476190474,-25.79365079365079,31.98412698412698,93.4126984126984,4.841269841269841,3.253968253968254,95.95238095238095,-159.28571428571428,-107.22222222222221,-0.7142857142857142,-1.349206349206349,-321.8253968253968
-325.0,0.7142857142857142,-8.968253968253968,144.04761904761904,5.476190476190476,37.698412698412696,-18.96825396825397,-89.44444444444444,-35.15873015873016,-325.0,6.428571428571428,76.42857142857143,17.539682539682538,-2.9365079365079363,65.15873015873015,67.6984126984127,5.158730158730158,3.253968253968254,103.25396825396825,-138.17460317460316,-89.44444444444444,0.873015873015873,-0.5555555555555556,-321.8253968253968
-325.0,0.7142857142857142,-8.968253968253968,144.04761904761904,5.476190476190476,37.698412698412696,-18.96825396825397,-89.44444444444444,-35.15873015873016,-325.0,6.428571428571428,76.42857142857143,17.539682539682538,-2.9365079365079363,65.15873015873015,67.6984126984127,5.158730158730158,3.253968253968254,103.25396825396825,-138.17460317460316,-89.44444444444444,0.873015873015873,-0.5555555555555556,-321.8253968253968
-325.0,-47.53968253968254,-8.333333333333332,89.6031746031746,5.317460317460317,36.74603174603175,-62.460317460317455,-192.14285714285714,-55.15873015873016,-325.0,6.26984126984127,21.825396825396822,-10.555555555555555,-32.77777777777778,-14.365079365079364,23.095238095238095,5.0,-34.2063492063492,39.92063492063492,-149.12698412698413,-140.7142857142857,1.0317460317460316,0.23809523809523808,-321.8253968253968
-325.0,-47.53968253968254,-8.333333333333332,89.6031746031746,5.317460317460317,36.74603174603175,-62.460317460317455,-192.14285714285714,-55.15873015873016,-325.0,6.26984126984127,21.825396825396822,-10.555555555555555,-32.77777777777778,-14.365079365079364,23.095238095238095,5.0,-34.2063492063492,39.92063492063492,-149.12698412698413,-140.7142857142857,1.0317460317460316,0.23809523809523808,-321.8253968253968
-325.0,-0.873015873015873,-3.095238095238095,129.9206349206349,5.158730158730158,36.74603174603175,-41.03174603174603,-126.74603174603173,-50.71428571428571,-325.0,6.26984126984127,64.68253968253968,13.412698412698411,24.523809523809522,16.428571428571427,98.17460317460316,4.841269841269841,-20.396825396825395,88.33333333333333,-153.4126984126984,-103.57142857142857,-3.253968253968254,-1.349206349206349,-321.8253968253968
-325.0,-0.873015873015873,-3.095238095238095,129.9206349206349,5.158730158730158,36.74603174603175,-41.03174603174603,-126.74603174603173,-50.71428571428571,-325.0,6.26984126984127,64.68253968253968,13.412698412698411,24.523809523809522,16.428571428571427,98.17460317460316,4.841269841269841,-20.396825396825395,88.33333333333333,-153.4126984126984,-103.57142857142857,-3.253968253968254,-1.349206349206349,-321.8253968253968
-325.0,19.6031746031746,-11.825396825396824,138.015873015873,5.158730158730158,34.52380952380952,-40.714285714285715,-98.96825396825396,-104.52380952380952,-325.0,6.111111111111111,75.63492063492063,-6.904761904761904,33.73015873015873,28.65079365079365,89.28571428571428,4.682539682539682,-0.873015873015873,98.33333333333333,-166.9047619047619,-83.4126984126984,0.873015873015873,-0.5555555555555556,-321.8253968253968
-325.0,19.6031746031746,-11.825396825396824,138.015873015873,5.158730158730158,34.52380952380952,-40.714285714285715,-98.96825396825396,-104.52380952380952,-325.0,6.111111111111111,75.63492063492063,-6.904761904761904,33.73015873015873,28.65079365079365,89.28571428571428,4.682539682539682,-0.873015873015873,98.33333333333333,-166.9047619047619,-83.4126984126984,0.873015873015873,-0.5555555555555556,-321.8253968253968
-325.0,-14.206349206349206,-13.412698412698411,104.68253968253968,5.158730158730158,33.095238095238095,-47.22222222222222,-124.84126984126983,-120.71428571428571,-325.0,6.111111111111111,42.61904761904761,-20.873015873015873,13.73015873015873,18.65079365079365,59.285714285714285,4.682539682539682,-2.9365079365079363,65.15873015873015,-157.85714285714286,-107.22222222222221,1.507936507936508,0.23809523809523808,-166.26984126984127
-325.0,-14.206349206349206,-13.412698412698411,104.68253968253968,5.158730158730158,33.095238095238095,-47.22222222222222,-124.84126984126983,-120.71428571428571,-325.0,6.111111111111111,42.61904761904761,-20.873015873015873,13.73015873015873,18.65079365079365,59.285714285714285,4.682539682539682,-2.9365079365079363,65.15873015873015,-157.85714285714286,-107.22222222222221,1.507936507936508,0.23809523809523808,-166.26984126984127
-325.0,-36.42857142857142,-10.238095238095237,81.5079365079365,4.841269841269841,34.52380952380952,-50.39682539682539,-100.71428571428571,-225.3174603174603,-325.0,5.952380952380952,21.19047619047619,-5.0,27.539682539682538,-1.984126984126984,42.93650793650794,4.682539682539682,4.365079365079365,38.01587301587301,-149.44444444444443,-146.42857142857142,0.5555555555555556,1.1904761904761905,-166.26984126984127
-325.0,-36.42857142857142,-10.238095238095237,81.5079365079365,4.841269841269841,34.52380952380952,-50.39682539682539,-100.71428571428571,-225.3174603174603,-325.0,5.952380952380952,21.19047619047619,-5.0,27.539682539682538,-1.984126984126984,42.93650793650794,4.682539682539682,4.365079365079365,38.01587301587301,-149.44444444444443,-146.42857142857142,0.5555555555555556,1.1904761904761905,-166.26984126984127
-325.0,-0.3968253968253968,5.476190476190476,114.52380952380952,4.841269841269841,34.36507936507936,-43.57142857142857,-26.428571428571427,-275.1587301587301,-325.0,5.7936507936507935,46.74603174603175,5.476190476190476,35.63492063492063,10.396825396825395,66.9047619047619,4.523809523809524,4.365079365079365,69.76190476190476,-147.2222222222222,-115.63492063492063,0.5555555555555556,0.23809523809523808,-166.26984126984127
-325.0,-0.3968253968253968,5.476190476190476,114.52380952380952,4.841269841269841,34.36507936507936,-43.57142857142857,-26.428571428571427,-275.1587301587301,-325.0,5.7936507936507935,46.74603174603175,5.476190476190476,35.63492063492063,10.396825396825395,66.9047619047619,4.523809523809524,4.365079365079365,69.76190476190476,-147.2222222222222,-115.63492063492063,0.5555555555555556,0.23809523809523808,-166.26984126984127
-325.0,17.22222222222222,6.26984126984127,117.06349206349206,4.841269841269841,33.41269841269841,-44.84126984126984,13.73015873015873,-325.0,-325.0,5.7936507936507935,57.38095238095238,17.22222222222222,96.9047619047619,16.11111111111111,68.80952380952381,4.523809523809524,4.2063492063492065,75.47619047619047,-164.2063492063492,-103.25396825396825,-0.3968253968253968,-0.3968253968253968,-166.26984126984127
-325.0,17.22222222222222,6.26984126984127,117.06349206349206,4.841269841269841,33.41269841269841,-44.84126984126984,13.73015873015873,-325.0,-325.0,5.7936507936507935,57.38095238095238,17.22222222222222,96.9047619047619,16.11111111111111,68.80952380952381,4.523809523809524,4.2063492063492065,75.47619047619047,-164.2063492063492,-103.25396825396825,-0.3968253968253968,-0.3968253968253968,-166.26984126984127
-219.28571428571428,43.57142857142857,-27.539682539682538,127.85714285714285,4.682539682539682,32.93650793650794,-16.746031746031743,26.428571428571427,-325.0,-325.0,5.634920634920634,80.71428571428571,-10.396825396825395,90.71428571428571,-15.0,79.44444444444444,4.365079365079365,4.2063492063492065,95.63492063492063,-176.42857142857142,-77.53968253968253,-0.23809523809523808,-0.3968253968253968,-166.26984126984127
-219.28571428571428,43.57142857142857,-27.539682539682538,127.85714285714285,4.682539682539682,32.93650793650794,-16.746031746031743,26.428571428571427,-325.0,-325.0,5.634920634920634,80.71428571428571,-10.396825396825395,90.71428571428571,-15.0,79.44444444444444,4.365079365079365,4.2063492063492065,95.63492063492063,-176.42857142857142,-77.53968253968253,-0.23809523809523808,-0.3968253968253968,-166.26984126984127
-251.8253968253968,46.269841269841265,-6.428571428571428,133.25396825396825,4.841269841269841,32.460317460317455,10.396825396825395,18.96825396825397,-325.0,-325.0,5.634920634920634,65.47619047619047,-50.55555555555555,18.80952380952381,-17.22222222222222,60.873015873015866,4.2063492063492065,4.2063492063492065,95.95238095238095,-174.36507936507937,-90.39682539682539,-1.6666666666666665,-1.507936507936508,-321.8253968253968
-251.8253968253968,46.269841269841265,-6.428571428571428,133.25396825396825,4.841269841269841,32.460317460317455,10.396825396825395,18.96825396825397,-325.0,-325.0,5.634920634920634,65.47619047619047,-50.55555555555555,18.80952380952381,-17.22222222222222,60.873015873015866,4.2063492063492065,4.2063492063492065,95.95238095238095,-174.36507936507937,-90.39682539682539,-1.6666666666666665,-1.507936507936508,-321.8253968253968
-251.8253968253968,46.269841269841265,-6.428571428571428,133.25396825396825,4.841269841269841,32.460317460317455,10.396825396825395,18.96825396825397,-325.0,-325.0,5.634920634920634,65.47619047619047,-50.55555555555555,18.80952380952381,-17.22222222222222,60.873015873015866,4.2063492063492065,4.2063492063492065,95.95238095238095,-174.36507936507937,-90.39682539682539,-1.6666666666666665,-1.507936507936508,-321.8253968253968
-251.8253968253968,46.269841269841265,-6.428571428571428,133.25396825396825,4.841269841269841,32.460317460317455,10.396825396825395,18.96825396825397,-325.0,-325.0,5.634920634920634,65.47619047619047,-50.55555555555555,18.80952380952381,-17.22222222222222,60.873015873015866,4.2063492063492065,4.2063492063492065,95.95238095238095,-174.36507936507937,-90.39682539682539,-1.6666666666666665,-1.507936507936508,-321.8253968253968
-251.8253968253968,46.269841269841265,-6.428571428571428,133.25396825396825,4.841269841269841,32.460317460317455,10.396825396825395,18.96825396825397,-325.0,-325.0,5.634920634920634,65.47619047619047,-50.55555555555555,18.80952380952381,-17.22222222222222,60.873015873015866,4.2063492063492065,4.2063492063492065,95.95238095238095,-174.36507936507937,-90.39682539682539,-1.6666666666666665,-1.507936507936508,-321.8253968253968
-251.8253968253968,46.269841269841265,-6.428571428571428,133.25396825396825,4.841269841269841,32.460317460317455,10.396825396825395,18.96825396825397,-325.0,-325.0,5.634920634920634,65.47619047619047,-50.55555555555555,18.80952380952381,-17.22222222222222,60.873015873015866,4.2063492063492065,4.2063492063492065,95.95238095238095,-174.36507936507937,-90.39682539682539,-1.6666666666666665,-1.507936507936508,-321.8253968253968
-251.8253968253968,46.269841269841265,-6.428571428571428,133.25396825396825,4.841269841269841,32.460317460317455,10.396825396825395,18.96825396825397,-325.0,-325.0,5.634920634920634,65.47619047619047,-50.55555555555555,18.80952380952381,-17.22222222222222,60.873015873015866,4.2063492063492065,4.2063492063492065,95.95238095238095,-174.36507936507937,-90.39682539682539,-1.6666666666666665,-1.507936507936508,-321.8253968253968
-251.8253968253968,46.269841269841265,-6.428571428571428,133.25396825396825,4.841269841269841,32.460317460317455,10.396825396825395,18.96825396825397,-325.0,-325.0,5.634920634920634,65.47619047619047,-50.55555555555555,18.80952380952381,-17.22222222222222,60.873015873015866,4.2063492063492065,4.2063492063492065,95.95238095238095,-174.36507936507937,-90.39682539682539,-1.6666666666666665,-1.507936507936508,-321.8253968253968
-251.8253968253968,46.269841269841265,-6.428571428571428,133.25396825396825,4.841269841269841,32.460317460317455,10.396825396825395,18.96825396825397,-325.0,-325.0,5.634920634920634,65.47619047619047,-50.55555555555555,18.80952380952381,-17.22222222222222,60.873015873015866,4.2063492063492065,4.2063492063492065,95.95238095238095,-174.36507936507937,-90.39682539682539,-1.6666666666666665,-1.507936507936508,-321.8253968253968
-251.8253968253968,46.269841269841265,-6.428571428571428,133.25396825396825,4.841269841269841,32.460317460317455,10.396825396825395,18.96825396825397,-325.0,-325.0,5.634920634920634,65.47619047619047,-50.55555555555555,18.80952380952381,-17.22222222222222,60.873015873015866,4.2063492063492065,4.2063492063492065,95.95238095238095,-174.36507936507937,-90.39682539682539,-1.6666666666666665,-1.507936507936508,-321.8253968253968
-251.8253968253968,46.269841269841265,-6.428571428571428,133.25396825396825,4.841269841269841,32.460317460317455,10.396825396825395,18.96825396825397,-325.0,-325.0,5.634920634920634,65.47619047619047,-50.55555555555555,18.80952380952381,-17.22222222222222,60.873015873015866,4.2063492063492065,4.2063492063492065,95.95238095238095,-174.36507936507937,-90.39682539682539,-1.6666666666666665,-1.507936507936508,-166.26984126984127
-251.8253968253968,46.269841269841265,-6.428571428571428,133.25396825396825,4.841269841269841,32.460317460317455,10.396825396825395,18.96825396825397,-325.0,-325.0,5.634920634920634,65.47619047619047,-50.55555555555555,18.80952380952381,-17.22222222222222,60.873015873015866,4.2063492063492065,4.2063492063492065,95.95238095238095,-174.36507936507937,-90.39682539682539,-1.6666666666666665,-1.507936507936508,-166.26984126984127
-251.8253968253968,46.269841269841265,-6.428571428571428,133.25396825396825,4.841269841269841,32.460317460317455,10.396825396825395,18.96825396825397,-325.0,-325.0,5.634920634920634,65.47619047619047,-50.55555555555555,18.80952380952381,-17.22222222222222,60.873015873015866,4.2063492063492065,4.2063492063492065,95.95238095238095,-174.36507936507937,-90.39682539682539,-1.6666666666666665,-1.507936507936508,-166.26984126984127
-251.8253968253968,46.269841269841265,-6.428571428571428,133.25396825396825,4.841269841269841,32.460317460317455,10.396825396825395,18.96825396825397,-325.0,-325.0,5.634920634920634,65.47619047619047,-50.55555555555555,18.80952380952381,-17.22222222222222,60.873015873015866,4.2063492063492065,4.2063492063492065,95.95238095238095,-174.36507936507937,-90.39682539682539,-1.6666666666666665,-1.507936507936508,-166.26984126984127
-270.7142857142857,44.047619047619044,4.2063492063492065,110.71428571428571,4.0476190476190474,16.587301587301585,25.476190476190474,-29.76190476190476,-251.98412698412696,-291.031746031746,5.0,71.98412698412697,3.4126984126984126,34.84126984126984,5.7936507936507935,63.73015873015873,3.73015873015873,3.571428571428571,89.44444444444444,-159.44444444444443,-110.55555555555554,-1.507936507936508,-1.0317460317460316,-166.26984126984127
-270.7142857142857,44.047619047619044,4.2063492063492065,110.71428571428571,4.0476190476190474,16.587301587301585,25.476190476190474,-29.76190476190476,-251.98412698412696,-291.031746031746,5.0,71.98412698412697,3.4126984126984126,34.84126984126984,5.7936507936507935,63.73015873015873,3.73015873015873,3.571428571428571,89.44444444444444,-159.44444444444443,-110.55555555555554,-1.507936507936508,-1.0317460317460316,-166.26984126984127
-203.88888888888889,32.14285714285714,0.23809523809523808,79.76190476190476,-0.7142857142857142,7.3809523809523805,17.539682539682538,-94.84126984126983,-177.38095238095238,-253.57142857142856,4.365079365079365,72.46031746031746,-5.634920634920634,10.079365079365079,-13.253968253968253,43.095238095238095,3.4126984126984126,3.095238095238095,73.4126984126984,-170.87301587301587,-130.87301587301587,-0.5555555555555556,-0.07936507936507936,-166.26984126984127
-203.88888888888889,32.14285714285714,0.23809523809523808,79.76190476190476,-0.7142857142857142,7.3809523809523805,17.539682539682538,-94.84126984126983,-177.38095238095238,-253.57142857142856,4.365079365079365,72.46031746031746,-5.634920634920634,10.079365079365079,-13.253968253968253,43.095238095238095,3.4126984126984126,3.095238095238095,73.4126984126984,-170.87301587301587,-130.87301587301587,-0.5555555555555556,-0.07936507936507936,-166.26984126984127
-125.95238095238095,44.52380952380952,-8.65079365079365,91.19047619047619,-0.5555555555555556,8.809523809523808,3.095238095238095,-87.22222222222221,-176.11111111111111,-250.3968253968254,4.365079365079365,74.84126984126983,-28.174603174603174,3.73015873015873,-26.428571428571427,60.873015873015866,3.4126984126984126,3.095238095238095,84.68253968253968,-179.44444444444443,-105.79365079365078,-1.0317460317460316,-0.3968253968253968,-166.26984126984127
-125.95238095238095,44.52380952380952,-8.65079365079365,91.19047619047619,-0.5555555555555556,8.809523809523808,3.095238095238095,-87.22222222222221,-176.11111111111111,-250.3968253968254,4.365079365079365,74.84126984126983,-28.174603174603174,3.73015873015873,-26.428571428571427,60.873015873015866,3.4126984126984126,3.095238095238095,84.68253968253968,-179.44444444444443,-105.79365079365078,-1.0317460317460316,-0.3968253968253968,-166.26984126984127
-26.11111111111111,86.26984126984127,-9.603174603174603,142.77777777777777,-0.873015873015873,13.73015873015873,17.698412698412696,-40.079365079365076,-149.28571428571428,-245.79365079365078,4.2063492063492065,106.1111111111111,37.38095238095238,21.03174603174603,-3.571428571428571,125.79365079365078,3.253968253968254,2.9365079365079363,130.55555555555554,-178.015873015873,-73.4126984126984,-0.873015873015873,-0.3968253968253968,-321.8253968253968
-26.11111111111111,86.26984126984127,-9.603174603174603,142.77777777777777,-0.873015873015873,13.73015873015873,17.698412698412696,-40.079365079365076,-149.28571428571428,-245.79365079365078,4.2063492063492065,106.1111111111111,37.38095238095238,21.03174603174603,-3.571428571428571,125.79365079365078,3.253968253968254,2.9365079365079363,130.55555555555554,-178.015873015873,-73.4126984126984,-0.873015873015873,-0.3968253968253968,-321.8253968253968
-26.11111111111111,86.26984126984127,-9.603174603174603,142.77777777777777,-0.873015873015873,13.73015873015873,17.698412698412696,-40.079365079365076,-149.28571428571428,-245.79365079365078,4.2063492063492065,106.1111111111111,37.38095238095238,21.03174603174603,-3.571428571428571,125.79365079365078,3.253968253968254,2.9365079365079363,130.55555555555554,-178.015873015873,-73.4126984126984,-0.873015873015873,-0.3968253968253968,-321.8253968253968
-26.11111111111111,86.26984126984127,-9.603174603174603,142.77777777777777,-0.873015873015873,13.73015873015873,17.698412698412696,-40.079365079365076,-149.28571428571428,-245.79365079365078,4.2063492063492065,106.1111111111111,37.38095238095238,21.03174603174603,-3.571428571428571,125.79365079365078,3.253968253968254,2.9365079365079363,130.55555555555554,-178.015873015873,-73.4126984126984,-0.873015873015873,-0.3968253968253968,-321.8253968253968
-14.523809523809524,63.41269841269841,-17.22222222222222,104.84126984126983,0.5555555555555556,10.079365079365079,5.476190476190476,-82.46031746031746,-147.06349206349205,-184.04761904761904,4.0476190476190474,80.71428571428571,0.7142857142857142,-5.158730158730158,-16.746031746031743,85.63492063492063,3.253968253968254,2.9365079365079363,105.79365079365078,-175.63492063492063,-91.82539682539682,-0.7142857142857142,-0.3968253968253968,-321.8253968253968
-14.523809523809524,63.41269841269841,-17.22222222222222,104.84126984126983,0.5555555555555556,10.079365079365079,5.476190476190476,-82.46031746031746,-147.06349206349205,-184.04761904761904,4.0476190476190474,80.71428571428571,0.7142857142857142,-5.158730158730158,-16.746031746031743,85.63492063492063,3.253968253968254,2.9365079365079363,105.79365079365078,-175.63492063492063,-91.82539682539682,-0.7142857142857142,-0.3968253968253968,-321.8253968253968
-61.03174603174603,9.920634920634921,-33.888888888888886,26.11111111111111,-17.698412698412696,-13.412698412698411,-28.015873015873016,-175.3174603174603,-149.9206349206349,-41.34920634920635,4.0476190476190474,18.80952380952381,-36.58730158730159,-53.095238095238095,-51.82539682539682,16.428571428571427,3.253968253968254,2.7777777777777777,36.42857142857142,-176.9047619047619,-137.53968253968253,0.23809523809523808,0.23809523809523808,-321.8253968253968
-61.03174603174603,9.920634920634921,-33.888888888888886,26.11111111111111,-17.698412698412696,-13.412698412698411,-28.015873015873016,-175.3174603174603,-149.9206349206349,-41.34920634920635,4.0476190476190474,18.80952380952381,-36.58730158730159,-53.095238095238095,-51.82539682539682,16.428571428571427,3.253968253968254,2.7777777777777777,36.42857142857142,-176.9047619047619,-137.53968253968253,0.23809523809523808,0.23809523809523808,-321.8253968253968
-36.74603174603175,39.92063492063492,-26.587301587301585,61.19047619047619,-17.38095238095238,-8.174603174603174,-8.65079365079365,-120.55555555555554,-139.28571428571428,73.4126984126984,4.0476190476190474,60.873015873015866,-1.6666666666666665,11.031746031746032,-21.666666666666664,62.77777777777777,3.095238095238095,2.619047619047619,73.88888888888889,-167.53968253968253,-105.79365079365078,-0.3968253968253968,-0.7142857142857142,-321.8253968253968
-36.74603174603175,39.92063492063492,-26.587301587301585,61.19047619047619,-17.38095238095238,-8.174603174603174,-8.65079365079365,-120.55555555555554,-139.28571428571428,73.4126984126984,4.0476190476190474,60.873015873015866,-1.6666666666666665,11.031746031746032,-21.666666666666664,62.77777777777777,3.095238095238095,2.619047619047619,73.88888888888889,-167.53968253968253,-105.79365079365078,-0.3968253968253968,-0.7142857142857142,-321.8253968253968
-28.809523809523807,50.55555555555555,-18.333333333333332,71.19047619047619,-9.920634920634921,1.6666666666666665,2.619047619047619,-84.52380952380952,-120.07936507936508,225.95238095238093,4.0476190476190474,69.12698412698413,0.5555555555555556,-0.07936507936507936,-3.253968253968254,69.92063492063491,3.095238095238095,2.619047619047619,85.15873015873015,-161.8253968253968,-103.88888888888889,-0.7142857142857142,-1.0317460317460316,-166.26984126984127
