Fp1[1],Fp2[2],F3[3],F4[4],C3[5],C4[6],P3[7],P4[8],O1[9],O2[10],F7[11],F8[12],T3[13],T4[14],T5[15],T6[16],Fz[17],Pz[18],Cz[19],Pg1[20],Pg2[21],EOGR[22],EOOGL[23],EMG[24]
-325.0,325.0,325.0,325.0,-107.85714285714285,-325.0,325.0,-325.0,-325.0,-325.0,-325.0,325.0,325.0,-276.26984126984127,325.0,325.0,74.68253968253968,-217.85714285714283,325.0,-325.0,-325.0,-0.07936507936507936,-0.07936507936507936,-166.26984126984127
-325.0,325.0,325.0,325.0,-107.85714285714285,-325.0,325.0,-325.0,-325.0,-325.0,-325.0,325.0,325.0,-276.26984126984127,325.0,325.0,74.68253968253968,-217.85714285714283,325.0,-325.0,-325.0,-0.07936507936507936,-0.07936507936507936,-166.26984126984127
-325.0,325.0,325.0,325.0,-97.38095238095238,-325.0,325.0,-325.0,-325.0,-325.0,-325.0,325.0,325.0,-249.12698412698413,325.0,325.0,105.0,-197.2222222222222,325.0,-325.0,-325.0,-1.349206349206349,-0.23809523809523808,-166.26984126984127
-325.0,325.0,325.0,325.0,-97.38095238095238,-325.0,325.0,-325.0,-325.0,-325.0,-325.0,325.0,325.0,-249.12698412698413,325.0,325.0,105.0,-197.2222222222222,325.0,-325.0,-325.0,-1.349206349206349,-0.23809523809523808,-166.26984126984127
-325.0,325.0,325.0,325.0,-84.68253968253968,-325.0,83.09523809523809,-325.0,-325.0,-315.95238095238096,-325.0,325.0,325.0,-215.95238095238093,325.0,325.0,89.6031746031746,-172.3015873015873,325.0,-325.0,-325.0,-0.7142857142857142,-0.23809523809523808,-166.26984126984127
-325.0,325.0,325.0,325.0,-84.68253968253968,-325.0,83.09523809523809,-325.0,-325.0,-315.95238095238096,-325.0,325.0,325.0,-215.95238095238093,325.0,325.0,89.6031746031746,-172.3015873015873,325.0,-325.0,-325.0,-0.7142857142857142,-0.23809523809523808,-166.26984126984127
-325.0,325.0,325.0,325.0,-81.5079365079365,-325.0,-216.74603174603175,-325.0,-325.0,-305.0,-325.0,325.0,325.0,-207.69841269841268,325.0,325.0,-325.0,-165.95238095238093,325.0,-325.0,-325.0,-0.3968253968253968,0.5555555555555556,-166.26984126984127
-325.0,325.0,325.0,325.0,-81.5079365079365,-325.0,-216.74603174603175,-325.0,-325.0,-305.0,-325.0,325.0,325.0,-207.69841269841268,325.0,325.0,-325.0,-165.95238095238093,325.0,-325.0,-325.0,-0.3968253968253968,0.5555555555555556,-166.26984126984127
-325.0,325.0,325.0,325.0,-79.12698412698413,-325.0,-325.0,-325.0,-325.0,-298.17460317460313,-325.0,325.0,325.0,-202.77777777777777,325.0,325.0,-325.0,-162.14285714285714,325.0,-325.0,-325.0,-0.23809523809523808,0.07936507936507936,-166.26984126984127
-325.0,325.0,325.0,325.0,-79.12698412698413,-325.0,-325.0,-325.0,-325.0,-298.17460317460313,-325.0,325.0,325.0,-202.77777777777777,325.0,325.0,-325.0,-162.14285714285714,325.0,-325.0,-325.0,-0.23809523809523808,0.07936507936507936,-166.26984126984127
-325.0,325.0,325.0,325.0,-77.6984126984127,-325.0,-325.0,-325.0,-322.46031746031747,-293.0952380952381,-325.0,325.0,325.0,-198.96825396825395,325.0,325.0,-325.0,-159.12698412698413,325.0,-325.0,-325.0,0.07936507936507936,-0.3968253968253968,-321.8253968253968
-325.0,325.0,325.0,325.0,-77.6984126984127,-325.0,-325.0,-325.0,-322.46031746031747,-293.0952380952381,-325.0,325.0,325.0,-198.96825396825395,325.0,325.0,-325.0,-159.12698412698413,325.0,-325.0,-325.0,0.07936507936507936,-0.3968253968253968,-321.8253968253968
-325.0,325.0,325.0,325.0,-76.58730158730158,-325.0,-325.0,-325.0,-318.17460317460313,-289.1269841269841,-325.0,323.57142857142856,325.0,-196.11111111111111,325.0,325.0,-325.0,-156.9047619047619,325.0,-325.0,-325.0,-0.07936507936507936,-0.07936507936507936,-321.8253968253968
-325.0,325.0,325.0,325.0,-76.58730158730158,-325.0,-325.0,-325.0,-318.17460317460313,-289.1269841269841,-325.0,323.57142857142856,325.0,-196.11111111111111,325.0,325.0,-325.0,-156.9047619047619,325.0,-325.0,-325.0,-0.07936507936507936,-0.07936507936507936,-321.8253968253968
-325.0,325.0,325.0,324.04761904761904,-74.68253968253968,-325.0,-325.0,-325.0,-311.3492063492063,-283.0952380952381,-325.0,318.015873015873,325.0,-191.5079365079365,325.0,325.0,-325.0,-153.4126984126984,321.8253968253968,-325.0,-325.0,0.5555555555555556,0.07936507936507936,-321.8253968253968
-325.0,325.0,325.0,324.04761904761904,-74.68253968253968,-325.0,-325.0,-325.0,-311.3492063492063,-283.0952380952381,-325.0,318.015873015873,325.0,-191.5079365079365,325.0,325.0,-325.0,-153.4126984126984,321.8253968253968,-325.0,-325.0,0.5555555555555556,0.07936507936507936,-321.8253968253968
-323.25396825396825,325.0,325.0,318.8095238095238,-73.4126984126984,-325.0,-325.0,-325.0,-305.7936507936508,-278.17460317460313,-325.0,312.46031746031747,325.0,-187.85714285714283,325.0,325.0,-325.0,-150.7142857142857,316.26984126984127,-325.0,-325.0,-0.7142857142857142,-1.1904761904761905,-321.8253968253968
-323.25396825396825,325.0,325.0,318.8095238095238,-73.4126984126984,-325.0,-325.0,-325.0,-305.7936507936508,-278.17460317460313,-325.0,312.46031746031747,325.0,-187.85714285714283,325.0,325.0,-325.0,-150.7142857142857,316.26984126984127,-325.0,-325.0,-0.7142857142857142,-1.1904761904761905,-321.8253968253968
-317.38095238095235,325.0,325.0,313.25396825396825,-71.98412698412697,-325.0,-325.0,-325.0,-300.7142857142857,-204.2063492063492,-325.0,306.4285714285714,325.0,-184.2063492063492,325.0,322.9365079365079,-325.0,-147.85714285714286,310.7142857142857,-325.0,-324.8412698412698,-0.7142857142857142,-0.873015873015873,-321.8253968253968
-317.38095238095235,325.0,325.0,313.25396825396825,-71.98412698412697,-325.0,-325.0,-325.0,-300.7142857142857,-204.2063492063492,-325.0,306.4285714285714,325.0,-184.2063492063492,325.0,322.9365079365079,-325.0,-147.85714285714286,310.7142857142857,-325.0,-324.8412698412698,-0.7142857142857142,-0.873015873015873,-321.8253968253968
-311.8253968253968,325.0,325.0,307.53968253968253,-70.55555555555556,-324.36507936507934,-325.0,-325.0,-295.3174603174603,-72.77777777777777,-325.0,301.19047619047615,325.0,-180.87301587301587,325.0,317.38095238095235,-325.0,-145.15873015873015,305.1587301587301,-322.6190476190476,-320.23809523809524,-0.7142857142857142,-0.23809523809523808,-166.26984126984127
-311.8253968253968,325.0,325.0,307.53968253968253,-70.55555555555556,-324.36507936507934,-325.0,-325.0,-295.3174603174603,-72.77777777777777,-325.0,301.19047619047615,325.0,-180.87301587301587,325.0,317.38095238095235,-325.0,-145.15873015873015,305.1587301587301,-322.6190476190476,-320.23809523809524,-0.7142857142857142,-0.23809523809523808,-166.26984126984127
-307.53968253968253,325.0,325.0,304.04761904761904,-69.76190476190476,-321.031746031746,-325.0,-322.6190476190476,-291.3492063492063,6.111111111111111,-325.0,297.06349206349205,325.0,-178.17460317460316,325.0,313.4126984126984,-325.0,-143.25396825396825,301.5079365079365,-318.4920634920635,-315.7936507936508,-0.3968253968253968,-1.0317460317460316,-166.26984126984127
-307.53968253968253,325.0,325.0,304.04761904761904,-69.76190476190476,-321.031746031746,-325.0,-322.6190476190476,-291.3492063492063,6.111111111111111,-325.0,297.06349206349205,325.0,-178.17460317460316,325.0,313.4126984126984,-325.0,-143.25396825396825,301.5079365079365,-318.4920634920635,-315.7936507936508,-0.3968253968253968,-1.0317460317460316,-166.26984126984127
-262.77777777777777,300.07936507936506,292.46031746031747,259.2857142857143,-59.285714285714285,-276.26984126984127,-325.0,-278.4920634920635,-250.2380952380952,234.52380952380952,-297.22222222222223,253.88888888888889,288.6507936507936,-151.03174603174602,245.63492063492063,268.6507936507936,-325.0,-122.46031746031746,258.3333333333333,-273.4126984126984,-269.76190476190476,-0.5555555555555556,0.07936507936507936,-166.26984126984127
-262.77777777777777,300.07936507936506,292.46031746031747,259.2857142857143,-59.285714285714285,-276.26984126984127,-325.0,-278.4920634920635,-250.2380952380952,234.52380952380952,-297.22222222222223,253.88888888888889,288.6507936507936,-151.03174603174602,245.63492063492063,268.6507936507936,-325.0,-122.46031746031746,258.3333333333333,-273.4126984126984,-269.76190476190476,-0.5555555555555556,0.07936507936507936,-166.26984126984127
-228.65079365079364,275.1587301587301,259.9206349206349,225.79365079365078,-51.19047619047619,-242.3015873015873,-325.0,-244.84126984126982,-218.8095238095238,325.0,-269.44444444444446,221.03174603174602,252.3015873015873,-130.3968253968254,166.26984126984127,235.0,-325.0,-106.58730158730158,225.63492063492063,-239.12698412698413,-234.68253968253967,-0.5555555555555556,0.23809523809523808,-166.26984126984127
-228.65079365079364,275.1587301587301,259.9206349206349,225.79365079365078,-51.19047619047619,-242.3015873015873,-325.0,-244.84126984126982,-218.8095238095238,325.0,-269.44444444444446,221.03174603174602,252.3015873015873,-130.3968253968254,166.26984126984127,235.0,-325.0,-106.58730158730158,225.63492063492063,-239.12698412698413,-234.68253968253967,-0.5555555555555556,0.23809523809523808,-166.26984126984127
-185.47619047619045,225.63492063492063,-325.0,183.25396825396825,-41.19047619047619,-198.8095238095238,-325.0,-201.19047619047618,-178.8095238095238,325.0,-221.66666666666666,179.76190476190476,-325.0,-104.68253968253968,-325.0,191.66666666666666,-288.3333333333333,-86.26984126984127,184.2063492063492,-195.63492063492063,-190.55555555555554,-0.07936507936507936,-0.873015873015873,-166.26984126984127
-185.47619047619045,225.63492063492063,-325.0,183.25396825396825,-41.19047619047619,-198.8095238095238,-325.0,-201.19047619047618,-178.8095238095238,325.0,-221.66666666666666,179.76190476190476,-325.0,-104.68253968253968,-325.0,191.66666666666666,-288.3333333333333,-86.26984126984127,184.2063492063492,-195.63492063492063,-190.55555555555554,-0.07936507936507936,-0.873015873015873,-166.26984126984127
-185.47619047619045,225.63492063492063,-325.0,183.25396825396825,-41.19047619047619,-198.8095238095238,-325.0,-201.19047619047618,-178.8095238095238,325.0,-221.66666666666666,179.76190476190476,-325.0,-104.68253968253968,-325.0,191.66666666666666,-288.3333333333333,-86.26984126984127,184.2063492063492,-195.63492063492063,-190.55555555555554,-0.07936507936507936,-0.873015873015873,-321.8253968253968
-185.47619047619045,225.63492063492063,-325.0,183.25396825396825,-41.19047619047619,-198.8095238095238,-325.0,-201.19047619047618,-178.8095238095238,325.0,-221.66666666666666,179.76190476190476,-325.0,-104.68253968253968,-325.0,191.66666666666666,-288.3333333333333,-86.26984126984127,184.2063492063492,-195.63492063492063,-190.55555555555554,-0.07936507936507936,-0.873015873015873,-321.8253968253968
-185.47619047619045,225.63492063492063,-325.0,183.25396825396825,-41.19047619047619,-198.8095238095238,-325.0,-201.19047619047618,-178.8095238095238,325.0,-221.66666666666666,179.76190476190476,-325.0,-104.68253968253968,-325.0,191.66666666666666,-288.3333333333333,-86.26984126984127,184.2063492063492,-195.63492063492063,-190.55555555555554,-0.07936507936507936,-0.873015873015873,-321.8253968253968
-185.47619047619045,225.63492063492063,-325.0,183.25396825396825,-41.19047619047619,-198.8095238095238,-325.0,-201.19047619047618,-178.8095238095238,325.0,-221.66666666666666,179.76190476190476,-325.0,-104.68253968253968,-325.0,191.66666666666666,-288.3333333333333,-86.26984126984127,184.2063492063492,-195.63492063492063,-190.55555555555554,-0.07936507936507936,-0.873015873015873,-321.8253968253968
-185.47619047619045,225.63492063492063,-325.0,183.25396825396825,-41.19047619047619,-198.8095238095238,-325.0,-201.19047619047618,-178.8095238095238,325.0,-221.66666666666666,179.76190476190476,-325.0,-104.68253968253968,-325.0,191.66666666666666,-288.3333333333333,-86.26984126984127,184.2063492063492,-195.63492063492063,-190.55555555555554,-0.07936507936507936,-0.873015873015873,-321.8253968253968
-185.47619047619045,225.63492063492063,-325.0,183.25396825396825,-41.19047619047619,-198.8095238095238,-325.0,-201.19047619047618,-178.8095238095238,325.0,-221.66666666666666,179.76190476190476,-325.0,-104.68253968253968,-325.0,191.66666666666666,-288.3333333333333,-86.26984126984127,184.2063492063492,-195.63492063492063,-190.55555555555554,-0.07936507936507936,-0.873015873015873,-321.8253968253968
-185.47619047619045,225.63492063492063,-325.0,183.25396825396825,-41.19047619047619,-198.8095238095238,-325.0,-201.19047619047618,-178.8095238095238,325.0,-221.66666666666666,179.76190476190476,-325.0,-104.68253968253968,-325.0,191.66666666666666,-288.3333333333333,-86.26984126984127,184.2063492063492,-195.63492063492063,-190.55555555555554,-0.07936507936507936,-0.873015873015873,-321.8253968253968
-185.47619047619045,225.63492063492063,-325.0,183.25396825396825,-41.19047619047619,-198.8095238095238,-325.0,-201.19047619047618,-178.8095238095238,325.0,-221.66666666666666,179.76190476190476,-325.0,-104.68253968253968,-325.0,191.66666666666666,-288.3333333333333,-86.26984126984127,184.2063492063492,-195.63492063492063,-190.55555555555554,-0.07936507936507936,-0.873015873015873,-321.8253968253968
-41.82539682539682,-286.26984126984127,-325.0,-325.0,-9.603174603174603,-47.857142857142854,-325.0,-49.92063492063492,-325.0,-325.0,-54.68253968253968,-325.0,-325.0,325.0,-325.0,-325.0,-67.53968253968253,-20.07936507936508,-325.0,-46.42857142857142,-42.77777777777778,-0.3968253968253968,-0.7142857142857142,-321.8253968253968
-41.82539682539682,-286.26984126984127,-325.0,-325.0,-9.603174603174603,-47.857142857142854,-325.0,-49.92063492063492,-325.0,-325.0,-54.68253968253968,-325.0,-325.0,325.0,-325.0,-325.0,-67.53968253968253,-20.07936507936508,-325.0,-46.42857142857142,-42.77777777777778,-0.3968253968253968,-0.7142857142857142,-321.8253968253968
-41.03174603174603,-281.8253968253968,-325.0,-325.0,-9.444444444444445,-47.22222222222222,-325.0,-49.12698412698413,-325.0,-325.0,-53.57142857142857,-325.0,-325.0,325.0,-325.0,-322.6190476190476,-66.42857142857143,-19.76190476190476,-325.0,-45.63492063492063,-42.14285714285714,-0.7142857142857142,-1.1904761904761905,-166.26984126984127
-41.03174603174603,-281.8253968253968,-325.0,-325.0,-9.444444444444445,-47.22222222222222,-325.0,-49.12698412698413,-325.0,-325.0,-53.57142857142857,-325.0,-325.0,325.0,-325.0,-322.6190476190476,-66.42857142857143,-19.76190476190476,-325.0,-45.63492063492063,-42.14285714285714,-0.7142857142857142,-1.1904761904761905,-166.26984126984127
-40.55555555555555,-277.22222222222223,-325.0,-325.0,-9.285714285714285,-46.269841269841265,-325.0,-48.33333333333333,-325.0,-325.0,-52.61904761904761,-325.0,-325.0,325.0,-325.0,-317.38095238095235,-65.15873015873015,-19.285714285714285,-325.0,-44.68253968253968,-41.19047619047619,-0.7142857142857142,-0.07936507936507936,-166.26984126984127
-40.55555555555555,-277.22222222222223,-325.0,-325.0,-9.285714285714285,-46.269841269841265,-325.0,-48.33333333333333,-325.0,-325.0,-52.61904761904761,-325.0,-325.0,325.0,-325.0,-317.38095238095235,-65.15873015873015,-19.285714285714285,-325.0,-44.68253968253968,-41.19047619047619,-0.7142857142857142,-0.07936507936507936,-166.26984126984127
175.15873015873015,-70.23809523809524,35.15873015873016,-0.7142857142857142,90.87301587301587,6.428571428571428,65.31746031746032,-184.68253968253967,124.2063492063492,24.523809523809522,83.88888888888889,32.14285714285714,75.0,-61.82539682539682,60.079365079365076,74.04761904761904,108.65079365079364,5.0,88.4920634920635,28.809523809523807,-170.87301587301587,-0.07936507936507936,-0.7142857142857142,-166.26984126984127
175.15873015873015,-70.23809523809524,35.15873015873016,-0.7142857142857142,90.87301587301587,6.428571428571428,65.31746031746032,-184.68253968253967,124.2063492063492,24.523809523809522,83.88888888888889,32.14285714285714,75.0,-61.82539682539682,60.079365079365076,74.04761904761904,108.65079365079364,5.0,88.4920634920635,28.809523809523807,-170.87301587301587,-0.07936507936507936,-0.7142857142857142,-166.26984126984127
172.3015873015873,-169.44444444444443,24.84126984126984,-26.26984126984127,89.28571428571428,6.428571428571428,59.92063492063492,-195.79365079365078,121.98412698412697,19.444444444444443,82.46031746031746,20.396825396825395,73.88888888888889,-83.4126984126984,59.44444444444444,68.01587301587301,106.58730158730158,5.0,86.74603174603175,27.698412698412696,-160.7142857142857,-0.07936507936507936,-0.5555555555555556,-166.26984126984127
172.3015873015873,-169.44444444444443,24.84126984126984,-26.26984126984127,89.28571428571428,6.428571428571428,59.92063492063492,-195.79365079365078,121.98412698412697,19.444444444444443,82.46031746031746,20.396825396825395,73.88888888888889,-83.4126984126984,59.44444444444444,68.01587301587301,106.58730158730158,5.0,86.74603174603175,27.698412698412696,-160.7142857142857,-0.07936507936507936,-0.5555555555555556,-166.26984126984127
168.4920634920635,-240.3968253968254,-6.746031746031746,-35.95238095238095,87.38095238095238,6.428571428571428,40.39682539682539,-197.06349206349205,119.44444444444444,2.46031746031746,80.71428571428571,-1.0317460317460316,65.79365079365078,-96.9047619047619,26.26984126984127,72.93650793650794,104.04761904761904,4.841269841269841,79.6031746031746,30.71428571428571,-150.55555555555554,0.23809523809523808,-0.23809523809523808,-166.26984126984127
168.4920634920635,-240.3968253968254,-6.746031746031746,-35.95238095238095,87.38095238095238,6.428571428571428,40.39682539682539,-197.06349206349205,119.44444444444444,2.46031746031746,80.71428571428571,-1.0317460317460316,65.79365079365078,-96.9047619047619,26.26984126984127,72.93650793650794,104.04761904761904,4.841269841269841,79.6031746031746,30.71428571428571,-150.55555555555554,0.23809523809523808,-0.23809523809523808,-166.26984126984127
165.47619047619045,-240.07936507936506,-39.285714285714285,-21.507936507936506,85.95238095238095,6.26984126984127,30.396825396825395,-190.7142857142857,117.53968253968253,5.0,79.28571428571428,10.873015873015872,48.01587301587301,-101.98412698412697,14.84126984126984,54.36507936507936,102.61904761904762,4.682539682539682,76.58730158730158,30.396825396825395,-135.15873015873015,-0.3968253968253968,-1.6666666666666665,-321.8253968253968
165.47619047619045,-240.07936507936506,-39.285714285714285,-21.507936507936506,85.95238095238095,6.26984126984127,30.396825396825395,-190.7142857142857,117.53968253968253,5.0,79.28571428571428,10.873015873015872,48.01587301587301,-101.98412698412697,14.84126984126984,54.36507936507936,102.61904761904762,4.682539682539682,76.58730158730158,30.396825396825395,-135.15873015873015,-0.3968253968253968,-1.6666666666666665,-321.8253968253968
161.984126984127,-264.04761904761904,-36.58730158730159,-54.52380952380952,84.04761904761904,6.26984126984127,28.809523809523807,-155.0,94.84126984126983,-5.952380952380952,77.6984126984127,16.904761904761905,41.19047619047619,-100.39682539682539,23.253968253968253,44.36507936507936,100.23809523809523,4.682539682539682,70.39682539682539,31.507936507936506,-125.31746031746032,0.07936507936507936,-0.3968253968253968,-321.8253968253968
161.984126984127,-264.04761904761904,-36.58730158730159,-54.52380952380952,84.04761904761904,6.26984126984127,28.809523809523807,-155.0,94.84126984126983,-5.952380952380952,77.6984126984127,16.904761904761905,41.19047619047619,-100.39682539682539,23.253968253968253,44.36507936507936,100.23809523809523,4.682539682539682,70.39682539682539,31.507936507936506,-125.31746031746032,0.07936507936507936,-0.3968253968253968,-321.8253968253968
158.96825396825395,-256.58730158730157,-28.96825396825397,-32.61904761904762,82.77777777777777,6.111111111111111,23.253968253968253,-138.96825396825395,81.66666666666666,4.841269841269841,76.42857142857143,32.61904761904762,45.79365079365079,-86.42857142857143,29.285714285714285,69.12698412698413,98.33333333333333,4.682539682539682,89.44444444444444,30.396825396825395,-99.6031746031746,-0.5555555555555556,0.07936507936507936,-321.8253968253968
158.96825396825395,-256.58730158730157,-28.96825396825397,-32.61904761904762,82.77777777777777,6.111111111111111,23.253968253968253,-138.96825396825395,81.66666666666666,4.841269841269841,76.42857142857143,32.61904761904762,45.79365079365079,-86.42857142857143,29.285714285714285,69.12698412698413,98.33333333333333,4.682539682539682,89.44444444444444,30.396825396825395,-99.6031746031746,-0.5555555555555556,0.07936507936507936,-321.8253968253968
157.06349206349205,-287.6984126984127,-13.571428571428571,-29.76190476190476,81.82539682539682,5.952380952380952,34.047619047619044,-117.38095238095238,83.25396825396825,10.555555555555555,75.47619047619047,35.15873015873016,54.68253968253968,-60.39682539682539,44.68253968253968,88.33333333333333,97.38095238095238,4.523809523809524,111.98412698412697,26.746031746031743,-91.66666666666666,-0.23809523809523808,-0.7142857142857142,-321.8253968253968
157.06349206349205,-287.6984126984127,-13.571428571428571,-29.76190476190476,81.82539682539682,5.952380952380952,34.047619047619044,-117.38095238095238,83.25396825396825,10.555555555555555,75.47619047619047,35.15873015873016,54.68253968253968,-60.39682539682539,44.68253968253968,88.33333333333333,97.38095238095238,4.523809523809524,111.98412698412697,26.746031746031743,-91.66666666666666,-0.23809523809523808,-0.7142857142857142,-321.8253968253968
155.0,-270.23809523809524,-36.904761904761905,-36.74603174603175,80.71428571428571,5.952380952380952,15.476190476190474,-128.8095238095238,70.39682539682539,0.3968253968253968,74.36507936507937,19.126984126984127,23.095238095238095,-93.4126984126984,8.015873015873016,53.73015873015873,95.95238095238095,4.523809523809524,89.12698412698413,28.809523809523807,-87.6984126984127,-0.07936507936507936,-0.3968253968253968,-321.8253968253968
155.0,-270.23809523809524,-36.904761904761905,-36.74603174603175,80.71428571428571,5.952380952380952,15.476190476190474,-128.8095238095238,70.39682539682539,0.3968253968253968,74.36507936507937,19.126984126984127,23.095238095238095,-93.4126984126984,8.015873015873016,53.73015873015873,95.95238095238095,4.523809523809524,89.12698412698413,28.809523809523807,-87.6984126984127,-0.07936507936507936,-0.3968253968253968,-321.8253968253968
150.87301587301587,-200.55555555555554,-80.23809523809523,-60.079365079365076,78.65079365079364,5.952380952380952,-10.555555555555555,-150.87301587301587,47.22222222222222,-20.07936507936508,72.61904761904762,-0.3968253968253968,-1.1904761904761905,-141.8253968253968,-27.38095238095238,2.9365079365079363,93.25396825396825,4.523809523809524,47.53968253968254,29.76190476190476,-80.55555555555556,-0.07936507936507936,-0.7142857142857142,-166.26984126984127
150.87301587301587,-200.55555555555554,-80.23809523809523,-60.079365079365076,78.65079365079364,5.952380952380952,-10.555555555555555,-150.87301587301587,47.22222222222222,-20.07936507936508,72.61904761904762,-0.3968253968253968,-1.1904761904761905,-141.8253968253968,-27.38095238095238,2.9365079365079363,93.25396825396825,4.523809523809524,47.53968253968254,29.76190476190476,-80.55555555555556,-0.07936507936507936,-0.7142857142857142,-166.26984126984127
148.96825396825395,-195.0,-71.82539682539682,-25.952380952380953,77.6984126984127,5.476190476190476,-18.80952380952381,-145.95238095238093,38.17460317460317,-2.142857142857143,71.66666666666666,19.6031746031746,19.285714285714285,-118.8095238095238,-28.49206349206349,45.95238095238095,92.30158730158729,4.365079365079365,73.09523809523809,25.0,-77.06349206349206,0.07936507936507936,-0.07936507936507936,-166.26984126984127
148.96825396825395,-195.0,-71.82539682539682,-25.952380952380953,77.6984126984127,5.476190476190476,-18.80952380952381,-145.95238095238093,38.17460317460317,-2.142857142857143,71.66666666666666,19.6031746031746,19.285714285714285,-118.8095238095238,-28.49206349206349,45.95238095238095,92.30158730158729,4.365079365079365,73.09523809523809,25.0,-77.06349206349206,0.07936507936507936,-0.07936507936507936,-166.26984126984127
135.63492063492063,-115.95238095238095,-64.84126984126983,-0.3968253968253968,71.03174603174602,5.317460317460317,-43.41269841269841,-118.49206349206348,5.317460317460317,-2.7777777777777777,65.47619047619047,23.730158730158728,-20.396825396825395,-99.92063492063491,-40.079365079365076,61.507936507936506,84.04761904761904,4.0476190476190474,85.47619047619047,-42.93650793650794,-136.9047619047619,0.5555555555555556,-0.23809523809523808,-166.26984126984127
135.63492063492063,-115.95238095238095,-64.84126984126983,-0.3968253968253968,71.03174603174602,5.317460317460317,-43.41269841269841,-118.49206349206348,5.317460317460317,-2.7777777777777777,65.47619047619047,23.730158730158728,-20.396825396825395,-99.92063492063491,-40.079365079365076,61.507936507936506,84.04761904761904,4.0476190476190474,85.47619047619047,-42.93650793650794,-136.9047619047619,0.5555555555555556,-0.23809523809523808,-166.26984126984127
133.88888888888889,-114.84126984126983,-94.52380952380952,0.5555555555555556,70.07936507936508,5.317460317460317,-61.98412698412698,-116.42857142857142,-8.333333333333332,-7.063492063492063,64.68253968253968,23.253968253968253,-47.22222222222222,-104.2063492063492,-65.0,60.71428571428571,82.93650793650794,4.0476190476190474,78.33333333333333,-57.53968253968254,-145.15873015873015,1.1904761904761905,0.7142857142857142,-166.26984126984127
133.88888888888889,-114.84126984126983,-94.52380952380952,0.5555555555555556,70.07936507936508,5.317460317460317,-61.98412698412698,-116.42857142857142,-8.333333333333332,-7.063492063492063,64.68253968253968,23.253968253968253,-47.22222222222222,-104.2063492063492,-65.0,60.71428571428571,82.93650793650794,4.0476190476190474,78.33333333333333,-57.53968253968254,-145.15873015873015,1.1904761904761905,0.7142857142857142,-166.26984126984127
133.88888888888889,-114.84126984126983,-94.52380952380952,0.5555555555555556,70.07936507936508,5.317460317460317,-61.98412698412698,-116.42857142857142,-8.333333333333332,-7.063492063492063,64.68253968253968,23.253968253968253,-47.22222222222222,-104.2063492063492,-65.0,60.71428571428571,82.93650793650794,4.0476190476190474,78.33333333333333,-57.53968253968254,-145.15873015873015,1.1904761904761905,0.7142857142857142,-166.26984126984127
133.88888888888889,-114.84126984126983,-94.52380952380952,0.5555555555555556,70.07936507936508,5.317460317460317,-61.98412698412698,-116.42857142857142,-8.333333333333332,-7.063492063492063,64.68253968253968,23.253968253968253,-47.22222222222222,-104.2063492063492,-65.0,60.71428571428571,82.93650793650794,4.0476190476190474,78.33333333333333,-57.53968253968254,-145.15873015873015,1.1904761904761905,0.7142857142857142,-166.26984126984127
126.9047619047619,-85.47619047619047,-39.76190476190476,9.444444444444445,66.74603174603175,5.0,-60.873015873015866,-103.4126984126984,-22.936507936507937,-22.3015873015873,61.507936507936506,36.42857142857142,-32.14285714285714,-80.87301587301587,-61.03174603174603,81.98412698412697,78.65079365079364,4.0476190476190474,89.28571428571428,-88.17460317460316,-138.4920634920635,-1.1904761904761905,0.07936507936507936,-321.8253968253968
126.9047619047619,-85.47619047619047,-39.76190476190476,9.444444444444445,66.74603174603175,5.0,-60.873015873015866,-103.4126984126984,-22.936507936507937,-22.3015873015873,61.507936507936506,36.42857142857142,-32.14285714285714,-80.87301587301587,-61.03174603174603,81.98412698412697,78.65079365079364,4.0476190476190474,89.28571428571428,-88.17460317460316,-138.4920634920635,-1.1904761904761905,0.07936507936507936,-321.8253968253968
123.25396825396825,-41.19047619047619,-123.25396825396825,1.349206349206349,64.68253968253968,5.0,-80.71428571428571,-120.23809523809523,-36.74603174603175,-39.76190476190476,59.76190476190476,29.285714285714285,-65.31746031746032,-91.03174603174602,-75.63492063492063,49.6031746031746,76.1111111111111,3.888888888888889,57.53968253968254,-94.84126984126983,-147.53968253968253,-0.3968253968253968,-1.0317460317460316,-321.8253968253968
123.25396825396825,-41.19047619047619,-123.25396825396825,1.349206349206349,64.68253968253968,5.0,-80.71428571428571,-120.23809523809523,-36.74603174603175,-39.76190476190476,59.76190476190476,29.285714285714285,-65.31746031746032,-91.03174603174602,-75.63492063492063,49.6031746031746,76.1111111111111,3.888888888888889,57.53968253968254,-94.84126984126983,-147.53968253968253,-0.3968253968253968,-1.0317460317460316,-321.8253968253968
120.39682539682539,-63.73015873015873,-68.96825396825396,4.841269841269841,63.41269841269841,4.841269841269841,-76.26984126984127,-124.52380952380952,-21.19047619047619,-48.49206349206349,58.33333333333333,20.396825396825395,-50.079365079365076,-82.93650793650794,-79.44444444444444,53.57142857142857,74.68253968253968,3.73015873015873,67.22222222222221,-90.23809523809523,-143.73015873015873,-1.349206349206349,-0.23809523809523808,-321.8253968253968
120.39682539682539,-63.73015873015873,-68.96825396825396,4.841269841269841,63.41269841269841,4.841269841269841,-76.26984126984127,-124.52380952380952,-21.19047619047619,-48.49206349206349,58.33333333333333,20.396825396825395,-50.079365079365076,-82.93650793650794,-79.44444444444444,53.57142857142857,74.68253968253968,3.73015873015873,67.22222222222221,-90.23809523809523,-143.73015873015873,-1.349206349206349,-0.23809523809523808,-321.8253968253968
116.26984126984127,-28.809523809523807,-61.82539682539682,12.142857142857142,61.34920634920635,4.682539682539682,-61.19047619047619,-111.34920634920634,21.666666666666664,-45.0,56.42857142857142,31.98412698412698,-41.34920634920635,-61.98412698412698,-55.0,91.19047619047619,71.98412698412697,3.73015873015873,89.6031746031746,-99.92063492063491,-138.96825396825395,-1.349206349206349,-0.23809523809523808,-321.8253968253968
116.26984126984127,-28.809523809523807,-61.82539682539682,12.142857142857142,61.34920634920635,4.682539682539682,-61.19047619047619,-111.34920634920634,21.666666666666664,-45.0,56.42857142857142,31.98412698412698,-41.34920634920635,-61.98412698412698,-55.0,91.19047619047619,71.98412698412697,3.73015873015873,89.6031746031746,-99.92063492063491,-138.96825396825395,-1.349206349206349,-0.23809523809523808,-321.8253968253968
111.98412698412697,-12.936507936507935,-88.01587301587301,9.126984126984127,59.44444444444444,4.523809523809524,-80.07936507936508,-115.95238095238095,8.65079365079365,-65.63492063492063,54.36507936507936,25.476190476190474,-65.63492063492063,-85.63492063492063,-90.87301587301587,45.0,69.28571428571428,3.571428571428571,68.65079365079364,-96.58730158730158,-144.04761904761904,-0.7142857142857142,0.23809523809523808,-321.8253968253968
111.98412698412697,-12.936507936507935,-88.01587301587301,9.126984126984127,59.44444444444444,4.523809523809524,-80.07936507936508,-115.95238095238095,8.65079365079365,-65.63492063492063,54.36507936507936,25.476190476190474,-65.63492063492063,-85.63492063492063,-90.87301587301587,45.0,69.28571428571428,3.571428571428571,68.65079365079364,-96.58730158730158,-144.04761904761904,-0.7142857142857142,0.23809523809523808,-321.8253968253968
109.28571428571428,9.603174603174603,-79.76190476190476,31.19047619047619,57.857142857142854,4.523809523809524,-77.22222222222221,-90.23809523809523,-2.46031746031746,-68.01587301587301,52.93650793650794,41.507936507936506,-68.65079365079364,-63.41269841269841,-69.12698412698413,85.47619047619047,67.6984126984127,3.571428571428571,79.44444444444444,-101.34920634920634,-126.74603174603173,-0.07936507936507936,-0.3968253968253968,-166.26984126984127
109.28571428571428,9.603174603174603,-79.76190476190476,31.19047619047619,57.857142857142854,4.523809523809524,-77.22222222222221,-90.23809523809523,-2.46031746031746,-68.01587301587301,52.93650793650794,41.507936507936506,-68.65079365079364,-63.41269841269841,-69.12698412698413,85.47619047619047,67.6984126984127,3.571428571428571,79.44444444444444,-101.34920634920634,-126.74603174603173,-0.07936507936507936,-0.3968253968253968,-166.26984126984127
107.38095238095238,16.26984126984127,-81.34920634920634,31.98412698412698,56.904761904761905,4.523809523809524,-93.73015873015872,-92.93650793650794,-18.65079365079365,-82.14285714285714,51.98412698412698,35.63492063492063,-81.5079365079365,-78.80952380952381,-101.19047619047619,70.07936507936508,66.42857142857143,1.6666666666666665,72.61904761904762,-104.2063492063492,-122.30158730158729,0.07936507936507936,-0.3968253968253968,-166.26984126984127
107.38095238095238,16.26984126984127,-81.34920634920634,31.98412698412698,56.904761904761905,4.523809523809524,-93.73015873015872,-92.93650793650794,-18.65079365079365,-82.14285714285714,51.98412698412698,35.63492063492063,-81.5079365079365,-78.80952380952381,-101.19047619047619,70.07936507936508,66.42857142857143,1.6666666666666665,72.61904761904762,-104.2063492063492,-122.30158730158729,0.07936507936507936,-0.3968253968253968,-166.26984126984127
104.52380952380952,8.015873015873016,-82.77777777777777,22.619047619047617,55.476190476190474,4.365079365079365,-109.28571428571428,-65.0,-38.33333333333333,-95.79365079365078,50.71428571428571,27.38095238095238,-91.34920634920634,-88.4920634920635,-124.68253968253967,51.98412698412698,64.68253968253968,-35.476190476190474,65.0,-111.5079365079365,-120.87301587301586,0.3968253968253968,-0.23809523809523808,-166.26984126984127
104.52380952380952,8.015873015873016,-82.77777777777777,22.619047619047617,55.476190476190474,4.365079365079365,-109.28571428571428,-65.0,-38.33333333333333,-95.79365079365078,50.71428571428571,27.38095238095238,-91.34920634920634,-88.4920634920635,-124.68253968253967,51.98412698412698,64.68253968253968,-35.476190476190474,65.0,-111.5079365079365,-120.87301587301586,0.3968253968253968,-0.23809523809523808,-166.26984126984127
102.77777777777777,8.492063492063492,-82.61904761904762,21.19047619047619,54.36507936507936,4.2063492063492065,-101.5079365079365,-14.365079365079364,-40.39682539682539,-93.25396825396825,49.92063492063492,30.87301587301587,-85.95238095238095,-68.65079365079364,-108.96825396825396,60.39682539682539,63.57142857142857,-86.9047619047619,67.85714285714285,-110.07936507936508,-115.47619047619047,0.23809523809523808,-0.23809523809523808,-166.26984126984127
102.77777777777777,8.492063492063492,-82.61904761904762,21.19047619047619,54.36507936507936,4.2063492063492065,-101.5079365079365,-14.365079365079364,-40.39682539682539,-93.25396825396825,49.92063492063492,30.87301587301587,-85.95238095238095,-68.65079365079364,-108.96825396825396,60.39682539682539,63.57142857142857,-86.9047619047619,67.85714285714285,-110.07936507936508,-115.47619047619047,0.23809523809523808,-0.23809523809523808,-166.26984126984127
101.03174603174602,50.71428571428571,-96.26984126984127,41.666666666666664,53.41269841269841,4.0476190476190474,-91.98412698412697,16.11111111111111,-52.3015873015873,-81.98412698412697,49.12698412698413,43.25396825396825,-89.6031746031746,-56.74603174603174,-94.36507936507935,71.66666666666666,62.460317460317455,-50.71428571428571,76.42857142857143,-108.96825396825396,-99.6031746031746,-0.07936507936507936,-0.5555555555555556,-166.26984126984127
101.03174603174602,50.71428571428571,-96.26984126984127,41.666666666666664,53.41269841269841,4.0476190476190474,-91.98412698412697,16.11111111111111,-52.3015873015873,-81.98412698412697,49.12698412698413,43.25396825396825,-89.6031746031746,-56.74603174603174,-94.36507936507935,71.66666666666666,62.460317460317455,-50.71428571428571,76.42857142857143,-108.96825396825396,-99.6031746031746,-0.07936507936507936,-0.5555555555555556,-166.26984126984127
98.65079365079364,54.52380952380952,-71.66666666666666,41.03174603174603,52.460317460317455,4.0476190476190474,-111.03174603174602,48.80952380952381,-112.93650793650794,-71.98412698412697,48.33333333333333,48.33333333333333,-97.85714285714285,-53.41269841269841,-110.07936507936508,85.79365079365078,61.03174603174603,9.126984126984127,95.95238095238095,-131.03174603174602,-83.88888888888889,-0.23809523809523808,-0.3968253968253968,-321.8253968253968
98.65079365079364,54.52380952380952,-71.66666666666666,41.03174603174603,52.460317460317455,4.0476190476190474,-111.03174603174602,48.80952380952381,-112.93650793650794,-71.98412698412697,48.33333333333333,48.33333333333333,-97.85714285714285,-53.41269841269841,-110.07936507936508,85.79365079365078,61.03174603174603,9.126984126984127,95.95238095238095,-131.03174603174602,-83.88888888888889,-0.23809523809523808,-0.3968253968253968,-321.8253968253968
97.38095238095238,8.65079365079365,-78.80952380952381,37.857142857142854,51.98412698412698,4.523809523809524,-128.17460317460316,28.49206349206349,-127.6984126984127,-76.9047619047619,47.857142857142854,25.79365079365079,-117.6984126984127,-72.46031746031746,-147.53968253968253,69.12698412698413,59.92063492063492,7.3809523809523805,85.47619047619047,-128.8095238095238,-91.98412698412697,1.1904761904761905,0.23809523809523808,-321.8253968253968
97.38095238095238,8.65079365079365,-78.80952380952381,37.857142857142854,51.98412698412698,4.523809523809524,-128.17460317460316,28.49206349206349,-127.6984126984127,-76.9047619047619,47.857142857142854,25.79365079365079,-117.6984126984127,-72.46031746031746,-147.53968253968253,69.12698412698413,59.92063492063492,7.3809523809523805,85.47619047619047,-128.8095238095238,-91.98412698412697,1.1904761904761905,0.23809523809523808,-321.8253968253968
97.38095238095238,8.65079365079365,-78.80952380952381,37.857142857142854,51.98412698412698,4.523809523809524,-128.17460317460316,28.49206349206349,-127.6984126984127,-76.9047619047619,47.857142857142854,25.79365079365079,-117.6984126984127,-72.46031746031746,-147.53968253968253,69.12698412698413,59.92063492063492,7.3809523809523805,85.47619047619047,-128.8095238095238,-91.98412698412697,1.1904761904761905,0.23809523809523808,-321.8253968253968
97.38095238095238,8.65079365079365,-78.80952380952381,37.857142857142854,51.98412698412698,4.523809523809524,-128.17460317460316,28.49206349206349,-127.6984126984127,-76.9047619047619,47.857142857142854,25.79365079365079,-117.6984126984127,-72.46031746031746,-147.53968253968253,69.12698412698413,59.92063492063492,7.3809523809523805,85.47619047619047,-128.8095238095238,-91.98412698412697,1.1904761904761905,0.23809523809523808,-321.8253968253968
97.38095238095238,8.65079365079365,-78.80952380952381,37.857142857142854,51.98412698412698,4.523809523809524,-128.17460317460316,28.49206349206349,-127.6984126984127,-76.9047619047619,47.857142857142854,25.79365079365079,-117.6984126984127,-72.46031746031746,-147.53968253968253,69.12698412698413,59.92063492063492,7.3809523809523805,85.47619047619047,-128.8095238095238,-91.98412698412697,1.1904761904761905,0.23809523809523808,-321.8253968253968
97.38095238095238,8.65079365079365,-78.80952380952381,37.857142857142854,51.98412698412698,4.523809523809524,-128.17460317460316,28.49206349206349,-127.6984126984127,-76.9047619047619,47.857142857142854,25.79365079365079,-117.6984126984127,-72.46031746031746,-147.53968253968253,69.12698412698413,59.92063492063492,7.3809523809523805,85.47619047619047,-128.8095238095238,-91.98412698412697,1.1904761904761905,0.23809523809523808,-321.8253968253968
97.38095238095238,8.65079365079365,-78.80952380952381,37.857142857142854,51.98412698412698,4.523809523809524,-128.17460317460316,28.49206349206349,-127.6984126984127,-76.9047619047619,47.857142857142854,25.79365079365079,-117.6984126984127,-72.46031746031746,-147.53968253968253,69.12698412698413,59.92063492063492,7.3809523809523805,85.47619047619047,-128.8095238095238,-91.98412698412697,1.1904761904761905,0.23809523809523808,-321.8253968253968
97.38095238095238,8.65079365079365,-78.80952380952381,37.857142857142854,51.98412698412698,4.523809523809524,-128.17460317460316,28.49206349206349,-127.6984126984127,-76.9047619047619,47.857142857142854,25.79365079365079,-117.6984126984127,-72.46031746031746,-147.53968253968253,69.12698412698413,59.92063492063492,7.3809523809523805,85.47619047619047,-128.8095238095238,-91.98412698412697,1.1904761904761905,0.23809523809523808,-321.8253968253968
90.71428571428571,114.68253968253967,-159.9206349206349,80.07936507936508,48.33333333333333,4.2063492063492065,-129.6031746031746,-1.507936507936508,-129.6031746031746,-83.4126984126984,44.68253968253968,40.87301587301587,-127.22222222222221,-62.93650793650793,-150.07936507936506,67.06349206349206,55.95238095238095,6.746031746031746,63.25396825396825,-124.52380952380952,-91.34920634920634,-1.349206349206349,0.5555555555555556,-166.26984126984127
90.71428571428571,114.68253968253967,-159.9206349206349,80.07936507936508,48.33333333333333,4.2063492063492065,-129.6031746031746,-1.507936507936508,-129.6031746031746,-83.4126984126984,44.68253968253968,40.87301587301587,-127.22222222222221,-62.93650793650793,-150.07936507936506,67.06349206349206,55.95238095238095,6.746031746031746,63.25396825396825,-124.52380952380952,-91.34920634920634,-1.349206349206349,0.5555555555555556,-166.26984126984127
89.44444444444444,95.47619047619047,-96.9047619047619,96.42857142857142,47.698412698412696,4.0476190476190474,-115.47619047619047,23.253968253968253,-128.33333333333331,-65.47619047619047,43.888888888888886,67.38095238095238,-106.58730158730158,-33.57142857142857,-131.19047619047618,99.28571428571428,55.317460317460316,6.587301587301587,101.19047619047619,-130.55555555555554,-72.3015873015873,-1.349206349206349,-0.23809523809523808,-166.26984126984127
89.44444444444444,95.47619047619047,-96.9047619047619,96.42857142857142,47.698412698412696,4.0476190476190474,-115.47619047619047,23.253968253968253,-128.33333333333331,-65.47619047619047,43.888888888888886,67.38095238095238,-106.58730158730158,-33.57142857142857,-131.19047619047618,99.28571428571428,55.317460317460316,6.587301587301587,101.19047619047619,-130.55555555555554,-72.3015873015873,-1.349206349206349,-0.23809523809523808,-166.26984126984127
87.53968253968253,62.3015873015873,-41.666666666666664,91.82539682539682,46.58730158730158,3.73015873015873,-104.52380952380952,25.158730158730158,-127.22222222222221,-62.61904761904761,42.77777777777778,68.4920634920635,-97.22222222222221,-25.79365079365079,-117.6984126984127,104.84126984126983,54.2063492063492,6.428571428571428,118.49206349206348,-125.47619047619047,-61.82539682539682,-1.0317460317460316,-1.1904761904761905,-166.26984126984127
87.53968253968253,62.3015873015873,-41.666666666666664,91.82539682539682,46.58730158730158,3.73015873015873,-104.52380952380952,25.158730158730158,-127.22222222222221,-62.61904761904761,42.77777777777778,68.4920634920635,-97.22222222222221,-25.79365079365079,-117.6984126984127,104.84126984126983,54.2063492063492,6.428571428571428,118.49206349206348,-125.47619047619047,-61.82539682539682,-1.0317460317460316,-1.1904761904761905,-166.26984126984127
85.63492063492063,51.03174603174603,-55.0,45.317460317460316,45.63492063492063,3.73015873015873,-98.65079365079364,-16.904761904761905,-120.55555555555554,-96.26984126984127,42.14285714285714,35.15873015873016,-114.52380952380952,-48.80952380952381,-117.53968253968253,69.44444444444444,52.93650793650794,5.317460317460317,81.5079365079365,-102.14285714285714,-85.79365079365078,0.07936507936507936,0.3968253968253968,-166.26984126984127
85.63492063492063,51.03174603174603,-55.0,45.317460317460316,45.63492063492063,3.73015873015873,-98.65079365079364,-16.904761904761905,-120.55555555555554,-96.26984126984127,42.14285714285714,35.15873015873016,-114.52380952380952,-48.80952380952381,-117.53968253968253,69.44444444444444,52.93650793650794,5.317460317460317,81.5079365079365,-102.14285714285714,-85.79365079365078,0.07936507936507936,0.3968253968253968,-166.26984126984127
84.04761904761904,42.93650793650794,-56.58730158730158,52.93650793650794,44.84126984126984,3.73015873015873,-109.28571428571428,-13.888888888888888,-130.23809523809524,-87.85714285714285,41.507936507936506,40.55555555555555,-112.77777777777777,-46.11111111111111,-129.6031746031746,66.11111111111111,51.98412698412698,5.952380952380952,90.07936507936508,-121.34920634920634,-84.52380952380952,-0.873015873015873,-0.23809523809523808,-166.26984126984127
84.04761904761904,42.93650793650794,-56.58730158730158,52.93650793650794,44.84126984126984,3.73015873015873,-109.28571428571428,-13.888888888888888,-130.23809523809524,-87.85714285714285,41.507936507936506,40.55555555555555,-112.77777777777777,-46.11111111111111,-129.6031746031746,66.11111111111111,51.98412698412698,5.952380952380952,90.07936507936508,-121.34920634920634,-84.52380952380952,-0.873015873015873,-0.23809523809523808,-166.26984126984127
82.61904761904762,96.42857142857142,-114.68253968253967,85.47619047619047,44.2063492063492,3.73015873015873,-112.46031746031746,-19.444444444444443,-131.03174603174602,-95.47619047619047,40.714285714285715,45.95238095238095,-94.52380952380952,-66.42857142857143,-122.30158730158729,63.73015873015873,51.03174603174603,6.111111111111111,80.87301587301587,-118.33333333333333,-66.9047619047619,-0.7142857142857142,-0.5555555555555556,-321.8253968253968
82.61904761904762,96.42857142857142,-114.68253968253967,85.47619047619047,44.2063492063492,3.73015873015873,-112.46031746031746,-19.444444444444443,-131.03174603174602,-95.47619047619047,40.714285714285715,45.95238095238095,-94.52380952380952,-66.42857142857143,-122.30158730158729,63.73015873015873,51.03174603174603,6.111111111111111,80.87301587301587,-118.33333333333333,-66.9047619047619,-0.7142857142857142,-0.5555555555555556,-321.8253968253968
81.03174603174602,76.42857142857143,-102.93650793650794,70.87301587301587,43.57142857142857,3.73015873015873,-109.28571428571428,-12.46031746031746,-129.9206349206349,-85.47619047619047,40.079365079365076,61.34920634920635,-90.39682539682539,-39.12698412698413,-116.74603174603173,89.76190476190476,50.39682539682539,5.952380952380952,94.68253968253968,-123.09523809523809,-58.17460317460317,-1.0317460317460316,-0.23809523809523808,-321.8253968253968
81.03174603174602,76.42857142857143,-102.93650793650794,70.87301587301587,43.57142857142857,3.73015873015873,-109.28571428571428,-12.46031746031746,-129.9206349206349,-85.47619047619047,40.079365079365076,61.34920634920635,-90.39682539682539,-39.12698412698413,-116.74603174603173,89.76190476190476,50.39682539682539,5.952380952380952,94.68253968253968,-123.09523809523809,-58.17460317460317,-1.0317460317460316,-0.23809523809523808,-321.8253968253968
79.76190476190476,-0.7142857142857142,-13.888888888888888,75.0,42.77777777777778,3.571428571428571,-102.77777777777777,-39.44444444444444,-125.79365079365078,-99.6031746031746,39.285714285714285,30.238095238095237,-104.52380952380952,-51.507936507936506,-117.53968253968253,56.74603174603174,49.44444444444444,5.952380952380952,99.76190476190476,-113.25396825396825,-57.53968253968254,-0.07936507936507936,0.07936507936507936,-321.8253968253968
79.76190476190476,-0.7142857142857142,-13.888888888888888,75.0,42.77777777777778,3.571428571428571,-102.77777777777777,-39.44444444444444,-125.79365079365078,-99.6031746031746,39.285714285714285,30.238095238095237,-104.52380952380952,-51.507936507936506,-117.53968253968253,56.74603174603174,49.44444444444444,5.952380952380952,99.76190476190476,-113.25396825396825,-57.53968253968254,-0.07936507936507936,0.07936507936507936,-321.8253968253968
79.28571428571428,31.19047619047619,-44.2063492063492,76.74603174603175,42.77777777777778,3.571428571428571,-101.5079365079365,-42.14285714285714,-124.52380952380952,-100.23809523809523,38.96825396825397,32.460317460317455,-106.1111111111111,-49.44444444444444,-114.04761904761904,58.01587301587301,49.285714285714285,5.952380952380952,93.57142857142857,-105.63492063492063,-55.79365079365079,0.7142857142857142,0.3968253968253968,-321.8253968253968
79.28571428571428,31.19047619047619,-44.2063492063492,76.74603174603175,42.77777777777778,3.571428571428571,-101.5079365079365,-42.14285714285714,-124.52380952380952,-100.23809523809523,38.96825396825397,32.460317460317455,-106.1111111111111,-49.44444444444444,-114.04761904761904,58.01587301587301,49.285714285714285,5.952380952380952,93.57142857142857,-105.63492063492063,-55.79365079365079,0.7142857142857142,0.3968253968253968,-321.8253968253968
76.9047619047619,106.9047619047619,-123.09523809523809,63.095238095238095,41.34920634920635,3.571428571428571,-112.30158730158729,-41.98412698412698,-130.23809523809524,-100.55555555555554,38.01587301587301,65.47619047619047,-106.58730158730158,-56.904761904761905,-115.95238095238095,72.61904761904762,47.698412698412696,5.634920634920634,79.28571428571428,-110.39682539682539,-55.0,-1.6666666666666665,-1.0317460317460316,-321.8253968253968
76.9047619047619,106.9047619047619,-123.09523809523809,63.095238095238095,41.34920634920635,3.571428571428571,-112.30158730158729,-41.98412698412698,-130.23809523809524,-100.55555555555554,38.01587301587301,65.47619047619047,-106.58730158730158,-56.904761904761905,-115.95238095238095,72.61904761904762,47.698412698412696,5.634920634920634,79.28571428571428,-110.39682539682539,-55.0,-1.6666666666666665,-1.0317460317460316,-321.8253968253968
76.42857142857143,82.3015873015873,-87.38095238095238,66.74603174603175,41.34920634920635,3.571428571428571,-105.95238095238095,-37.22222222222222,-128.015873015873,-95.47619047619047,37.857142857142854,67.06349206349206,-98.49206349206348,-51.19047619047619,-104.2063492063492,82.61904761904762,47.53968253968254,5.634920634920634,93.09523809523809,-110.23809523809523,-55.63492063492063,-1.6666666666666665,-0.7142857142857142,-166.26984126984127
76.42857142857143,82.3015873015873,-87.38095238095238,66.74603174603175,41.34920634920635,3.571428571428571,-105.95238095238095,-37.22222222222222,-128.015873015873,-95.47619047619047,37.857142857142854,67.06349206349206,-98.49206349206348,-51.19047619047619,-104.2063492063492,82.61904761904762,47.53968253968254,5.634920634920634,93.09523809523809,-110.23809523809523,-55.63492063492063,-1.6666666666666665,-0.7142857142857142,-166.26984126984127
74.2063492063492,43.25396825396825,-71.5079365079365,67.38095238095238,39.92063492063492,3.4126984126984126,-113.88888888888889,-110.07936507936508,-127.38095238095238,-121.03174603174602,36.74603174603175,37.857142857142854,-111.19047619047619,-79.28571428571428,-114.84126984126983,39.76190476190476,46.269841269841265,5.476190476190476,75.95238095238095,-101.5079365079365,-51.19047619047619,-0.7142857142857142,-0.5555555555555556,-166.26984126984127
74.2063492063492,43.25396825396825,-71.5079365079365,67.38095238095238,39.92063492063492,3.4126984126984126,-113.88888888888889,-110.07936507936508,-127.38095238095238,-121.03174603174602,36.74603174603175,37.857142857142854,-111.19047619047619,-79.28571428571428,-114.84126984126983,39.76190476190476,46.269841269841265,5.476190476190476,75.95238095238095,-101.5079365079365,-51.19047619047619,-0.7142857142857142,-0.5555555555555556,-166.26984126984127
72.93650793650794,142.14285714285714,-129.76190476190476,73.88888888888889,39.285714285714285,3.571428571428571,-109.12698412698413,-159.9206349206349,-122.77777777777777,-112.30158730158729,36.269841269841265,48.01587301587301,-101.34920634920634,-66.58730158730158,-107.6984126984127,56.269841269841265,45.317460317460316,5.317460317460317,75.47619047619047,-112.6190476190476,-38.80952380952381,-1.0317460317460316,-0.07936507936507936,-166.26984126984127
72.93650793650794,142.14285714285714,-129.76190476190476,73.88888888888889,39.285714285714285,3.571428571428571,-109.12698412698413,-159.9206349206349,-122.77777777777777,-112.30158730158729,36.269841269841265,48.01587301587301,-101.34920634920634,-66.58730158730158,-107.6984126984127,56.269841269841265,45.317460317460316,5.317460317460317,75.47619047619047,-112.6190476190476,-38.80952380952381,-1.0317460317460316,-0.07936507936507936,-166.26984126984127
71.34920634920634,85.31746031746032,-71.19047619047619,58.49206349206349,38.65079365079365,3.4126984126984126,-103.4126984126984,-163.88888888888889,-115.47619047619047,-123.09523809523809,35.63492063492063,50.55555555555555,-100.23809523809523,-64.36507936507937,-105.95238095238095,50.55555555555555,44.2063492063492,5.158730158730158,81.82539682539682,-108.65079365079364,-48.96825396825397,-0.5555555555555556,-0.7142857142857142,-166.26984126984127
71.34920634920634,85.31746031746032,-71.19047619047619,58.49206349206349,38.65079365079365,3.4126984126984126,-103.4126984126984,-163.88888888888889,-115.47619047619047,-123.09523809523809,35.63492063492063,50.55555555555555,-100.23809523809523,-64.36507936507937,-105.95238095238095,50.55555555555555,44.2063492063492,5.158730158730158,81.82539682539682,-108.65079365079364,-48.96825396825397,-0.5555555555555556,-0.7142857142857142,-166.26984126984127
69.76190476190476,58.01587301587301,-54.841269841269835,64.04761904761905,37.698412698412696,3.4126984126984126,-108.80952380952381,-162.46031746031744,-115.31746031746032,-120.55555555555554,34.682539682539684,52.3015873015873,-98.96825396825396,-84.36507936507937,-115.0,48.96825396825397,43.41269841269841,5.158730158730158,86.42857142857143,-109.76190476190476,-57.06349206349206,-1.1904761904761905,-0.7142857142857142,-166.26984126984127
69.76190476190476,58.01587301587301,-54.841269841269835,64.04761904761905,37.698412698412696,3.4126984126984126,-108.80952380952381,-162.46031746031744,-115.31746031746032,-120.55555555555554,34.682539682539684,52.3015873015873,-98.96825396825396,-84.36507936507937,-115.0,48.96825396825397,43.41269841269841,5.158730158730158,86.42857142857143,-109.76190476190476,-57.06349206349206,-1.1904761904761905,-0.7142857142857142,-166.26984126984127
68.4920634920635,76.9047619047619,-77.53968253968253,62.93650793650793,37.06349206349206,3.4126984126984126,-106.26984126984127,-131.34920634920636,-115.95238095238095,-118.17460317460316,34.2063492063492,52.77777777777777,-87.38095238095238,-72.14285714285714,-104.52380952380952,49.76190476190476,42.77777777777778,5.0,89.76190476190476,-103.25396825396825,-43.73015873015873,-0.3968253968253968,-0.3968253968253968,-321.8253968253968
68.4920634920635,76.9047619047619,-77.53968253968253,62.93650793650793,37.06349206349206,3.4126984126984126,-106.26984126984127,-131.34920634920636,-115.95238095238095,-118.17460317460316,34.2063492063492,52.77777777777777,-87.38095238095238,-72.14285714285714,-104.52380952380952,49.76190476190476,42.77777777777778,5.0,89.76190476190476,-103.25396825396825,-43.73015873015873,-0.3968253968253968,-0.3968253968253968,-321.8253968253968
68.33333333333333,88.33333333333333,-82.61904761904762,69.92063492063491,36.904761904761905,3.571428571428571,-109.6031746031746,-108.65079365079364,-117.38095238095238,-112.14285714285714,34.2063492063492,53.888888888888886,-93.25396825396825,-67.38095238095238,-109.92063492063491,50.238095238095234,42.460317460317455,5.0,91.19047619047619,-105.0,-38.01587301587301,-0.3968253968253968,-0.5555555555555556,-321.8253968253968
68.33333333333333,88.33333333333333,-82.61904761904762,69.92063492063491,36.904761904761905,3.571428571428571,-109.6031746031746,-108.65079365079364,-117.38095238095238,-112.14285714285714,34.2063492063492,53.888888888888886,-93.25396825396825,-67.38095238095238,-109.92063492063491,50.238095238095234,42.460317460317455,5.0,91.19047619047619,-105.0,-38.01587301587301,-0.3968253968253968,-0.5555555555555556,-321.8253968253968
68.33333333333333,88.33333333333333,-82.61904761904762,69.92063492063491,36.904761904761905,3.571428571428571,-109.6031746031746,-108.65079365079364,-117.38095238095238,-112.14285714285714,34.2063492063492,53.888888888888886,-93.25396825396825,-67.38095238095238,-109.92063492063491,50.238095238095234,42.460317460317455,5.0,91.19047619047619,-105.0,-38.01587301587301,-0.3968253968253968,-0.5555555555555556,-321.8253968253968
68.33333333333333,88.33333333333333,-82.61904761904762,69.92063492063491,36.904761904761905,3.571428571428571,-109.6031746031746,-108.65079365079364,-117.38095238095238,-112.14285714285714,34.2063492063492,53.888888888888886,-93.25396825396825,-67.38095238095238,-109.92063492063491,50.238095238095234,42.460317460317455,5.0,91.19047619047619,-105.0,-38.01587301587301,-0.3968253968253968,-0.5555555555555556,-321.8253968253968
65.15873015873015,85.63492063492063,-74.68253968253968,67.22222222222221,35.63492063492063,3.095238095238095,-118.33333333333333,-48.33333333333333,-120.39682539682539,-114.84126984126983,32.460317460317455,58.96825396825397,-93.09523809523809,-75.63492063492063,-109.28571428571428,40.714285714285715,40.87301587301587,4.841269841269841,88.01587301587301,-104.52380952380952,-32.3015873015873,-1.349206349206349,-1.984126984126984,-321.8253968253968
65.15873015873015,85.63492063492063,-74.68253968253968,67.22222222222221,35.63492063492063,3.095238095238095,-118.33333333333333,-48.33333333333333,-120.39682539682539,-114.84126984126983,32.460317460317455,58.96825396825397,-93.09523809523809,-75.63492063492063,-109.28571428571428,40.714285714285715,40.87301587301587,4.841269841269841,88.01587301587301,-104.52380952380952,-32.3015873015873,-1.349206349206349,-1.984126984126984,-321.8253968253968
65.15873015873015,85.63492063492063,-74.68253968253968,67.22222222222221,35.63492063492063,3.095238095238095,-118.33333333333333,-48.33333333333333,-120.39682539682539,-114.84126984126983,32.460317460317455,58.96825396825397,-93.09523809523809,-75.63492063492063,-109.28571428571428,40.714285714285715,40.87301587301587,4.841269841269841,88.01587301587301,-104.52380952380952,-32.3015873015873,-1.349206349206349,-1.984126984126984,-321.8253968253968
65.15873015873015,85.63492063492063,-74.68253968253968,67.22222222222221,35.63492063492063,3.095238095238095,-118.33333333333333,-48.33333333333333,-120.39682539682539,-114.84126984126983,32.460317460317455,58.96825396825397,-93.09523809523809,-75.63492063492063,-109.28571428571428,40.714285714285715,40.87301587301587,4.841269841269841,88.01587301587301,-104.52380952380952,-32.3015873015873,-1.349206349206349,-1.984126984126984,-321.8253968253968
62.93650793650793,82.46031746031746,-66.58730158730158,74.2063492063492,34.047619047619044,3.095238095238095,-120.55555555555554,-119.44444444444444,-124.36507936507935,-119.76190476190476,31.349206349206348,52.61904761904761,-108.17460317460316,-81.5079365079365,-111.34920634920634,47.53968253968254,39.12698412698413,4.682539682539682,83.25396825396825,-95.63492063492063,-21.666666666666664,-0.07936507936507936,-0.3968253968253968,-166.26984126984127
62.93650793650793,82.46031746031746,-66.58730158730158,74.2063492063492,34.047619047619044,3.095238095238095,-120.55555555555554,-119.44444444444444,-124.36507936507935,-119.76190476190476,31.349206349206348,52.61904761904761,-108.17460317460316,-81.5079365079365,-111.34920634920634,47.53968253968254,39.12698412698413,4.682539682539682,83.25396825396825,-95.63492063492063,-21.666666666666664,-0.07936507936507936,-0.3968253968253968,-166.26984126984127
62.77777777777777,88.17460317460316,-78.17460317460316,70.07936507936508,33.888888888888886,3.253968253968254,-129.9206349206349,-120.23809523809523,-129.44444444444443,-124.68253968253967,31.349206349206348,59.44444444444444,-119.6031746031746,-76.1111111111111,-122.30158730158729,38.65079365079365,38.96825396825397,4.682539682539682,74.84126984126983,-91.34920634920634,-16.11111111111111,0.873015873015873,-0.07936507936507936,-166.26984126984127
62.77777777777777,88.17460317460316,-78.17460317460316,70.07936507936508,33.888888888888886,3.253968253968254,-129.9206349206349,-120.23809523809523,-129.44444444444443,-124.68253968253967,31.349206349206348,59.44444444444444,-119.6031746031746,-76.1111111111111,-122.30158730158729,38.65079365079365,38.96825396825397,4.682539682539682,74.84126984126983,-91.34920634920634,-16.11111111111111,0.873015873015873,-0.07936507936507936,-166.26984126984127
62.77777777777777,88.17460317460316,-78.17460317460316,70.07936507936508,33.888888888888886,3.253968253968254,-129.9206349206349,-120.23809523809523,-129.44444444444443,-124.68253968253967,31.349206349206348,59.44444444444444,-119.6031746031746,-76.1111111111111,-122.30158730158729,38.65079365079365,38.96825396825397,4.682539682539682,74.84126984126983,-91.34920634920634,-16.11111111111111,0.873015873015873,-0.07936507936507936,-166.26984126984127
62.77777777777777,88.17460317460316,-78.17460317460316,70.07936507936508,33.888888888888886,3.253968253968254,-129.9206349206349,-120.23809523809523,-129.44444444444443,-124.68253968253967,31.349206349206348,59.44444444444444,-119.6031746031746,-76.1111111111111,-122.30158730158729,38.65079365079365,38.96825396825397,4.682539682539682,74.84126984126983,-91.34920634920634,-16.11111111111111,0.873015873015873,-0.07936507936507936,-166.26984126984127
59.92063492063492,103.88888888888889,-82.93650793650794,65.47619047619047,32.460317460317455,2.7777777777777777,-125.0,-120.23809523809523,-128.96825396825395,-125.31746031746032,29.76190476190476,56.74603174603174,-111.5079365079365,-104.04761904761904,-115.0,31.98412698412698,37.38095238095238,4.365079365079365,76.26984126984127,-110.71428571428571,-12.777777777777777,0.23809523809523808,0.5555555555555556,-166.26984126984127
59.92063492063492,103.88888888888889,-82.93650793650794,65.47619047619047,32.460317460317455,2.7777777777777777,-125.0,-120.23809523809523,-128.96825396825395,-125.31746031746032,29.76190476190476,56.74603174603174,-111.5079365079365,-104.04761904761904,-115.0,31.98412698412698,37.38095238095238,4.365079365079365,76.26984126984127,-110.71428571428571,-12.777777777777777,0.23809523809523808,0.5555555555555556,-166.26984126984127
59.92063492063492,103.88888888888889,-82.93650793650794,65.47619047619047,32.460317460317455,2.7777777777777777,-125.0,-120.23809523809523,-128.96825396825395,-125.31746031746032,29.76190476190476,56.74603174603174,-111.5079365079365,-104.04761904761904,-115.0,31.98412698412698,37.38095238095238,4.365079365079365,76.26984126984127,-110.71428571428571,-12.777777777777777,0.23809523809523808,0.5555555555555556,-166.26984126984127
59.92063492063492,103.88888888888889,-82.93650793650794,65.47619047619047,32.460317460317455,2.7777777777777777,-125.0,-120.23809523809523,-128.96825396825395,-125.31746031746032,29.76190476190476,56.74603174603174,-111.5079365079365,-104.04761904761904,-115.0,31.98412698412698,37.38095238095238,4.365079365079365,76.26984126984127,-110.71428571428571,-12.777777777777777,0.23809523809523808,0.5555555555555556,-166.26984126984127
59.92063492063492,103.88888888888889,-82.93650793650794,65.47619047619047,32.460317460317455,2.7777777777777777,-125.0,-120.23809523809523,-128.96825396825395,-125.31746031746032,29.76190476190476,56.74603174603174,-111.5079365079365,-104.04761904761904,-115.0,31.98412698412698,37.38095238095238,4.365079365079365,76.26984126984127,-110.71428571428571,-12.777777777777777,0.23809523809523808,0.5555555555555556,-321.8253968253968
59.92063492063492,103.88888888888889,-82.93650793650794,65.47619047619047,32.460317460317455,2.7777777777777777,-125.0,-120.23809523809523,-128.96825396825395,-125.31746031746032,29.76190476190476,56.74603174603174,-111.5079365079365,-104.04761904761904,-115.0,31.98412698412698,37.38095238095238,4.365079365079365,76.26984126984127,-110.71428571428571,-12.777777777777777,0.23809523809523808,0.5555555555555556,-321.8253968253968
59.92063492063492,103.88888888888889,-82.93650793650794,65.47619047619047,32.460317460317455,2.7777777777777777,-125.0,-120.23809523809523,-128.96825396825395,-125.31746031746032,29.76190476190476,56.74603174603174,-111.5079365079365,-104.04761904761904,-115.0,31.98412698412698,37.38095238095238,4.365079365079365,76.26984126984127,-110.71428571428571,-12.777777777777777,0.23809523809523808,0.5555555555555556,-321.8253968253968
59.92063492063492,103.88888888888889,-82.93650793650794,65.47619047619047,32.460317460317455,2.7777777777777777,-125.0,-120.23809523809523,-128.96825396825395,-125.31746031746032,29.76190476190476,56.74603174603174,-111.5079365079365,-104.04761904761904,-115.0,31.98412698412698,37.38095238095238,4.365079365079365,76.26984126984127,-110.71428571428571,-12.777777777777777,0.23809523809523808,0.5555555555555556,-321.8253968253968
59.92063492063492,103.88888888888889,-82.93650793650794,65.47619047619047,32.460317460317455,2.7777777777777777,-125.0,-120.23809523809523,-128.96825396825395,-125.31746031746032,29.76190476190476,56.74603174603174,-111.5079365079365,-104.04761904761904,-115.0,31.98412698412698,37.38095238095238,4.365079365079365,76.26984126984127,-110.71428571428571,-12.777777777777777,0.23809523809523808,0.5555555555555556,-321.8253968253968
59.92063492063492,103.88888888888889,-82.93650793650794,65.47619047619047,32.460317460317455,2.7777777777777777,-125.0,-120.23809523809523,-128.96825396825395,-125.31746031746032,29.76190476190476,56.74603174603174,-111.5079365079365,-104.04761904761904,-115.0,31.98412698412698,37.38095238095238,4.365079365079365,76.26984126984127,-110.71428571428571,-12.777777777777777,0.23809523809523808,0.5555555555555556,-321.8253968253968
59.92063492063492,103.88888888888889,-82.93650793650794,65.47619047619047,32.460317460317455,2.7777777777777777,-125.0,-120.23809523809523,-128.96825396825395,-125.31746031746032,29.76190476190476,56.74603174603174,-111.5079365079365,-104.04761904761904,-115.0,31.98412698412698,37.38095238095238,4.365079365079365,76.26984126984127,-110.71428571428571,-12.777777777777777,0.23809523809523808,0.5555555555555556,-321.8253968253968
59.92063492063492,103.88888888888889,-82.93650793650794,65.47619047619047,32.460317460317455,2.7777777777777777,-125.0,-120.23809523809523,-128.96825396825395,-125.31746031746032,29.76190476190476,56.74603174603174,-111.5079365079365,-104.04761904761904,-115.0,31.98412698412698,37.38095238095238,4.365079365079365,76.26984126984127,-110.71428571428571,-12.777777777777777,0.23809523809523808,0.5555555555555556,-321.8253968253968
59.92063492063492,103.88888888888889,-82.93650793650794,65.47619047619047,32.460317460317455,2.7777777777777777,-125.0,-120.23809523809523,-128.96825396825395,-125.31746031746032,29.76190476190476,56.74603174603174,-111.5079365079365,-104.04761904761904,-115.0,31.98412698412698,37.38095238095238,4.365079365079365,76.26984126984127,-110.71428571428571,-12.777777777777777,0.23809523809523808,0.5555555555555556,-321.8253968253968
59.92063492063492,103.88888888888889,-82.93650793650794,65.47619047619047,32.460317460317455,2.7777777777777777,-125.0,-120.23809523809523,-128.96825396825395,-125.31746031746032,29.76190476190476,56.74603174603174,-111.5079365079365,-104.04761904761904,-115.0,31.98412698412698,37.38095238095238,4.365079365079365,76.26984126984127,-110.71428571428571,-12.777777777777777,0.23809523809523808,0.5555555555555556,-321.8253968253968
59.92063492063492,103.88888888888889,-82.93650793650794,65.47619047619047,32.460317460317455,2.7777777777777777,-125.0,-120.23809523809523,-128.96825396825395,-125.31746031746032,29.76190476190476,56.74603174603174,-111.5079365079365,-104.04761904761904,-115.0,31.98412698412698,37.38095238095238,4.365079365079365,76.26984126984127,-110.71428571428571,-12.777777777777777,0.23809523809523808,0.5555555555555556,-166.26984126984127
59.92063492063492,103.88888888888889,-82.93650793650794,65.47619047619047,32.460317460317455,2.7777777777777777,-125.0,-120.23809523809523,-128.96825396825395,-125.31746031746032,29.76190476190476,56.74603174603174,-111.5079365079365,-104.04761904761904,-115.0,31.98412698412698,37.38095238095238,4.365079365079365,76.26984126984127,-110.71428571428571,-12.777777777777777,0.23809523809523808,0.5555555555555556,-166.26984126984127
59.92063492063492,103.88888888888889,-82.93650793650794,65.47619047619047,32.460317460317455,2.7777777777777777,-125.0,-120.23809523809523,-128.96825396825395,-125.31746031746032,29.76190476190476,56.74603174603174,-111.5079365079365,-104.04761904761904,-115.0,31.98412698412698,37.38095238095238,4.365079365079365,76.26984126984127,-110.71428571428571,-12.777777777777777,0.23809523809523808,0.5555555555555556,-166.26984126984127
59.92063492063492,103.88888888888889,-82.93650793650794,65.47619047619047,32.460317460317455,2.7777777777777777,-125.0,-120.23809523809523,-128.96825396825395,-125.31746031746032,29.76190476190476,56.74603174603174,-111.5079365079365,-104.04761904761904,-115.0,31.98412698412698,37.38095238095238,4.365079365079365,76.26984126984127,-110.71428571428571,-12.777777777777777,0.23809523809523808,0.5555555555555556,-166.26984126984127
59.92063492063492,103.88888888888889,-82.93650793650794,65.47619047619047,32.460317460317455,2.7777777777777777,-125.0,-120.23809523809523,-128.96825396825395,-125.31746031746032,29.76190476190476,56.74603174603174,-111.5079365079365,-104.04761904761904,-115.0,31.98412698412698,37.38095238095238,4.365079365079365,76.26984126984127,-110.71428571428571,-12.777777777777777,0.23809523809523808,0.5555555555555556,-166.26984126984127
59.92063492063492,103.88888888888889,-82.93650793650794,65.47619047619047,32.460317460317455,2.7777777777777777,-125.0,-120.23809523809523,-128.96825396825395,-125.31746031746032,29.76190476190476,56.74603174603174,-111.5079365079365,-104.04761904761904,-115.0,31.98412698412698,37.38095238095238,4.365079365079365,76.26984126984127,-110.71428571428571,-12.777777777777777,0.23809523809523808,0.5555555555555556,-166.26984126984127
59.92063492063492,103.88888888888889,-82.93650793650794,65.47619047619047,32.460317460317455,2.7777777777777777,-125.0,-120.23809523809523,-128.96825396825395,-125.31746031746032,29.76190476190476,56.74603174603174,-111.5079365079365,-104.04761904761904,-115.0,31.98412698412698,37.38095238095238,4.365079365079365,76.26984126984127,-110.71428571428571,-12.777777777777777,0.23809523809523808,0.5555555555555556,-166.26984126984127
59.92063492063492,103.88888888888889,-82.93650793650794,65.47619047619047,32.460317460317455,2.7777777777777777,-125.0,-120.23809523809523,-128.96825396825395,-125.31746031746032,29.76190476190476,56.74603174603174,-111.5079365079365,-104.04761904761904,-115.0,31.98412698412698,37.38095238095238,4.365079365079365,76.26984126984127,-110.71428571428571,-12.777777777777777,0.23809523809523808,0.5555555555555556,-166.26984126984127
59.92063492063492,103.88888888888889,-82.93650793650794,65.47619047619047,32.460317460317455,2.7777777777777777,-125.0,-120.23809523809523,-128.96825396825395,-125.31746031746032,29.76190476190476,56.74603174603174,-111.5079365079365,-104.04761904761904,-115.0,31.98412698412698,37.38095238095238,4.365079365079365,76.26984126984127,-110.71428571428571,-12.777777777777777,0.23809523809523808,0.5555555555555556,-166.26984126984127
59.92063492063492,103.88888888888889,-82.93650793650794,65.47619047619047,32.460317460317455,2.7777777777777777,-125.0,-120.23809523809523,-128.96825396825395,-125.31746031746032,29.76190476190476,56.74603174603174,-111.5079365079365,-104.04761904761904,-115.0,31.98412698412698,37.38095238095238,4.365079365079365,76.26984126984127,-110.71428571428571,-12.777777777777777,0.23809523809523808,0.5555555555555556,-166.26984126984127
59.92063492063492,103.88888888888889,-82.93650793650794,65.47619047619047,32.460317460317455,2.7777777777777777,-125.0,-120.23809523809523,-128.96825396825395,-125.31746031746032,29.76190476190476,56.74603174603174,-111.5079365079365,-104.04761904761904,-115.0,31.98412698412698,37.38095238095238,4.365079365079365,76.26984126984127,-110.71428571428571,-12.777777777777777,0.23809523809523808,0.5555555555555556,-321.8253968253968
59.92063492063492,103.88888888888889,-82.93650793650794,65.47619047619047,32.460317460317455,2.7777777777777777,-125.0,-120.23809523809523,-128.96825396825395,-125.31746031746032,29.76190476190476,56.74603174603174,-111.5079365079365,-104.04761904761904,-115.0,31.98412698412698,37.38095238095238,4.365079365079365,76.26984126984127,-110.71428571428571,-12.777777777777777,0.23809523809523808,0.5555555555555556,-321.8253968253968
59.92063492063492,103.88888888888889,-82.93650793650794,65.47619047619047,32.460317460317455,2.7777777777777777,-125.0,-120.23809523809523,-128.96825396825395,-125.31746031746032,29.76190476190476,56.74603174603174,-111.5079365079365,-104.04761904761904,-115.0,31.98412698412698,37.38095238095238,4.365079365079365,76.26984126984127,-110.71428571428571,-12.777777777777777,0.23809523809523808,0.5555555555555556,-321.8253968253968
59.92063492063492,103.88888888888889,-82.93650793650794,65.47619047619047,32.460317460317455,2.7777777777777777,-125.0,-120.23809523809523,-128.96825396825395,-125.31746031746032,29.76190476190476,56.74603174603174,-111.5079365079365,-104.04761904761904,-115.0,31.98412698412698,37.38095238095238,4.365079365079365,76.26984126984127,-110.71428571428571,-12.777777777777777,0.23809523809523808,0.5555555555555556,-321.8253968253968
59.92063492063492,103.88888888888889,-82.93650793650794,65.47619047619047,32.460317460317455,2.7777777777777777,-125.0,-120.23809523809523,-128.96825396825395,-125.31746031746032,29.76190476190476,56.74603174603174,-111.5079365079365,-104.04761904761904,-115.0,31.98412698412698,37.38095238095238,4.365079365079365,76.26984126984127,-110.71428571428571,-12.777777777777777,0.23809523809523808,0.5555555555555556,-321.8253968253968
59.92063492063492,103.88888888888889,-82.93650793650794,65.47619047619047,32.460317460317455,2.7777777777777777,-125.0,-120.23809523809523,-128.96825396825395,-125.31746031746032,29.76190476190476,56.74603174603174,-111.5079365079365,-104.04761904761904,-115.0,31.98412698412698,37.38095238095238,4.365079365079365,76.26984126984127,-110.71428571428571,-12.777777777777777,0.23809523809523808,0.5555555555555556,-321.8253968253968
59.92063492063492,103.88888888888889,-82.93650793650794,65.47619047619047,32.460317460317455,2.7777777777777777,-125.0,-120.23809523809523,-128.96825396825395,-125.31746031746032,29.76190476190476,56.74603174603174,-111.5079365079365,-104.04761904761904,-115.0,31.98412698412698,37.38095238095238,4.365079365079365,76.26984126984127,-110.71428571428571,-12.777777777777777,0.23809523809523808,0.5555555555555556,-321.8253968253968
59.92063492063492,103.88888888888889,-82.93650793650794,65.47619047619047,32.460317460317455,2.7777777777777777,-125.0,-120.23809523809523,-128.96825396825395,-125.31746031746032,29.76190476190476,56.74603174603174,-111.5079365079365,-104.04761904761904,-115.0,31.98412698412698,37.38095238095238,4.365079365079365,76.26984126984127,-110.71428571428571,-12.777777777777777,0.23809523809523808,0.5555555555555556,-321.8253968253968
59.92063492063492,103.88888888888889,-82.93650793650794,65.47619047619047,32.460317460317455,2.7777777777777777,-125.0,-120.23809523809523,-128.96825396825395,-125.31746031746032,29.76190476190476,56.74603174603174,-111.5079365079365,-104.04761904761904,-115.0,31.98412698412698,37.38095238095238,4.365079365079365,76.26984126984127,-110.71428571428571,-12.777777777777777,0.23809523809523808,0.5555555555555556,-321.8253968253968
59.92063492063492,103.88888888888889,-82.93650793650794,65.47619047619047,32.460317460317455,2.7777777777777777,-125.0,-120.23809523809523,-128.96825396825395,-125.31746031746032,29.76190476190476,56.74603174603174,-111.5079365079365,-104.04761904761904,-115.0,31.98412698412698,37.38095238095238,4.365079365079365,76.26984126984127,-110.71428571428571,-12.777777777777777,0.23809523809523808,0.5555555555555556,-321.8253968253968
59.92063492063492,103.88888888888889,-82.93650793650794,65.47619047619047,32.460317460317455,2.7777777777777777,-125.0,-120.23809523809523,-128.96825396825395,-125.31746031746032,29.76190476190476,56.74603174603174,-111.5079365079365,-104.04761904761904,-115.0,31.98412698412698,37.38095238095238,4.365079365079365,76.26984126984127,-110.71428571428571,-12.777777777777777,0.23809523809523808,0.5555555555555556,-166.26984126984127
59.92063492063492,103.88888888888889,-82.93650793650794,65.47619047619047,32.460317460317455,2.7777777777777777,-125.0,-120.23809523809523,-128.96825396825395,-125.31746031746032,29.76190476190476,56.74603174603174,-111.5079365079365,-104.04761904761904,-115.0,31.98412698412698,37.38095238095238,4.365079365079365,76.26984126984127,-110.71428571428571,-12.777777777777777,0.23809523809523808,0.5555555555555556,-166.26984126984127
59.92063492063492,103.88888888888889,-82.93650793650794,65.47619047619047,32.460317460317455,2.7777777777777777,-125.0,-120.23809523809523,-128.96825396825395,-125.31746031746032,29.76190476190476,56.74603174603174,-111.5079365079365,-104.04761904761904,-115.0,31.98412698412698,37.38095238095238,4.365079365079365,76.26984126984127,-110.71428571428571,-12.777777777777777,0.23809523809523808,0.5555555555555556,-166.26984126984127
59.92063492063492,103.88888888888889,-82.93650793650794,65.47619047619047,32.460317460317455,2.7777777777777777,-125.0,-120.23809523809523,-128.96825396825395,-125.31746031746032,29.76190476190476,56.74603174603174,-111.5079365079365,-104.04761904761904,-115.0,31.98412698412698,37.38095238095238,4.365079365079365,76.26984126984127,-110.71428571428571,-12.777777777777777,0.23809523809523808,0.5555555555555556,-166.26984126984127
59.92063492063492,103.88888888888889,-82.93650793650794,65.47619047619047,32.460317460317455,2.7777777777777777,-125.0,-120.23809523809523,-128.96825396825395,-125.31746031746032,29.76190476190476,56.74603174603174,-111.5079365079365,-104.04761904761904,-115.0,31.98412698412698,37.38095238095238,4.365079365079365,76.26984126984127,-110.71428571428571,-12.777777777777777,0.23809523809523808,0.5555555555555556,-166.26984126984127
59.92063492063492,103.88888888888889,-82.93650793650794,65.47619047619047,32.460317460317455,2.7777777777777777,-125.0,-120.23809523809523,-128.96825396825395,-125.31746031746032,29.76190476190476,56.74603174603174,-111.5079365079365,-104.04761904761904,-115.0,31.98412698412698,37.38095238095238,4.365079365079365,76.26984126984127,-110.71428571428571,-12.777777777777777,0.23809523809523808,0.5555555555555556,-166.26984126984127
59.92063492063492,103.88888888888889,-82.93650793650794,65.47619047619047,32.460317460317455,2.7777777777777777,-125.0,-120.23809523809523,-128.96825396825395,-125.31746031746032,29.76190476190476,56.74603174603174,-111.5079365079365,-104.04761904761904,-115.0,31.98412698412698,37.38095238095238,4.365079365079365,76.26984126984127,-110.71428571428571,-12.777777777777777,0.23809523809523808,0.5555555555555556,-166.26984126984127
59.92063492063492,103.88888888888889,-82.93650793650794,65.47619047619047,32.460317460317455,2.7777777777777777,-125.0,-120.23809523809523,-128.96825396825395,-125.31746031746032,29.76190476190476,56.74603174603174,-111.5079365079365,-104.04761904761904,-115.0,31.98412698412698,37.38095238095238,4.365079365079365,76.26984126984127,-110.71428571428571,-12.777777777777777,0.23809523809523808,0.5555555555555556,-166.26984126984127
59.92063492063492,103.88888888888889,-82.93650793650794,65.47619047619047,32.460317460317455,2.7777777777777777,-125.0,-120.23809523809523,-128.96825396825395,-125.31746031746032,29.76190476190476,56.74603174603174,-111.5079365079365,-104.04761904761904,-115.0,31.98412698412698,37.38095238095238,4.365079365079365,76.26984126984127,-110.71428571428571,-12.777777777777777,0.23809523809523808,0.5555555555555556,-166.26984126984127
59.92063492063492,103.88888888888889,-82.93650793650794,65.47619047619047,32.460317460317455,2.7777777777777777,-125.0,-120.23809523809523,-128.96825396825395,-125.31746031746032,29.76190476190476,56.74603174603174,-111.5079365079365,-104.04761904761904,-115.0,31.98412698412698,37.38095238095238,4.365079365079365,76.26984126984127,-110.71428571428571,-12.777777777777777,0.23809523809523808,0.5555555555555556,-166.26984126984127
59.92063492063492,103.88888888888889,-82.93650793650794,65.47619047619047,32.460317460317455,2.7777777777777777,-125.0,-120.23809523809523,-128.96825396825395,-125.31746031746032,29.76190476190476,56.74603174603174,-111.5079365079365,-104.04761904761904,-115.0,31.98412698412698,37.38095238095238,4.365079365079365,76.26984126984127,-110.71428571428571,-12.777777777777777,0.23809523809523808,0.5555555555555556,-321.8253968253968
59.92063492063492,103.88888888888889,-82.93650793650794,65.47619047619047,32.460317460317455,2.7777777777777777,-125.0,-120.23809523809523,-128.96825396825395,-125.31746031746032,29.76190476190476,56.74603174603174,-111.5079365079365,-104.04761904761904,-115.0,31.98412698412698,37.38095238095238,4.365079365079365,76.26984126984127,-110.71428571428571,-12.777777777777777,0.23809523809523808,0.5555555555555556,-321.8253968253968
49.76190476190476,106.42857142857142,-82.61904761904762,75.47619047619047,27.22222222222222,2.619047619047619,-135.0,-115.15873015873015,-129.6031746031746,-97.38095238095238,25.158730158730158,54.52380952380952,-125.63492063492063,-118.01587301587301,-140.55555555555554,22.142857142857142,31.03174603174603,3.73015873015873,65.95238095238095,-123.57142857142857,-14.84126984126984,-0.3968253968253968,0.5555555555555556,-321.8253968253968
49.76190476190476,106.42857142857142,-82.61904761904762,75.47619047619047,27.22222222222222,2.619047619047619,-135.0,-115.15873015873015,-129.6031746031746,-97.38095238095238,25.158730158730158,54.52380952380952,-125.63492063492063,-118.01587301587301,-140.55555555555554,22.142857142857142,31.03174603174603,3.73015873015873,65.95238095238095,-123.57142857142857,-14.84126984126984,-0.3968253968253968,0.5555555555555556,-321.8253968253968
39.12698412698413,116.1111111111111,-92.77777777777777,90.07936507936508,21.825396825396822,2.619047619047619,-141.34920634920636,-109.92063492063491,-131.8253968253968,-63.73015873015873,20.07936507936508,61.98412698412698,-126.9047619047619,-116.9047619047619,-151.5079365079365,31.98412698412698,24.68253968253968,2.9365079365079363,68.80952380952381,-138.015873015873,-10.079365079365079,0.07936507936507936,0.3968253968253968,-321.8253968253968
39.12698412698413,116.1111111111111,-92.77777777777777,90.07936507936508,21.825396825396822,2.619047619047619,-141.34920634920636,-109.92063492063491,-131.8253968253968,-63.73015873015873,20.07936507936508,61.98412698412698,-126.9047619047619,-116.9047619047619,-151.5079365079365,31.98412698412698,24.68253968253968,2.9365079365079363,68.80952380952381,-138.015873015873,-10.079365079365079,0.07936507936507936,0.3968253968253968,-321.8253968253968
38.49206349206349,69.28571428571428,-86.58730158730158,88.65079365079364,21.507936507936506,2.619047619047619,-131.66666666666666,-98.33333333333333,-128.4920634920635,-64.04761904761905,19.92063492063492,53.095238095238095,-125.31746031746032,-96.42857142857142,-133.57142857142856,42.14285714285714,24.206349206349206,2.9365079365079363,70.39682539682539,-135.79365079365078,-17.38095238095238,0.3968253968253968,-1.0317460317460316,-321.8253968253968
38.49206349206349,69.28571428571428,-86.58730158730158,88.65079365079364,21.507936507936506,2.619047619047619,-131.66666666666666,-98.33333333333333,-128.4920634920635,-64.04761904761905,19.92063492063492,53.095238095238095,-125.31746031746032,-96.42857142857142,-133.57142857142856,42.14285714285714,24.206349206349206,2.9365079365079363,70.39682539682539,-135.79365079365078,-17.38095238095238,0.3968253968253968,-1.0317460317460316,-321.8253968253968
164.2063492063492,123.73015873015872,-56.58730158730158,159.76190476190476,-115.95238095238095,51.507936507936506,-204.2063492063492,-108.01587301587301,-7.698412698412698,-155.15873015873015,-111.98412698412697,173.25396825396825,92.46031746031746,-31.825396825396822,-11.666666666666666,-41.666666666666664,13.571428571428571,2.7777777777777777,63.73015873015873,-131.34920634920636,-2.46031746031746,10.238095238095237,-11.666666666666666,-321.8253968253968
164.2063492063492,123.73015873015872,-56.58730158730158,159.76190476190476,-115.95238095238095,51.507936507936506,-204.2063492063492,-108.01587301587301,-7.698412698412698,-155.15873015873015,-111.98412698412697,173.25396825396825,92.46031746031746,-31.825396825396822,-11.666666666666666,-41.666666666666664,13.571428571428571,2.7777777777777777,63.73015873015873,-131.34920634920636,-2.46031746031746,10.238095238095237,-11.666666666666666,-321.8253968253968
36.58730158730159,79.6031746031746,-59.12698412698413,85.95238095238095,20.396825396825395,0.07936507936507936,-118.01587301587301,-95.79365079365078,-114.04761904761904,-45.0,18.96825396825397,58.17460317460317,-123.57142857142857,-90.23809523809523,-126.1111111111111,48.80952380952381,23.095238095238095,2.7777777777777777,86.1111111111111,-126.9047619047619,-2.7777777777777777,-0.7142857142857142,-0.7142857142857142,-166.26984126984127
36.58730158730159,79.6031746031746,-59.12698412698413,85.95238095238095,20.396825396825395,0.07936507936507936,-118.01587301587301,-95.79365079365078,-114.04761904761904,-45.0,18.96825396825397,58.17460317460317,-123.57142857142857,-90.23809523809523,-126.1111111111111,48.80952380952381,23.095238095238095,2.7777777777777777,86.1111111111111,-126.9047619047619,-2.7777777777777777,-0.7142857142857142,-0.7142857142857142,-166.26984126984127
35.95238095238095,50.87301587301587,-74.2063492063492,68.01587301587301,20.07936507936508,0.3968253968253968,-105.31746031746032,-92.30158730158729,-112.77777777777777,-54.52380952380952,18.65079365079365,53.25396825396825,-106.42857142857142,-70.55555555555556,-97.6984126984127,56.269841269841265,22.619047619047617,2.7777777777777777,81.5079365079365,-124.04761904761904,-20.71428571428571,-0.07936507936507936,-1.1904761904761905,-166.26984126984127
35.95238095238095,50.87301587301587,-74.2063492063492,68.01587301587301,20.07936507936508,0.3968253968253968,-105.31746031746032,-92.30158730158729,-112.77777777777777,-54.52380952380952,18.65079365079365,53.25396825396825,-106.42857142857142,-70.55555555555556,-97.6984126984127,56.269841269841265,22.619047619047617,2.7777777777777777,81.5079365079365,-124.04761904761904,-20.71428571428571,-0.07936507936507936,-1.1904761904761905,-166.26984126984127
35.317460317460316,100.39682539682539,-71.19047619047619,106.26984126984127,19.76190476190476,2.46031746031746,-124.04761904761904,-92.46031746031746,-120.07936507936508,-60.079365079365076,18.333333333333332,59.285714285714285,-121.82539682539682,-85.47619047619047,-131.984126984127,35.79365079365079,22.3015873015873,2.619047619047619,72.14285714285714,-136.11111111111111,-16.428571428571427,-0.5555555555555556,-0.7142857142857142,-166.26984126984127
35.317460317460316,100.39682539682539,-71.19047619047619,106.26984126984127,19.76190476190476,2.46031746031746,-124.04761904761904,-92.46031746031746,-120.07936507936508,-60.079365079365076,18.333333333333332,59.285714285714285,-121.82539682539682,-85.47619047619047,-131.984126984127,35.79365079365079,22.3015873015873,2.619047619047619,72.14285714285714,-136.11111111111111,-16.428571428571427,-0.5555555555555556,-0.7142857142857142,-166.26984126984127
34.682539682539684,121.98412698412697,-40.714285714285715,107.22222222222221,19.444444444444443,2.619047619047619,-130.3968253968254,-116.74603174603173,-118.49206349206348,-59.92063492063492,18.015873015873016,57.22222222222222,-137.69841269841268,-94.84126984126983,-143.25396825396825,23.095238095238095,21.984126984126984,2.7777777777777777,64.84126984126983,-131.984126984127,-16.587301587301585,0.3968253968253968,-0.23809523809523808,-166.26984126984127
34.682539682539684,121.98412698412697,-40.714285714285715,107.22222222222221,19.444444444444443,2.619047619047619,-130.3968253968254,-116.74603174603173,-118.49206349206348,-59.92063492063492,18.015873015873016,57.22222222222222,-137.69841269841268,-94.84126984126983,-143.25396825396825,23.095238095238095,21.984126984126984,2.7777777777777777,64.84126984126983,-131.984126984127,-16.587301587301585,0.3968253968253968,-0.23809523809523808,-166.26984126984127
34.2063492063492,105.63492063492063,-27.22222222222222,83.73015873015872,19.126984126984127,2.619047619047619,-111.66666666666666,-123.25396825396825,-107.6984126984127,-63.57142857142857,17.857142857142858,52.77777777777777,-111.03174603174602,-90.55555555555556,-117.06349206349206,40.079365079365076,21.825396825396822,2.619047619047619,70.87301587301587,-129.44444444444443,-23.730158730158728,0.07936507936507936,-0.23809523809523808,-166.26984126984127
34.2063492063492,105.63492063492063,-27.22222222222222,83.73015873015872,19.126984126984127,2.619047619047619,-111.66666666666666,-123.25396825396825,-107.6984126984127,-63.57142857142857,17.857142857142858,52.77777777777777,-111.03174603174602,-90.55555555555556,-117.06349206349206,40.079365079365076,21.825396825396822,2.619047619047619,70.87301587301587,-129.44444444444443,-23.730158730158728,0.07936507936507936,-0.23809523809523808,-166.26984126984127
33.25396825396825,115.95238095238095,-75.0,101.98412698412697,18.65079365079365,2.619047619047619,-101.34920634920634,-91.34920634920634,-102.14285714285714,-43.25396825396825,17.38095238095238,75.15873015873015,-106.42857142857142,-68.33333333333333,-99.6031746031746,80.07936507936508,21.03174603174603,2.46031746031746,86.1111111111111,-129.76190476190476,-17.22222222222222,0.07936507936507936,-0.5555555555555556,-321.8253968253968
33.25396825396825,115.95238095238095,-75.0,101.98412698412697,18.65079365079365,2.619047619047619,-101.34920634920634,-91.34920634920634,-102.14285714285714,-43.25396825396825,17.38095238095238,75.15873015873015,-106.42857142857142,-68.33333333333333,-99.6031746031746,80.07936507936508,21.03174603174603,2.46031746031746,86.1111111111111,-129.76190476190476,-17.22222222222222,0.07936507936507936,-0.5555555555555556,-321.8253968253968
32.61904761904762,82.3015873015873,-53.73015873015873,95.79365079365078,18.333333333333332,2.619047619047619,-100.39682539682539,-94.36507936507935,-102.30158730158729,-43.095238095238095,17.063492063492063,57.857142857142854,-93.88888888888889,-73.4126984126984,-97.22222222222221,50.55555555555555,20.71428571428571,2.46031746031746,91.03174603174602,-134.36507936507937,-11.507936507936508,-0.3968253968253968,-1.1904761904761905,-321.8253968253968
32.61904761904762,82.3015873015873,-53.73015873015873,95.79365079365078,18.333333333333332,2.619047619047619,-100.39682539682539,-94.36507936507935,-102.30158730158729,-43.095238095238095,17.063492063492063,57.857142857142854,-93.88888888888889,-73.4126984126984,-97.22222222222221,50.55555555555555,20.71428571428571,2.46031746031746,91.03174603174602,-134.36507936507937,-11.507936507936508,-0.3968253968253968,-1.1904761904761905,-321.8253968253968
32.14285714285714,57.698412698412696,-39.44444444444444,90.55555555555556,18.015873015873016,2.619047619047619,-114.36507936507935,-102.46031746031746,-111.19047619047619,-57.698412698412696,16.746031746031743,40.87301587301587,-124.04761904761904,-87.53968253968253,-120.23809523809523,18.49206349206349,20.396825396825395,2.46031746031746,68.01587301587301,-129.9206349206349,-27.698412698412696,-0.07936507936507936,-1.0317460317460316,-321.8253968253968
32.14285714285714,57.698412698412696,-39.44444444444444,90.55555555555556,18.015873015873016,2.619047619047619,-114.36507936507935,-102.46031746031746,-111.19047619047619,-57.698412698412696,16.746031746031743,40.87301587301587,-124.04761904761904,-87.53968253968253,-120.23809523809523,18.49206349206349,20.396825396825395,2.46031746031746,68.01587301587301,-129.9206349206349,-27.698412698412696,-0.07936507936507936,-1.0317460317460316,-321.8253968253968
31.666666666666664,91.34920634920634,-55.0,92.46031746031746,17.857142857142858,2.46031746031746,-113.09523809523809,-94.68253968253968,-105.95238095238095,-51.03174603174603,16.587301587301585,60.71428571428571,-124.84126984126983,-70.55555555555556,-118.8095238095238,35.95238095238095,20.07936507936508,2.619047619047619,69.6031746031746,-131.8253968253968,-18.96825396825397,-0.23809523809523808,-0.873015873015873,-321.8253968253968
31.666666666666664,91.34920634920634,-55.0,92.46031746031746,17.857142857142858,2.46031746031746,-113.09523809523809,-94.68253968253968,-105.95238095238095,-51.03174603174603,16.587301587301585,60.71428571428571,-124.84126984126983,-70.55555555555556,-118.8095238095238,35.95238095238095,20.07936507936508,2.619047619047619,69.6031746031746,-131.8253968253968,-18.96825396825397,-0.23809523809523808,-0.873015873015873,-321.8253968253968
30.71428571428571,76.74603174603175,-72.14285714285714,63.73015873015873,17.38095238095238,2.3015873015873014,-114.04761904761904,-98.17460317460316,-113.25396825396825,-68.01587301587301,16.11111111111111,40.87301587301587,-108.01587301587301,-83.88888888888889,-112.77777777777777,19.6031746031746,19.6031746031746,2.46031746031746,53.73015873015873,-120.55555555555554,-21.825396825396822,1.1904761904761905,-1.0317460317460316,-321.8253968253968
30.71428571428571,76.74603174603175,-72.14285714285714,63.73015873015873,17.38095238095238,2.3015873015873014,-114.04761904761904,-98.17460317460316,-113.25396825396825,-68.01587301587301,16.11111111111111,40.87301587301587,-108.01587301587301,-83.88888888888889,-112.77777777777777,19.6031746031746,19.6031746031746,2.46031746031746,53.73015873015873,-120.55555555555554,-21.825396825396822,1.1904761904761905,-1.0317460317460316,-321.8253968253968
30.238095238095237,66.11111111111111,-29.126984126984127,89.44444444444444,17.063492063492063,2.46031746031746,-105.95238095238095,-77.53968253968253,-105.15873015873015,-34.2063492063492,15.95238095238095,49.44444444444444,-111.98412698412697,-77.85714285714285,-103.4126984126984,44.047619047619044,19.126984126984127,2.46031746031746,85.0,-130.55555555555554,-10.714285714285714,0.23809523809523808,-1.0317460317460316,-166.26984126984127
30.238095238095237,66.11111111111111,-29.126984126984127,89.44444444444444,17.063492063492063,2.46031746031746,-105.95238095238095,-77.53968253968253,-105.15873015873015,-34.2063492063492,15.95238095238095,49.44444444444444,-111.98412698412697,-77.85714285714285,-103.4126984126984,44.047619047619044,19.126984126984127,2.46031746031746,85.0,-130.55555555555554,-10.714285714285714,0.23809523809523808,-1.0317460317460316,-166.26984126984127
29.6031746031746,81.34920634920634,-59.6031746031746,95.95238095238095,16.746031746031743,2.46031746031746,-111.82539682539682,-45.95238095238095,-113.4126984126984,-27.857142857142854,15.634920634920634,52.14285714285714,-115.0,-61.666666666666664,-110.87301587301587,70.07936507936508,18.65079365079365,2.46031746031746,89.92063492063491,-141.5079365079365,-1.984126984126984,-0.23809523809523808,-0.7142857142857142,-166.26984126984127
29.6031746031746,81.34920634920634,-59.6031746031746,95.95238095238095,16.746031746031743,2.46031746031746,-111.82539682539682,-45.95238095238095,-113.4126984126984,-27.857142857142854,15.634920634920634,52.14285714285714,-115.0,-61.666666666666664,-110.87301587301587,70.07936507936508,18.65079365079365,2.46031746031746,89.92063492063491,-141.5079365079365,-1.984126984126984,-0.23809523809523808,-0.7142857142857142,-166.26984126984127
29.444444444444443,103.57142857142857,-117.6984126984127,80.71428571428571,16.587301587301585,1.984126984126984,-122.30158730158729,-75.79365079365078,-112.14285714285714,-47.06349206349206,15.476190476190474,34.52380952380952,-140.3968253968254,-89.28571428571428,-132.3015873015873,34.84126984126984,18.65079365079365,2.3015873015873014,53.25396825396825,-123.88888888888889,-19.444444444444443,0.7142857142857142,0.873015873015873,-166.26984126984127
29.444444444444443,103.57142857142857,-117.6984126984127,80.71428571428571,16.587301587301585,1.984126984126984,-122.30158730158729,-75.79365079365078,-112.14285714285714,-47.06349206349206,15.476190476190474,34.52380952380952,-140.3968253968254,-89.28571428571428,-132.3015873015873,34.84126984126984,18.65079365079365,2.3015873015873014,53.25396825396825,-123.88888888888889,-19.444444444444443,0.7142857142857142,0.873015873015873,-166.26984126984127
28.809523809523807,122.77777777777777,-83.09523809523809,109.76190476190476,16.428571428571427,2.46031746031746,-94.84126984126983,-28.49206349206349,-96.42857142857142,-24.523809523809522,15.158730158730158,64.84126984126983,-105.15873015873015,-33.73015873015873,-97.38095238095238,97.38095238095238,18.49206349206349,2.3015873015873014,85.15873015873015,-126.42857142857142,-21.507936507936506,-0.5555555555555556,-1.349206349206349,-166.26984126984127
28.809523809523807,122.77777777777777,-83.09523809523809,109.76190476190476,16.428571428571427,2.46031746031746,-94.84126984126983,-28.49206349206349,-96.42857142857142,-24.523809523809522,15.158730158730158,64.84126984126983,-105.15873015873015,-33.73015873015873,-97.38095238095238,97.38095238095238,18.49206349206349,2.3015873015873014,85.15873015873015,-126.42857142857142,-21.507936507936506,-0.5555555555555556,-1.349206349206349,-166.26984126984127
28.174603174603174,36.904761904761905,-24.68253968253968,61.03174603174603,15.95238095238095,2.3015873015873014,-104.52380952380952,-67.06349206349206,-98.96825396825396,-47.698412698412696,14.84126984126984,32.77777777777778,-110.71428571428571,-78.33333333333333,-114.04761904761904,49.6031746031746,17.857142857142858,2.3015873015873014,63.41269841269841,-113.88888888888889,-21.19047619047619,0.3968253968253968,-0.7142857142857142,-166.26984126984127
28.174603174603174,36.904761904761905,-24.68253968253968,61.03174603174603,15.95238095238095,2.3015873015873014,-104.52380952380952,-67.06349206349206,-98.96825396825396,-47.698412698412696,14.84126984126984,32.77777777777778,-110.71428571428571,-78.33333333333333,-114.04761904761904,49.6031746031746,17.857142857142858,2.3015873015873014,63.41269841269841,-113.88888888888889,-21.19047619047619,0.3968253968253968,-0.7142857142857142,-166.26984126984127
27.539682539682538,70.23809523809524,-78.65079365079364,81.19047619047619,15.476190476190474,2.46031746031746,-112.6190476190476,-63.25396825396825,-115.15873015873015,-53.57142857142857,14.682539682539682,33.57142857142857,-122.46031746031746,-68.4920634920635,-118.8095238095238,57.22222222222222,17.539682539682538,2.3015873015873014,59.285714285714285,-122.77777777777777,-12.3015873015873,0.07936507936507936,-0.873015873015873,-321.8253968253968
27.539682539682538,70.23809523809524,-78.65079365079364,81.19047619047619,15.476190476190474,2.46031746031746,-112.6190476190476,-63.25396825396825,-115.15873015873015,-53.57142857142857,14.682539682539682,33.57142857142857,-122.46031746031746,-68.4920634920635,-118.8095238095238,57.22222222222222,17.539682539682538,2.3015873015873014,59.285714285714285,-122.77777777777777,-12.3015873015873,0.07936507936507936,-0.873015873015873,-321.8253968253968
27.22222222222222,80.71428571428571,-107.38095238095238,82.14285714285714,15.317460317460316,2.3015873015873014,-110.55555555555554,-65.31746031746032,-115.47619047619047,-49.285714285714285,14.365079365079364,51.19047619047619,-117.38095238095238,-71.34920634920634,-109.44444444444444,53.73015873015873,17.38095238095238,2.142857142857143,61.666666666666664,-128.17460317460316,-8.968253968253968,-0.07936507936507936,-1.349206349206349,-321.8253968253968
27.22222222222222,80.71428571428571,-107.38095238095238,82.14285714285714,15.317460317460316,2.3015873015873014,-110.55555555555554,-65.31746031746032,-115.47619047619047,-49.285714285714285,14.365079365079364,51.19047619047619,-117.38095238095238,-71.34920634920634,-109.44444444444444,53.73015873015873,17.38095238095238,2.142857142857143,61.666666666666664,-128.17460317460316,-8.968253968253968,-0.07936507936507936,-1.349206349206349,-321.8253968253968
26.746031746031743,53.25396825396825,-34.84126984126984,73.09523809523809,15.0,2.3015873015873014,-102.30158730158729,-46.74603174603175,-108.65079365079364,-49.12698412698413,14.206349206349206,37.857142857142854,-97.22222222222221,-53.41269841269841,-98.33333333333333,61.34920634920635,17.063492063492063,1.8253968253968254,69.44444444444444,-123.4126984126984,-12.936507936507935,0.23809523809523808,-0.7142857142857142,-321.8253968253968
26.746031746031743,53.25396825396825,-34.84126984126984,73.09523809523809,15.0,2.3015873015873014,-102.30158730158729,-46.74603174603175,-108.65079365079364,-49.12698412698413,14.206349206349206,37.857142857142854,-97.22222222222221,-53.41269841269841,-98.33333333333333,61.34920634920635,17.063492063492063,1.8253968253968254,69.44444444444444,-123.4126984126984,-12.936507936507935,0.23809523809523808,-0.7142857142857142,-321.8253968253968
26.11111111111111,88.65079365079364,-74.2063492063492,71.34920634920634,14.84126984126984,2.3015873015873014,-123.25396825396825,-49.12698412698413,-119.12698412698413,-44.2063492063492,13.888888888888888,47.06349206349206,-125.31746031746032,-48.96825396825397,-128.65079365079364,60.39682539682539,16.746031746031743,1.1904761904761905,55.0,-136.11111111111111,-3.571428571428571,0.3968253968253968,-0.5555555555555556,-321.8253968253968
26.11111111111111,88.65079365079364,-74.2063492063492,71.34920634920634,14.84126984126984,2.3015873015873014,-123.25396825396825,-49.12698412698413,-119.12698412698413,-44.2063492063492,13.888888888888888,47.06349206349206,-125.31746031746032,-48.96825396825397,-128.65079365079364,60.39682539682539,16.746031746031743,1.1904761904761905,55.0,-136.11111111111111,-3.571428571428571,0.3968253968253968,-0.5555555555555556,-321.8253968253968
25.952380952380953,88.17460317460316,-125.0,62.61904761904761,14.84126984126984,2.142857142857143,-140.07936507936506,-58.33333333333333,-127.06349206349206,-48.49206349206349,13.571428571428571,42.3015873015873,-145.15873015873015,-72.77777777777777,-145.79365079365078,41.34920634920635,16.587301587301585,1.349206349206349,34.84126984126984,-139.6031746031746,-13.888888888888888,1.8253968253968254,0.07936507936507936,-321.8253968253968
25.952380952380953,88.17460317460316,-125.0,62.61904761904761,14.84126984126984,2.142857142857143,-140.07936507936506,-58.33333333333333,-127.06349206349206,-48.49206349206349,13.571428571428571,42.3015873015873,-145.15873015873015,-72.77777777777777,-145.79365079365078,41.34920634920635,16.587301587301585,1.349206349206349,34.84126984126984,-139.6031746031746,-13.888888888888888,1.8253968253968254,0.07936507936507936,-321.8253968253968
25.634920634920633,76.74603174603175,-103.4126984126984,68.96825396825396,14.523809523809524,1.984126984126984,-129.12698412698413,-59.76190476190476,-123.4126984126984,-45.79365079365079,13.571428571428571,43.095238095238095,-119.6031746031746,-65.47619047619047,-123.09523809523809,46.269841269841265,16.26984126984127,1.1904761904761905,43.41269841269841,-136.74603174603175,-11.666666666666666,0.7142857142857142,-0.5555555555555556,-166.26984126984127
25.634920634920633,76.74603174603175,-103.4126984126984,68.96825396825396,14.523809523809524,1.984126984126984,-129.12698412698413,-59.76190476190476,-123.4126984126984,-45.79365079365079,13.571428571428571,43.095238095238095,-119.6031746031746,-65.47619047619047,-123.09523809523809,46.269841269841265,16.26984126984127,1.1904761904761905,43.41269841269841,-136.74603174603175,-11.666666666666666,0.7142857142857142,-0.5555555555555556,-166.26984126984127
25.0,58.96825396825397,-86.1111111111111,60.079365079365076,14.206349206349206,1.984126984126984,-121.66666666666666,-67.53968253968253,-116.74603174603173,-49.6031746031746,13.253968253968253,31.03174603174603,-115.95238095238095,-69.6031746031746,-113.4126984126984,41.03174603174603,15.95238095238095,1.8253968253968254,38.17460317460317,-129.6031746031746,-7.857142857142857,-1.349206349206349,-1.0317460317460316,-166.26984126984127
25.0,58.96825396825397,-86.1111111111111,60.079365079365076,14.206349206349206,1.984126984126984,-121.66666666666666,-67.53968253968253,-116.74603174603173,-49.6031746031746,13.253968253968253,31.03174603174603,-115.95238095238095,-69.6031746031746,-113.4126984126984,41.03174603174603,15.95238095238095,1.8253968253968254,38.17460317460317,-129.6031746031746,-7.857142857142857,-1.349206349206349,-1.0317460317460316,-166.26984126984127
24.68253968253968,53.41269841269841,-95.79365079365078,64.2063492063492,14.047619047619047,2.142857142857143,-130.87301587301587,-62.3015873015873,-123.4126984126984,-41.666666666666664,13.253968253968253,27.857142857142854,-131.5079365079365,-68.96825396825396,-128.17460317460316,57.53968253968254,15.634920634920634,1.984126984126984,44.68253968253968,-123.4126984126984,3.095238095238095,-0.873015873015873,-1.0317460317460316,-166.26984126984127
24.68253968253968,53.41269841269841,-95.79365079365078,64.2063492063492,14.047619047619047,2.142857142857143,-130.87301587301587,-62.3015873015873,-123.4126984126984,-41.666666666666664,13.253968253968253,27.857142857142854,-131.5079365079365,-68.96825396825396,-128.17460317460316,57.53968253968254,15.634920634920634,1.984126984126984,44.68253968253968,-123.4126984126984,3.095238095238095,-0.873015873015873,-1.0317460317460316,-166.26984126984127
24.206349206349206,53.25396825396825,-89.6031746031746,78.01587301587301,13.571428571428571,1.984126984126984,-135.95238095238093,-53.41269841269841,-134.84126984126982,-38.96825396825397,12.777777777777777,37.53968253968254,-128.96825396825395,-56.269841269841265,-130.07936507936506,54.68253968253968,15.317460317460316,1.984126984126984,52.93650793650794,-135.15873015873015,11.19047619047619,-0.07936507936507936,-1.507936507936508,-166.26984126984127
24.206349206349206,53.25396825396825,-89.6031746031746,78.01587301587301,13.571428571428571,1.984126984126984,-135.95238095238093,-53.41269841269841,-134.84126984126982,-38.96825396825397,12.777777777777777,37.53968253968254,-128.96825396825395,-56.269841269841265,-130.07936507936506,54.68253968253968,15.317460317460316,1.984126984126984,52.93650793650794,-135.15873015873015,11.19047619047619,-0.07936507936507936,-1.507936507936508,-166.26984126984127
23.730158730158728,55.79365079365079,-98.49206349206348,60.238095238095234,13.571428571428571,-0.3968253968253968,-133.25396825396825,-85.79365079365078,-130.7142857142857,-56.74603174603174,12.777777777777777,31.19047619047619,-121.34920634920634,-65.47619047619047,-129.28571428571428,23.41269841269841,15.317460317460316,-1.6666666666666665,29.920634920634917,-132.14285714285714,2.3015873015873014,-0.3968253968253968,-1.507936507936508,-166.26984126984127
23.730158730158728,55.79365079365079,-98.49206349206348,60.238095238095234,13.571428571428571,-0.3968253968253968,-133.25396825396825,-85.79365079365078,-130.7142857142857,-56.74603174603174,12.777777777777777,31.19047619047619,-121.34920634920634,-65.47619047619047,-129.28571428571428,23.41269841269841,15.317460317460316,-1.6666666666666665,29.920634920634917,-132.14285714285714,2.3015873015873014,-0.3968253968253968,-1.507936507936508,-166.26984126984127
23.57142857142857,58.8095238095238,-100.07936507936508,52.61904761904761,13.412698412698411,0.873015873015873,-138.4920634920635,-84.04761904761904,-131.66666666666666,-54.047619047619044,12.46031746031746,25.317460317460316,-128.65079365079364,-74.36507936507937,-134.52380952380952,29.444444444444443,15.158730158730158,-3.253968253968254,27.857142857142854,-128.015873015873,6.428571428571428,-0.23809523809523808,-1.1904761904761905,-321.8253968253968
23.57142857142857,58.8095238095238,-100.07936507936508,52.61904761904761,13.412698412698411,0.873015873015873,-138.4920634920635,-84.04761904761904,-131.66666666666666,-54.047619047619044,12.46031746031746,25.317460317460316,-128.65079365079364,-74.36507936507937,-134.52380952380952,29.444444444444443,15.158730158730158,-3.253968253968254,27.857142857142854,-128.015873015873,6.428571428571428,-0.23809523809523808,-1.1904761904761905,-321.8253968253968
22.777777777777775,18.80952380952381,-63.25396825396825,45.317460317460316,13.095238095238095,0.873015873015873,-140.55555555555554,-70.39682539682539,-138.33333333333331,-33.095238095238095,12.3015873015873,32.3015873015873,-118.65079365079364,-58.8095238095238,-134.04761904761904,59.92063492063492,14.682539682539682,1.6666666666666665,55.0,-132.77777777777777,13.412698412698411,0.07936507936507936,-1.1904761904761905,-321.8253968253968
22.777777777777775,18.80952380952381,-63.25396825396825,45.317460317460316,13.095238095238095,0.873015873015873,-140.55555555555554,-70.39682539682539,-138.33333333333331,-33.095238095238095,12.3015873015873,32.3015873015873,-118.65079365079364,-58.8095238095238,-134.04761904761904,59.92063492063492,14.682539682539682,1.6666666666666665,55.0,-132.77777777777777,13.412698412698411,0.07936507936507936,-1.1904761904761905,-321.8253968253968
22.46031746031746,51.82539682539682,-106.74603174603175,100.07936507936508,12.936507936507935,2.142857142857143,-145.15873015873015,-38.96825396825397,-154.52380952380952,-18.80952380952381,12.142857142857142,69.44444444444444,-122.14285714285714,-0.23809523809523808,-119.6031746031746,92.61904761904762,14.365079365079364,0.5555555555555556,79.6031746031746,-147.38095238095238,24.523809523809522,0.7142857142857142,-0.23809523809523808,-321.8253968253968
22.46031746031746,51.82539682539682,-106.74603174603175,100.07936507936508,12.936507936507935,2.142857142857143,-145.15873015873015,-38.96825396825397,-154.52380952380952,-18.80952380952381,12.142857142857142,69.44444444444444,-122.14285714285714,-0.23809523809523808,-119.6031746031746,92.61904761904762,14.365079365079364,0.5555555555555556,79.6031746031746,-147.38095238095238,24.523809523809522,0.7142857142857142,-0.23809523809523808,-321.8253968253968
22.142857142857142,90.23809523809523,-164.36507936507937,80.07936507936508,12.777777777777777,-0.5555555555555556,-179.44444444444443,-97.6984126984127,-169.60317460317458,-53.73015873015873,11.825396825396824,39.44444444444444,-160.55555555555554,-84.04761904761904,-174.52380952380952,11.984126984126984,14.206349206349206,-16.904761904761905,14.365079365079364,-128.65079365079364,13.888888888888888,0.07936507936507936,-0.3968253968253968,-321.8253968253968
22.142857142857142,90.23809523809523,-164.36507936507937,80.07936507936508,12.777777777777777,-0.5555555555555556,-179.44444444444443,-97.6984126984127,-169.60317460317458,-53.73015873015873,11.825396825396824,39.44444444444444,-160.55555555555554,-84.04761904761904,-174.52380952380952,11.984126984126984,14.206349206349206,-16.904761904761905,14.365079365079364,-128.65079365079364,13.888888888888888,0.07936507936507936,-0.3968253968253968,-321.8253968253968
21.666666666666664,42.93650793650794,-69.12698412698413,53.25396825396825,12.46031746031746,1.8253968253968254,-146.58730158730157,-71.82539682539682,-139.76190476190476,-28.809523809523807,11.666666666666666,51.03174603174603,-119.92063492063491,-37.53968253968254,-139.6031746031746,56.42857142857142,14.047619047619047,-11.666666666666666,49.285714285714285,-137.53968253968253,7.5396825396825395,-1.349206349206349,-0.7142857142857142,-321.8253968253968
21.666666666666664,42.93650793650794,-69.12698412698413,53.25396825396825,12.46031746031746,1.8253968253968254,-146.58730158730157,-71.82539682539682,-139.76190476190476,-28.809523809523807,11.666666666666666,51.03174603174603,-119.92063492063491,-37.53968253968254,-139.6031746031746,56.42857142857142,14.047619047619047,-11.666666666666666,49.285714285714285,-137.53968253968253,7.5396825396825395,-1.349206349206349,-0.7142857142857142,-321.8253968253968
21.19047619047619,17.698412698412696,-58.49206349206349,73.88888888888889,12.3015873015873,-2.3015873015873014,-118.01587301587301,-73.73015873015872,-109.92063492063491,-31.19047619047619,11.507936507936508,37.698412698412696,-115.15873015873015,-66.42857142857143,-114.68253968253967,49.285714285714285,13.73015873015873,-10.714285714285714,41.82539682539682,-123.25396825396825,-12.777777777777777,0.23809523809523808,0.07936507936507936,-166.26984126984127
21.19047619047619,17.698412698412696,-58.49206349206349,73.88888888888889,12.3015873015873,-2.3015873015873014,-118.01587301587301,-73.73015873015872,-109.92063492063491,-31.19047619047619,11.507936507936508,37.698412698412696,-115.15873015873015,-66.42857142857143,-114.68253968253967,49.285714285714285,13.73015873015873,-10.714285714285714,41.82539682539682,-123.25396825396825,-12.777777777777777,0.23809523809523808,0.07936507936507936,-166.26984126984127
21.19047619047619,17.698412698412696,-58.49206349206349,73.88888888888889,12.3015873015873,-2.3015873015873014,-118.01587301587301,-73.73015873015872,-109.92063492063491,-31.19047619047619,11.507936507936508,37.698412698412696,-115.15873015873015,-66.42857142857143,-114.68253968253967,49.285714285714285,13.73015873015873,-10.714285714285714,41.82539682539682,-123.25396825396825,-12.777777777777777,0.23809523809523808,0.07936507936507936,-166.26984126984127
21.19047619047619,17.698412698412696,-58.49206349206349,73.88888888888889,12.3015873015873,-2.3015873015873014,-118.01587301587301,-73.73015873015872,-109.92063492063491,-31.19047619047619,11.507936507936508,37.698412698412696,-115.15873015873015,-66.42857142857143,-114.68253968253967,49.285714285714285,13.73015873015873,-10.714285714285714,41.82539682539682,-123.25396825396825,-12.777777777777777,0.23809523809523808,0.07936507936507936,-166.26984126984127
20.396825396825395,19.444444444444443,-37.698412698412696,96.74603174603175,11.666666666666666,0.873015873015873,-111.98412698412697,-56.269841269841265,-117.6984126984127,-17.063492063492063,11.031746031746032,49.92063492063492,-79.6031746031746,-56.58730158730158,-90.07936507936508,48.01587301587301,13.253968253968253,-7.3809523809523805,70.71428571428571,-125.31746031746032,15.634920634920634,0.23809523809523808,-0.7142857142857142,-166.26984126984127
20.396825396825395,19.444444444444443,-37.698412698412696,96.74603174603175,11.666666666666666,0.873015873015873,-111.98412698412697,-56.269841269841265,-117.6984126984127,-17.063492063492063,11.031746031746032,49.92063492063492,-79.6031746031746,-56.58730158730158,-90.07936507936508,48.01587301587301,13.253968253968253,-7.3809523809523805,70.71428571428571,-125.31746031746032,15.634920634920634,0.23809523809523808,-0.7142857142857142,-166.26984126984127
19.92063492063492,27.063492063492063,-116.74603174603173,32.77777777777778,11.507936507936508,-21.507936507936506,-153.09523809523807,-107.06349206349206,-139.12698412698413,-52.3015873015873,10.714285714285714,18.49206349206349,-147.06349206349205,-88.65079365079364,-153.4126984126984,6.746031746031746,12.936507936507935,-42.3015873015873,11.031746031746032,-124.04761904761904,-5.476190476190476,0.5555555555555556,0.07936507936507936,-166.26984126984127
19.92063492063492,27.063492063492063,-116.74603174603173,32.77777777777778,11.507936507936508,-21.507936507936506,-153.09523809523807,-107.06349206349206,-139.12698412698413,-52.3015873015873,10.714285714285714,18.49206349206349,-147.06349206349205,-88.65079365079364,-153.4126984126984,6.746031746031746,12.936507936507935,-42.3015873015873,11.031746031746032,-124.04761904761904,-5.476190476190476,0.5555555555555556,0.07936507936507936,-166.26984126984127
19.6031746031746,38.49206349206349,-123.25396825396825,36.904761904761905,11.349206349206348,-12.777777777777777,-146.74603174603175,-79.12698412698413,-136.9047619047619,-35.317460317460316,10.714285714285714,32.61904761904762,-138.4920634920635,-64.84126984126983,-140.7142857142857,37.38095238095238,12.777777777777777,-25.0,28.174603174603174,-131.66666666666666,-3.888888888888889,-0.23809523809523808,-0.23809523809523808,-166.26984126984127
19.6031746031746,38.49206349206349,-123.25396825396825,36.904761904761905,11.349206349206348,-12.777777777777777,-146.74603174603175,-79.12698412698413,-136.9047619047619,-35.317460317460316,10.714285714285714,32.61904761904762,-138.4920634920635,-64.84126984126983,-140.7142857142857,37.38095238095238,12.777777777777777,-25.0,28.174603174603174,-131.66666666666666,-3.888888888888889,-0.23809523809523808,-0.23809523809523808,-166.26984126984127
19.444444444444443,8.015873015873016,-77.85714285714285,67.06349206349206,11.031746031746032,-10.555555555555555,-125.63492063492063,-66.42857142857143,-124.68253968253967,-20.555555555555554,10.396825396825395,32.3015873015873,-124.52380952380952,-65.79365079365078,-120.71428571428571,47.38095238095238,12.46031746031746,-8.015873015873016,55.63492063492063,-131.66666666666666,9.126984126984127,0.3968253968253968,-0.3968253968253968,-321.8253968253968
19.444444444444443,8.015873015873016,-77.85714285714285,67.06349206349206,11.031746031746032,-10.555555555555555,-125.63492063492063,-66.42857142857143,-124.68253968253967,-20.555555555555554,10.396825396825395,32.3015873015873,-124.52380952380952,-65.79365079365078,-120.71428571428571,47.38095238095238,12.46031746031746,-8.015873015873016,55.63492063492063,-131.66666666666666,9.126984126984127,0.3968253968253968,-0.3968253968253968,-321.8253968253968
18.96825396825397,53.41269841269841,-106.42857142857142,79.76190476190476,10.873015873015872,-26.11111111111111,-134.2063492063492,-75.63492063492063,-126.42857142857142,-36.904761904761905,10.238095238095237,50.55555555555555,-126.58730158730158,-73.09523809523809,-133.57142857142856,37.22222222222222,12.3015873015873,-24.365079365079364,30.07936507936508,-121.34920634920634,-1.0317460317460316,-0.07936507936507936,-0.7142857142857142,-321.8253968253968
18.96825396825397,53.41269841269841,-106.42857142857142,79.76190476190476,10.873015873015872,-26.11111111111111,-134.2063492063492,-75.63492063492063,-126.42857142857142,-36.904761904761905,10.238095238095237,50.55555555555555,-126.58730158730158,-73.09523809523809,-133.57142857142856,37.22222222222222,12.3015873015873,-24.365079365079364,30.07936507936508,-121.34920634920634,-1.0317460317460316,-0.07936507936507936,-0.7142857142857142,-321.8253968253968
18.80952380952381,53.41269841269841,-115.0,57.857142857142854,10.873015873015872,-35.95238095238095,-132.46031746031744,-82.77777777777777,-128.65079365079364,-44.84126984126984,10.238095238095237,51.34920634920635,-115.47619047619047,-76.26984126984127,-120.23809523809523,34.36507936507936,12.142857142857142,-30.87301587301587,24.523809523809522,-116.58730158730158,-2.3015873015873014,-0.7142857142857142,-0.7142857142857142,-321.8253968253968
18.80952380952381,53.41269841269841,-115.0,57.857142857142854,10.873015873015872,-35.95238095238095,-132.46031746031744,-82.77777777777777,-128.65079365079364,-44.84126984126984,10.238095238095237,51.34920634920635,-115.47619047619047,-76.26984126984127,-120.23809523809523,34.36507936507936,12.142857142857142,-30.87301587301587,24.523809523809522,-116.58730158730158,-2.3015873015873014,-0.7142857142857142,-0.7142857142857142,-321.8253968253968
18.174603174603174,15.158730158730158,-68.4920634920635,65.31746031746032,10.555555555555555,-11.507936507936508,-100.39682539682539,-52.61904761904761,-104.52380952380952,-19.76190476190476,9.920634920634921,49.92063492063492,-103.57142857142857,-56.269841269841265,-85.79365079365078,59.6031746031746,11.825396825396824,-13.73015873015873,61.82539682539682,-123.09523809523809,-0.5555555555555556,-1.349206349206349,-0.7142857142857142,-321.8253968253968
18.174603174603174,15.158730158730158,-68.4920634920635,65.31746031746032,10.555555555555555,-11.507936507936508,-100.39682539682539,-52.61904761904761,-104.52380952380952,-19.76190476190476,9.920634920634921,49.92063492063492,-103.57142857142857,-56.269841269841265,-85.79365079365078,59.6031746031746,11.825396825396824,-13.73015873015873,61.82539682539682,-123.09523809523809,-0.5555555555555556,-1.349206349206349,-0.7142857142857142,-321.8253968253968
18.174603174603174,25.79365079365079,-68.96825396825396,42.93650793650794,10.396825396825395,-35.79365079365079,-115.15873015873015,-72.46031746031746,-109.12698412698413,-28.49206349206349,9.761904761904761,47.38095238095238,-121.5079365079365,-50.238095238095234,-111.82539682539682,33.57142857142857,11.825396825396824,-23.730158730158728,45.317460317460316,-125.79365079365078,1.8253968253968254,-0.07936507936507936,-0.07936507936507936,-321.8253968253968
18.174603174603174,25.79365079365079,-68.96825396825396,42.93650793650794,10.396825396825395,-35.79365079365079,-115.15873015873015,-72.46031746031746,-109.12698412698413,-28.49206349206349,9.761904761904761,47.38095238095238,-121.5079365079365,-50.238095238095234,-111.82539682539682,33.57142857142857,11.825396825396824,-23.730158730158728,45.317460317460316,-125.79365079365078,1.8253968253968254,-0.07936507936507936,-0.07936507936507936,-321.8253968253968
