Fp1[1],Fp2[2],F3[3],F4[4],C3[5],C4[6],P3[7],P4[8],O1[9],O2[10],F7[11],F8[12],T3[13],T4[14],T5[15],T6[16],Fz[17],Pz[18],Cz[19],Pg1[20],Pg2[21],EOGR[22],EOOGL[23],EMG[24]
325.0,325.0,-325.0,325.0,62.14285714285714,152.3015873015873,90.07936507936508,-34.84126984126984,96.74603174603175,-325.0,-325.0,-47.53968253968254,325.0,-325.0,91.34920634920634,325.0,-325.0,325.0,-142.93650793650792,-325.0,-325.0,1.8253968253968254,1.507936507936508,-166.26984126984127
325.0,325.0,-325.0,325.0,62.14285714285714,152.3015873015873,90.07936507936508,-34.84126984126984,96.74603174603175,-325.0,-325.0,-47.53968253968254,325.0,-325.0,91.34920634920634,325.0,-325.0,325.0,-142.93650793650792,-325.0,-325.0,1.8253968253968254,1.507936507936508,-166.26984126984127
325.0,325.0,-325.0,325.0,-15.634920634920634,157.69841269841268,7.063492063492063,-27.539682539682538,14.523809523809524,-325.0,-325.0,-39.285714285714285,325.0,-325.0,8.809523809523808,325.0,-325.0,325.0,-117.53968253968253,-325.0,-325.0,-31.666666666666664,-31.98412698412698,-166.26984126984127
325.0,325.0,-325.0,325.0,-15.634920634920634,157.69841269841268,7.063492063492063,-27.539682539682538,14.523809523809524,-325.0,-325.0,-39.285714285714285,325.0,-325.0,8.809523809523808,325.0,-325.0,325.0,-117.53968253968253,-325.0,-325.0,-31.666666666666664,-31.98412698412698,-166.26984126984127
325.0,325.0,-325.0,325.0,-84.52380952380952,161.34920634920633,-67.22222222222221,-21.03174603174603,-58.8095238095238,-325.0,-325.0,-31.825396825396822,325.0,-325.0,-65.63492063492063,325.0,-325.0,325.0,-95.63492063492063,-325.0,-325.0,-31.825396825396822,-33.57142857142857,-166.26984126984127
325.0,325.0,-325.0,325.0,-84.52380952380952,161.34920634920633,-67.22222222222221,-21.03174603174603,-58.8095238095238,-325.0,-325.0,-31.825396825396822,325.0,-325.0,-65.63492063492063,325.0,-325.0,325.0,-95.63492063492063,-325.0,-325.0,-31.825396825396822,-33.57142857142857,-166.26984126984127
325.0,325.0,-325.0,325.0,325.0,143.09523809523807,-243.4126984126984,-13.888888888888888,-234.52380952380952,-298.17460317460313,-325.0,-23.253968253968253,325.0,-325.0,-241.66666666666666,325.0,-325.0,325.0,-62.93650793650793,-325.0,-325.0,0.7142857142857142,0.5555555555555556,-166.26984126984127
325.0,325.0,-325.0,325.0,325.0,143.09523809523807,-243.4126984126984,-13.888888888888888,-234.52380952380952,-298.17460317460313,-325.0,-23.253968253968253,325.0,-325.0,-241.66666666666666,325.0,-325.0,325.0,-62.93650793650793,-325.0,-325.0,0.7142857142857142,0.5555555555555556,-166.26984126984127
325.0,182.14285714285714,-325.0,325.0,325.0,135.15873015873015,-277.06349206349205,-10.714285714285714,-268.3333333333333,-288.17460317460313,-325.0,-18.65079365079365,325.0,-325.0,-275.1587301587301,325.0,-325.0,325.0,-50.238095238095234,-325.0,-325.0,-0.5555555555555556,-0.873015873015873,-166.26984126984127
325.0,182.14285714285714,-325.0,325.0,325.0,135.15873015873015,-277.06349206349205,-10.714285714285714,-268.3333333333333,-288.17460317460313,-325.0,-18.65079365079365,325.0,-325.0,-275.1587301587301,325.0,-325.0,325.0,-50.238095238095234,-325.0,-325.0,-0.5555555555555556,-0.873015873015873,-166.26984126984127
325.0,-139.76190476190476,-325.0,325.0,325.0,130.87301587301587,-271.19047619047615,-8.809523809523808,-262.6190476190476,-283.25396825396825,-325.0,-16.428571428571427,325.0,-325.0,-269.6031746031746,325.0,-325.0,325.0,-44.2063492063492,-325.0,-325.0,0.07936507936507936,-0.3968253968253968,-321.8253968253968
325.0,-139.76190476190476,-325.0,325.0,325.0,130.87301587301587,-271.19047619047615,-8.809523809523808,-262.6190476190476,-283.25396825396825,-325.0,-16.428571428571427,325.0,-325.0,-269.6031746031746,325.0,-325.0,325.0,-44.2063492063492,-325.0,-325.0,0.07936507936507936,-0.3968253968253968,-321.8253968253968
325.0,-325.0,-325.0,325.0,325.0,122.14285714285714,-238.33333333333331,-7.698412698412698,-229.76190476190476,-275.7936507936508,-325.0,-15.317460317460316,325.0,-325.0,-237.06349206349205,325.0,-325.0,325.0,-38.33333333333333,-325.0,-325.0,-0.5555555555555556,-0.23809523809523808,-321.8253968253968
325.0,-325.0,-325.0,325.0,325.0,122.14285714285714,-238.33333333333331,-7.698412698412698,-229.76190476190476,-275.7936507936508,-325.0,-15.317460317460316,325.0,-325.0,-237.06349206349205,325.0,-325.0,325.0,-38.33333333333333,-325.0,-325.0,-0.5555555555555556,-0.23809523809523808,-321.8253968253968
325.0,-325.0,-325.0,325.0,325.0,118.8095238095238,-229.12698412698413,-3.253968253968254,-220.7142857142857,-269.9206349206349,-325.0,-9.603174603174603,325.0,-325.0,-228.96825396825395,325.0,-325.0,325.0,-27.857142857142854,-325.0,-325.0,32.93650793650794,32.460317460317455,-321.8253968253968
325.0,-325.0,-325.0,325.0,325.0,118.8095238095238,-229.12698412698413,-3.253968253968254,-220.7142857142857,-269.9206349206349,-325.0,-9.603174603174603,325.0,-325.0,-228.96825396825395,325.0,-325.0,325.0,-27.857142857142854,-325.0,-325.0,32.93650793650794,32.460317460317455,-321.8253968253968
325.0,-325.0,-325.0,325.0,325.0,113.88888888888889,-254.68253968253967,-2.46031746031746,-246.74603174603172,-265.4761904761905,-325.0,-8.809523809523808,325.0,-325.0,-252.93650793650792,325.0,-325.0,325.0,-24.206349206349206,-325.0,-325.0,-33.25396825396825,-32.3015873015873,-321.8253968253968
325.0,-325.0,-325.0,325.0,325.0,113.88888888888889,-254.68253968253967,-2.46031746031746,-246.74603174603172,-265.4761904761905,-325.0,-8.809523809523808,325.0,-325.0,-252.93650793650792,325.0,-325.0,325.0,-24.206349206349206,-325.0,-325.0,-33.25396825396825,-32.3015873015873,-321.8253968253968
325.0,-325.0,-325.0,325.0,325.0,104.52380952380952,-239.44444444444443,-4.365079365079365,-231.98412698412696,-260.87301587301585,-325.0,-10.238095238095237,325.0,-325.0,-239.44444444444443,325.0,-325.0,325.0,-22.777777777777775,-325.0,-325.0,33.41269841269841,31.19047619047619,-321.8253968253968
325.0,-325.0,-325.0,325.0,325.0,104.52380952380952,-239.44444444444443,-4.365079365079365,-231.98412698412696,-260.87301587301585,-325.0,-10.238095238095237,325.0,-325.0,-239.44444444444443,325.0,-325.0,325.0,-22.777777777777775,-325.0,-325.0,33.41269841269841,31.19047619047619,-321.8253968253968
325.0,-325.0,-325.0,325.0,325.0,106.9047619047619,-269.76190476190476,3.253968253968254,-261.8253968253968,-256.4285714285714,-325.0,-1.8253968253968254,325.0,-325.0,-268.015873015873,325.0,-325.0,325.0,-12.142857142857142,-325.0,-325.0,-33.57142857142857,-33.57142857142857,-166.26984126984127
325.0,-325.0,-325.0,325.0,325.0,106.9047619047619,-269.76190476190476,3.253968253968254,-261.8253968253968,-256.4285714285714,-325.0,-1.8253968253968254,325.0,-325.0,-268.015873015873,325.0,-325.0,325.0,-12.142857142857142,-325.0,-325.0,-33.57142857142857,-33.57142857142857,-166.26984126984127
325.0,-325.0,-325.0,325.0,325.0,99.6031746031746,-253.25396825396825,1.984126984126984,-245.0,-253.09523809523807,-325.0,-3.4126984126984126,325.0,-325.0,-253.25396825396825,325.0,-325.0,325.0,-11.825396825396824,-325.0,-325.0,40.714285714285715,36.904761904761905,-166.26984126984127
325.0,-325.0,-325.0,325.0,325.0,99.6031746031746,-253.25396825396825,1.984126984126984,-245.0,-253.09523809523807,-325.0,-3.4126984126984126,325.0,-325.0,-253.25396825396825,325.0,-325.0,325.0,-11.825396825396824,-325.0,-325.0,40.714285714285715,36.904761904761905,-166.26984126984127
325.0,-325.0,-325.0,325.0,325.0,-112.77777777777777,-247.53968253968253,5.7936507936507935,-239.76190476190476,-249.76190476190476,-325.0,0.7142857142857142,325.0,-325.0,-246.9047619047619,325.0,-325.0,325.0,-5.7936507936507935,-325.0,-325.0,7.698412698412698,5.158730158730158,-166.26984126984127
325.0,-325.0,-325.0,325.0,325.0,-112.77777777777777,-247.53968253968253,5.7936507936507935,-239.76190476190476,-249.76190476190476,-325.0,0.7142857142857142,325.0,-325.0,-246.9047619047619,325.0,-325.0,325.0,-5.7936507936507935,-325.0,-325.0,7.698412698412698,5.158730158730158,-166.26984126984127
325.0,-325.0,-325.0,322.6190476190476,325.0,-325.0,-167.69841269841268,13.888888888888888,-161.19047619047618,-234.04761904761904,-325.0,3.73015873015873,321.5079365079365,-325.0,-167.85714285714286,325.0,-325.0,325.0,4.2063492063492065,-325.0,-325.0,24.206349206349206,24.206349206349206,-166.26984126984127
325.0,-325.0,-325.0,322.6190476190476,325.0,-325.0,-167.69841269841268,13.888888888888888,-161.19047619047618,-234.04761904761904,-325.0,3.73015873015873,321.5079365079365,-325.0,-167.85714285714286,325.0,-325.0,325.0,4.2063492063492065,-325.0,-325.0,24.206349206349206,24.206349206349206,-166.26984126984127
325.0,-325.0,-325.0,308.8095238095238,325.0,-325.0,-163.57142857142856,22.936507936507937,-158.4920634920635,-224.04761904761904,-325.0,11.825396825396824,308.015873015873,-316.74603174603175,-163.57142857142856,312.1428571428571,-325.0,318.17460317460313,14.206349206349206,-315.0,-317.06349206349205,-0.7142857142857142,-0.23809523809523808,-166.26984126984127
325.0,-325.0,-325.0,308.8095238095238,325.0,-325.0,-163.57142857142856,22.936507936507937,-158.4920634920635,-224.04761904761904,-325.0,11.825396825396824,308.015873015873,-316.74603174603175,-163.57142857142856,312.1428571428571,-325.0,318.17460317460313,14.206349206349206,-315.0,-317.06349206349205,-0.7142857142857142,-0.23809523809523808,-166.26984126984127
265.7936507936508,-325.0,-285.6349206349206,143.57142857142856,305.4761904761905,-325.0,82.46031746031746,26.9047619047619,84.68253968253968,-191.8253968253968,-305.3174603174603,22.936507936507937,263.25396825396825,-270.23809523809524,82.3015873015873,93.25396825396825,-290.23809523809524,215.3174603174603,27.063492063492063,-269.6031746031746,-270.07936507936506,12.3015873015873,11.349206349206348,-321.8253968253968
265.7936507936508,-325.0,-285.6349206349206,143.57142857142856,305.4761904761905,-325.0,82.46031746031746,26.9047619047619,84.68253968253968,-191.8253968253968,-305.3174603174603,22.936507936507937,263.25396825396825,-270.23809523809524,82.3015873015873,93.25396825396825,-290.23809523809524,215.3174603174603,27.063492063492063,-269.6031746031746,-270.07936507936506,12.3015873015873,11.349206349206348,-321.8253968253968
165.3174603174603,-310.39682539682536,-210.7142857142857,-171.984126984127,244.84126984126982,-303.57142857142856,325.0,26.9047619047619,325.0,-137.85714285714286,-245.47619047619045,31.507936507936506,188.33333333333331,-192.14285714285714,325.0,-223.88888888888889,-218.4920634920635,-104.84126984126983,46.74603174603175,-193.88888888888889,-191.8253968253968,46.269841269841265,44.84126984126984,-321.8253968253968
165.3174603174603,-310.39682539682536,-210.7142857142857,-171.984126984127,244.84126984126982,-303.57142857142856,325.0,26.9047619047619,325.0,-137.85714285714286,-245.47619047619045,31.507936507936506,188.33333333333331,-192.14285714285714,325.0,-223.88888888888889,-218.4920634920635,-104.84126984126983,46.74603174603175,-193.88888888888889,-191.8253968253968,46.269841269841265,44.84126984126984,-321.8253968253968
123.88888888888889,-295.7936507936508,-175.3174603174603,-325.0,203.7301587301587,-281.984126984127,325.0,23.57142857142857,325.0,-114.04761904761904,-205.3174603174603,29.76190476190476,155.63492063492063,-157.69841269841268,325.0,-325.0,-181.5079365079365,-325.0,54.68253968253968,-160.55555555555554,-157.69841269841268,44.84126984126984,44.2063492063492,-321.8253968253968
123.88888888888889,-295.7936507936508,-175.3174603174603,-325.0,203.7301587301587,-281.984126984127,325.0,23.57142857142857,325.0,-114.04761904761904,-205.3174603174603,29.76190476190476,155.63492063492063,-157.69841269841268,325.0,-325.0,-181.5079365079365,-325.0,54.68253968253968,-160.55555555555554,-157.69841269841268,44.84126984126984,44.2063492063492,-321.8253968253968
-100.55555555555554,-289.76190476190476,-171.66666666666666,-325.0,199.60317460317458,-276.4285714285714,325.0,27.22222222222222,325.0,-111.66666666666666,-201.34920634920633,33.888888888888886,152.14285714285714,-154.36507936507937,325.0,-325.0,-177.69841269841268,-325.0,58.49206349206349,-157.06349206349205,-154.36507936507937,18.96825396825397,20.71428571428571,-321.8253968253968
-100.55555555555554,-289.76190476190476,-171.66666666666666,-325.0,199.60317460317458,-276.4285714285714,325.0,27.22222222222222,325.0,-111.66666666666666,-201.34920634920633,33.888888888888886,152.14285714285714,-154.36507936507937,325.0,-325.0,-177.69841269841268,-325.0,58.49206349206349,-157.06349206349205,-154.36507936507937,18.96825396825397,20.71428571428571,-321.8253968253968
-325.0,-283.73015873015873,-168.015873015873,-325.0,195.47619047619045,-270.7142857142857,325.0,30.87301587301587,325.0,-109.12698412698413,-197.38095238095238,38.17460317460317,148.8095238095238,-151.03174603174602,325.0,-325.0,-173.88888888888889,-325.0,62.3015873015873,-153.57142857142856,-150.87301587301587,-6.746031746031746,-2.7777777777777777,-321.8253968253968
-325.0,-283.73015873015873,-168.015873015873,-325.0,195.47619047619045,-270.7142857142857,325.0,30.87301587301587,325.0,-109.12698412698413,-197.38095238095238,38.17460317460317,148.8095238095238,-151.03174603174602,325.0,-325.0,-173.88888888888889,-325.0,62.3015873015873,-153.57142857142856,-150.87301587301587,-6.746031746031746,-2.7777777777777777,-321.8253968253968
-325.0,-283.73015873015873,-168.015873015873,-325.0,195.47619047619045,-270.7142857142857,325.0,30.87301587301587,325.0,-109.12698412698413,-197.38095238095238,38.17460317460317,148.8095238095238,-151.03174603174602,325.0,-325.0,-173.88888888888889,-325.0,62.3015873015873,-153.57142857142856,-150.87301587301587,-6.746031746031746,-2.7777777777777777,-166.26984126984127
-325.0,-283.73015873015873,-168.015873015873,-325.0,195.47619047619045,-270.7142857142857,325.0,30.87301587301587,325.0,-109.12698412698413,-197.38095238095238,38.17460317460317,148.8095238095238,-151.03174603174602,325.0,-325.0,-173.88888888888889,-325.0,62.3015873015873,-153.57142857142856,-150.87301587301587,-6.746031746031746,-2.7777777777777777,-166.26984126984127
-325.0,-242.77777777777777,-143.73015873015873,-325.0,166.9047619047619,-231.5079365079365,281.3492063492063,23.41269841269841,300.87301587301585,-92.93650793650794,-169.28571428571428,29.126984126984127,126.26984126984127,-128.015873015873,299.76190476190476,-325.0,-148.4920634920635,-325.0,51.507936507936506,-130.87301587301587,-127.6984126984127,27.38095238095238,26.587301587301585,-166.26984126984127
-325.0,-242.77777777777777,-143.73015873015873,-325.0,166.9047619047619,-231.5079365079365,281.3492063492063,23.41269841269841,300.87301587301585,-92.93650793650794,-169.28571428571428,29.126984126984127,126.26984126984127,-128.015873015873,299.76190476190476,-325.0,-148.4920634920635,-325.0,51.507936507936506,-130.87301587301587,-127.6984126984127,27.38095238095238,26.587301587301585,-166.26984126984127
-325.0,-239.76190476190476,-141.984126984127,-325.0,165.0,-228.65079365079364,277.85714285714283,25.0,296.90476190476187,-91.5079365079365,-167.2222222222222,30.87301587301587,124.68253968253967,-126.42857142857142,295.95238095238096,-325.0,-146.58730158730157,-325.0,52.460317460317455,-129.12698412698413,-126.1111111111111,-0.07936507936507936,0.07936507936507936,-166.26984126984127
-325.0,-239.76190476190476,-141.984126984127,-325.0,165.0,-228.65079365079364,277.85714285714283,25.0,296.90476190476187,-91.5079365079365,-167.2222222222222,30.87301587301587,124.68253968253967,-126.42857142857142,295.95238095238096,-325.0,-146.58730158730157,-325.0,52.460317460317455,-129.12698412698413,-126.1111111111111,-0.07936507936507936,0.07936507936507936,-166.26984126984127
-325.0,-234.84126984126982,-138.96825396825395,-325.0,161.19047619047618,-223.7301587301587,271.66666666666663,25.952380952380953,290.7142857142857,-89.6031746031746,-163.88888888888889,31.507936507936506,121.82539682539682,-123.4126984126984,289.76190476190476,-325.0,-143.57142857142856,-325.0,53.095238095238095,-126.58730158730158,-123.25396825396825,28.174603174603174,26.9047619047619,-166.26984126984127
-325.0,-234.84126984126982,-138.96825396825395,-325.0,161.19047619047618,-223.7301587301587,271.66666666666663,25.952380952380953,290.7142857142857,-89.6031746031746,-163.88888888888889,31.507936507936506,121.82539682539682,-123.4126984126984,289.76190476190476,-325.0,-143.57142857142856,-325.0,53.095238095238095,-126.58730158730158,-123.25396825396825,28.174603174603174,26.9047619047619,-166.26984126984127
-325.0,-233.7301587301587,-138.33333333333331,-325.0,160.7142857142857,-222.93650793650792,270.7142857142857,26.587301587301585,289.4444444444444,-89.28571428571428,-163.4126984126984,32.460317460317455,121.34920634920634,-122.93650793650794,288.8095238095238,-325.0,-142.77777777777777,-325.0,53.57142857142857,-125.79365079365078,-122.77777777777777,43.73015873015873,42.14285714285714,-166.26984126984127
-325.0,-233.7301587301587,-138.33333333333331,-325.0,160.7142857142857,-222.93650793650792,270.7142857142857,26.587301587301585,289.4444444444444,-89.28571428571428,-163.4126984126984,32.460317460317455,121.34920634920634,-122.93650793650794,288.8095238095238,-325.0,-142.77777777777777,-325.0,53.57142857142857,-125.79365079365078,-122.77777777777777,43.73015873015873,42.14285714285714,-166.26984126984127
-325.0,-233.7301587301587,-138.33333333333331,-325.0,160.7142857142857,-222.93650793650792,270.7142857142857,26.587301587301585,289.4444444444444,-89.28571428571428,-163.4126984126984,32.460317460317455,121.34920634920634,-122.93650793650794,288.8095238095238,-325.0,-142.77777777777777,-325.0,53.57142857142857,-125.79365079365078,-122.77777777777777,43.73015873015873,42.14285714285714,-321.8253968253968
-325.0,-233.7301587301587,-138.33333333333331,-325.0,160.7142857142857,-222.93650793650792,270.7142857142857,26.587301587301585,289.4444444444444,-89.28571428571428,-163.4126984126984,32.460317460317455,121.34920634920634,-122.93650793650794,288.8095238095238,-325.0,-142.77777777777777,-325.0,53.57142857142857,-125.79365079365078,-122.77777777777777,43.73015873015873,42.14285714285714,-321.8253968253968
-325.0,-233.7301587301587,-138.33333333333331,-325.0,160.7142857142857,-222.93650793650792,270.7142857142857,26.587301587301585,289.4444444444444,-89.28571428571428,-163.4126984126984,32.460317460317455,121.34920634920634,-122.93650793650794,288.8095238095238,-325.0,-142.77777777777777,-325.0,53.57142857142857,-125.79365079365078,-122.77777777777777,43.73015873015873,42.14285714285714,-321.8253968253968
-325.0,-233.7301587301587,-138.33333333333331,-325.0,160.7142857142857,-222.93650793650792,270.7142857142857,26.587301587301585,289.4444444444444,-89.28571428571428,-163.4126984126984,32.460317460317455,121.34920634920634,-122.93650793650794,288.8095238095238,-325.0,-142.77777777777777,-325.0,53.57142857142857,-125.79365079365078,-122.77777777777777,43.73015873015873,42.14285714285714,-321.8253968253968
-325.0,-219.76190476190476,-129.76190476190476,-325.0,150.55555555555554,-209.12698412698413,253.4126984126984,18.65079365079365,271.5079365079365,-83.73015873015872,-153.4126984126984,23.88888888888889,113.57142857142857,-115.0,270.7142857142857,-325.0,-134.04761904761904,-325.0,43.41269841269841,-118.01587301587301,-114.52380952380952,29.126984126984127,28.015873015873016,-321.8253968253968
-325.0,-219.76190476190476,-129.76190476190476,-325.0,150.55555555555554,-209.12698412698413,253.4126984126984,18.65079365079365,271.5079365079365,-83.73015873015872,-153.4126984126984,23.88888888888889,113.57142857142857,-115.0,270.7142857142857,-325.0,-134.04761904761904,-325.0,43.41269841269841,-118.01587301587301,-114.52380952380952,29.126984126984127,28.015873015873016,-321.8253968253968
-325.0,-218.8095238095238,-129.44444444444443,-325.0,149.9206349206349,-208.17460317460316,252.6190476190476,16.587301587301585,270.39682539682536,-83.4126984126984,-152.77777777777777,22.46031746031746,113.09523809523809,-114.36507936507935,269.6031746031746,-325.0,-133.4126984126984,-325.0,41.666666666666664,-117.6984126984127,-114.04761904761904,42.460317460317455,41.98412698412698,-321.8253968253968
-325.0,-218.8095238095238,-129.44444444444443,-325.0,149.9206349206349,-208.17460317460316,252.6190476190476,16.587301587301585,270.39682539682536,-83.4126984126984,-152.77777777777777,22.46031746031746,113.09523809523809,-114.36507936507935,269.6031746031746,-325.0,-133.4126984126984,-325.0,41.666666666666664,-117.6984126984127,-114.04761904761904,42.460317460317455,41.98412698412698,-321.8253968253968
-325.0,-213.25396825396825,-125.63492063492063,-325.0,146.11111111111111,-202.77777777777777,245.79365079365078,27.857142857142854,263.4126984126984,-81.03174603174602,-148.96825396825395,32.93650793650794,110.39682539682539,-111.34920634920634,262.9365079365079,-325.0,-129.9206349206349,-325.0,51.03174603174603,-114.52380952380952,-110.87301587301587,16.428571428571427,15.634920634920634,-321.8253968253968
-325.0,-213.25396825396825,-125.63492063492063,-325.0,146.11111111111111,-202.77777777777777,245.79365079365078,27.857142857142854,263.4126984126984,-81.03174603174602,-148.96825396825395,32.93650793650794,110.39682539682539,-111.34920634920634,262.9365079365079,-325.0,-129.9206349206349,-325.0,51.03174603174603,-114.52380952380952,-110.87301587301587,16.428571428571427,15.634920634920634,-321.8253968253968
-325.0,-208.96825396825395,-123.25396825396825,-325.0,143.09523809523807,-198.8095238095238,240.7142857142857,18.80952380952381,257.85714285714283,-79.44444444444444,-145.95238095238093,24.523809523809522,107.6984126984127,-108.96825396825396,257.38095238095235,-325.0,-127.53968253968253,-325.0,42.14285714285714,-112.14285714285714,-108.65079365079364,-29.920634920634917,-28.809523809523807,-166.26984126984127
-325.0,-208.96825396825395,-123.25396825396825,-325.0,143.09523809523807,-198.8095238095238,240.7142857142857,18.80952380952381,257.85714285714283,-79.44444444444444,-145.95238095238093,24.523809523809522,107.6984126984127,-108.96825396825396,257.38095238095235,-325.0,-127.53968253968253,-325.0,42.14285714285714,-112.14285714285714,-108.65079365079364,-29.920634920634917,-28.809523809523807,-166.26984126984127
-325.0,-205.47619047619045,-121.34920634920634,-325.0,140.7142857142857,-195.47619047619045,236.42857142857142,20.555555555555554,253.57142857142856,-78.01587301587301,-143.57142857142856,25.79365079365079,105.95238095238095,-107.22222222222221,252.93650793650792,-325.0,-125.15873015873015,-325.0,43.25396825396825,-110.07936507936508,-106.74603174603175,29.76190476190476,28.65079365079365,-166.26984126984127
-325.0,-205.47619047619045,-121.34920634920634,-325.0,140.7142857142857,-195.47619047619045,236.42857142857142,20.555555555555554,253.57142857142856,-78.01587301587301,-143.57142857142856,25.79365079365079,105.95238095238095,-107.22222222222221,252.93650793650792,-325.0,-125.15873015873015,-325.0,43.25396825396825,-110.07936507936508,-106.74603174603175,29.76190476190476,28.65079365079365,-166.26984126984127
-325.0,-202.14285714285714,-119.44444444444444,-325.0,138.17460317460316,-192.3015873015873,232.46031746031744,25.158730158730158,249.12698412698413,-76.74603174603175,-141.19047619047618,30.87301587301587,104.04761904761904,-105.31746031746032,248.65079365079364,-325.0,-123.09523809523809,-325.0,47.22222222222222,-108.33333333333333,-104.84126984126983,-29.76190476190476,-29.126984126984127,-166.26984126984127
-325.0,-202.14285714285714,-119.44444444444444,-325.0,138.17460317460316,-192.3015873015873,232.46031746031744,25.158730158730158,249.12698412698413,-76.74603174603175,-141.19047619047618,30.87301587301587,104.04761904761904,-105.31746031746032,248.65079365079364,-325.0,-123.09523809523809,-325.0,47.22222222222222,-108.33333333333333,-104.84126984126983,-29.76190476190476,-29.126984126984127,-166.26984126984127
-325.0,-199.60317460317458,-117.85714285714285,-325.0,136.26984126984127,-189.76190476190476,229.44444444444443,25.158730158730158,245.95238095238093,-75.79365079365078,-139.44444444444443,30.71428571428571,102.61904761904762,-103.73015873015872,245.3174603174603,-325.0,-121.5079365079365,-325.0,46.904761904761905,-107.06349206349206,-103.4126984126984,0.5555555555555556,-0.3968253968253968,-166.26984126984127
-325.0,-199.60317460317458,-117.85714285714285,-325.0,136.26984126984127,-189.76190476190476,229.44444444444443,25.158730158730158,245.95238095238093,-75.79365079365078,-139.44444444444443,30.71428571428571,102.61904761904762,-103.73015873015872,245.3174603174603,-325.0,-121.5079365079365,-325.0,46.904761904761905,-107.06349206349206,-103.4126984126984,0.5555555555555556,-0.3968253968253968,-166.26984126984127
-325.0,-195.47619047619045,-115.47619047619047,-325.0,133.73015873015873,-185.95238095238093,224.52380952380952,22.777777777777775,240.7142857142857,-74.2063492063492,-136.74603174603175,28.65079365079365,100.23809523809523,-101.66666666666666,240.3968253968254,-325.0,-119.12698412698413,-325.0,43.73015873015873,-104.36507936507935,-101.19047619047619,-31.03174603174603,-29.76190476190476,-166.26984126984127
-325.0,-195.47619047619045,-115.47619047619047,-325.0,133.73015873015873,-185.95238095238093,224.52380952380952,22.777777777777775,240.7142857142857,-74.2063492063492,-136.74603174603175,28.65079365079365,100.23809523809523,-101.66666666666666,240.3968253968254,-325.0,-119.12698412698413,-325.0,43.73015873015873,-104.36507936507935,-101.19047619047619,-31.03174603174603,-29.76190476190476,-166.26984126984127
-325.0,-191.34920634920633,-113.25396825396825,-325.0,130.7142857142857,-181.984126984127,219.60317460317458,27.857142857142854,235.63492063492063,-72.61904761904762,-134.04761904761904,34.36507936507936,98.17460317460316,-99.28571428571428,235.3174603174603,-325.0,-116.42857142857142,-325.0,48.80952380952381,-102.30158730158729,-98.96825396825396,0.07936507936507936,-1.507936507936508,-321.8253968253968
-325.0,-191.34920634920633,-113.25396825396825,-325.0,130.7142857142857,-181.984126984127,219.60317460317458,27.857142857142854,235.63492063492063,-72.61904761904762,-134.04761904761904,34.36507936507936,98.17460317460316,-99.28571428571428,235.3174603174603,-325.0,-116.42857142857142,-325.0,48.80952380952381,-102.30158730158729,-98.96825396825396,0.07936507936507936,-1.507936507936508,-321.8253968253968
-325.0,-187.53968253968253,-110.55555555555554,-325.0,127.85714285714285,-178.015873015873,214.68253968253967,26.26984126984127,230.7142857142857,-70.87301587301587,-131.19047619047618,31.825396825396822,95.95238095238095,-97.06349206349206,230.3968253968254,-325.0,-113.88888888888889,-325.0,45.95238095238095,-100.23809523809523,-96.42857142857142,-7.3809523809523805,-9.761904761904761,-321.8253968253968
-325.0,-187.53968253968253,-110.55555555555554,-325.0,127.85714285714285,-178.015873015873,214.68253968253967,26.26984126984127,230.7142857142857,-70.87301587301587,-131.19047619047618,31.825396825396822,95.95238095238095,-97.06349206349206,230.3968253968254,-325.0,-113.88888888888889,-325.0,45.95238095238095,-100.23809523809523,-96.42857142857142,-7.3809523809523805,-9.761904761904761,-321.8253968253968
-325.0,-183.7301587301587,-108.33333333333333,-325.0,125.31746031746032,-174.52380952380952,210.2380952380952,25.476190476190474,225.63492063492063,-69.28571428571428,-128.4920634920635,31.349206349206348,94.04761904761904,-95.0,225.47619047619045,-325.0,-111.66666666666666,-325.0,44.68253968253968,-97.85714285714285,-94.52380952380952,0.3968253968253968,-0.07936507936507936,-321.8253968253968
-325.0,-183.7301587301587,-108.33333333333333,-325.0,125.31746031746032,-174.52380952380952,210.2380952380952,25.476190476190474,225.63492063492063,-69.28571428571428,-128.4920634920635,31.349206349206348,94.04761904761904,-95.0,225.47619047619045,-325.0,-111.66666666666666,-325.0,44.68253968253968,-97.85714285714285,-94.52380952380952,0.3968253968253968,-0.07936507936507936,-321.8253968253968
-325.0,-180.55555555555554,-106.42857142857142,-325.0,123.09523809523809,-171.34920634920633,206.42857142857142,32.93650793650794,222.14285714285714,-68.33333333333333,-126.42857142857142,39.285714285714285,92.46031746031746,-93.09523809523809,221.66666666666666,-325.0,-109.6031746031746,-325.0,52.61904761904761,-96.1111111111111,-92.77777777777777,24.523809523809522,21.507936507936506,-321.8253968253968
-325.0,-180.55555555555554,-106.42857142857142,-325.0,123.09523809523809,-171.34920634920633,206.42857142857142,32.93650793650794,222.14285714285714,-68.33333333333333,-126.42857142857142,39.285714285714285,92.46031746031746,-93.09523809523809,221.66666666666666,-325.0,-109.6031746031746,-325.0,52.61904761904761,-96.1111111111111,-92.77777777777777,24.523809523809522,21.507936507936506,-321.8253968253968
-325.0,-176.58730158730157,-104.04761904761904,-325.0,120.39682539682539,-167.69841269841268,201.98412698412696,24.68253968253968,217.2222222222222,-66.42857142857143,-123.57142857142857,-325.0,90.23809523809523,-90.87301587301587,216.9047619047619,-325.0,-107.22222222222221,-325.0,38.49206349206349,-93.88888888888889,-90.55555555555556,-29.6031746031746,-31.19047619047619,-321.8253968253968
-325.0,-176.58730158730157,-104.04761904761904,-325.0,120.39682539682539,-167.69841269841268,201.98412698412696,24.68253968253968,217.2222222222222,-66.42857142857143,-123.57142857142857,-325.0,90.23809523809523,-90.87301587301587,216.9047619047619,-325.0,-107.22222222222221,-325.0,38.49206349206349,-93.88888888888889,-90.55555555555556,-29.6031746031746,-31.19047619047619,-321.8253968253968
-325.0,-173.57142857142856,-102.30158730158729,-325.0,118.33333333333333,-164.68253968253967,198.4920634920635,18.333333333333332,213.57142857142856,-65.31746031746032,-121.66666666666666,-325.0,88.80952380952381,-89.12698412698413,213.25396825396825,-325.0,-105.31746031746032,-325.0,30.71428571428571,-92.14285714285714,-88.80952380952381,31.98412698412698,29.6031746031746,-166.26984126984127
-325.0,-173.57142857142856,-102.30158730158729,-325.0,118.33333333333333,-164.68253968253967,198.4920634920635,18.333333333333332,213.57142857142856,-65.31746031746032,-121.66666666666666,-325.0,88.80952380952381,-89.12698412698413,213.25396825396825,-325.0,-105.31746031746032,-325.0,30.71428571428571,-92.14285714285714,-88.80952380952381,31.98412698412698,29.6031746031746,-166.26984126984127
-325.0,-170.7142857142857,-100.55555555555554,-325.0,116.42857142857142,-161.984126984127,195.0,16.904761904761905,209.9206349206349,-64.04761904761905,-119.6031746031746,-325.0,87.06349206349206,-87.6984126984127,209.60317460317458,-325.0,-103.57142857142857,-325.0,30.238095238095237,-90.87301587301587,-87.38095238095238,-31.349206349206348,-30.87301587301587,-166.26984126984127
-325.0,-170.7142857142857,-100.55555555555554,-325.0,116.42857142857142,-161.984126984127,195.0,16.904761904761905,209.9206349206349,-64.04761904761905,-119.6031746031746,-325.0,87.06349206349206,-87.6984126984127,209.60317460317458,-325.0,-103.57142857142857,-325.0,30.238095238095237,-90.87301587301587,-87.38095238095238,-31.349206349206348,-30.87301587301587,-166.26984126984127
-325.0,-168.015873015873,-98.80952380952381,-325.0,114.36507936507935,-159.12698412698413,191.8253968253968,16.26984126984127,206.26984126984127,-63.095238095238095,-117.53968253968253,-325.0,85.31746031746032,-86.1111111111111,206.1111111111111,-325.0,-101.82539682539682,-325.0,29.126984126984127,-89.28571428571428,-85.79365079365078,30.71428571428571,30.07936507936508,-166.26984126984127
-325.0,-168.015873015873,-98.80952380952381,-325.0,114.36507936507935,-159.12698412698413,191.8253968253968,16.26984126984127,206.26984126984127,-63.095238095238095,-117.53968253968253,-325.0,85.31746031746032,-86.1111111111111,206.1111111111111,-325.0,-101.82539682539682,-325.0,29.126984126984127,-89.28571428571428,-85.79365079365078,30.71428571428571,30.07936507936508,-166.26984126984127
-325.0,-165.0,-97.22222222222221,-325.0,112.46031746031746,-156.42857142857142,188.33333333333331,15.95238095238095,202.77777777777777,-61.98412698412698,-115.63492063492063,-325.0,84.04761904761904,-84.68253968253968,202.77777777777777,-325.0,-99.92063492063491,-325.0,28.809523809523807,-87.6984126984127,-84.2063492063492,-31.98412698412698,-30.87301587301587,-166.26984126984127
-325.0,-165.0,-97.22222222222221,-325.0,112.46031746031746,-156.42857142857142,188.33333333333331,15.95238095238095,202.77777777777777,-61.98412698412698,-115.63492063492063,-325.0,84.04761904761904,-84.68253968253968,202.77777777777777,-325.0,-99.92063492063491,-325.0,28.809523809523807,-87.6984126984127,-84.2063492063492,-31.98412698412698,-30.87301587301587,-166.26984126984127
-325.0,-162.3015873015873,-95.31746031746032,-325.0,110.39682539682539,-153.73015873015873,185.0,10.873015873015872,199.28571428571428,-60.873015873015866,-113.88888888888889,-325.0,82.46031746031746,-83.09523809523809,199.28571428571428,-325.0,-98.49206349206348,-325.0,23.57142857142857,-86.1111111111111,-82.61904761904762,31.666666666666664,30.87301587301587,-166.26984126984127
-325.0,-162.3015873015873,-95.31746031746032,-325.0,110.39682539682539,-153.73015873015873,185.0,10.873015873015872,199.28571428571428,-60.873015873015866,-113.88888888888889,-325.0,82.46031746031746,-83.09523809523809,199.28571428571428,-325.0,-98.49206349206348,-325.0,23.57142857142857,-86.1111111111111,-82.61904761904762,31.666666666666664,30.87301587301587,-166.26984126984127
-325.0,-158.96825396825395,-93.57142857142857,-320.23809523809524,108.17460317460316,-150.55555555555554,181.03174603174602,12.936507936507935,195.0,-57.06349206349206,-111.66666666666666,-325.0,80.71428571428571,-81.5079365079365,195.0,-323.0952380952381,-96.42857142857142,-325.0,25.634920634920633,-84.36507936507937,-80.87301587301587,-0.5555555555555556,0.23809523809523808,-321.8253968253968
-325.0,-158.96825396825395,-93.57142857142857,-320.23809523809524,108.17460317460316,-150.55555555555554,181.03174603174602,12.936507936507935,195.0,-57.06349206349206,-111.66666666666666,-325.0,80.71428571428571,-81.5079365079365,195.0,-323.0952380952381,-96.42857142857142,-325.0,25.634920634920633,-84.36507936507937,-80.87301587301587,-0.5555555555555556,0.23809523809523808,-321.8253968253968
-325.0,-155.15873015873015,-91.19047619047619,-312.1428571428571,105.15873015873015,-146.74603174603175,176.26984126984127,13.253968253968253,190.07936507936506,149.12698412698413,-108.80952380952381,-325.0,78.4920634920635,-79.12698412698413,189.9206349206349,-315.7936507936508,-94.2063492063492,-325.0,25.634920634920633,-82.14285714285714,-78.80952380952381,-0.23809523809523808,0.07936507936507936,-321.8253968253968
-325.0,-155.15873015873015,-91.19047619047619,-312.1428571428571,105.15873015873015,-146.74603174603175,176.26984126984127,13.253968253968253,190.07936507936506,149.12698412698413,-108.80952380952381,-325.0,78.4920634920635,-79.12698412698413,189.9206349206349,-315.7936507936508,-94.2063492063492,-325.0,25.634920634920633,-82.14285714285714,-78.80952380952381,-0.23809523809523808,0.07936507936507936,-321.8253968253968
-325.0,-152.3015873015873,-89.76190476190476,-306.58730158730157,103.4126984126984,-144.68253968253967,173.25396825396825,8.65079365079365,187.06349206349205,325.0,-107.06349206349206,-325.0,77.06349206349206,-77.6984126984127,186.9047619047619,-310.87301587301585,-92.46031746031746,-325.0,21.19047619047619,-80.71428571428571,-77.53968253968253,30.71428571428571,28.333333333333332,-321.8253968253968
-325.0,-152.3015873015873,-89.76190476190476,-306.58730158730157,103.4126984126984,-144.68253968253967,173.25396825396825,8.65079365079365,187.06349206349205,325.0,-107.06349206349206,-325.0,77.06349206349206,-77.6984126984127,186.9047619047619,-310.87301587301585,-92.46031746031746,-325.0,21.19047619047619,-80.71428571428571,-77.53968253968253,30.71428571428571,28.333333333333332,-321.8253968253968
-325.0,-149.28571428571428,-87.85714285714285,-300.39682539682536,101.34920634920634,-141.34920634920636,169.44444444444443,16.26984126984127,182.77777777777777,325.0,-105.0,-325.0,75.31746031746032,-76.1111111111111,182.93650793650792,-304.5238095238095,-90.71428571428571,-319.76190476190476,28.96825396825397,-79.12698412698413,-75.63492063492063,-32.61904761904762,-31.507936507936506,-321.8253968253968
-325.0,-149.28571428571428,-87.85714285714285,-300.39682539682536,101.34920634920634,-141.34920634920636,169.44444444444443,16.26984126984127,182.77777777777777,325.0,-105.0,-325.0,75.31746031746032,-76.1111111111111,182.93650793650792,-304.5238095238095,-90.71428571428571,-319.76190476190476,28.96825396825397,-79.12698412698413,-75.63492063492063,-32.61904761904762,-31.507936507936506,-321.8253968253968
-325.0,-146.9047619047619,-86.42857142857143,-295.4761904761905,99.6031746031746,-138.96825396825395,166.58730158730157,16.746031746031743,179.60317460317458,325.0,-103.25396825396825,-325.0,74.2063492063492,-74.84126984126983,179.76190476190476,-299.4444444444444,-89.12698412698413,-314.68253968253964,29.444444444444443,-77.6984126984127,-74.36507936507937,32.3015873015873,31.349206349206348,-321.8253968253968
-325.0,-146.9047619047619,-86.42857142857143,-295.4761904761905,99.6031746031746,-138.96825396825395,166.58730158730157,16.746031746031743,179.60317460317458,325.0,-103.25396825396825,-325.0,74.2063492063492,-74.84126984126983,179.76190476190476,-299.4444444444444,-89.12698412698413,-314.68253968253964,29.444444444444443,-77.6984126984127,-74.36507936507937,32.3015873015873,31.349206349206348,-321.8253968253968
-325.0,-144.52380952380952,-85.0,-290.39682539682536,98.01587301587301,-136.58730158730157,163.73015873015873,20.396825396825395,176.74603174603175,325.0,-101.66666666666666,-325.0,72.93650793650794,-73.57142857142857,176.58730158730157,-294.5238095238095,-87.6984126984127,-309.6031746031746,33.888888888888886,-76.26984126984127,-72.93650793650794,-31.825396825396822,-31.98412698412698,-166.26984126984127
-325.0,-144.52380952380952,-85.0,-290.39682539682536,98.01587301587301,-136.58730158730157,163.73015873015873,20.396825396825395,176.74603174603175,325.0,-101.66666666666666,-325.0,72.93650793650794,-73.57142857142857,176.58730158730157,-294.5238095238095,-87.6984126984127,-309.6031746031746,33.888888888888886,-76.26984126984127,-72.93650793650794,-31.825396825396822,-31.98412698412698,-166.26984126984127
-325.0,-141.984126984127,-83.57142857142857,-285.4761904761905,96.26984126984127,-134.36507936507937,160.7142857142857,17.38095238095238,173.57142857142856,325.0,-99.92063492063491,-325.0,71.66666666666666,-72.14285714285714,173.57142857142856,-289.76190476190476,-86.1111111111111,-304.8412698412698,30.396825396825395,-75.15873015873015,-71.82539682539682,33.25396825396825,31.825396825396822,-166.26984126984127
-325.0,-141.984126984127,-83.57142857142857,-285.4761904761905,96.26984126984127,-134.36507936507937,160.7142857142857,17.38095238095238,173.57142857142856,325.0,-99.92063492063491,-325.0,71.66666666666666,-72.14285714285714,173.57142857142856,-289.76190476190476,-86.1111111111111,-304.8412698412698,30.396825396825395,-75.15873015873015,-71.82539682539682,33.25396825396825,31.825396825396822,-166.26984126984127
-325.0,-139.76190476190476,-82.14285714285714,-280.7142857142857,94.52380952380952,-132.14285714285714,158.015873015873,10.555555555555555,170.55555555555554,325.0,-98.33333333333333,-325.0,70.39682539682539,-70.87301587301587,170.55555555555554,-285.0,-84.52380952380952,-299.9206349206349,24.365079365079364,-73.73015873015872,-70.55555555555556,-32.460317460317455,-31.825396825396822,-166.26984126984127
-325.0,-139.76190476190476,-82.14285714285714,-280.7142857142857,94.52380952380952,-132.14285714285714,158.015873015873,10.555555555555555,170.55555555555554,325.0,-98.33333333333333,-325.0,70.39682539682539,-70.87301587301587,170.55555555555554,-285.0,-84.52380952380952,-299.9206349206349,24.365079365079364,-73.73015873015872,-70.55555555555556,-32.460317460317455,-31.825396825396822,-166.26984126984127
-325.0,-138.015873015873,-81.03174603174602,-277.06349206349205,93.25396825396825,-130.23809523809524,155.79365079365078,4.365079365079365,168.4920634920635,325.0,-96.9047619047619,-325.0,69.44444444444444,-69.92063492063491,168.65079365079364,-281.3492063492063,-83.57142857142857,-296.26984126984127,18.80952380952381,-72.61904761904762,-69.44444444444444,34.36507936507936,31.98412698412698,-166.26984126984127
-325.0,-138.015873015873,-81.03174603174602,-277.06349206349205,93.25396825396825,-130.23809523809524,155.79365079365078,4.365079365079365,168.4920634920635,325.0,-96.9047619047619,-325.0,69.44444444444444,-69.92063492063491,168.65079365079364,-281.3492063492063,-83.57142857142857,-296.26984126984127,18.80952380952381,-72.61904761904762,-69.44444444444444,34.36507936507936,31.98412698412698,-166.26984126984127
-325.0,-135.0,-79.6031746031746,-271.3492063492063,91.34920634920634,-127.53968253968253,152.3015873015873,5.634920634920634,164.84126984126982,325.0,-95.15873015873015,-325.0,68.01587301587301,-68.4920634920635,164.84126984126982,-275.6349206349206,-81.66666666666666,-290.39682539682536,20.238095238095237,-71.19047619047619,-67.85714285714285,-32.460317460317455,-32.77777777777778,-166.26984126984127
-325.0,-135.0,-79.6031746031746,-271.3492063492063,91.34920634920634,-127.53968253968253,152.3015873015873,5.634920634920634,164.84126984126982,325.0,-95.15873015873015,-325.0,68.01587301587301,-68.4920634920635,164.84126984126982,-275.6349206349206,-81.66666666666666,-290.39682539682536,20.238095238095237,-71.19047619047619,-67.85714285714285,-32.460317460317455,-32.77777777777778,-166.26984126984127
-325.0,-132.3015873015873,-77.6984126984127,-265.7936507936508,89.44444444444444,-125.0,148.96825396825395,4.365079365079365,161.19047619047618,325.0,-93.4126984126984,-325.0,66.58730158730158,-66.9047619047619,161.34920634920633,-270.07936507936506,-79.92063492063491,-284.5238095238095,19.6031746031746,-69.6031746031746,-66.42857142857143,-0.5555555555555556,-0.873015873015873,-321.8253968253968
-325.0,-132.3015873015873,-77.6984126984127,-265.7936507936508,89.44444444444444,-125.0,148.96825396825395,4.365079365079365,161.19047619047618,325.0,-93.4126984126984,-325.0,66.58730158730158,-66.9047619047619,161.34920634920633,-270.07936507936506,-79.92063492063491,-284.5238095238095,19.6031746031746,-69.6031746031746,-66.42857142857143,-0.5555555555555556,-0.873015873015873,-321.8253968253968
-325.0,-131.19047619047618,-77.06349206349206,-263.4126984126984,88.65079365079364,-123.88888888888889,147.85714285714286,3.253968253968254,159.6031746031746,325.0,-92.61904761904762,-325.0,66.11111111111111,-66.26984126984127,159.9206349206349,-267.85714285714283,-79.12698412698413,-282.1428571428571,18.96825396825397,-68.96825396825396,-65.79365079365078,-35.95238095238095,-33.73015873015873,-321.8253968253968
-325.0,-131.19047619047618,-77.06349206349206,-263.4126984126984,88.65079365079364,-123.88888888888889,147.85714285714286,3.253968253968254,159.6031746031746,325.0,-92.61904761904762,-325.0,66.11111111111111,-66.26984126984127,159.9206349206349,-267.85714285714283,-79.12698412698413,-282.1428571428571,18.96825396825397,-68.96825396825396,-65.79365079365078,-35.95238095238095,-33.73015873015873,-321.8253968253968
-325.0,-128.96825396825395,-75.79365079365078,-259.1269841269841,87.22222222222221,-121.98412698412697,145.15873015873015,3.571428571428571,156.9047619047619,325.0,-91.19047619047619,-325.0,64.84126984126983,-51.507936507936506,157.2222222222222,-263.57142857142856,-77.85714285714285,-277.85714285714283,19.92063492063492,-67.85714285714285,-64.68253968253968,-36.269841269841265,-34.84126984126984,-321.8253968253968
-325.0,-128.96825396825395,-75.79365079365078,-259.1269841269841,87.22222222222221,-121.98412698412697,145.15873015873015,3.571428571428571,156.9047619047619,325.0,-91.19047619047619,-325.0,64.84126984126983,-51.507936507936506,157.2222222222222,-263.57142857142856,-77.85714285714285,-277.85714285714283,19.92063492063492,-67.85714285714285,-64.68253968253968,-36.269841269841265,-34.84126984126984,-321.8253968253968
-325.0,-125.63492063492063,-74.04761904761904,-252.46031746031744,85.0,-118.8095238095238,141.34920634920636,2.142857142857143,152.93650793650792,325.0,-88.96825396825396,-325.0,62.93650793650793,-39.92063492063492,153.25396825396825,-257.06349206349205,-75.79365079365078,-271.3492063492063,19.6031746031746,-66.11111111111111,-62.93650793650793,0.23809523809523808,-0.3968253968253968,-321.8253968253968
-325.0,-125.63492063492063,-74.04761904761904,-252.46031746031744,85.0,-118.8095238095238,141.34920634920636,2.142857142857143,152.93650793650792,325.0,-88.96825396825396,-325.0,62.93650793650793,-39.92063492063492,153.25396825396825,-257.06349206349205,-75.79365079365078,-271.3492063492063,19.6031746031746,-66.11111111111111,-62.93650793650793,0.23809523809523808,-0.3968253968253968,-321.8253968253968
-325.0,-123.57142857142857,-72.77777777777777,-248.17460317460316,83.57142857142857,-116.9047619047619,138.96825396825395,-1.8253968253968254,150.3968253968254,325.0,-87.53968253968253,-325.0,61.82539682539682,-45.0,150.7142857142857,-252.77777777777777,-74.68253968253968,-267.06349206349205,16.11111111111111,-65.0,-61.82539682539682,-1.0317460317460316,-0.5555555555555556,-321.8253968253968
-325.0,-123.57142857142857,-72.77777777777777,-248.17460317460316,83.57142857142857,-116.9047619047619,138.96825396825395,-1.8253968253968254,150.3968253968254,325.0,-87.53968253968253,-325.0,61.82539682539682,-45.0,150.7142857142857,-252.77777777777777,-74.68253968253968,-267.06349206349205,16.11111111111111,-65.0,-61.82539682539682,-1.0317460317460316,-0.5555555555555556,-321.8253968253968
-325.0,-121.03174603174602,-71.19047619047619,-242.93650793650792,81.66666666666666,-114.36507936507935,135.79365079365078,-1.1904761904761905,147.2222222222222,325.0,-85.47619047619047,-325.0,60.55555555555555,-30.238095238095237,147.38095238095238,-247.69841269841268,-73.09523809523809,-261.66666666666663,17.063492063492063,-63.57142857142857,-60.55555555555555,5.317460317460317,3.253968253968254,-166.26984126984127
-325.0,-121.03174603174602,-71.19047619047619,-242.93650793650792,81.66666666666666,-114.36507936507935,135.79365079365078,-1.1904761904761905,147.2222222222222,325.0,-85.47619047619047,-325.0,60.55555555555555,-30.238095238095237,147.38095238095238,-247.69841269841268,-73.09523809523809,-261.66666666666663,17.063492063492063,-63.57142857142857,-60.55555555555555,5.317460317460317,3.253968253968254,-166.26984126984127
-325.0,-119.12698412698413,-70.07936507936508,-239.12698412698413,80.23809523809523,-112.14285714285714,133.4126984126984,8.65079365079365,144.68253968253967,325.0,-84.2063492063492,-325.0,59.44444444444444,-45.0,144.84126984126982,-243.7301587301587,-71.98412698412697,-257.6984126984127,27.38095238095238,-62.61904761904761,-59.44444444444444,-6.111111111111111,-4.2063492063492065,-166.26984126984127
-325.0,-119.12698412698413,-70.07936507936508,-239.12698412698413,80.23809523809523,-112.14285714285714,133.4126984126984,8.65079365079365,144.68253968253967,325.0,-84.2063492063492,-325.0,59.44444444444444,-45.0,144.84126984126982,-243.7301587301587,-71.98412698412697,-257.6984126984127,27.38095238095238,-62.61904761904761,-59.44444444444444,-6.111111111111111,-4.2063492063492065,-166.26984126984127
-324.68253968253964,-117.06349206349206,-68.96825396825396,-235.0,78.65079365079364,-110.39682539682539,131.19047619047618,8.492063492063492,142.3015873015873,325.0,-82.77777777777777,-325.0,58.33333333333333,-5.7936507936507935,142.46031746031744,-239.60317460317458,-70.87301587301587,-253.57142857142856,27.063492063492063,-61.666666666666664,-58.33333333333333,6.26984126984127,5.0,-166.26984126984127
-324.68253968253964,-117.06349206349206,-68.96825396825396,-235.0,78.65079365079364,-110.39682539682539,131.19047619047618,8.492063492063492,142.3015873015873,325.0,-82.77777777777777,-325.0,58.33333333333333,-5.7936507936507935,142.46031746031744,-239.60317460317458,-70.87301587301587,-253.57142857142856,27.063492063492063,-61.666666666666664,-58.33333333333333,6.26984126984127,5.0,-166.26984126984127
-320.23809523809524,-115.15873015873015,-67.85714285714285,-230.87301587301587,77.53968253968253,-108.65079365079364,128.8095238095238,9.285714285714285,139.76190476190476,325.0,-81.5079365079365,-325.0,57.38095238095238,72.3015873015873,139.9206349206349,-235.63492063492063,-69.44444444444444,-249.60317460317458,27.857142857142854,-60.39682539682539,-57.38095238095238,-7.222222222222221,-5.158730158730158,-166.26984126984127
-320.23809523809524,-115.15873015873015,-67.85714285714285,-230.87301587301587,77.53968253968253,-108.65079365079364,128.8095238095238,9.285714285714285,139.76190476190476,325.0,-81.5079365079365,-325.0,57.38095238095238,72.3015873015873,139.9206349206349,-235.63492063492063,-69.44444444444444,-249.60317460317458,27.857142857142854,-60.39682539682539,-57.38095238095238,-7.222222222222221,-5.158730158730158,-166.26984126984127
-315.95238095238096,-113.73015873015872,-67.06349206349206,-227.85714285714283,76.42857142857143,-107.06349206349206,127.22222222222221,0.5555555555555556,138.015873015873,325.0,-80.55555555555556,-325.0,56.42857142857142,219.76190476190476,138.015873015873,-232.6190476190476,-68.65079365079364,-246.58730158730157,19.285714285714285,-59.6031746031746,-56.58730158730158,-0.3968253968253968,0.7142857142857142,-166.26984126984127
-315.95238095238096,-113.73015873015872,-67.06349206349206,-227.85714285714283,76.42857142857143,-107.06349206349206,127.22222222222221,0.5555555555555556,138.015873015873,325.0,-80.55555555555556,-325.0,56.42857142857142,219.76190476190476,138.015873015873,-232.6190476190476,-68.65079365079364,-246.58730158730157,19.285714285714285,-59.6031746031746,-56.58730158730158,-0.3968253968253968,0.7142857142857142,-166.26984126984127
-309.2857142857143,-111.34920634920634,-65.63492063492063,-223.25396825396825,74.68253968253968,-105.0,124.2063492063492,3.73015873015873,135.15873015873015,325.0,-78.96825396825396,-325.0,55.317460317460316,53.888888888888886,135.15873015873015,-228.015873015873,-67.38095238095238,-241.5079365079365,22.936507936507937,-58.650793650793645,-55.476190476190474,-7.5396825396825395,-6.904761904761904,-321.8253968253968
-309.2857142857143,-111.34920634920634,-65.63492063492063,-223.25396825396825,74.68253968253968,-105.0,124.2063492063492,3.73015873015873,135.15873015873015,325.0,-78.96825396825396,-325.0,55.317460317460316,53.888888888888886,135.15873015873015,-228.015873015873,-67.38095238095238,-241.5079365079365,22.936507936507937,-58.650793650793645,-55.476190476190474,-7.5396825396825395,-6.904761904761904,-321.8253968253968
-300.39682539682536,-108.17460317460316,-63.57142857142857,-216.74603174603175,72.77777777777777,-101.98412698412697,120.71428571428571,0.23809523809523808,131.03174603174602,325.0,-76.9047619047619,-325.0,53.57142857142857,-76.58730158730158,131.34920634920636,-221.5079365079365,-65.31746031746032,-234.84126984126982,20.238095238095237,-56.74603174603174,-53.73015873015873,23.57142857142857,24.047619047619047,-321.8253968253968
-300.39682539682536,-108.17460317460316,-63.57142857142857,-216.74603174603175,72.77777777777777,-101.98412698412697,120.71428571428571,0.23809523809523808,131.03174603174602,325.0,-76.9047619047619,-325.0,53.57142857142857,-76.58730158730158,131.34920634920636,-221.5079365079365,-65.31746031746032,-234.84126984126982,20.238095238095237,-56.74603174603174,-53.73015873015873,23.57142857142857,24.047619047619047,-321.8253968253968
-293.57142857142856,-99.92063492063491,-62.3015873015873,-211.98412698412696,71.03174603174602,-99.76190476190476,117.85714285714285,1.6666666666666665,128.17460317460316,325.0,-75.15873015873015,-325.0,52.460317460317455,52.77777777777777,128.33333333333331,-216.74603174603175,-63.888888888888886,-230.07936507936506,21.507936507936506,-55.317460317460316,-52.460317460317455,8.809523809523808,7.063492063492063,-321.8253968253968
-293.57142857142856,-99.92063492063491,-62.3015873015873,-211.98412698412696,71.03174603174602,-99.76190476190476,117.85714285714285,1.6666666666666665,128.17460317460316,325.0,-75.15873015873015,-325.0,52.460317460317455,52.77777777777777,128.33333333333331,-216.74603174603175,-63.888888888888886,-230.07936507936506,21.507936507936506,-55.317460317460316,-52.460317460317455,8.809523809523808,7.063492063492063,-321.8253968253968
-290.07936507936506,-90.23809523809523,-61.507936507936506,-209.44444444444443,70.07936507936508,-98.49206349206348,116.26984126984127,-2.9365079365079363,126.42857142857142,325.0,-74.2063492063492,-325.0,51.82539682539682,-80.71428571428571,126.58730158730158,-214.52380952380952,-63.095238095238095,-227.38095238095238,17.857142857142858,-54.841269841269835,-51.82539682539682,23.095238095238095,23.730158730158728,-321.8253968253968
-290.07936507936506,-90.23809523809523,-61.507936507936506,-209.44444444444443,70.07936507936508,-98.49206349206348,116.26984126984127,-2.9365079365079363,126.42857142857142,325.0,-74.2063492063492,-325.0,51.82539682539682,-80.71428571428571,126.58730158730158,-214.52380952380952,-63.095238095238095,-227.38095238095238,17.857142857142858,-54.841269841269835,-51.82539682539682,23.095238095238095,23.730158730158728,-321.8253968253968
-290.07936507936506,-90.23809523809523,-61.507936507936506,-209.44444444444443,70.07936507936508,-98.49206349206348,116.26984126984127,-2.9365079365079363,126.42857142857142,325.0,-74.2063492063492,-325.0,51.82539682539682,-80.71428571428571,126.58730158730158,-214.52380952380952,-63.095238095238095,-227.38095238095238,17.857142857142858,-54.841269841269835,-51.82539682539682,23.095238095238095,23.730158730158728,-321.8253968253968
-290.07936507936506,-90.23809523809523,-61.507936507936506,-209.44444444444443,70.07936507936508,-98.49206349206348,116.26984126984127,-2.9365079365079363,126.42857142857142,325.0,-74.2063492063492,-325.0,51.82539682539682,-80.71428571428571,126.58730158730158,-214.52380952380952,-63.095238095238095,-227.38095238095238,17.857142857142858,-54.841269841269835,-51.82539682539682,23.095238095238095,23.730158730158728,-321.8253968253968
-270.87301587301585,-1.1904761904761905,-57.53968253968254,-195.47619047619045,65.15873015873015,-91.82539682539682,108.33333333333333,-1.984126984126984,118.01587301587301,325.0,-69.6031746031746,-305.4761904761905,48.33333333333333,-79.92063492063491,118.17460317460316,-200.55555555555554,-58.96825396825397,-213.25396825396825,21.666666666666664,-51.34920634920635,-48.01587301587301,21.666666666666664,20.873015873015873,-166.26984126984127
-270.87301587301585,-1.1904761904761905,-57.53968253968254,-195.47619047619045,65.15873015873015,-91.82539682539682,108.33333333333333,-1.984126984126984,118.01587301587301,325.0,-69.6031746031746,-305.4761904761905,48.33333333333333,-79.92063492063491,118.17460317460316,-200.55555555555554,-58.96825396825397,-213.25396825396825,21.666666666666664,-51.34920634920635,-48.01587301587301,21.666666666666664,20.873015873015873,-166.26984126984127
-265.0,20.71428571428571,-56.42857142857142,-191.34920634920633,64.04761904761905,-89.92063492063491,105.79365079365078,-8.333333333333332,115.31746031746032,325.0,-68.01587301587301,-298.8095238095238,47.22222222222222,105.15873015873015,115.63492063492063,-196.26984126984127,-57.698412698412696,-208.8095238095238,14.84126984126984,-49.92063492063492,-47.06349206349206,11.825396825396824,10.238095238095237,-166.26984126984127
-265.0,20.71428571428571,-56.42857142857142,-191.34920634920633,64.04761904761905,-89.92063492063491,105.79365079365078,-8.333333333333332,115.31746031746032,325.0,-68.01587301587301,-298.8095238095238,47.22222222222222,105.15873015873015,115.63492063492063,-196.26984126984127,-57.698412698412696,-208.8095238095238,14.84126984126984,-49.92063492063492,-47.06349206349206,11.825396825396824,10.238095238095237,-166.26984126984127
-259.2857142857143,57.38095238095238,-55.15873015873016,-187.53968253968253,62.460317460317455,-88.01587301587301,103.57142857142857,-9.126984126984127,112.93650793650794,325.0,-66.58730158730158,-292.46031746031747,46.11111111111111,75.15873015873015,112.93650793650794,-192.14285714285714,-56.58730158730158,-204.68253968253967,14.047619047619047,-49.12698412698413,-45.95238095238095,0.07936507936507936,-0.3968253968253968,-166.26984126984127
-259.2857142857143,57.38095238095238,-55.15873015873016,-187.53968253968253,62.460317460317455,-88.01587301587301,103.57142857142857,-9.126984126984127,112.93650793650794,325.0,-66.58730158730158,-292.46031746031747,46.11111111111111,75.15873015873015,112.93650793650794,-192.14285714285714,-56.58730158730158,-204.68253968253967,14.047619047619047,-49.12698412698413,-45.95238095238095,0.07936507936507936,-0.3968253968253968,-166.26984126984127
-250.55555555555554,92.46031746031746,-53.41269841269841,-181.19047619047618,60.55555555555555,-85.0,100.07936507936508,-6.26984126984127,109.12698412698413,325.0,-64.52380952380952,-282.3015873015873,44.68253968253968,209.28571428571428,109.28571428571428,-186.26984126984127,-54.36507936507936,-198.17460317460316,16.746031746031743,-47.22222222222222,-44.52380952380952,-44.047619047619044,-42.3015873015873,-166.26984126984127
-250.55555555555554,92.46031746031746,-53.41269841269841,-181.19047619047618,60.55555555555555,-85.0,100.07936507936508,-6.26984126984127,109.12698412698413,325.0,-64.52380952380952,-282.3015873015873,44.68253968253968,209.28571428571428,109.28571428571428,-186.26984126984127,-54.36507936507936,-198.17460317460316,16.746031746031743,-47.22222222222222,-44.52380952380952,-44.047619047619044,-42.3015873015873,-166.26984126984127
-250.55555555555554,92.46031746031746,-53.41269841269841,-181.19047619047618,60.55555555555555,-85.0,100.07936507936508,-6.26984126984127,109.12698412698413,325.0,-64.52380952380952,-282.3015873015873,44.68253968253968,209.28571428571428,109.28571428571428,-186.26984126984127,-54.36507936507936,-198.17460317460316,16.746031746031743,-47.22222222222222,-44.52380952380952,-44.047619047619044,-42.3015873015873,-166.26984126984127
-250.55555555555554,92.46031746031746,-53.41269841269841,-181.19047619047618,60.55555555555555,-85.0,100.07936507936508,-6.26984126984127,109.12698412698413,325.0,-64.52380952380952,-282.3015873015873,44.68253968253968,209.28571428571428,109.28571428571428,-186.26984126984127,-54.36507936507936,-198.17460317460316,16.746031746031743,-47.22222222222222,-44.52380952380952,-44.047619047619044,-42.3015873015873,-166.26984126984127
-245.3174603174603,117.06349206349206,-52.3015873015873,-177.53968253968253,59.12698412698413,-83.25396825396825,97.6984126984127,-6.111111111111111,106.58730158730158,325.0,-63.25396825396825,-276.26984126984127,43.73015873015873,249.12698412698413,106.9047619047619,-182.3015873015873,-53.41269841269841,-194.2063492063492,15.95238095238095,-46.269841269841265,-43.57142857142857,-30.87301587301587,-29.920634920634917,-321.8253968253968
-245.3174603174603,117.06349206349206,-52.3015873015873,-177.53968253968253,59.12698412698413,-83.25396825396825,97.6984126984127,-6.111111111111111,106.58730158730158,325.0,-63.25396825396825,-276.26984126984127,43.73015873015873,249.12698412698413,106.9047619047619,-182.3015873015873,-53.41269841269841,-194.2063492063492,15.95238095238095,-46.269841269841265,-43.57142857142857,-30.87301587301587,-29.920634920634917,-321.8253968253968
-237.69841269841268,145.79365079365078,-50.71428571428571,-171.984126984127,57.22222222222222,-80.71428571428571,94.84126984126983,-14.682539682539682,103.73015873015872,325.0,-61.507936507936506,-267.6984126984127,42.3015873015873,218.015873015873,103.73015873015872,-176.9047619047619,-51.82539682539682,-188.8095238095238,7.5396825396825395,-44.84126984126984,-42.14285714285714,44.84126984126984,43.25396825396825,-321.8253968253968
-237.69841269841268,145.79365079365078,-50.71428571428571,-171.984126984127,57.22222222222222,-80.71428571428571,94.84126984126983,-14.682539682539682,103.73015873015872,325.0,-61.507936507936506,-267.6984126984127,42.3015873015873,218.015873015873,103.73015873015872,-176.9047619047619,-51.82539682539682,-188.8095238095238,7.5396825396825395,-44.84126984126984,-42.14285714285714,44.84126984126984,43.25396825396825,-321.8253968253968
-233.88888888888889,166.74603174603175,-50.079365079365076,-169.12698412698413,56.269841269841265,-79.28571428571428,92.93650793650794,-5.952380952380952,101.66666666666666,325.0,-60.55555555555555,-263.4126984126984,41.666666666666664,48.01587301587301,101.82539682539682,-173.88888888888889,-51.19047619047619,-185.79365079365078,16.904761904761905,-44.2063492063492,-41.34920634920635,-44.84126984126984,-43.73015873015873,-321.8253968253968
-233.88888888888889,166.74603174603175,-50.079365079365076,-169.12698412698413,56.269841269841265,-79.28571428571428,92.93650793650794,-5.952380952380952,101.66666666666666,325.0,-60.55555555555555,-263.4126984126984,41.666666666666664,48.01587301587301,101.82539682539682,-173.88888888888889,-51.19047619047619,-185.79365079365078,16.904761904761905,-44.2063492063492,-41.34920634920635,-44.84126984126984,-43.73015873015873,-321.8253968253968
-229.12698412698413,181.984126984127,-48.96825396825397,-165.63492063492063,55.15873015873016,-77.85714285714285,91.03174603174602,-8.809523809523808,99.44444444444444,325.0,-59.44444444444444,-257.6984126984127,40.714285714285715,15.634920634920634,99.76190476190476,-170.55555555555554,-50.079365079365076,-182.14285714285714,11.984126984126984,-43.25396825396825,-40.714285714285715,30.07936507936508,30.238095238095237,-321.8253968253968
-229.12698412698413,181.984126984127,-48.96825396825397,-165.63492063492063,55.15873015873016,-77.85714285714285,91.03174603174602,-8.809523809523808,99.44444444444444,325.0,-59.44444444444444,-257.6984126984127,40.714285714285715,15.634920634920634,99.76190476190476,-170.55555555555554,-50.079365079365076,-182.14285714285714,11.984126984126984,-43.25396825396825,-40.714285714285715,30.07936507936508,30.238095238095237,-321.8253968253968
-225.0,199.28571428571428,-48.17460317460317,-162.77777777777777,54.2063492063492,-76.42857142857143,89.28571428571428,-7.857142857142857,97.6984126984127,325.0,-58.49206349206349,-253.25396825396825,40.079365079365076,46.904761904761905,97.85714285714285,-167.53968253968253,-49.12698412698413,-179.28571428571428,13.253968253968253,-42.61904761904761,-39.92063492063492,-30.555555555555554,-29.920634920634917,-321.8253968253968
-225.0,199.28571428571428,-48.17460317460317,-162.77777777777777,54.2063492063492,-76.42857142857143,89.28571428571428,-7.857142857142857,97.6984126984127,325.0,-58.49206349206349,-253.25396825396825,40.079365079365076,46.904761904761905,97.85714285714285,-167.53968253968253,-49.12698412698413,-179.28571428571428,13.253968253968253,-42.61904761904761,-39.92063492063492,-30.555555555555554,-29.920634920634917,-321.8253968253968
-221.03174603174602,209.60317460317458,-47.38095238095238,-160.07936507936506,53.25396825396825,-75.15873015873015,87.85714285714285,-10.396825396825395,95.95238095238095,325.0,-57.38095238095238,-248.96825396825395,39.285714285714285,-90.07936507936508,96.1111111111111,-165.0,-48.49206349206349,-176.42857142857142,10.079365079365079,64.04761904761905,-39.285714285714285,29.6031746031746,29.126984126984127,-166.26984126984127
-221.03174603174602,209.60317460317458,-47.38095238095238,-160.07936507936506,53.25396825396825,-75.15873015873015,87.85714285714285,-10.396825396825395,95.95238095238095,325.0,-57.38095238095238,-248.96825396825395,39.285714285714285,-90.07936507936508,96.1111111111111,-165.0,-48.49206349206349,-176.42857142857142,10.079365079365079,64.04761904761905,-39.285714285714285,29.6031746031746,29.126984126984127,-166.26984126984127
-217.38095238095238,231.5079365079365,-46.42857142857142,-157.38095238095238,52.3015873015873,-73.73015873015872,86.26984126984127,-12.619047619047619,94.52380952380952,325.0,-56.42857142857142,-244.52380952380952,38.49206349206349,173.25396825396825,94.68253968253968,-162.14285714285714,-47.698412698412696,-173.4126984126984,7.5396825396825395,288.4920634920635,-38.49206349206349,-30.71428571428571,-29.6031746031746,-166.26984126984127
-217.38095238095238,231.5079365079365,-46.42857142857142,-157.38095238095238,52.3015873015873,-73.73015873015872,86.26984126984127,-12.619047619047619,94.52380952380952,325.0,-56.42857142857142,-244.52380952380952,38.49206349206349,173.25396825396825,94.68253968253968,-162.14285714285714,-47.698412698412696,-173.4126984126984,7.5396825396825395,288.4920634920635,-38.49206349206349,-30.71428571428571,-29.6031746031746,-166.26984126984127
-214.68253968253967,233.4126984126984,-45.95238095238095,-155.3174603174603,51.666666666666664,-72.77777777777777,84.84126984126983,-16.11111111111111,93.09523809523809,325.0,-55.95238095238095,-241.66666666666666,38.17460317460317,-15.317460317460316,93.4126984126984,-159.9206349206349,-47.06349206349206,-171.34920634920633,3.4126984126984126,325.0,-38.01587301587301,45.0,44.047619047619044,-166.26984126984127
-214.68253968253967,233.4126984126984,-45.95238095238095,-155.3174603174603,51.666666666666664,-72.77777777777777,84.84126984126983,-16.11111111111111,93.09523809523809,325.0,-55.95238095238095,-241.66666666666666,38.17460317460317,-15.317460317460316,93.4126984126984,-159.9206349206349,-47.06349206349206,-171.34920634920633,3.4126984126984126,325.0,-38.01587301587301,45.0,44.047619047619044,-166.26984126984127
-209.9206349206349,257.22222222222223,-45.15873015873016,-152.14285714285714,50.55555555555555,-71.34920634920634,83.09523809523809,-15.793650793650793,91.19047619047619,325.0,-54.68253968253968,-235.95238095238093,37.06349206349206,223.25396825396825,91.34920634920634,-156.74603174603175,-46.11111111111111,-168.015873015873,4.365079365079365,325.0,-37.06349206349206,-31.19047619047619,-29.126984126984127,-166.26984126984127
-209.9206349206349,257.22222222222223,-45.15873015873016,-152.14285714285714,50.55555555555555,-71.34920634920634,83.09523809523809,-15.793650793650793,91.19047619047619,325.0,-54.68253968253968,-235.95238095238093,37.06349206349206,223.25396825396825,91.34920634920634,-156.74603174603175,-46.11111111111111,-168.015873015873,4.365079365079365,325.0,-37.06349206349206,-31.19047619047619,-29.126984126984127,-166.26984126984127
-205.47619047619045,263.4126984126984,-44.2063492063492,-148.8095238095238,49.6031746031746,-69.92063492063491,81.34920634920634,-20.71428571428571,88.96825396825396,325.0,-53.57142857142857,-231.19047619047618,36.58730158730159,184.04761904761904,89.28571428571428,-153.4126984126984,-45.0,-164.52380952380952,-1.984126984126984,325.0,-36.269841269841265,-0.873015873015873,0.07936507936507936,-166.26984126984127
-205.47619047619045,263.4126984126984,-44.2063492063492,-148.8095238095238,49.6031746031746,-69.92063492063491,81.34920634920634,-20.71428571428571,88.96825396825396,325.0,-53.57142857142857,-231.19047619047618,36.58730158730159,184.04761904761904,89.28571428571428,-153.4126984126984,-45.0,-164.52380952380952,-1.984126984126984,325.0,-36.269841269841265,-0.873015873015873,0.07936507936507936,-166.26984126984127
-201.03174603174602,279.9206349206349,-43.25396825396825,-145.47619047619048,48.33333333333333,-68.33333333333333,79.6031746031746,-21.19047619047619,87.38095238095238,325.0,-52.61904761904761,-225.95238095238093,35.63492063492063,221.98412698412696,87.53968253968253,-150.23809523809524,-44.2063492063492,-161.34920634920633,-1.984126984126984,325.0,-35.476190476190474,16.428571428571427,16.11111111111111,-321.8253968253968
-201.03174603174602,279.9206349206349,-43.25396825396825,-145.47619047619048,48.33333333333333,-68.33333333333333,79.6031746031746,-21.19047619047619,87.38095238095238,325.0,-52.61904761904761,-225.95238095238093,35.63492063492063,221.98412698412696,87.53968253968253,-150.23809523809524,-44.2063492063492,-161.34920634920633,-1.984126984126984,325.0,-35.476190476190474,16.428571428571427,16.11111111111111,-321.8253968253968
-197.85714285714283,293.4126984126984,-42.61904761904761,-143.25396825396825,47.53968253968254,-67.38095238095238,78.17460317460316,-5.0,85.79365079365078,325.0,-51.82539682539682,-222.14285714285714,35.0,-48.49206349206349,85.95238095238095,-147.85714285714286,-43.73015873015873,-158.8095238095238,14.206349206349206,325.0,-35.0,-18.174603174603174,-16.26984126984127,-321.8253968253968
-197.85714285714283,293.4126984126984,-42.61904761904761,-143.25396825396825,47.53968253968254,-67.38095238095238,78.17460317460316,-5.0,85.79365079365078,325.0,-51.82539682539682,-222.14285714285714,35.0,-48.49206349206349,85.95238095238095,-147.85714285714286,-43.73015873015873,-158.8095238095238,14.206349206349206,325.0,-35.0,-18.174603174603174,-16.26984126984127,-321.8253968253968
-195.47619047619045,295.95238095238096,-42.14285714285714,-141.5079365079365,47.06349206349206,-66.58730158730158,77.06349206349206,-5.0,84.68253968253968,325.0,-51.34920634920635,-219.12698412698413,34.52380952380952,-108.17460317460316,85.0,-146.11111111111111,-36.42857142857142,-156.9047619047619,13.253968253968253,325.0,-34.682539682539684,0.3968253968253968,-0.07936507936507936,-321.8253968253968
-195.47619047619045,295.95238095238096,-42.14285714285714,-141.5079365079365,47.06349206349206,-66.58730158730158,77.06349206349206,-5.0,84.68253968253968,325.0,-51.34920634920635,-219.12698412698413,34.52380952380952,-108.17460317460316,85.0,-146.11111111111111,-36.42857142857142,-156.9047619047619,13.253968253968253,325.0,-34.682539682539684,0.3968253968253968,-0.07936507936507936,-321.8253968253968
-191.03174603174602,305.1587301587301,-41.34920634920635,-138.4920634920635,45.95238095238095,-65.0,75.31746031746032,-9.444444444444445,82.77777777777777,325.0,-50.079365079365076,-214.52380952380952,33.73015873015873,-107.53968253968253,83.09523809523809,-143.09523809523807,-36.904761904761905,-153.73015873015873,9.444444444444445,325.0,-33.888888888888886,-19.285714285714285,-17.698412698412696,-321.8253968253968
-191.03174603174602,305.1587301587301,-41.34920634920635,-138.4920634920635,45.95238095238095,-65.0,75.31746031746032,-9.444444444444445,82.77777777777777,325.0,-50.079365079365076,-214.52380952380952,33.73015873015873,-107.53968253968253,83.09523809523809,-143.09523809523807,-36.904761904761905,-153.73015873015873,9.444444444444445,325.0,-33.888888888888886,-19.285714285714285,-17.698412698412696,-321.8253968253968
-187.69841269841268,315.1587301587301,-40.714285714285715,-136.11111111111111,45.0,-63.73015873015873,74.04761904761904,-10.555555555555555,81.34920634920634,325.0,-49.285714285714285,-210.87301587301587,33.25396825396825,-105.31746031746032,81.5079365079365,-140.7142857142857,103.57142857142857,-151.19047619047618,7.063492063492063,325.0,-33.095238095238095,19.126984126984127,17.063492063492063,-321.8253968253968
-187.69841269841268,315.1587301587301,-40.714285714285715,-136.11111111111111,45.0,-63.73015873015873,74.04761904761904,-10.555555555555555,81.34920634920634,325.0,-49.285714285714285,-210.87301587301587,33.25396825396825,-105.31746031746032,81.5079365079365,-140.7142857142857,103.57142857142857,-151.19047619047618,7.063492063492063,325.0,-33.095238095238095,19.126984126984127,17.063492063492063,-321.8253968253968
-185.3174603174603,321.19047619047615,-40.39682539682539,-134.36507936507937,44.52380952380952,-63.095238095238095,73.09523809523809,-12.3015873015873,80.23809523809523,325.0,-48.80952380952381,-208.17460317460316,32.77777777777778,23.730158730158728,80.39682539682539,-138.96825396825395,239.9206349206349,-149.6031746031746,5.476190476190476,325.0,-32.77777777777778,1.0317460317460316,0.07936507936507936,-166.26984126984127
-185.3174603174603,321.19047619047615,-40.39682539682539,-134.36507936507937,44.52380952380952,-63.095238095238095,73.09523809523809,-12.3015873015873,80.23809523809523,325.0,-48.80952380952381,-208.17460317460316,32.77777777777778,23.730158730158728,80.39682539682539,-138.96825396825395,239.9206349206349,-149.6031746031746,5.476190476190476,325.0,-32.77777777777778,1.0317460317460316,0.07936507936507936,-166.26984126984127
-181.5079365079365,325.0,-39.285714285714285,-131.5079365079365,43.73015873015873,-61.82539682539682,71.5079365079365,-14.84126984126984,78.65079365079364,325.0,-47.698412698412696,-203.57142857142856,31.98412698412698,131.984126984127,78.65079365079364,-135.95238095238093,325.0,-146.26984126984127,2.46031746031746,325.0,-31.98412698412698,19.444444444444443,18.174603174603174,-166.26984126984127
-181.5079365079365,325.0,-39.285714285714285,-131.5079365079365,43.73015873015873,-61.82539682539682,71.5079365079365,-14.84126984126984,78.65079365079364,325.0,-47.698412698412696,-203.57142857142856,31.98412698412698,131.984126984127,78.65079365079364,-135.95238095238093,325.0,-146.26984126984127,2.46031746031746,325.0,-31.98412698412698,19.444444444444443,18.174603174603174,-166.26984126984127
-179.12698412698413,325.0,-38.80952380952381,-129.6031746031746,43.095238095238095,-61.03174603174603,70.55555555555556,-15.634920634920634,77.6984126984127,325.0,-47.22222222222222,-200.87301587301587,31.507936507936506,169.28571428571428,77.6984126984127,-134.36507936507937,325.0,-144.68253968253967,2.619047619047619,325.0,-31.507936507936506,-0.23809523809523808,0.07936507936507936,-166.26984126984127
-179.12698412698413,325.0,-38.80952380952381,-129.6031746031746,43.095238095238095,-61.03174603174603,70.55555555555556,-15.634920634920634,77.6984126984127,325.0,-47.22222222222222,-200.87301587301587,31.507936507936506,169.28571428571428,77.6984126984127,-134.36507936507937,325.0,-144.68253968253967,2.619047619047619,325.0,-31.507936507936506,-0.23809523809523808,0.07936507936507936,-166.26984126984127
-175.15873015873015,325.0,-38.01587301587301,-127.06349206349206,41.98412698412698,-59.76190476190476,68.80952380952381,-24.047619047619047,75.79365079365078,325.0,-46.269841269841265,-196.58730158730157,31.03174603174603,325.0,76.1111111111111,-131.5079365079365,325.0,-141.66666666666666,-6.428571428571428,325.0,-30.87301587301587,19.6031746031746,18.174603174603174,-166.26984126984127
-175.15873015873015,325.0,-38.01587301587301,-127.06349206349206,41.98412698412698,-59.76190476190476,68.80952380952381,-24.047619047619047,75.79365079365078,325.0,-46.269841269841265,-196.58730158730157,31.03174603174603,325.0,76.1111111111111,-131.5079365079365,325.0,-141.66666666666666,-6.428571428571428,325.0,-30.87301587301587,19.6031746031746,18.174603174603174,-166.26984126984127
-170.87301587301587,325.0,-37.22222222222222,-123.73015873015872,41.19047619047619,-58.17460317460317,67.22222222222221,-27.539682539682538,73.88888888888889,325.0,-45.15873015873016,-191.66666666666666,30.238095238095237,325.0,73.88888888888889,-128.17460317460316,325.0,-138.33333333333331,-9.761904761904761,325.0,-30.238095238095237,25.0,25.317460317460316,-166.26984126984127
-170.87301587301587,325.0,-37.22222222222222,-123.73015873015872,41.19047619047619,-58.17460317460317,67.22222222222221,-27.539682539682538,73.88888888888889,325.0,-45.15873015873016,-191.66666666666666,30.238095238095237,325.0,73.88888888888889,-128.17460317460316,325.0,-138.33333333333331,-9.761904761904761,325.0,-30.238095238095237,25.0,25.317460317460316,-166.26984126984127
-166.26984126984127,325.0,-36.269841269841265,-120.55555555555554,40.079365079365076,-56.74603174603174,65.31746031746032,-22.46031746031746,71.98412698412697,325.0,-44.2063492063492,-186.74603174603175,29.444444444444443,325.0,71.98412698412697,-125.0,325.0,-134.84126984126982,-5.476190476190476,325.0,-29.444444444444443,-22.46031746031746,-20.873015873015873,-321.8253968253968
-166.26984126984127,325.0,-36.269841269841265,-120.55555555555554,40.079365079365076,-56.74603174603174,65.31746031746032,-22.46031746031746,71.98412698412697,325.0,-44.2063492063492,-186.74603174603175,29.444444444444443,325.0,71.98412698412697,-125.0,325.0,-134.84126984126982,-5.476190476190476,325.0,-29.444444444444443,-22.46031746031746,-20.873015873015873,-321.8253968253968
-163.57142857142856,325.0,-35.63492063492063,-118.65079365079364,39.285714285714285,-55.79365079365079,64.04761904761905,-21.825396825396822,70.71428571428571,325.0,-43.41269841269841,-183.4126984126984,28.96825396825397,325.0,71.03174603174602,-123.09523809523809,325.0,-132.77777777777777,-7.063492063492063,325.0,-28.96825396825397,21.19047619047619,20.07936507936508,-321.8253968253968
-163.57142857142856,325.0,-35.63492063492063,-118.65079365079364,39.285714285714285,-55.79365079365079,64.04761904761905,-21.825396825396822,70.71428571428571,325.0,-43.41269841269841,-183.4126984126984,28.96825396825397,325.0,71.03174603174602,-123.09523809523809,325.0,-132.77777777777777,-7.063492063492063,325.0,-28.96825396825397,21.19047619047619,20.07936507936508,-321.8253968253968
-160.7142857142857,325.0,-35.15873015873016,-116.74603174603173,38.65079365079365,-54.841269841269835,62.93650793650793,-20.555555555555554,69.44444444444444,325.0,-42.77777777777778,-180.3968253968254,28.49206349206349,325.0,69.6031746031746,-121.03174603174602,325.0,-130.7142857142857,-6.428571428571428,325.0,-28.49206349206349,-22.46031746031746,-21.03174603174603,-321.8253968253968
-160.7142857142857,325.0,-35.15873015873016,-116.74603174603173,38.65079365079365,-54.841269841269835,62.93650793650793,-20.555555555555554,69.44444444444444,325.0,-42.77777777777778,-180.3968253968254,28.49206349206349,325.0,69.6031746031746,-121.03174603174602,325.0,-130.7142857142857,-6.428571428571428,325.0,-28.49206349206349,-22.46031746031746,-21.03174603174603,-321.8253968253968
-158.015873015873,325.0,-34.52380952380952,-114.68253968253967,38.01587301587301,-53.888888888888886,61.82539682539682,-21.825396825396822,68.33333333333333,324.36507936507934,-42.14285714285714,-177.2222222222222,28.015873015873016,325.0,68.33333333333333,-119.12698412698413,325.0,-128.65079365079364,-8.333333333333332,325.0,-27.857142857142854,21.666666666666664,20.238095238095237,-321.8253968253968
-158.015873015873,325.0,-34.52380952380952,-114.68253968253967,38.01587301587301,-53.888888888888886,61.82539682539682,-21.825396825396822,68.33333333333333,324.36507936507934,-42.14285714285714,-177.2222222222222,28.015873015873016,325.0,68.33333333333333,-119.12698412698413,325.0,-128.65079365079364,-8.333333333333332,325.0,-27.857142857142854,21.666666666666664,20.238095238095237,-321.8253968253968
-155.3174603174603,325.0,-34.047619047619044,-112.6190476190476,37.22222222222222,-52.93650793650794,60.71428571428571,-18.96825396825397,67.06349206349206,319.6031746031746,-41.507936507936506,-173.88888888888889,27.539682539682538,325.0,67.22222222222221,-116.9047619047619,325.0,-126.42857142857142,-5.158730158730158,325.0,-27.38095238095238,-23.253968253968253,-22.3015873015873,-321.8253968253968
-155.3174603174603,325.0,-34.047619047619044,-112.6190476190476,37.22222222222222,-52.93650793650794,60.71428571428571,-18.96825396825397,67.06349206349206,319.6031746031746,-41.507936507936506,-173.88888888888889,27.539682539682538,325.0,67.22222222222221,-116.9047619047619,325.0,-126.42857142857142,-5.158730158730158,325.0,-27.38095238095238,-23.253968253968253,-22.3015873015873,-321.8253968253968
-152.61904761904762,325.0,-33.41269841269841,-110.71428571428571,36.58730158730159,-52.14285714285714,59.76190476190476,-22.777777777777775,65.95238095238095,314.2063492063492,-40.714285714285715,-170.87301587301587,26.9047619047619,325.0,66.11111111111111,-115.15873015873015,325.0,-124.36507936507935,-8.65079365079365,325.0,-26.9047619047619,22.3015873015873,20.396825396825395,-166.26984126984127
-152.61904761904762,325.0,-33.41269841269841,-110.71428571428571,36.58730158730159,-52.14285714285714,59.76190476190476,-22.777777777777775,65.95238095238095,314.2063492063492,-40.714285714285715,-170.87301587301587,26.9047619047619,325.0,66.11111111111111,-115.15873015873015,325.0,-124.36507936507935,-8.65079365079365,325.0,-26.9047619047619,22.3015873015873,20.396825396825395,-166.26984126984127
-150.55555555555554,325.0,-33.095238095238095,-109.28571428571428,36.11111111111111,-51.34920634920635,58.96825396825397,-20.555555555555554,65.31746031746032,310.23809523809524,-40.238095238095234,-168.96825396825395,26.9047619047619,322.9365079365079,65.15873015873015,-113.57142857142857,325.0,-122.77777777777777,-4.841269841269841,325.0,-26.587301587301585,-0.3968253968253968,0.5555555555555556,-166.26984126984127
-150.55555555555554,325.0,-33.095238095238095,-109.28571428571428,36.11111111111111,-51.34920634920635,58.96825396825397,-20.555555555555554,65.31746031746032,310.23809523809524,-40.238095238095234,-168.96825396825395,26.9047619047619,322.9365079365079,65.15873015873015,-113.57142857142857,325.0,-122.77777777777777,-4.841269841269841,325.0,-26.587301587301585,-0.3968253968253968,0.5555555555555556,-166.26984126984127
-147.38095238095238,325.0,-32.3015873015873,-106.9047619047619,35.317460317460316,-50.238095238095234,57.698412698412696,-20.238095238095237,63.73015873015873,303.73015873015873,-39.44444444444444,-165.0,25.952380952380953,325.0,63.888888888888886,-111.34920634920634,325.0,-120.39682539682539,-6.587301587301587,325.0,-26.11111111111111,22.777777777777775,21.03174603174603,-166.26984126984127
-147.38095238095238,325.0,-32.3015873015873,-106.9047619047619,35.317460317460316,-50.238095238095234,57.698412698412696,-20.238095238095237,63.73015873015873,303.73015873015873,-39.44444444444444,-165.0,25.952380952380953,325.0,63.888888888888886,-111.34920634920634,325.0,-120.39682539682539,-6.587301587301587,325.0,-26.11111111111111,22.777777777777775,21.03174603174603,-166.26984126984127
-144.84126984126982,325.0,-31.825396825396822,-105.15873015873015,34.682539682539684,-49.6031746031746,56.58730158730158,-16.26984126984127,62.61904761904761,298.6507936507936,-38.96825396825397,-162.3015873015873,25.634920634920633,312.46031746031747,62.61904761904761,-109.44444444444444,325.0,-118.49206349206348,-3.4126984126984126,325.0,-25.634920634920633,-24.523809523809522,-22.46031746031746,-166.26984126984127
-144.84126984126982,325.0,-31.825396825396822,-105.15873015873015,34.682539682539684,-49.6031746031746,56.58730158730158,-16.26984126984127,62.61904761904761,298.6507936507936,-38.96825396825397,-162.3015873015873,25.634920634920633,312.46031746031747,62.61904761904761,-109.44444444444444,325.0,-118.49206349206348,-3.4126984126984126,325.0,-25.634920634920633,-24.523809523809522,-22.46031746031746,-166.26984126984127
-142.3015873015873,325.0,-31.349206349206348,-103.4126984126984,34.047619047619044,-48.80952380952381,55.476190476190474,-15.0,61.507936507936506,293.57142857142856,-38.33333333333333,-159.28571428571428,25.158730158730158,325.0,61.666666666666664,-107.6984126984127,325.0,-116.58730158730158,-4.0476190476190474,325.0,-25.158730158730158,24.206349206349206,22.3015873015873,-166.26984126984127
-142.3015873015873,325.0,-31.349206349206348,-103.4126984126984,34.047619047619044,-48.80952380952381,55.476190476190474,-15.0,61.507936507936506,293.57142857142856,-38.33333333333333,-159.28571428571428,25.158730158730158,325.0,61.666666666666664,-107.6984126984127,325.0,-116.58730158730158,-4.0476190476190474,325.0,-25.158730158730158,24.206349206349206,22.3015873015873,-166.26984126984127
-141.8253968253968,325.0,-31.19047619047619,-102.93650793650794,34.047619047619044,-48.650793650793645,55.317460317460316,-14.365079365079364,61.34920634920635,292.3015873015873,-38.49206349206349,-158.4920634920635,25.0,325.0,61.666666666666664,-107.22222222222221,325.0,-116.26984126984127,-3.4126984126984126,325.0,-25.158730158730158,46.11111111111111,44.52380952380952,-321.8253968253968
-141.8253968253968,325.0,-31.19047619047619,-102.93650793650794,34.047619047619044,-48.650793650793645,55.317460317460316,-14.365079365079364,61.34920634920635,292.3015873015873,-38.49206349206349,-158.4920634920635,25.0,325.0,61.666666666666664,-107.22222222222221,325.0,-116.26984126984127,-3.4126984126984126,325.0,-25.158730158730158,46.11111111111111,44.52380952380952,-321.8253968253968
-136.9047619047619,325.0,-30.238095238095237,-99.6031746031746,32.77777777777778,-47.06349206349206,53.57142857142857,-20.07936507936508,59.285714285714285,282.3015873015873,-37.06349206349206,-153.09523809523807,24.206349206349206,325.0,59.285714285714285,-103.88888888888889,325.0,-112.46031746031746,-10.238095238095237,325.0,-24.523809523809522,45.317460317460316,43.095238095238095,-321.8253968253968
-136.9047619047619,325.0,-30.238095238095237,-99.6031746031746,32.77777777777778,-47.06349206349206,53.57142857142857,-20.07936507936508,59.285714285714285,282.3015873015873,-37.06349206349206,-153.09523809523807,24.206349206349206,325.0,59.285714285714285,-103.88888888888889,325.0,-112.46031746031746,-10.238095238095237,325.0,-24.523809523809522,45.317460317460316,43.095238095238095,-321.8253968253968
-38.33333333333333,325.0,-29.6031746031746,-97.38095238095238,32.14285714285714,-45.79365079365079,51.98412698412698,-19.76190476190476,57.857142857142854,276.4285714285714,-36.269841269841265,-149.76190476190476,23.730158730158728,325.0,58.01587301587301,-101.5079365079365,325.0,-110.07936507936508,-11.349206349206348,325.0,-23.730158730158728,-20.873015873015873,-20.396825396825395,-321.8253968253968
-38.33333333333333,325.0,-29.6031746031746,-97.38095238095238,32.14285714285714,-45.79365079365079,51.98412698412698,-19.76190476190476,57.857142857142854,276.4285714285714,-36.269841269841265,-149.76190476190476,23.730158730158728,325.0,58.01587301587301,-101.5079365079365,325.0,-110.07936507936508,-11.349206349206348,325.0,-23.730158730158728,-20.873015873015873,-20.396825396825395,-321.8253968253968
325.0,325.0,-29.6031746031746,-95.95238095238095,31.666666666666664,-45.476190476190474,51.666666666666664,-19.76190476190476,57.38095238095238,272.9365079365079,-35.79365079365079,-147.85714285714286,23.253968253968253,325.0,57.22222222222222,-100.39682539682539,325.0,-109.12698412698413,-10.238095238095237,325.0,-23.41269841269841,44.52380952380952,43.888888888888886,-321.8253968253968
325.0,325.0,-29.6031746031746,-95.95238095238095,31.666666666666664,-45.476190476190474,51.666666666666664,-19.76190476190476,57.38095238095238,272.9365079365079,-35.79365079365079,-147.85714285714286,23.253968253968253,325.0,57.22222222222222,-100.39682539682539,325.0,-109.12698412698413,-10.238095238095237,325.0,-23.41269841269841,44.52380952380952,43.888888888888886,-321.8253968253968
325.0,325.0,-28.65079365079365,-94.2063492063492,31.19047619047619,-44.36507936507936,50.238095238095234,-21.984126984126984,55.95238095238095,267.06349206349205,-35.15873015873016,-144.68253968253967,22.777777777777775,325.0,55.95238095238095,-98.17460317460316,325.0,-106.42857142857142,-13.571428571428571,325.0,-22.936507936507937,-19.285714285714285,-20.238095238095237,-321.8253968253968
325.0,325.0,-28.65079365079365,-94.2063492063492,31.19047619047619,-44.36507936507936,50.238095238095234,-21.984126984126984,55.95238095238095,267.06349206349205,-35.15873015873016,-144.68253968253967,22.777777777777775,325.0,55.95238095238095,-98.17460317460316,325.0,-106.42857142857142,-13.571428571428571,325.0,-22.936507936507937,-19.285714285714285,-20.238095238095237,-321.8253968253968
325.0,325.0,-28.49206349206349,-92.61904761904762,30.555555555555554,-43.888888888888886,49.76190476190476,-24.365079365079364,55.317460317460316,263.73015873015873,-34.682539682539684,-143.09523809523807,22.619047619047617,325.0,55.15873015873016,-96.9047619047619,325.0,-105.31746031746032,-14.682539682539682,325.0,-22.619047619047617,44.68253968253968,42.93650793650794,-166.26984126984127
325.0,325.0,-28.49206349206349,-92.61904761904762,30.555555555555554,-43.888888888888886,49.76190476190476,-24.365079365079364,55.317460317460316,263.73015873015873,-34.682539682539684,-143.09523809523807,22.619047619047617,325.0,55.15873015873016,-96.9047619047619,325.0,-105.31746031746032,-14.682539682539682,325.0,-22.619047619047617,44.68253968253968,42.93650793650794,-166.26984126984127
121.5079365079365,325.0,-27.857142857142854,-90.87301587301587,29.920634920634917,-42.77777777777778,48.650793650793645,-26.26984126984127,53.888888888888886,258.015873015873,-33.888888888888886,-139.6031746031746,22.142857142857142,325.0,53.888888888888886,-94.84126984126983,325.0,-103.09523809523809,-18.015873015873016,325.0,-22.142857142857142,-18.65079365079365,-19.6031746031746,-166.26984126984127
121.5079365079365,325.0,-27.857142857142854,-90.87301587301587,29.920634920634917,-42.77777777777778,48.650793650793645,-26.26984126984127,53.888888888888886,258.015873015873,-33.888888888888886,-139.6031746031746,22.142857142857142,325.0,53.888888888888886,-94.84126984126983,325.0,-103.09523809523809,-18.015873015873016,325.0,-22.142857142857142,-18.65079365079365,-19.6031746031746,-166.26984126984127
-219.76190476190476,325.0,-27.539682539682538,-89.76190476190476,29.444444444444443,-42.3015873015873,48.01587301587301,-23.095238095238095,53.25396825396825,255.0,-33.57142857142857,-138.015873015873,21.984126984126984,325.0,53.25396825396825,-93.57142857142857,325.0,-101.82539682539682,-15.0,325.0,-21.825396825396822,43.73015873015873,43.25396825396825,-166.26984126984127
-219.76190476190476,325.0,-27.539682539682538,-89.76190476190476,29.444444444444443,-42.3015873015873,48.01587301587301,-23.095238095238095,53.25396825396825,255.0,-33.57142857142857,-138.015873015873,21.984126984126984,325.0,53.25396825396825,-93.57142857142857,325.0,-101.82539682539682,-15.0,325.0,-21.825396825396822,43.73015873015873,43.25396825396825,-166.26984126984127
52.61904761904761,325.0,24.047619047619047,-88.4920634920635,29.126984126984127,-41.82539682539682,47.38095238095238,-23.88888888888889,52.61904761904761,251.66666666666666,-33.25396825396825,-136.11111111111111,21.666666666666664,325.0,52.61904761904761,-92.61904761904762,325.0,-100.71428571428571,-16.428571428571427,325.0,-21.666666666666664,25.952380952380953,25.317460317460316,-166.26984126984127
52.61904761904761,325.0,24.047619047619047,-88.4920634920635,29.126984126984127,-41.82539682539682,47.38095238095238,-23.88888888888889,52.61904761904761,251.66666666666666,-33.25396825396825,-136.11111111111111,21.666666666666664,325.0,52.61904761904761,-92.61904761904762,325.0,-100.71428571428571,-16.428571428571427,325.0,-21.666666666666664,25.952380952380953,25.317460317460316,-166.26984126984127
325.0,325.0,168.015873015873,-86.9047619047619,28.65079365079365,-40.714285714285715,46.11111111111111,-23.730158730158728,51.666666666666664,246.26984126984127,-32.460317460317455,-133.25396825396825,21.19047619047619,325.0,51.507936507936506,-90.71428571428571,325.0,-98.65079365079364,-16.746031746031743,325.0,-21.03174603174603,43.57142857142857,41.98412698412698,-166.26984126984127
325.0,325.0,168.015873015873,-86.9047619047619,28.65079365079365,-40.714285714285715,46.11111111111111,-23.730158730158728,51.666666666666664,246.26984126984127,-32.460317460317455,-133.25396825396825,21.19047619047619,325.0,51.507936507936506,-90.71428571428571,325.0,-98.65079365079364,-16.746031746031743,325.0,-21.03174603174603,43.57142857142857,41.98412698412698,-166.26984126984127
-138.65079365079364,325.0,190.3968253968254,-84.52380952380952,28.015873015873016,-39.92063492063492,44.84126984126984,-20.873015873015873,50.079365079365076,239.9206349206349,-31.825396825396822,-129.76190476190476,20.555555555555554,325.0,50.238095238095234,-88.17460317460316,325.0,-96.1111111111111,-14.682539682539682,325.0,-20.396825396825395,-0.3968253968253968,-0.873015873015873,-321.8253968253968
-138.65079365079364,325.0,190.3968253968254,-84.52380952380952,28.015873015873016,-39.92063492063492,44.84126984126984,-20.873015873015873,50.079365079365076,239.9206349206349,-31.825396825396822,-129.76190476190476,20.555555555555554,325.0,50.238095238095234,-88.17460317460316,325.0,-96.1111111111111,-14.682539682539682,325.0,-20.396825396825395,-0.3968253968253968,-0.873015873015873,-321.8253968253968
-248.49206349206347,325.0,298.4920634920635,-83.25396825396825,27.38095238095238,-39.12698412698413,44.047619047619044,-18.174603174603174,49.12698412698413,235.95238095238093,-31.349206349206348,-127.38095238095238,20.396825396825395,325.0,49.285714285714285,-86.9047619047619,325.0,-94.52380952380952,-12.142857142857142,325.0,-20.238095238095237,-0.7142857142857142,-0.7142857142857142,-321.8253968253968
-248.49206349206347,325.0,298.4920634920635,-83.25396825396825,27.38095238095238,-39.12698412698413,44.047619047619044,-18.174603174603174,49.12698412698413,235.95238095238093,-31.349206349206348,-127.38095238095238,20.396825396825395,325.0,49.285714285714285,-86.9047619047619,325.0,-94.52380952380952,-12.142857142857142,325.0,-20.238095238095237,-0.7142857142857142,-0.7142857142857142,-321.8253968253968
-233.09523809523807,325.0,325.0,-81.34920634920634,26.9047619047619,-38.49206349206349,43.25396825396825,-18.65079365079365,48.01587301587301,231.03174603174602,-30.71428571428571,-124.68253968253967,19.92063492063492,325.0,48.17460317460317,-85.0,325.0,-92.93650793650794,-13.095238095238095,325.0,-19.76190476190476,27.857142857142854,25.476190476190474,-321.8253968253968
-233.09523809523807,325.0,325.0,-81.34920634920634,26.9047619047619,-38.49206349206349,43.25396825396825,-18.65079365079365,48.01587301587301,231.03174603174602,-30.71428571428571,-124.68253968253967,19.92063492063492,325.0,48.17460317460317,-85.0,325.0,-92.93650793650794,-13.095238095238095,325.0,-19.76190476190476,27.857142857142854,25.476190476190474,-321.8253968253968
-229.9206349206349,325.0,325.0,-80.55555555555556,26.428571428571427,-38.01587301587301,42.61904761904761,-14.682539682539682,47.53968253968254,228.015873015873,-30.238095238095237,-122.93650793650794,19.76190476190476,325.0,47.53968253968254,-84.04761904761904,325.0,-91.66666666666666,-9.603174603174603,325.0,-19.6031746031746,-0.7142857142857142,-0.873015873015873,-321.8253968253968
-229.9206349206349,325.0,325.0,-80.55555555555556,26.428571428571427,-38.01587301587301,42.61904761904761,-14.682539682539682,47.53968253968254,228.015873015873,-30.238095238095237,-122.93650793650794,19.76190476190476,325.0,47.53968253968254,-84.04761904761904,325.0,-91.66666666666666,-9.603174603174603,325.0,-19.6031746031746,-0.7142857142857142,-0.873015873015873,-321.8253968253968
-224.52380952380952,325.0,325.0,-78.4920634920635,25.79365079365079,-37.06349206349206,41.666666666666664,-13.888888888888888,46.58730158730158,222.93650793650792,-27.857142857142854,-120.39682539682539,19.285714285714285,325.0,46.42857142857142,-82.3015873015873,325.0,-89.92063492063491,-9.126984126984127,325.0,-19.126984126984127,28.015873015873016,26.587301587301585,-321.8253968253968
-224.52380952380952,325.0,325.0,-78.4920634920635,25.79365079365079,-37.06349206349206,41.666666666666664,-13.888888888888888,46.58730158730158,222.93650793650792,-27.857142857142854,-120.39682539682539,19.285714285714285,325.0,46.42857142857142,-82.3015873015873,325.0,-89.92063492063491,-9.126984126984127,325.0,-19.126984126984127,28.015873015873016,26.587301587301585,-321.8253968253968
-223.4126984126984,325.0,325.0,-78.17460317460316,25.79365079365079,-37.06349206349206,41.507936507936506,-14.047619047619047,46.42857142857142,222.14285714285714,-26.746031746031743,-119.76190476190476,19.126984126984127,325.0,46.42857142857142,-82.14285714285714,325.0,-89.6031746031746,-9.285714285714285,325.0,-19.126984126984127,41.98412698412698,41.03174603174603,-166.26984126984127
-223.4126984126984,325.0,325.0,-78.17460317460316,25.79365079365079,-37.06349206349206,41.507936507936506,-14.047619047619047,46.42857142857142,222.14285714285714,-26.746031746031743,-119.76190476190476,19.126984126984127,325.0,46.42857142857142,-82.14285714285714,325.0,-89.6031746031746,-9.285714285714285,325.0,-19.126984126984127,41.98412698412698,41.03174603174603,-166.26984126984127
-215.95238095238093,325.0,325.0,-75.63492063492063,25.0,-35.79365079365079,40.238095238095234,-17.857142857142858,45.0,215.47619047619045,-7.5396825396825395,-116.1111111111111,17.063492063492063,-325.0,44.84126984126984,-79.44444444444444,325.0,-86.9047619047619,-13.888888888888888,325.0,-18.333333333333332,28.49206349206349,26.587301587301585,-166.26984126984127
-215.95238095238093,325.0,325.0,-75.63492063492063,25.0,-35.79365079365079,40.238095238095234,-17.857142857142858,45.0,215.47619047619045,-7.5396825396825395,-116.1111111111111,17.063492063492063,-325.0,44.84126984126984,-79.44444444444444,325.0,-86.9047619047619,-13.888888888888888,325.0,-18.333333333333332,28.49206349206349,26.587301587301585,-166.26984126984127
-215.0,325.0,325.0,-75.31746031746032,25.158730158730158,-35.63492063492063,40.238095238095234,-17.698412698412696,44.84126984126984,214.68253968253967,-5.317460317460317,-115.63492063492063,15.634920634920634,-325.0,44.68253968253968,-79.12698412698413,325.0,-86.58730158730158,-13.253968253968253,325.0,-18.333333333333332,41.19047619047619,40.079365079365076,-166.26984126984127
-215.0,325.0,325.0,-75.31746031746032,25.158730158730158,-35.63492063492063,40.238095238095234,-17.698412698412696,44.84126984126984,214.68253968253967,-5.317460317460317,-115.63492063492063,15.634920634920634,-325.0,44.68253968253968,-79.12698412698413,325.0,-86.58730158730158,-13.253968253968253,325.0,-18.333333333333332,41.19047619047619,40.079365079365076,-166.26984126984127
-208.65079365079364,325.0,325.0,-73.57142857142857,24.365079365079364,-34.682539682539684,38.96825396825397,-16.26984126984127,43.57142857142857,209.28571428571428,7.3809523809523805,-112.6190476190476,1.349206349206349,-325.0,43.41269841269841,-77.06349206349206,325.0,-84.36507936507937,-13.253968253968253,325.0,-14.047619047619047,18.015873015873016,16.746031746031743,-166.26984126984127
-208.65079365079364,325.0,325.0,-73.57142857142857,24.365079365079364,-34.682539682539684,38.96825396825397,-16.26984126984127,43.57142857142857,209.28571428571428,7.3809523809523805,-112.6190476190476,1.349206349206349,-325.0,43.41269841269841,-77.06349206349206,325.0,-84.36507936507937,-13.253968253968253,325.0,-14.047619047619047,18.015873015873016,16.746031746031743,-166.26984126984127
-203.88888888888889,325.0,325.0,-72.14285714285714,23.730158730158728,-34.047619047619044,38.17460317460317,-7.063492063492063,42.61904761904761,204.68253968253967,16.587301587301585,-110.07936507936508,-9.920634920634921,-325.0,42.61904761904761,-75.63492063492063,325.0,-82.77777777777777,-2.7777777777777777,325.0,8.809523809523808,-30.396825396825395,-29.6031746031746,-166.26984126984127
-203.88888888888889,325.0,325.0,-72.14285714285714,23.730158730158728,-34.047619047619044,38.17460317460317,-7.063492063492063,42.61904761904761,204.68253968253967,16.587301587301585,-110.07936507936508,-9.920634920634921,-325.0,42.61904761904761,-75.63492063492063,325.0,-82.77777777777777,-2.7777777777777777,325.0,8.809523809523808,-30.396825396825395,-29.6031746031746,-166.26984126984127
-200.07936507936506,325.0,325.0,-70.55555555555556,23.41269841269841,-33.41269841269841,37.53968253968254,-11.666666666666666,41.82539682539682,201.19047619047618,24.523809523809522,-108.33333333333333,-18.49206349206349,-325.0,41.82539682539682,-74.36507936507937,325.0,-81.5079365079365,-7.5396825396825395,325.0,59.285714285714285,29.285714285714285,28.333333333333332,-321.8253968253968
-200.07936507936506,325.0,325.0,-70.55555555555556,23.41269841269841,-33.41269841269841,37.53968253968254,-11.666666666666666,41.82539682539682,201.19047619047618,24.523809523809522,-108.33333333333333,-18.49206349206349,-325.0,41.82539682539682,-74.36507936507937,325.0,-81.5079365079365,-7.5396825396825395,325.0,59.285714285714285,29.285714285714285,28.333333333333332,-321.8253968253968
-194.52380952380952,325.0,325.0,-68.80952380952381,22.777777777777775,-32.61904761904762,36.42857142857142,-10.238095238095237,40.714285714285715,195.95238095238093,35.63492063492063,-105.15873015873015,-31.19047619047619,-325.0,40.714285714285715,-72.46031746031746,325.0,-79.44444444444444,-5.952380952380952,325.0,150.55555555555554,-10.396825396825395,-10.714285714285714,-321.8253968253968
-194.52380952380952,325.0,325.0,-68.80952380952381,22.777777777777775,-32.61904761904762,36.42857142857142,-10.238095238095237,40.714285714285715,195.95238095238093,35.63492063492063,-105.15873015873015,-31.19047619047619,-325.0,40.714285714285715,-72.46031746031746,325.0,-79.44444444444444,-5.952380952380952,325.0,150.55555555555554,-10.396825396825395,-10.714285714285714,-321.8253968253968
-190.87301587301587,325.0,325.0,-67.85714285714285,22.142857142857142,-32.14285714285714,35.95238095238095,-11.984126984126984,40.079365079365076,192.61904761904762,42.3015873015873,-103.57142857142857,-38.96825396825397,-231.66666666666666,39.92063492063492,-71.19047619047619,325.0,-78.33333333333333,-8.492063492063492,325.0,120.07936507936508,8.65079365079365,8.809523809523808,-321.8253968253968
-190.87301587301587,325.0,325.0,-67.85714285714285,22.142857142857142,-32.14285714285714,35.95238095238095,-11.984126984126984,40.079365079365076,192.61904761904762,42.3015873015873,-103.57142857142857,-38.96825396825397,-231.66666666666666,39.92063492063492,-71.19047619047619,325.0,-78.33333333333333,-8.492063492063492,325.0,120.07936507936508,8.65079365079365,8.809523809523808,-321.8253968253968
-186.42857142857142,325.0,325.0,-66.26984126984127,12.777777777777777,-31.507936507936506,35.0,-21.19047619047619,39.44444444444444,188.4920634920635,49.76190476190476,-101.19047619047619,-48.650793650793645,325.0,39.12698412698413,-69.76190476190476,325.0,-76.74603174603175,-17.38095238095238,325.0,283.25396825396825,-0.7142857142857142,-1.0317460317460316,-321.8253968253968
-186.42857142857142,325.0,325.0,-66.26984126984127,12.777777777777777,-31.507936507936506,35.0,-21.19047619047619,39.44444444444444,188.4920634920635,49.76190476190476,-101.19047619047619,-48.650793650793645,325.0,39.12698412698413,-69.76190476190476,325.0,-76.74603174603175,-17.38095238095238,325.0,283.25396825396825,-0.7142857142857142,-1.0317460317460316,-321.8253968253968
-182.3015873015873,325.0,325.0,-65.0,0.3968253968253968,-30.87301587301587,34.2063492063492,-15.95238095238095,38.49206349206349,184.36507936507937,57.06349206349206,-98.96825396825396,-57.53968253968254,325.0,38.49206349206349,-68.4920634920635,325.0,-75.15873015873015,-12.777777777777777,325.0,240.07936507936506,-30.555555555555554,-29.444444444444443,-321.8253968253968
-182.3015873015873,325.0,325.0,-65.0,0.3968253968253968,-30.87301587301587,34.2063492063492,-15.95238095238095,38.49206349206349,184.36507936507937,57.06349206349206,-98.96825396825396,-57.53968253968254,325.0,38.49206349206349,-68.4920634920635,325.0,-75.15873015873015,-12.777777777777777,325.0,240.07936507936506,-30.555555555555554,-29.444444444444443,-321.8253968253968
-178.96825396825395,325.0,325.0,-63.888888888888886,-9.126984126984127,-30.396825396825395,33.73015873015873,-16.904761904761905,37.857142857142854,181.19047619047618,63.73015873015873,-97.38095238095238,-64.36507936507937,325.0,37.698412698412696,-67.38095238095238,325.0,-73.88888888888889,-15.634920634920634,325.0,325.0,30.396825396825395,30.238095238095237,-166.26984126984127
-178.96825396825395,325.0,325.0,-63.888888888888886,-9.126984126984127,-30.396825396825395,33.73015873015873,-16.904761904761905,37.857142857142854,181.19047619047618,63.73015873015873,-97.38095238095238,-64.36507936507937,325.0,37.698412698412696,-67.38095238095238,325.0,-73.88888888888889,-15.634920634920634,325.0,325.0,30.396825396825395,30.238095238095237,-166.26984126984127
-175.47619047619045,325.0,325.0,-62.93650793650793,-18.174603174603174,-29.76190476190476,33.095238095238095,-16.11111111111111,37.22222222222222,178.33333333333331,69.12698412698413,-95.63492063492063,-70.87301587301587,325.0,37.06349206349206,-66.11111111111111,325.0,-72.61904761904762,-15.634920634920634,325.0,276.58730158730157,-31.507936507936506,-30.87301587301587,-166.26984126984127
-175.47619047619045,325.0,325.0,-62.93650793650793,-18.174603174603174,-29.76190476190476,33.095238095238095,-16.11111111111111,37.22222222222222,178.33333333333331,69.12698412698413,-95.63492063492063,-70.87301587301587,325.0,37.06349206349206,-66.11111111111111,325.0,-72.61904761904762,-15.634920634920634,325.0,276.58730158730157,-31.507936507936506,-30.87301587301587,-166.26984126984127
-172.3015873015873,325.0,325.0,-61.666666666666664,-26.746031746031743,-29.444444444444443,32.460317460317455,-13.253968253968253,36.42857142857142,175.15873015873015,74.68253968253968,-94.04761904761904,-76.9047619047619,325.0,36.42857142857142,-65.15873015873015,325.0,-71.66666666666666,-14.523809523809524,325.0,325.0,30.71428571428571,29.444444444444443,-166.26984126984127
-172.3015873015873,325.0,325.0,-61.666666666666664,-26.746031746031743,-29.444444444444443,32.460317460317455,-13.253968253968253,36.42857142857142,175.15873015873015,74.68253968253968,-94.04761904761904,-76.9047619047619,325.0,36.42857142857142,-65.15873015873015,325.0,-71.66666666666666,-14.523809523809524,325.0,325.0,30.71428571428571,29.444444444444443,-166.26984126984127
-168.96825396825395,325.0,325.0,-60.71428571428571,-35.317460317460316,-28.809523809523807,31.825396825396822,-14.365079365079364,35.79365079365079,172.14285714285714,79.92063492063491,-92.30158730158729,-82.93650793650794,325.0,35.79365079365079,-63.888888888888886,325.0,-70.39682539682539,-16.11111111111111,325.0,261.8253968253968,-31.825396825396822,-30.396825396825395,-166.26984126984127
-168.96825396825395,325.0,325.0,-60.71428571428571,-35.317460317460316,-28.809523809523807,31.825396825396822,-14.365079365079364,35.79365079365079,172.14285714285714,79.92063492063491,-92.30158730158729,-82.93650793650794,325.0,35.79365079365079,-63.888888888888886,325.0,-70.39682539682539,-16.11111111111111,325.0,261.8253968253968,-31.825396825396822,-30.396825396825395,-166.26984126984127
-139.76190476190476,325.0,325.0,-59.6031746031746,-43.41269841269841,-28.49206349206349,31.349206349206348,-12.46031746031746,35.317460317460316,169.12698412698413,85.31746031746032,-90.55555555555556,-88.80952380952381,325.0,35.317460317460316,-63.095238095238095,325.0,-69.28571428571428,-14.682539682539682,325.0,325.0,31.825396825396822,29.920634920634917,-166.26984126984127
-139.76190476190476,325.0,325.0,-59.6031746031746,-43.41269841269841,-28.49206349206349,31.349206349206348,-12.46031746031746,35.317460317460316,169.12698412698413,85.31746031746032,-90.55555555555556,-88.80952380952381,325.0,35.317460317460316,-63.095238095238095,325.0,-69.28571428571428,-14.682539682539682,325.0,325.0,31.825396825396822,29.920634920634917,-166.26984126984127
285.7936507936508,325.0,325.0,-58.650793650793645,-51.19047619047619,-28.015873015873016,30.71428571428571,-13.73015873015873,34.84126984126984,166.26984126984127,89.76190476190476,-88.96825396825396,-94.36507936507935,325.0,34.682539682539684,-61.98412698412698,325.0,-68.17460317460318,-16.11111111111111,325.0,305.6349206349206,-32.14285714285714,-31.507936507936506,-321.8253968253968
285.7936507936508,325.0,325.0,-58.650793650793645,-51.19047619047619,-28.015873015873016,30.71428571428571,-13.73015873015873,34.84126984126984,166.26984126984127,89.76190476190476,-88.96825396825396,-94.36507936507935,325.0,34.682539682539684,-61.98412698412698,325.0,-68.17460317460318,-16.11111111111111,325.0,305.6349206349206,-32.14285714285714,-31.507936507936506,-321.8253968253968
74.2063492063492,325.0,325.0,-57.698412698412696,-58.49206349206349,-27.38095238095238,30.238095238095237,-11.825396825396824,34.047619047619044,163.4126984126984,94.68253968253968,-87.53968253968253,-99.44444444444444,190.3968253968254,34.047619047619044,-60.71428571428571,325.0,-67.06349206349206,-14.84126984126984,323.25396825396825,325.0,-31.666666666666664,-31.507936507936506,-321.8253968253968
74.2063492063492,325.0,325.0,-57.698412698412696,-58.49206349206349,-27.38095238095238,30.238095238095237,-11.825396825396824,34.047619047619044,163.4126984126984,94.68253968253968,-87.53968253968253,-99.44444444444444,190.3968253968254,34.047619047619044,-60.71428571428571,325.0,-67.06349206349206,-14.84126984126984,323.25396825396825,325.0,-31.666666666666664,-31.507936507936506,-321.8253968253968
-175.63492063492063,325.0,325.0,-56.11111111111111,-69.12698412698413,-26.587301587301585,29.444444444444443,-8.809523809523808,33.25396825396825,159.12698412698413,325.0,-84.84126984126983,-106.9047619047619,-325.0,33.095238095238095,-59.12698412698413,325.0,-65.31746031746032,-12.3015873015873,317.53968253968253,325.0,-2.3015873015873014,-4.365079365079365,-321.8253968253968
-175.63492063492063,325.0,325.0,-56.11111111111111,-69.12698412698413,-26.587301587301585,29.444444444444443,-8.809523809523808,33.25396825396825,159.12698412698413,325.0,-84.84126984126983,-106.9047619047619,-325.0,33.095238095238095,-59.12698412698413,325.0,-65.31746031746032,-12.3015873015873,317.53968253968253,325.0,-2.3015873015873014,-4.365079365079365,-321.8253968253968
119.44444444444444,325.0,325.0,-55.317460317460316,-75.79365079365078,-26.428571428571427,28.96825396825397,-15.95238095238095,32.61904761904762,156.58730158730157,325.0,-83.73015873015872,-111.66666666666666,-325.0,32.460317460317455,-58.33333333333333,325.0,-64.2063492063492,-18.96825396825397,312.3015873015873,325.0,1.8253968253968254,2.9365079365079363,-321.8253968253968
119.44444444444444,325.0,325.0,-55.317460317460316,-75.79365079365078,-26.428571428571427,28.96825396825397,-15.95238095238095,32.61904761904762,156.58730158730157,325.0,-83.73015873015872,-111.66666666666666,-325.0,32.460317460317455,-58.33333333333333,325.0,-64.2063492063492,-18.96825396825397,312.3015873015873,325.0,1.8253968253968254,2.9365079365079363,-321.8253968253968
325.0,325.0,325.0,-54.2063492063492,-82.77777777777777,-25.79365079365079,28.333333333333332,-26.746031746031743,32.14285714285714,153.73015873015873,325.0,-82.14285714285714,-116.42857142857142,179.12698412698413,31.98412698412698,-57.22222222222222,325.0,-63.25396825396825,-30.555555555555554,307.22222222222223,325.0,-2.142857142857143,-3.4126984126984126,-321.8253968253968
325.0,325.0,325.0,-54.2063492063492,-82.77777777777777,-25.79365079365079,28.333333333333332,-26.746031746031743,32.14285714285714,153.73015873015873,325.0,-82.14285714285714,-116.42857142857142,179.12698412698413,31.98412698412698,-57.22222222222222,325.0,-63.25396825396825,-30.555555555555554,307.22222222222223,325.0,-2.142857142857143,-3.4126984126984126,-321.8253968253968
178.015873015873,325.0,325.0,-53.41269841269841,-87.38095238095238,-25.634920634920633,28.015873015873016,-28.174603174603174,31.825396825396822,151.66666666666666,325.0,-81.19047619047619,-119.76190476190476,267.06349206349205,31.507936507936506,-56.58730158730158,325.0,-62.460317460317455,-30.396825396825395,303.4126984126984,325.0,-0.23809523809523808,-1.349206349206349,-166.26984126984127
178.015873015873,325.0,325.0,-53.41269841269841,-87.38095238095238,-25.634920634920633,28.015873015873016,-28.174603174603174,31.825396825396822,151.66666666666666,325.0,-81.19047619047619,-119.76190476190476,267.06349206349205,31.507936507936506,-56.58730158730158,325.0,-62.460317460317455,-30.396825396825395,303.4126984126984,325.0,-0.23809523809523808,-1.349206349206349,-166.26984126984127
-166.74603174603175,325.0,325.0,-52.3015873015873,-94.68253968253968,-25.0,27.38095238095238,-21.03174603174603,30.87301587301587,148.4920634920635,-132.14285714285714,-79.28571428571428,-124.68253968253967,325.0,30.71428571428571,-55.317460317460316,325.0,-61.34920634920635,-23.095238095238095,297.06349206349205,325.0,-1.6666666666666665,-2.7777777777777777,-166.26984126984127
-166.74603174603175,325.0,325.0,-52.3015873015873,-94.68253968253968,-25.0,27.38095238095238,-21.03174603174603,30.87301587301587,148.4920634920635,-132.14285714285714,-79.28571428571428,-124.68253968253967,325.0,30.71428571428571,-55.317460317460316,325.0,-61.34920634920635,-23.095238095238095,297.06349206349205,325.0,-1.6666666666666665,-2.7777777777777777,-166.26984126984127
-183.4126984126984,325.0,325.0,-51.666666666666664,-99.92063492063491,-24.68253968253968,26.9047619047619,-10.238095238095237,30.396825396825395,146.11111111111111,-50.238095238095234,-78.01587301587301,-128.17460317460316,325.0,30.238095238095237,-54.52380952380952,325.0,-60.39682539682539,-11.984126984126984,292.1428571428571,325.0,-0.7142857142857142,-0.23809523809523808,-166.26984126984127
-183.4126984126984,325.0,325.0,-51.666666666666664,-99.92063492063491,-24.68253968253968,26.9047619047619,-10.238095238095237,30.396825396825395,146.11111111111111,-50.238095238095234,-78.01587301587301,-128.17460317460316,325.0,30.238095238095237,-54.52380952380952,325.0,-60.39682539682539,-11.984126984126984,292.1428571428571,325.0,-0.7142857142857142,-0.23809523809523808,-166.26984126984127
-177.85714285714286,325.0,325.0,-50.87301587301587,-103.4126984126984,-24.365079365079364,26.587301587301585,-5.158730158730158,30.07936507936508,144.04761904761904,-191.8253968253968,-76.74603174603175,-130.7142857142857,325.0,30.07936507936508,-53.888888888888886,325.0,-59.44444444444444,-6.904761904761904,288.6507936507936,325.0,-32.61904761904762,-33.095238095238095,-166.26984126984127
-177.85714285714286,325.0,325.0,-50.87301587301587,-103.4126984126984,-24.365079365079364,26.587301587301585,-5.158730158730158,30.07936507936508,144.04761904761904,-191.8253968253968,-76.74603174603175,-130.7142857142857,325.0,30.07936507936508,-53.888888888888886,325.0,-59.44444444444444,-6.904761904761904,288.6507936507936,325.0,-32.61904761904762,-33.095238095238095,-166.26984126984127
-173.57142857142856,325.0,325.0,-49.92063492063492,-110.23809523809523,-24.047619047619047,25.952380952380953,-9.603174603174603,29.444444444444443,140.87301587301587,-120.07936507936508,-75.31746031746032,-135.47619047619048,325.0,29.444444444444443,-52.77777777777777,325.0,-58.49206349206349,-11.19047619047619,282.6190476190476,325.0,-1.507936507936508,-0.5555555555555556,-166.26984126984127
-173.57142857142856,325.0,325.0,-49.92063492063492,-110.23809523809523,-24.047619047619047,25.952380952380953,-9.603174603174603,29.444444444444443,140.87301587301587,-120.07936507936508,-75.31746031746032,-135.47619047619048,325.0,29.444444444444443,-52.77777777777777,325.0,-58.49206349206349,-11.19047619047619,282.6190476190476,325.0,-1.507936507936508,-0.5555555555555556,-166.26984126984127
-170.23809523809524,322.1428571428571,325.0,-49.12698412698413,-115.0,-23.41269841269841,25.476190476190474,-1.507936507936508,-2.46031746031746,138.4920634920635,-128.17460317460316,-73.88888888888889,-138.33333333333331,325.0,28.96825396825397,-51.82539682539682,325.0,-57.38095238095238,-3.73015873015873,277.85714285714283,325.0,0.7142857142857142,0.07936507936507936,-321.8253968253968
-170.23809523809524,322.1428571428571,325.0,-49.12698412698413,-115.0,-23.41269841269841,25.476190476190474,-1.507936507936508,-2.46031746031746,138.4920634920635,-128.17460317460316,-73.88888888888889,-138.33333333333331,325.0,28.96825396825397,-51.82539682539682,325.0,-57.38095238095238,-3.73015873015873,277.85714285714283,325.0,0.7142857142857142,0.07936507936507936,-321.8253968253968
-167.69841269841268,318.17460317460313,325.0,-48.17460317460317,-118.65079365079364,-23.095238095238095,25.317460317460316,-3.4126984126984126,28.333333333333332,136.9047619047619,-109.92063492063491,-72.93650793650794,-140.7142857142857,325.0,28.333333333333332,-51.34920634920635,325.0,-56.74603174603174,-6.428571428571428,274.68253968253964,325.0,30.238095238095237,30.396825396825395,-321.8253968253968
-167.69841269841268,318.17460317460313,325.0,-48.17460317460317,-118.65079365079364,-23.095238095238095,25.317460317460316,-3.4126984126984126,28.333333333333332,136.9047619047619,-109.92063492063491,-72.93650793650794,-140.7142857142857,325.0,28.333333333333332,-51.34920634920635,325.0,-56.74603174603174,-6.428571428571428,274.68253968253964,325.0,30.238095238095237,30.396825396825395,-321.8253968253968
-162.14285714285714,321.8253968253968,325.0,-46.904761904761905,-126.1111111111111,-22.46031746031746,24.365079365079364,2.46031746031746,28.333333333333332,132.61904761904762,148.8095238095238,-70.71428571428571,-145.95238095238093,-325.0,27.539682539682538,-49.76190476190476,322.77777777777777,-55.15873015873016,-1.0317460317460316,266.4285714285714,325.0,31.03174603174603,30.87301587301587,-321.8253968253968
-162.14285714285714,321.8253968253968,325.0,-46.904761904761905,-126.1111111111111,-22.46031746031746,24.365079365079364,2.46031746031746,28.333333333333332,132.61904761904762,148.8095238095238,-70.71428571428571,-145.95238095238093,-325.0,27.539682539682538,-49.76190476190476,322.77777777777777,-55.15873015873016,-1.0317460317460316,266.4285714285714,325.0,31.03174603174603,30.87301587301587,-321.8253968253968
-159.9206349206349,319.4444444444444,325.0,-46.11111111111111,-129.28571428571428,-22.142857142857142,24.365079365079364,3.095238095238095,8.492063492063492,130.87301587301587,200.3968253968254,-69.76190476190476,-148.17460317460316,-325.0,27.22222222222222,-49.12698412698413,318.6507936507936,-54.68253968253968,-0.07936507936507936,263.25396825396825,325.0,-0.7142857142857142,-0.5555555555555556,-321.8253968253968
-159.9206349206349,319.4444444444444,325.0,-46.11111111111111,-129.28571428571428,-22.142857142857142,24.365079365079364,3.095238095238095,8.492063492063492,130.87301587301587,200.3968253968254,-69.76190476190476,-148.17460317460316,-325.0,27.22222222222222,-49.12698412698413,318.6507936507936,-54.68253968253968,-0.07936507936507936,263.25396825396825,325.0,-0.7142857142857142,-0.5555555555555556,-321.8253968253968
-155.15873015873015,315.4761904761905,325.0,-45.476190476190474,-133.4126984126984,-21.825396825396822,23.88888888888889,1.0317460317460316,7.857142857142857,128.65079365079364,308.17460317460313,-68.65079365079364,-150.87301587301587,-325.0,26.587301587301585,-48.33333333333333,313.25396825396825,-53.73015873015873,-1.6666666666666665,258.8095238095238,325.0,0.07936507936507936,-0.5555555555555556,-321.8253968253968
-155.15873015873015,315.4761904761905,325.0,-45.476190476190474,-133.4126984126984,-21.825396825396822,23.88888888888889,1.0317460317460316,7.857142857142857,128.65079365079364,308.17460317460313,-68.65079365079364,-150.87301587301587,-325.0,26.587301587301585,-48.33333333333333,313.25396825396825,-53.73015873015873,-1.6666666666666665,258.8095238095238,325.0,0.07936507936507936,-0.5555555555555556,-321.8253968253968
-148.17460317460316,316.1111111111111,325.0,-44.68253968253968,-137.69841269841268,-21.349206349206348,23.095238095238095,7.3809523809523805,-184.2063492063492,125.95238095238095,325.0,-67.06349206349206,-153.4126984126984,-325.0,26.11111111111111,-47.22222222222222,306.74603174603175,-52.61904761904761,3.888888888888889,253.57142857142856,325.0,-33.57142857142857,-32.61904761904762,-166.26984126984127
-148.17460317460316,316.1111111111111,325.0,-44.68253968253968,-137.69841269841268,-21.349206349206348,23.095238095238095,7.3809523809523805,-184.2063492063492,125.95238095238095,325.0,-67.06349206349206,-153.4126984126984,-325.0,26.11111111111111,-47.22222222222222,306.74603174603175,-52.61904761904761,3.888888888888889,253.57142857142856,325.0,-33.57142857142857,-32.61904761904762,-166.26984126984127
-151.34920634920633,303.73015873015873,325.0,-44.047619047619044,-140.7142857142857,-20.71428571428571,22.936507936507937,-1.8253968253968254,-198.96825396825395,124.52380952380952,325.0,-66.11111111111111,-155.47619047619048,-325.0,25.79365079365079,-46.42857142857142,302.77777777777777,-51.82539682539682,-5.952380952380952,250.55555555555554,325.0,36.74603174603175,36.11111111111111,-166.26984126984127
