Fp1[1],Fp2[2],F3[3],F4[4],C3[5],C4[6],P3[7],P4[8],O1[9],O2[10],F7[11],F8[12],T3[13],T4[14],T5[15],T6[16],Fz[17],Pz[18],Cz[19],Pg1[20],Pg2[21],EOGR[22],EOOGL[23],EMG[24]
266.58730158730157,41.666666666666664,-325.0,43.25396825396825,35.0,325.0,-53.41269841269841,325.0,229.60317460317458,43.25396825396825,268.4920634920635,325.0,30.396825396825395,-28.333333333333332,31.03174603174603,49.6031746031746,-325.0,44.36507936507936,325.0,-48.33333333333333,-28.015873015873016,-20.07936507936508,-18.96825396825397,-166.26984126984127
266.58730158730157,41.666666666666664,-325.0,43.25396825396825,35.0,325.0,-53.41269841269841,325.0,229.60317460317458,43.25396825396825,268.4920634920635,325.0,30.396825396825395,-28.333333333333332,31.03174603174603,49.6031746031746,-325.0,44.36507936507936,325.0,-48.33333333333333,-28.015873015873016,-20.07936507936508,-18.96825396825397,-166.26984126984127
256.1111111111111,40.079365079365076,-325.0,41.507936507936506,33.57142857142857,325.0,-51.507936507936506,325.0,220.55555555555554,41.82539682539682,258.3333333333333,325.0,29.285714285714285,-27.539682539682538,20.396825396825395,47.857142857142854,-325.0,42.77777777777778,325.0,-46.58730158730158,-26.9047619047619,18.49206349206349,19.6031746031746,-166.26984126984127
256.1111111111111,40.079365079365076,-325.0,41.507936507936506,33.57142857142857,325.0,-51.507936507936506,325.0,220.55555555555554,41.82539682539682,258.3333333333333,325.0,29.285714285714285,-27.539682539682538,20.396825396825395,47.857142857142854,-325.0,42.77777777777778,325.0,-46.58730158730158,-26.9047619047619,18.49206349206349,19.6031746031746,-166.26984126984127
231.19047619047618,36.269841269841265,-325.0,37.698412698412696,14.84126984126984,325.0,-47.06349206349206,325.0,200.07936507936506,37.857142857142854,234.2063492063492,325.0,-11.984126984126984,-25.158730158730158,-32.460317460317455,43.57142857142857,-325.0,38.96825396825397,325.0,-42.460317460317455,-24.523809523809522,16.746031746031743,17.698412698412696,-166.26984126984127
231.19047619047618,36.269841269841265,-325.0,37.698412698412696,14.84126984126984,325.0,-47.06349206349206,325.0,200.07936507936506,37.857142857142854,234.2063492063492,325.0,-11.984126984126984,-25.158730158730158,-32.460317460317455,43.57142857142857,-325.0,38.96825396825397,325.0,-42.460317460317455,-24.523809523809522,16.746031746031743,17.698412698412696,-166.26984126984127
202.46031746031744,32.3015873015873,-325.0,33.095238095238095,-12.777777777777777,325.0,-41.82539682539682,325.0,176.58730158730157,33.57142857142857,206.58730158730157,325.0,-57.698412698412696,-22.3015873015873,-89.6031746031746,38.65079365079365,-325.0,34.682539682539684,325.0,-37.857142857142854,-21.825396825396822,-17.38095238095238,-16.746031746031743,-166.26984126984127
202.46031746031744,32.3015873015873,-325.0,33.095238095238095,-12.777777777777777,325.0,-41.82539682539682,325.0,176.58730158730157,33.57142857142857,206.58730158730157,325.0,-57.698412698412696,-22.3015873015873,-89.6031746031746,38.65079365079365,-325.0,34.682539682539684,325.0,-37.857142857142854,-21.825396825396822,-17.38095238095238,-16.746031746031743,-166.26984126984127
202.46031746031744,32.3015873015873,-325.0,33.095238095238095,-12.777777777777777,325.0,-41.82539682539682,325.0,176.58730158730157,33.57142857142857,206.58730158730157,325.0,-57.698412698412696,-22.3015873015873,-89.6031746031746,38.65079365079365,-325.0,34.682539682539684,325.0,-37.857142857142854,-21.825396825396822,-17.38095238095238,-16.746031746031743,-166.26984126984127
202.46031746031744,32.3015873015873,-325.0,33.095238095238095,-12.777777777777777,325.0,-41.82539682539682,325.0,176.58730158730157,33.57142857142857,206.58730158730157,325.0,-57.698412698412696,-22.3015873015873,-89.6031746031746,38.65079365079365,-325.0,34.682539682539684,325.0,-37.857142857142854,-21.825396825396822,-17.38095238095238,-16.746031746031743,-166.26984126984127
202.46031746031744,32.3015873015873,-325.0,33.095238095238095,-12.777777777777777,325.0,-41.82539682539682,325.0,176.58730158730157,33.57142857142857,206.58730158730157,325.0,-57.698412698412696,-22.3015873015873,-89.6031746031746,38.65079365079365,-325.0,34.682539682539684,325.0,-37.857142857142854,-21.825396825396822,-17.38095238095238,-16.746031746031743,-321.8253968253968
202.46031746031744,32.3015873015873,-325.0,33.095238095238095,-12.777777777777777,325.0,-41.82539682539682,325.0,176.58730158730157,33.57142857142857,206.58730158730157,325.0,-57.698412698412696,-22.3015873015873,-89.6031746031746,38.65079365079365,-325.0,34.682539682539684,325.0,-37.857142857142854,-21.825396825396822,-17.38095238095238,-16.746031746031743,-321.8253968253968
191.98412698412696,30.71428571428571,-325.0,31.507936507936506,-60.873015873015866,325.0,-39.92063492063492,325.0,168.015873015873,31.825396825396822,196.42857142857142,325.0,-14.523809523809524,-21.349206349206348,-134.04761904761904,36.74603174603175,-325.0,32.93650793650794,325.0,-36.269841269841265,-20.873015873015873,-16.428571428571427,-16.904761904761905,-321.8253968253968
191.98412698412696,30.71428571428571,-325.0,31.507936507936506,-60.873015873015866,325.0,-39.92063492063492,325.0,168.015873015873,31.825396825396822,196.42857142857142,325.0,-14.523809523809524,-21.349206349206348,-134.04761904761904,36.74603174603175,-325.0,32.93650793650794,325.0,-36.269841269841265,-20.873015873015873,-16.428571428571427,-16.904761904761905,-321.8253968253968
179.9206349206349,28.96825396825397,-325.0,29.76190476190476,-101.5079365079365,325.0,-37.698412698412696,325.0,158.17460317460316,29.920634920634917,184.36507936507937,325.0,28.65079365079365,-20.238095238095237,-171.34920634920633,34.52380952380952,-325.0,31.03174603174603,325.0,-34.047619047619044,-19.92063492063492,24.047619047619047,21.825396825396822,-321.8253968253968
179.9206349206349,28.96825396825397,-325.0,29.76190476190476,-101.5079365079365,325.0,-37.698412698412696,325.0,158.17460317460316,29.920634920634917,184.36507936507937,325.0,28.65079365079365,-20.238095238095237,-171.34920634920633,34.52380952380952,-325.0,31.03174603174603,325.0,-34.047619047619044,-19.92063492063492,24.047619047619047,21.825396825396822,-321.8253968253968
176.74603174603175,28.809523809523807,-325.0,29.285714285714285,-123.88888888888889,325.0,-37.06349206349206,325.0,155.47619047619048,29.6031746031746,181.5079365079365,325.0,28.174603174603174,-20.07936507936508,-191.19047619047618,33.888888888888886,-325.0,30.555555555555554,325.0,-33.57142857142857,-19.444444444444443,-24.523809523809522,-21.666666666666664,-321.8253968253968
176.74603174603175,28.809523809523807,-325.0,29.285714285714285,-123.88888888888889,325.0,-37.06349206349206,325.0,155.47619047619048,29.6031746031746,181.5079365079365,325.0,28.174603174603174,-20.07936507936508,-191.19047619047618,33.888888888888886,-325.0,30.555555555555554,325.0,-33.57142857142857,-19.444444444444443,-24.523809523809522,-21.666666666666664,-321.8253968253968
173.73015873015873,28.015873015873016,-325.0,28.96825396825397,-118.33333333333333,325.0,-36.42857142857142,325.0,152.93650793650792,28.96825396825397,178.33333333333331,325.0,27.38095238095238,-19.6031746031746,-185.95238095238093,33.41269841269841,-325.0,29.920634920634917,325.0,-33.095238095238095,-19.285714285714285,25.634920634920633,22.46031746031746,-321.8253968253968
173.73015873015873,28.015873015873016,-325.0,28.96825396825397,-118.33333333333333,325.0,-36.42857142857142,325.0,152.93650793650792,28.96825396825397,178.33333333333331,325.0,27.38095238095238,-19.6031746031746,-185.95238095238093,33.41269841269841,-325.0,29.920634920634917,325.0,-33.095238095238095,-19.285714285714285,25.634920634920633,22.46031746031746,-321.8253968253968
173.73015873015873,28.015873015873016,-325.0,28.96825396825397,-118.33333333333333,325.0,-36.42857142857142,325.0,152.93650793650792,28.96825396825397,178.33333333333331,325.0,27.38095238095238,-19.6031746031746,-185.95238095238093,33.41269841269841,-325.0,29.920634920634917,325.0,-33.095238095238095,-19.285714285714285,25.634920634920633,22.46031746031746,-166.26984126984127
173.73015873015873,28.015873015873016,-325.0,28.96825396825397,-118.33333333333333,325.0,-36.42857142857142,325.0,152.93650793650792,28.96825396825397,178.33333333333331,325.0,27.38095238095238,-19.6031746031746,-185.95238095238093,33.41269841269841,-325.0,29.920634920634917,325.0,-33.095238095238095,-19.285714285714285,25.634920634920633,22.46031746031746,-166.26984126984127
169.76190476190476,27.539682539682538,-325.0,28.174603174603174,-125.31746031746032,325.0,-35.79365079365079,325.0,149.6031746031746,28.333333333333332,174.52380952380952,325.0,26.746031746031743,-19.285714285714285,-190.87301587301587,32.61904761904762,-325.0,29.444444444444443,325.0,-32.61904761904762,-19.126984126984127,19.285714285714285,17.857142857142858,-166.26984126984127
169.76190476190476,27.539682539682538,-325.0,28.174603174603174,-125.31746031746032,325.0,-35.79365079365079,325.0,149.6031746031746,28.333333333333332,174.52380952380952,325.0,26.746031746031743,-19.285714285714285,-190.87301587301587,32.61904761904762,-325.0,29.444444444444443,325.0,-32.61904761904762,-19.126984126984127,19.285714285714285,17.857142857142858,-166.26984126984127
-4.0476190476190474,15.793650793650793,-148.8095238095238,26.26984126984127,117.6984126984127,319.1269841269841,138.8095238095238,325.0,-32.3015873015873,26.746031746031743,173.88888888888889,325.0,25.158730158730158,-28.49206349206349,-220.2380952380952,20.555555555555554,-325.0,27.857142857142854,325.0,-30.71428571428571,-18.015873015873016,0.07936507936507936,-0.5555555555555556,-166.26984126984127
-4.0476190476190474,15.793650793650793,-148.8095238095238,26.26984126984127,117.6984126984127,319.1269841269841,138.8095238095238,325.0,-32.3015873015873,26.746031746031743,173.88888888888889,325.0,25.158730158730158,-28.49206349206349,-220.2380952380952,20.555555555555554,-325.0,27.857142857142854,325.0,-30.71428571428571,-18.015873015873016,0.07936507936507936,-0.5555555555555556,-166.26984126984127
147.38095238095238,24.206349206349206,-309.9206349206349,24.84126984126984,57.22222222222222,305.1587301587301,-31.666666666666664,325.0,131.03174603174602,25.0,152.46031746031744,325.0,23.57142857142857,-17.539682539682538,-252.93650793650792,28.809523809523807,-325.0,25.952380952380953,325.0,-28.65079365079365,-16.904761904761905,-0.23809523809523808,0.07936507936507936,-166.26984126984127
147.38095238095238,24.206349206349206,-309.9206349206349,24.84126984126984,57.22222222222222,305.1587301587301,-31.666666666666664,325.0,131.03174603174602,25.0,152.46031746031744,325.0,23.57142857142857,-17.539682539682538,-252.93650793650792,28.809523809523807,-325.0,25.952380952380953,325.0,-28.65079365079365,-16.904761904761905,-0.23809523809523808,0.07936507936507936,-166.26984126984127
142.77777777777777,23.57142857142857,-300.7142857142857,23.88888888888889,55.15873015873016,296.26984126984127,-31.03174603174603,325.0,127.06349206349206,24.206349206349206,148.015873015873,325.0,22.619047619047617,-16.904761904761905,-243.88888888888889,27.857142857142854,-325.0,25.158730158730158,322.9365079365079,-28.015873015873016,-16.587301587301585,-8.65079365079365,-5.7936507936507935,-166.26984126984127
142.77777777777777,23.57142857142857,-300.7142857142857,23.88888888888889,55.15873015873016,296.26984126984127,-31.03174603174603,325.0,127.06349206349206,24.206349206349206,148.015873015873,325.0,22.619047619047617,-16.904761904761905,-243.88888888888889,27.857142857142854,-325.0,25.158730158730158,322.9365079365079,-28.015873015873016,-16.587301587301585,-8.65079365079365,-5.7936507936507935,-166.26984126984127
-277.22222222222223,120.71428571428571,-218.33333333333331,59.76190476190476,320.55555555555554,71.66666666666666,-31.03174603174603,325.0,146.9047619047619,3.888888888888889,147.53968253968253,325.0,-322.77777777777777,-37.22222222222222,102.14285714285714,7.5396825396825395,20.396825396825395,4.841269841269841,-23.88888888888889,-7.5396825396825395,-16.428571428571427,-7.698412698412698,320.87301587301585,-321.8253968253968
-277.22222222222223,120.71428571428571,-218.33333333333331,59.76190476190476,320.55555555555554,71.66666666666666,-31.03174603174603,325.0,146.9047619047619,3.888888888888889,147.53968253968253,325.0,-322.77777777777777,-37.22222222222222,102.14285714285714,7.5396825396825395,20.396825396825395,4.841269841269841,-23.88888888888889,-7.5396825396825395,-16.428571428571427,-7.698412698412698,320.87301587301585,-321.8253968253968
137.06349206349205,22.777777777777775,-289.1269841269841,23.253968253968253,52.93650793650794,285.0,-29.76190476190476,325.0,122.30158730158729,23.57142857142857,142.3015873015873,325.0,22.142857142857142,-16.26984126984127,-238.8095238095238,27.063492063492063,-315.95238095238096,24.365079365079364,310.55555555555554,-26.9047619047619,-15.793650793650793,-27.38095238095238,-25.952380952380953,-321.8253968253968
137.06349206349205,22.777777777777775,-289.1269841269841,23.253968253968253,52.93650793650794,285.0,-29.76190476190476,325.0,122.30158730158729,23.57142857142857,142.3015873015873,325.0,22.142857142857142,-16.26984126984127,-238.8095238095238,27.063492063492063,-315.95238095238096,24.365079365079364,310.55555555555554,-26.9047619047619,-15.793650793650793,-27.38095238095238,-25.952380952380953,-321.8253968253968
58.650793650793645,10.873015873015872,-126.74603174603173,10.714285714285714,21.507936507936506,125.79365079365078,-14.84126984126984,174.52380952380952,54.52380952380952,11.19047619047619,63.25396825396825,156.11111111111111,10.396825396825395,-8.492063492063492,102.14285714285714,12.777777777777777,325.0,11.507936507936508,-325.0,-13.412698412698411,-8.015873015873016,11.825396825396824,12.46031746031746,-321.8253968253968
58.650793650793645,10.873015873015872,-126.74603174603173,10.714285714285714,21.507936507936506,125.79365079365078,-14.84126984126984,174.52380952380952,54.52380952380952,11.19047619047619,63.25396825396825,156.11111111111111,10.396825396825395,-8.492063492063492,102.14285714285714,12.777777777777777,325.0,11.507936507936508,-325.0,-13.412698412698411,-8.015873015873016,11.825396825396824,12.46031746031746,-321.8253968253968
-212.46031746031744,-317.06349206349205,243.25396825396825,2.7777777777777777,4.365079365079365,-325.0,325.0,-239.44444444444443,11.507936507936508,-325.0,-325.0,-187.53968253968253,3.095238095238095,325.0,16.904761904761905,-325.0,163.4126984126984,-115.47619047619047,-73.88888888888889,325.0,325.0,16.428571428571427,15.793650793650793,-321.8253968253968
-212.46031746031744,-317.06349206349205,243.25396825396825,2.7777777777777777,4.365079365079365,-325.0,325.0,-239.44444444444443,11.507936507936508,-325.0,-325.0,-187.53968253968253,3.095238095238095,325.0,16.904761904761905,-325.0,163.4126984126984,-115.47619047619047,-73.88888888888889,325.0,325.0,16.428571428571427,15.793650793650793,-321.8253968253968
-211.5079365079365,-325.0,242.3015873015873,2.619047619047619,4.523809523809524,-325.0,325.0,-238.49206349206347,11.507936507936508,-325.0,-325.0,-186.74603174603175,3.095238095238095,325.0,16.746031746031743,-325.0,162.61904761904762,-83.73015873015872,-62.77777777777777,325.0,325.0,4.523809523809524,6.587301587301587,-321.8253968253968
-211.5079365079365,-325.0,242.3015873015873,2.619047619047619,4.523809523809524,-325.0,325.0,-238.49206349206347,11.507936507936508,-325.0,-325.0,-186.74603174603175,3.095238095238095,325.0,16.746031746031743,-325.0,162.61904761904762,-83.73015873015872,-62.77777777777777,325.0,325.0,4.523809523809524,6.587301587301587,-321.8253968253968
-208.015873015873,-325.0,238.17460317460316,2.619047619047619,4.365079365079365,-325.0,325.0,-234.68253968253967,11.19047619047619,-325.0,-325.0,-183.7301587301587,3.095238095238095,325.0,16.428571428571427,-325.0,159.9206349206349,-133.25396825396825,-49.44444444444444,325.0,325.0,4.2063492063492065,6.428571428571428,-166.26984126984127
-208.015873015873,-325.0,238.17460317460316,2.619047619047619,4.365079365079365,-325.0,325.0,-234.68253968253967,11.19047619047619,-325.0,-325.0,-183.7301587301587,3.095238095238095,325.0,16.428571428571427,-325.0,159.9206349206349,-133.25396825396825,-49.44444444444444,325.0,325.0,4.2063492063492065,6.428571428571428,-166.26984126984127
-204.52380952380952,-325.0,234.04761904761904,2.619047619047619,4.2063492063492065,-325.0,325.0,-230.87301587301587,10.873015873015872,-325.0,-325.0,-180.7142857142857,3.253968253968254,325.0,16.26984126984127,-325.0,157.2222222222222,-182.77777777777777,-35.95238095238095,325.0,325.0,4.0476190476190474,6.428571428571428,-166.26984126984127
-204.52380952380952,-325.0,234.04761904761904,2.619047619047619,4.2063492063492065,-325.0,325.0,-230.87301587301587,10.873015873015872,-325.0,-325.0,-180.7142857142857,3.253968253968254,325.0,16.26984126984127,-325.0,157.2222222222222,-182.77777777777777,-35.95238095238095,325.0,325.0,4.0476190476190474,6.428571428571428,-166.26984126984127
-204.52380952380952,-325.0,234.04761904761904,2.619047619047619,4.2063492063492065,-325.0,325.0,-230.87301587301587,10.873015873015872,-325.0,-325.0,-180.7142857142857,3.253968253968254,325.0,16.26984126984127,-325.0,157.2222222222222,-182.77777777777777,-35.95238095238095,325.0,325.0,4.0476190476190474,6.428571428571428,-166.26984126984127
-204.52380952380952,-325.0,234.04761904761904,2.619047619047619,4.2063492063492065,-325.0,325.0,-230.87301587301587,10.873015873015872,-325.0,-325.0,-180.7142857142857,3.253968253968254,325.0,16.26984126984127,-325.0,157.2222222222222,-182.77777777777777,-35.95238095238095,325.0,325.0,4.0476190476190474,6.428571428571428,-166.26984126984127
-128.015873015873,-325.0,148.4920634920635,-161.19047619047618,-88.65079365079364,-223.88888888888889,211.5079365079365,-147.2222222222222,-148.65079365079364,-325.0,-229.44444444444443,-112.93650793650794,-160.87301587301587,257.85714285714283,10.238095238095237,-250.2380952380952,32.3015873015873,-253.88888888888889,61.34920634920635,228.96825396825395,300.23809523809524,11.349206349206348,11.031746031746032,-166.26984126984127
-128.015873015873,-325.0,148.4920634920635,-161.19047619047618,-88.65079365079364,-223.88888888888889,211.5079365079365,-147.2222222222222,-148.65079365079364,-325.0,-229.44444444444443,-112.93650793650794,-160.87301587301587,257.85714285714283,10.238095238095237,-250.2380952380952,32.3015873015873,-253.88888888888889,61.34920634920635,228.96825396825395,300.23809523809524,11.349206349206348,11.031746031746032,-166.26984126984127
-40.079365079365076,-140.87301587301587,38.49206349206349,-79.92063492063491,-193.7301587301587,-95.63492063492063,-18.65079365079365,325.0,-240.55555555555554,-257.53968253968253,-104.68253968253968,325.0,-325.0,146.11111111111111,-100.07936507936508,-136.42857142857142,-73.88888888888889,-128.8095238095238,325.0,102.93650793650794,212.14285714285714,-24.523809523809522,-22.142857142857142,-166.26984126984127
-40.079365079365076,-140.87301587301587,38.49206349206349,-79.92063492063491,-193.7301587301587,-95.63492063492063,-18.65079365079365,325.0,-240.55555555555554,-257.53968253968253,-104.68253968253968,325.0,-325.0,146.11111111111111,-100.07936507936508,-136.42857142857142,-73.88888888888889,-128.8095238095238,325.0,102.93650793650794,212.14285714285714,-24.523809523809522,-22.142857142857142,-166.26984126984127
-181.5079365079365,-244.36507936507934,41.98412698412698,-179.76190476190476,-193.25396825396825,-80.23809523809523,71.5079365079365,318.4920634920635,-203.57142857142856,-215.47619047619045,-96.74603174603175,155.3174603174603,-325.0,121.19047619047619,-128.17460317460316,210.87301587301587,140.07936507936506,-241.98412698412696,216.9047619047619,85.79365079365078,176.42857142857142,-0.873015873015873,-0.5555555555555556,-321.8253968253968
-181.5079365079365,-244.36507936507934,41.98412698412698,-179.76190476190476,-193.25396825396825,-80.23809523809523,71.5079365079365,318.4920634920635,-203.57142857142856,-215.47619047619045,-96.74603174603175,155.3174603174603,-325.0,121.19047619047619,-128.17460317460316,210.87301587301587,140.07936507936506,-241.98412698412696,216.9047619047619,85.79365079365078,176.42857142857142,-0.873015873015873,-0.5555555555555556,-321.8253968253968
-166.26984126984127,-245.3174603174603,40.714285714285715,-176.58730158730157,-192.3015873015873,-77.53968253968253,68.96825396825396,238.96825396825395,-197.06349206349205,-208.015873015873,-93.25396825396825,154.2063492063492,-325.0,116.9047619047619,-155.79365079365078,130.55555555555554,134.84126984126982,-247.06349206349205,205.3174603174603,82.93650793650794,170.23809523809524,-0.7142857142857142,-0.7142857142857142,-321.8253968253968
-166.26984126984127,-245.3174603174603,40.714285714285715,-176.58730158730157,-192.3015873015873,-77.53968253968253,68.96825396825396,238.96825396825395,-197.06349206349205,-208.015873015873,-93.25396825396825,154.2063492063492,-325.0,116.9047619047619,-155.79365079365078,130.55555555555554,134.84126984126982,-247.06349206349205,205.3174603174603,82.93650793650794,170.23809523809524,-0.7142857142857142,-0.7142857142857142,-321.8253968253968
-152.46031746031744,-267.06349206349205,37.53968253968254,-274.36507936507934,-189.76190476190476,-72.3015873015873,63.888888888888886,-176.11111111111111,-183.4126984126984,-193.57142857142856,-86.74603174603175,168.015873015873,-325.0,108.33333333333333,-309.76190476190476,-73.88888888888889,123.88888888888889,-301.031746031746,208.65079365079364,77.06349206349206,157.85714285714286,8.015873015873016,5.634920634920634,-321.8253968253968
-152.46031746031744,-267.06349206349205,37.53968253968254,-274.36507936507934,-189.76190476190476,-72.3015873015873,63.888888888888886,-176.11111111111111,-183.4126984126984,-193.57142857142856,-86.74603174603175,168.015873015873,-325.0,108.33333333333333,-309.76190476190476,-73.88888888888889,123.88888888888889,-301.031746031746,208.65079365079364,77.06349206349206,157.85714285714286,8.015873015873016,5.634920634920634,-321.8253968253968
-149.6031746031746,-240.55555555555554,36.904761904761905,-189.60317460317458,-189.28571428571428,-71.03174603174602,62.93650793650793,3.73015873015873,-180.55555555555554,-190.3968253968254,-85.31746031746032,325.0,-325.0,106.58730158730158,-262.6190476190476,214.84126984126982,116.42857142857142,-266.58730158730157,314.2063492063492,75.79365079365078,155.0,-9.126984126984127,-7.063492063492063,-321.8253968253968
-149.6031746031746,-240.55555555555554,36.904761904761905,-189.60317460317458,-189.28571428571428,-71.03174603174602,62.93650793650793,3.73015873015873,-180.55555555555554,-190.3968253968254,-85.31746031746032,325.0,-325.0,106.58730158730158,-262.6190476190476,214.84126984126982,116.42857142857142,-266.58730158730157,314.2063492063492,75.79365079365078,155.0,-9.126984126984127,-7.063492063492063,-321.8253968253968
-148.96825396825395,-187.53968253968253,36.74603174603175,-54.2063492063492,-189.28571428571428,-70.71428571428571,62.61904761904761,85.31746031746032,-179.76190476190476,-189.60317460317458,-85.0,325.0,-325.0,106.26984126984127,-208.015873015873,252.14285714285714,115.79365079365078,-208.015873015873,325.0,75.47619047619047,154.36507936507937,-28.174603174603174,-25.158730158730158,-321.8253968253968
-148.96825396825395,-187.53968253968253,36.74603174603175,-54.2063492063492,-189.28571428571428,-70.71428571428571,62.61904761904761,85.31746031746032,-179.76190476190476,-189.60317460317458,-85.0,325.0,-325.0,106.26984126984127,-208.015873015873,252.14285714285714,115.79365079365078,-208.015873015873,325.0,75.47619047619047,154.36507936507937,-28.174603174603174,-25.158730158730158,-321.8253968253968
-146.11111111111111,-184.52380952380952,36.11111111111111,-62.460317460317455,-188.65079365079364,-69.44444444444444,61.507936507936506,115.0,-176.74603174603175,-186.42857142857142,-83.57142857142857,325.0,-325.0,104.2063492063492,-223.57142857142856,288.4920634920635,110.87301587301587,-212.46031746031744,325.0,74.04761904761904,151.8253968253968,-28.65079365079365,-25.79365079365079,-166.26984126984127
-146.11111111111111,-184.52380952380952,36.11111111111111,-62.460317460317455,-188.65079365079364,-69.44444444444444,61.507936507936506,115.0,-176.74603174603175,-186.42857142857142,-83.57142857142857,325.0,-325.0,104.2063492063492,-223.57142857142856,288.4920634920635,110.87301587301587,-212.46031746031744,325.0,74.04761904761904,151.8253968253968,-28.65079365079365,-25.79365079365079,-166.26984126984127
-132.3015873015873,-194.52380952380952,33.25396825396825,-163.57142857142856,-212.14285714285714,-63.888888888888886,56.11111111111111,103.4126984126984,-162.14285714285714,-170.7142857142857,-76.74603174603175,325.0,-325.0,95.0,-272.1428571428571,-181.5079365079365,97.53968253968253,-240.7142857142857,325.0,67.85714285714285,138.65079365079364,-19.285714285714285,-20.71428571428571,-166.26984126984127
-132.3015873015873,-194.52380952380952,33.25396825396825,-163.57142857142856,-212.14285714285714,-63.888888888888886,56.11111111111111,103.4126984126984,-162.14285714285714,-170.7142857142857,-76.74603174603175,325.0,-325.0,95.0,-272.1428571428571,-181.5079365079365,97.53968253968253,-240.7142857142857,325.0,67.85714285714285,138.65079365079364,-19.285714285714285,-20.71428571428571,-166.26984126984127
-122.77777777777777,-155.47619047619048,31.507936507936506,-101.82539682539682,-179.44444444444443,-59.76190476190476,52.3015873015873,298.6507936507936,-152.14285714285714,-159.76190476190476,-71.98412698412697,325.0,-325.0,88.65079365079364,-219.12698412698413,-296.58730158730157,101.98412698412697,-208.015873015873,325.0,63.41269841269841,129.6031746031746,-29.6031746031746,-27.38095238095238,-166.26984126984127
-122.77777777777777,-155.47619047619048,31.507936507936506,-101.82539682539682,-179.44444444444443,-59.76190476190476,52.3015873015873,298.6507936507936,-152.14285714285714,-159.76190476190476,-71.98412698412697,325.0,-325.0,88.65079365079364,-219.12698412698413,-296.58730158730157,101.98412698412697,-208.015873015873,325.0,63.41269841269841,129.6031746031746,-29.6031746031746,-27.38095238095238,-166.26984126984127
-122.77777777777777,-155.47619047619048,31.507936507936506,-101.82539682539682,-179.44444444444443,-59.76190476190476,52.3015873015873,298.6507936507936,-152.14285714285714,-159.76190476190476,-71.98412698412697,325.0,-325.0,88.65079365079364,-219.12698412698413,-296.58730158730157,101.98412698412697,-208.015873015873,325.0,63.41269841269841,129.6031746031746,-29.6031746031746,-27.38095238095238,-166.26984126984127
-122.77777777777777,-155.47619047619048,31.507936507936506,-101.82539682539682,-179.44444444444443,-59.76190476190476,52.3015873015873,298.6507936507936,-152.14285714285714,-159.76190476190476,-71.98412698412697,325.0,-325.0,88.65079365079364,-219.12698412698413,-296.58730158730157,101.98412698412697,-208.015873015873,325.0,63.41269841269841,129.6031746031746,-29.6031746031746,-27.38095238095238,-166.26984126984127
-122.77777777777777,-155.47619047619048,31.507936507936506,-101.82539682539682,-179.44444444444443,-59.76190476190476,52.3015873015873,298.6507936507936,-152.14285714285714,-159.76190476190476,-71.98412698412697,325.0,-325.0,88.65079365079364,-219.12698412698413,-296.58730158730157,101.98412698412697,-208.015873015873,325.0,63.41269841269841,129.6031746031746,-29.6031746031746,-27.38095238095238,-166.26984126984127
-122.77777777777777,-155.47619047619048,31.507936507936506,-101.82539682539682,-179.44444444444443,-59.76190476190476,52.3015873015873,298.6507936507936,-152.14285714285714,-159.76190476190476,-71.98412698412697,325.0,-325.0,88.65079365079364,-219.12698412698413,-296.58730158730157,101.98412698412697,-208.015873015873,325.0,63.41269841269841,129.6031746031746,-29.6031746031746,-27.38095238095238,-166.26984126984127
-122.77777777777777,-155.47619047619048,31.507936507936506,-101.82539682539682,-179.44444444444443,-59.76190476190476,52.3015873015873,298.6507936507936,-152.14285714285714,-159.76190476190476,-71.98412698412697,325.0,-325.0,88.65079365079364,-219.12698412698413,-296.58730158730157,101.98412698412697,-208.015873015873,325.0,63.41269841269841,129.6031746031746,-29.6031746031746,-27.38095238095238,-321.8253968253968
-122.77777777777777,-155.47619047619048,31.507936507936506,-101.82539682539682,-179.44444444444443,-59.76190476190476,52.3015873015873,298.6507936507936,-152.14285714285714,-159.76190476190476,-71.98412698412697,325.0,-325.0,88.65079365079364,-219.12698412698413,-296.58730158730157,101.98412698412697,-208.015873015873,325.0,63.41269841269841,129.6031746031746,-29.6031746031746,-27.38095238095238,-321.8253968253968
-293.0952380952381,-128.4920634920635,-325.0,-155.0,-325.0,163.4126984126984,23.095238095238095,325.0,-70.39682539682539,-72.77777777777777,-113.57142857142857,325.0,-259.9206349206349,38.33333333333333,-325.0,-153.09523809523807,-325.0,-137.38095238095238,193.4126984126984,-35.476190476190474,57.698412698412696,-6.428571428571428,-4.682539682539682,-321.8253968253968
-293.0952380952381,-128.4920634920635,-325.0,-155.0,-325.0,163.4126984126984,23.095238095238095,325.0,-70.39682539682539,-72.77777777777777,-113.57142857142857,325.0,-259.9206349206349,38.33333333333333,-325.0,-153.09523809523807,-325.0,-137.38095238095238,193.4126984126984,-35.476190476190474,57.698412698412696,-6.428571428571428,-4.682539682539682,-321.8253968253968
-274.8412698412698,-118.01587301587301,-325.0,-145.15873015873015,-325.0,86.9047619047619,-151.03174603174602,304.5238095238095,-66.42857142857143,-68.4920634920635,-106.42857142857142,307.22222222222223,-245.15873015873015,32.93650793650794,-325.0,-144.04761904761904,-325.0,-129.6031746031746,186.11111111111111,-89.28571428571428,54.36507936507936,0.3968253968253968,-0.07936507936507936,-321.8253968253968
-274.8412698412698,-118.01587301587301,-325.0,-145.15873015873015,-325.0,86.9047619047619,-151.03174603174602,304.5238095238095,-66.42857142857143,-68.4920634920635,-106.42857142857142,307.22222222222223,-245.15873015873015,32.93650793650794,-325.0,-144.04761904761904,-325.0,-129.6031746031746,186.11111111111111,-89.28571428571428,54.36507936507936,0.3968253968253968,-0.07936507936507936,-321.8253968253968
-249.9206349206349,-108.17460317460316,-325.0,-131.5079365079365,-325.0,121.82539682539682,-325.0,210.2380952380952,-60.71428571428571,-62.460317460317455,-96.74603174603175,300.55555555555554,-224.68253968253967,22.619047619047617,-325.0,-131.5079365079365,-325.0,-119.28571428571428,171.8253968253968,-237.53968253968253,49.6031746031746,-1.1904761904761905,-1.349206349206349,-321.8253968253968
-249.9206349206349,-108.17460317460316,-325.0,-131.5079365079365,-325.0,121.82539682539682,-325.0,210.2380952380952,-60.71428571428571,-62.460317460317455,-96.74603174603175,300.55555555555554,-224.68253968253967,22.619047619047617,-325.0,-131.5079365079365,-325.0,-119.28571428571428,171.8253968253968,-237.53968253968253,49.6031746031746,-1.1904761904761905,-1.349206349206349,-321.8253968253968
-125.0,-18.80952380952381,-322.9365079365079,-214.2063492063492,-160.87301587301587,-7.857142857142857,-147.53968253968253,8.015873015873016,-19.6031746031746,-43.095238095238095,-149.6031746031746,246.9047619047619,-242.77777777777777,-92.93650793650794,-308.3333333333333,-215.3174603174603,-312.6190476190476,-205.63492063492063,138.65079365079364,-109.76190476190476,-65.15873015873015,-102.46031746031746,-138.65079365079364,-321.8253968253968
-125.0,-18.80952380952381,-322.9365079365079,-214.2063492063492,-160.87301587301587,-7.857142857142857,-147.53968253968253,8.015873015873016,-19.6031746031746,-43.095238095238095,-149.6031746031746,246.9047619047619,-242.77777777777777,-92.93650793650794,-308.3333333333333,-215.3174603174603,-312.6190476190476,-205.63492063492063,138.65079365079364,-109.76190476190476,-65.15873015873015,-102.46031746031746,-138.65079365079364,-321.8253968253968
-235.0,-105.31746031746032,-325.0,-128.17460317460316,-325.0,98.49206349206348,-325.0,220.87301587301587,-57.698412698412696,-59.12698412698413,-91.03174603174602,281.984126984127,-212.3015873015873,-0.7142857142857142,-325.0,-124.2063492063492,-325.0,-112.93650793650794,147.06349206349205,-167.53968253968253,46.904761904761905,5.634920634920634,7.698412698412698,-166.26984126984127
-235.0,-105.31746031746032,-325.0,-128.17460317460316,-325.0,98.49206349206348,-325.0,220.87301587301587,-57.698412698412696,-59.12698412698413,-91.03174603174602,281.984126984127,-212.3015873015873,-0.7142857142857142,-325.0,-124.2063492063492,-325.0,-112.93650793650794,147.06349206349205,-167.53968253968253,46.904761904761905,5.634920634920634,7.698412698412698,-166.26984126984127
-230.7142857142857,-84.52380952380952,-325.0,-111.34920634920634,-325.0,142.46031746031744,-325.0,158.015873015873,-56.58730158730158,-58.33333333333333,-89.28571428571428,273.88888888888886,-208.65079365079364,23.41269841269841,-325.0,-122.14285714285714,-325.0,-111.19047619047619,164.2063492063492,-234.84126984126982,46.11111111111111,-6.746031746031746,-7.222222222222221,-166.26984126984127
-230.7142857142857,-84.52380952380952,-325.0,-111.34920634920634,-325.0,142.46031746031744,-325.0,158.015873015873,-56.58730158730158,-58.33333333333333,-89.28571428571428,273.88888888888886,-208.65079365079364,23.41269841269841,-325.0,-122.14285714285714,-325.0,-111.19047619047619,164.2063492063492,-234.84126984126982,46.11111111111111,-6.746031746031746,-7.222222222222221,-166.26984126984127
-227.38095238095238,-97.53968253968253,-325.0,-120.07936507936508,-325.0,135.0,-325.0,158.015873015873,-55.95238095238095,-57.53968253968254,-88.01587301587301,273.88888888888886,-206.1111111111111,15.317460317460316,-325.0,-116.26984126984127,-325.0,-109.92063492063491,156.58730158730157,-234.84126984126982,45.476190476190474,-1.8253968253968254,-0.7142857142857142,-166.26984126984127
-227.38095238095238,-97.53968253968253,-325.0,-120.07936507936508,-325.0,135.0,-325.0,158.015873015873,-55.95238095238095,-57.53968253968254,-88.01587301587301,273.88888888888886,-206.1111111111111,15.317460317460316,-325.0,-116.26984126984127,-325.0,-109.92063492063491,156.58730158730157,-234.84126984126982,45.476190476190474,-1.8253968253968254,-0.7142857142857142,-166.26984126984127
-222.3015873015873,-82.14285714285714,-325.0,-107.53968253968253,-325.0,139.76190476190476,-325.0,163.25396825396825,-54.68253968253968,-56.269841269841265,-86.1111111111111,279.76190476190476,-201.8253968253968,18.49206349206349,-325.0,-117.06349206349206,-325.0,-107.6984126984127,157.38095238095238,-205.95238095238093,44.52380952380952,-6.26984126984127,-8.333333333333332,-166.26984126984127
-222.3015873015873,-82.14285714285714,-325.0,-107.53968253968253,-325.0,139.76190476190476,-325.0,163.25396825396825,-54.68253968253968,-56.269841269841265,-86.1111111111111,279.76190476190476,-201.8253968253968,18.49206349206349,-325.0,-117.06349206349206,-325.0,-107.6984126984127,157.38095238095238,-205.95238095238093,44.52380952380952,-6.26984126984127,-8.333333333333332,-166.26984126984127
-162.46031746031744,-72.46031746031746,-73.73015873015872,-91.66666666666666,-325.0,325.0,-325.0,325.0,-53.73015873015873,-55.15873015873016,-84.04761904761904,325.0,-196.9047619047619,27.857142857142854,-325.0,-115.47619047619047,-213.4126984126984,-105.0,159.44444444444443,-154.2063492063492,43.25396825396825,-18.174603174603174,-17.539682539682538,-166.26984126984127
-162.46031746031744,-72.46031746031746,-73.73015873015872,-91.66666666666666,-325.0,325.0,-325.0,325.0,-53.73015873015873,-55.15873015873016,-84.04761904761904,325.0,-196.9047619047619,27.857142857142854,-325.0,-115.47619047619047,-213.4126984126984,-105.0,159.44444444444443,-154.2063492063492,43.25396825396825,-18.174603174603174,-17.539682539682538,-166.26984126984127
-203.4126984126984,-94.84126984126983,123.09523809523809,-118.8095238095238,-325.0,-41.34920634920635,-325.0,62.77777777777777,-52.77777777777777,-54.2063492063492,-82.46031746031746,215.0,-193.7301587301587,-29.76190476190476,-325.0,-113.4126984126984,-74.36507936507937,-103.57142857142857,124.2063492063492,55.0,42.61904761904761,17.22222222222222,16.11111111111111,-321.8253968253968
-203.4126984126984,-94.84126984126983,123.09523809523809,-118.8095238095238,-325.0,-41.34920634920635,-325.0,62.77777777777777,-52.77777777777777,-54.2063492063492,-82.46031746031746,215.0,-193.7301587301587,-29.76190476190476,-325.0,-113.4126984126984,-74.36507936507937,-103.57142857142857,124.2063492063492,55.0,42.61904761904761,17.22222222222222,16.11111111111111,-321.8253968253968
-168.015873015873,-83.57142857142857,-59.76190476190476,-96.1111111111111,-325.0,325.0,-325.0,325.0,-52.14285714285714,-53.41269841269841,-81.5079365079365,325.0,-191.19047619047618,17.063492063492063,-325.0,-112.14285714285714,-195.79365079365078,-102.14285714285714,149.9206349206349,-146.42857142857142,41.98412698412698,-13.571428571428571,-11.984126984126984,-321.8253968253968
-168.015873015873,-83.57142857142857,-59.76190476190476,-96.1111111111111,-325.0,325.0,-325.0,325.0,-52.14285714285714,-53.41269841269841,-81.5079365079365,325.0,-191.19047619047618,17.063492063492063,-325.0,-112.14285714285714,-195.79365079365078,-102.14285714285714,149.9206349206349,-146.42857142857142,41.98412698412698,-13.571428571428571,-11.984126984126984,-321.8253968253968
-181.8253968253968,-91.82539682539682,149.44444444444443,-115.31746031746032,-325.0,-42.77777777777778,-325.0,67.6984126984127,-51.03174603174603,-52.3015873015873,-79.44444444444444,216.1111111111111,-187.06349206349205,-30.07936507936508,-325.0,-109.6031746031746,-40.079365079365076,-100.23809523809523,120.71428571428571,47.06349206349206,41.03174603174603,17.539682539682538,17.063492063492063,-321.8253968253968
-181.8253968253968,-91.82539682539682,149.44444444444443,-115.31746031746032,-325.0,-42.77777777777778,-325.0,67.6984126984127,-51.03174603174603,-52.3015873015873,-79.44444444444444,216.1111111111111,-187.06349206349205,-30.07936507936508,-325.0,-109.6031746031746,-40.079365079365076,-100.23809523809523,120.71428571428571,47.06349206349206,41.03174603174603,17.539682539682538,17.063492063492063,-321.8253968253968
-180.87301587301587,-76.74603174603175,-52.93650793650794,-86.58730158730158,-325.0,325.0,-325.0,325.0,-50.55555555555555,-50.71428571428571,-78.4920634920635,325.0,-184.84126984126982,18.49206349206349,-325.0,-108.49206349206348,-212.77777777777777,-96.9047619047619,146.26984126984127,-172.3015873015873,40.714285714285715,-14.047619047619047,-10.079365079365079,-321.8253968253968
-180.87301587301587,-76.74603174603175,-52.93650793650794,-86.58730158730158,-325.0,325.0,-325.0,325.0,-50.55555555555555,-50.71428571428571,-78.4920634920635,325.0,-184.84126984126982,18.49206349206349,-325.0,-108.49206349206348,-212.77777777777777,-96.9047619047619,146.26984126984127,-172.3015873015873,40.714285714285715,-14.047619047619047,-10.079365079365079,-321.8253968253968
-174.2063492063492,-89.44444444444444,124.2063492063492,-112.14285714285714,-325.0,-44.36507936507936,-325.0,77.22222222222221,-49.44444444444444,-50.39682539682539,-76.58730158730158,211.03174603174602,-180.87301587301587,-79.76190476190476,-325.0,-105.95238095238095,-35.63492063492063,-96.74603174603175,118.01587301587301,36.904761904761905,39.76190476190476,18.174603174603174,16.428571428571427,-321.8253968253968
-174.2063492063492,-89.44444444444444,124.2063492063492,-112.14285714285714,-325.0,-44.36507936507936,-325.0,77.22222222222221,-49.44444444444444,-50.39682539682539,-76.58730158730158,211.03174603174602,-180.87301587301587,-79.76190476190476,-325.0,-105.95238095238095,-35.63492063492063,-96.74603174603175,118.01587301587301,36.904761904761905,39.76190476190476,18.174603174603174,16.428571428571427,-321.8253968253968
-147.06349206349205,-54.68253968253968,-54.52380952380952,-71.19047619047619,-325.0,325.0,-325.0,325.0,-48.650793650793645,-48.01587301587301,-75.31746031746032,325.0,-177.85714285714286,25.0,-325.0,-104.36507936507935,-159.76190476190476,-91.66666666666666,146.58730158730157,-231.8253968253968,39.12698412698413,-18.80952380952381,-17.063492063492063,-166.26984126984127
-147.06349206349205,-54.68253968253968,-54.52380952380952,-71.19047619047619,-325.0,325.0,-325.0,325.0,-48.650793650793645,-48.01587301587301,-75.31746031746032,325.0,-177.85714285714286,25.0,-325.0,-104.36507936507935,-159.76190476190476,-91.66666666666666,146.58730158730157,-231.8253968253968,39.12698412698413,-18.80952380952381,-17.063492063492063,-166.26984126984127
-192.3015873015873,-87.22222222222221,158.17460317460316,-109.12698412698413,-325.0,-44.52380952380952,-325.0,81.19047619047619,-47.857142857142854,-48.80952380952381,-73.88888888888889,213.88888888888889,-174.68253968253967,-95.0,-325.0,-102.46031746031746,-25.0,-93.88888888888889,112.77777777777777,36.74603174603175,38.33333333333333,17.857142857142858,16.26984126984127,-166.26984126984127
-192.3015873015873,-87.22222222222221,158.17460317460316,-109.12698412698413,-325.0,-44.52380952380952,-325.0,81.19047619047619,-47.857142857142854,-48.80952380952381,-73.88888888888889,213.88888888888889,-174.68253968253967,-95.0,-325.0,-102.46031746031746,-25.0,-93.88888888888889,112.77777777777777,36.74603174603175,38.33333333333333,17.857142857142858,16.26984126984127,-166.26984126984127
-196.26984126984127,-93.09523809523809,151.66666666666666,-113.73015873015872,-325.0,-56.74603174603174,-325.0,138.65079365079364,-47.53968253968254,-48.96825396825397,-73.73015873015872,223.09523809523807,-173.88888888888889,-117.06349206349206,-325.0,-101.98412698412697,-47.53968253968254,-93.88888888888889,105.79365079365078,71.03174603174602,38.01587301587301,22.3015873015873,22.936507936507937,-166.26984126984127
-196.26984126984127,-93.09523809523809,151.66666666666666,-113.73015873015872,-325.0,-56.74603174603174,-325.0,138.65079365079364,-47.53968253968254,-48.96825396825397,-73.73015873015872,223.09523809523807,-173.88888888888889,-117.06349206349206,-325.0,-101.98412698412697,-47.53968253968254,-93.88888888888889,105.79365079365078,71.03174603174602,38.01587301587301,22.3015873015873,22.936507936507937,-166.26984126984127
-128.4920634920635,-85.15873015873015,166.26984126984127,-106.42857142857142,-325.0,-51.19047619047619,-325.0,54.2063492063492,-46.269841269841265,-47.06349206349206,-71.19047619047619,187.85714285714283,-168.96825396825395,-122.6190476190476,-325.0,-98.96825396825396,-8.492063492063492,-90.87301587301587,103.88888888888889,35.15873015873016,37.06349206349206,18.65079365079365,17.063492063492063,-166.26984126984127
-128.4920634920635,-85.15873015873015,166.26984126984127,-106.42857142857142,-325.0,-51.19047619047619,-325.0,54.2063492063492,-46.269841269841265,-47.06349206349206,-71.19047619047619,187.85714285714283,-168.96825396825395,-122.6190476190476,-325.0,-98.96825396825396,-8.492063492063492,-90.87301587301587,103.88888888888889,35.15873015873016,37.06349206349206,18.65079365079365,17.063492063492063,-166.26984126984127
-130.7142857142857,-63.41269841269841,63.888888888888886,-84.52380952380952,-325.0,131.8253968253968,-325.0,222.3015873015873,-45.476190476190474,-43.25396825396825,-70.23809523809524,264.68253968253964,-166.9047619047619,-44.52380952380952,-325.0,-97.85714285714285,-72.46031746031746,-87.6984126984127,120.07936507936508,-106.58730158730158,36.58730158730159,1.1904761904761905,0.5555555555555556,-166.26984126984127
-130.7142857142857,-63.41269841269841,63.888888888888886,-84.52380952380952,-325.0,131.8253968253968,-325.0,222.3015873015873,-45.476190476190474,-43.25396825396825,-70.23809523809524,264.68253968253964,-166.9047619047619,-44.52380952380952,-325.0,-97.85714285714285,-72.46031746031746,-87.6984126984127,120.07936507936508,-106.58730158730158,36.58730158730159,1.1904761904761905,0.5555555555555556,-166.26984126984127
-150.23809523809524,-83.09523809523809,165.15873015873015,-104.04761904761904,-325.0,-51.03174603174603,-325.0,57.06349206349206,-44.84126984126984,-45.476190476190474,-68.65079365079364,179.9206349206349,-163.25396825396825,-125.0,-325.0,-95.79365079365078,4.841269841269841,-88.01587301587301,97.22222222222221,36.42857142857142,35.79365079365079,19.285714285714285,18.015873015873016,-321.8253968253968
-150.23809523809524,-83.09523809523809,165.15873015873015,-104.04761904761904,-325.0,-51.03174603174603,-325.0,57.06349206349206,-44.84126984126984,-45.476190476190474,-68.65079365079364,179.9206349206349,-163.25396825396825,-125.0,-325.0,-95.79365079365078,4.841269841269841,-88.01587301587301,97.22222222222221,36.42857142857142,35.79365079365079,19.285714285714285,18.015873015873016,-321.8253968253968
-152.61904761904762,-61.03174603174603,30.07936507936508,-81.66666666666666,-325.0,137.06349206349205,-325.0,225.95238095238093,-44.2063492063492,-41.666666666666664,-67.6984126984127,261.8253968253968,-161.19047619047618,-44.047619047619044,-325.0,-94.52380952380952,-92.14285714285714,-85.0,115.79365079365078,-125.95238095238095,35.317460317460316,1.984126984126984,0.873015873015873,-321.8253968253968
-152.61904761904762,-61.03174603174603,30.07936507936508,-81.66666666666666,-325.0,137.06349206349205,-325.0,225.95238095238093,-44.2063492063492,-41.666666666666664,-67.6984126984127,261.8253968253968,-161.19047619047618,-44.047619047619044,-325.0,-94.52380952380952,-92.14285714285714,-85.0,115.79365079365078,-125.95238095238095,35.317460317460316,1.984126984126984,0.873015873015873,-321.8253968253968
-173.09523809523807,-75.47619047619047,-0.07936507936507936,-96.1111111111111,-325.0,-55.476190476190474,-325.0,-12.3015873015873,-43.25396825396825,-43.41269841269841,-66.74603174603175,146.11111111111111,-158.33333333333331,-102.93650793650794,-325.0,-93.09523809523809,-137.06349206349205,-85.0,89.6031746031746,-31.349206349206348,34.52380952380952,16.587301587301585,12.3015873015873,-321.8253968253968
-173.09523809523807,-75.47619047619047,-0.07936507936507936,-96.1111111111111,-325.0,-55.476190476190474,-325.0,-12.3015873015873,-43.25396825396825,-43.41269841269841,-66.74603174603175,146.11111111111111,-158.33333333333331,-102.93650793650794,-325.0,-93.09523809523809,-137.06349206349205,-85.0,89.6031746031746,-31.349206349206348,34.52380952380952,16.587301587301585,12.3015873015873,-321.8253968253968
64.52380952380952,-37.857142857142854,8.174603174603174,-61.34920634920635,-325.0,325.0,97.06349206349206,323.0952380952381,-42.460317460317455,-33.41269841269841,-62.77777777777777,325.0,-155.0,30.555555555555554,-325.0,-91.34920634920634,-44.68253968253968,-78.80952380952381,129.76190476190476,-263.57142857142856,33.888888888888886,-20.71428571428571,-19.285714285714285,-321.8253968253968
64.52380952380952,-37.857142857142854,8.174603174603174,-61.34920634920635,-325.0,325.0,97.06349206349206,323.0952380952381,-42.460317460317455,-33.41269841269841,-62.77777777777777,325.0,-155.0,30.555555555555554,-325.0,-91.34920634920634,-44.68253968253968,-78.80952380952381,129.76190476190476,-263.57142857142856,33.888888888888886,-20.71428571428571,-19.285714285714285,-321.8253968253968
287.6984126984127,-79.44444444444444,325.0,-98.80952380952381,-325.0,-47.698412698412696,325.0,78.17460317460316,-42.14285714285714,-42.93650793650794,-59.6031746031746,185.47619047619045,-152.77777777777777,-143.57142857142856,-325.0,-89.92063492063491,325.0,-82.93650793650794,85.0,90.23809523809523,33.25396825396825,18.96825396825397,16.11111111111111,-321.8253968253968
287.6984126984127,-79.44444444444444,325.0,-98.80952380952381,-325.0,-47.698412698412696,325.0,78.17460317460316,-42.14285714285714,-42.93650793650794,-59.6031746031746,185.47619047619045,-152.77777777777777,-143.57142857142856,-325.0,-89.92063492063491,325.0,-82.93650793650794,85.0,90.23809523809523,33.25396825396825,18.96825396825397,16.11111111111111,-321.8253968253968
325.0,-51.34920634920635,325.0,-74.04761904761904,-325.0,145.15873015873015,325.0,238.49206349206347,-36.58730158730159,-34.84126984126984,55.63492063492063,266.1111111111111,-150.87301587301587,-46.904761904761905,-325.0,-88.96825396825396,325.0,-77.85714285714285,107.06349206349206,26.746031746031743,32.77777777777778,0.3968253968253968,-0.3968253968253968,-166.26984126984127
325.0,-51.34920634920635,325.0,-74.04761904761904,-325.0,145.15873015873015,325.0,238.49206349206347,-36.58730158730159,-34.84126984126984,55.63492063492063,266.1111111111111,-150.87301587301587,-46.904761904761905,-325.0,-88.96825396825396,325.0,-77.85714285714285,107.06349206349206,26.746031746031743,32.77777777777778,0.3968253968253968,-0.3968253968253968,-166.26984126984127
325.0,-70.71428571428571,325.0,-90.55555555555556,-325.0,-60.238095238095234,325.0,-2.46031746031746,-39.76190476190476,-40.238095238095234,110.87301587301587,133.57142857142856,-148.33333333333331,-156.26984126984127,-325.0,-87.38095238095238,325.0,-79.6031746031746,71.5079365079365,96.26984126984127,31.825396825396822,17.698412698412696,14.682539682539682,-166.26984126984127
325.0,-70.71428571428571,325.0,-90.55555555555556,-325.0,-60.238095238095234,325.0,-2.46031746031746,-39.76190476190476,-40.238095238095234,110.87301587301587,133.57142857142856,-148.33333333333331,-156.26984126984127,-325.0,-87.38095238095238,325.0,-79.6031746031746,71.5079365079365,96.26984126984127,31.825396825396822,17.698412698412696,14.682539682539682,-166.26984126984127
325.0,-25.0,325.0,-50.87301587301587,-325.0,325.0,325.0,325.0,15.793650793650793,-25.952380952380953,284.68253968253964,323.88888888888886,-145.15873015873015,34.047619047619044,-325.0,-85.63492063492063,325.0,-73.09523809523809,122.77777777777777,-43.888888888888886,31.507936507936506,-20.238095238095237,-18.333333333333332,-166.26984126984127
325.0,-25.0,325.0,-50.87301587301587,-325.0,325.0,325.0,325.0,15.793650793650793,-25.952380952380953,284.68253968253964,323.88888888888886,-145.15873015873015,34.047619047619044,-325.0,-85.63492063492063,325.0,-73.09523809523809,122.77777777777777,-43.888888888888886,31.507936507936506,-20.238095238095237,-18.333333333333332,-166.26984126984127
325.0,-69.6031746031746,325.0,-88.80952380952381,-325.0,-58.49206349206349,325.0,-18.49206349206349,-34.047619047619044,-38.96825396825397,140.3968253968254,127.6984126984127,-143.25396825396825,-192.61904761904762,-325.0,-84.04761904761904,325.0,-77.38095238095238,62.77777777777777,100.39682539682539,22.46031746031746,19.126984126984127,14.523809523809524,-166.26984126984127
325.0,-69.6031746031746,325.0,-88.80952380952381,-325.0,-58.49206349206349,325.0,-18.49206349206349,-34.047619047619044,-38.96825396825397,140.3968253968254,127.6984126984127,-143.25396825396825,-192.61904761904762,-325.0,-84.04761904761904,325.0,-77.38095238095238,62.77777777777777,100.39682539682539,22.46031746031746,19.126984126984127,14.523809523809524,-166.26984126984127
325.0,-41.03174603174603,325.0,-67.53968253968253,-325.0,133.25396825396825,325.0,111.98412698412697,-37.22222222222222,-31.825396825396822,215.0,220.87301587301587,-141.5079365079365,-74.84126984126983,-325.0,-83.09523809523809,325.0,-74.2063492063492,93.73015873015872,17.22222222222222,26.746031746031743,0.07936507936507936,-3.571428571428571,-166.26984126984127
325.0,-41.03174603174603,325.0,-67.53968253968253,-325.0,133.25396825396825,325.0,111.98412698412697,-37.22222222222222,-31.825396825396822,215.0,220.87301587301587,-141.5079365079365,-74.84126984126983,-325.0,-83.09523809523809,325.0,-74.2063492063492,93.73015873015872,17.22222222222222,26.746031746031743,0.07936507936507936,-3.571428571428571,-166.26984126984127
325.0,-74.2063492063492,325.0,-91.5079365079365,-325.0,-21.984126984126984,325.0,18.49206349206349,-39.6031746031746,-39.44444444444444,84.84126984126983,157.53968253968253,-137.69841269841268,-191.03174603174602,-325.0,-81.03174603174602,325.0,-75.47619047619047,46.11111111111111,98.65079365079364,21.349206349206348,20.07936507936508,17.857142857142858,-321.8253968253968
325.0,-74.2063492063492,325.0,-91.5079365079365,-325.0,-21.984126984126984,325.0,18.49206349206349,-39.6031746031746,-39.44444444444444,84.84126984126983,157.53968253968253,-137.69841269841268,-191.03174603174602,-325.0,-81.03174603174602,325.0,-75.47619047619047,46.11111111111111,98.65079365079364,21.349206349206348,20.07936507936508,17.857142857142858,-321.8253968253968
325.0,-48.49206349206349,325.0,-69.44444444444444,-324.04761904761904,171.19047619047618,325.0,191.8253968253968,-39.12698412698413,-30.71428571428571,163.09523809523807,247.2222222222222,-136.11111111111111,-58.17460317460317,-325.0,-79.92063492063491,325.0,-71.5079365079365,88.17460317460316,8.809523809523808,26.428571428571427,0.5555555555555556,0.3968253968253968,-321.8253968253968
325.0,-48.49206349206349,325.0,-69.44444444444444,-324.04761904761904,171.19047619047618,325.0,191.8253968253968,-39.12698412698413,-30.71428571428571,163.09523809523807,247.2222222222222,-136.11111111111111,-58.17460317460317,-325.0,-79.92063492063491,325.0,-71.5079365079365,88.17460317460316,8.809523809523808,26.428571428571427,0.5555555555555556,0.3968253968253968,-321.8253968253968
325.0,-67.22222222222221,325.0,-84.52380952380952,-325.0,-56.58730158730158,325.0,-79.76190476190476,-38.49206349206349,-36.58730158730159,99.76190476190476,123.25396825396825,-133.73015873015873,-210.2380952380952,-322.3015873015873,-78.65079365079364,325.0,-72.93650793650794,48.17460317460317,91.66666666666666,17.22222222222222,19.92063492063492,16.904761904761905,-321.8253968253968
325.0,-67.22222222222221,325.0,-84.52380952380952,-325.0,-56.58730158730158,325.0,-79.76190476190476,-38.49206349206349,-36.58730158730159,99.76190476190476,123.25396825396825,-133.73015873015873,-210.2380952380952,-322.3015873015873,-78.65079365079364,325.0,-72.93650793650794,48.17460317460317,91.66666666666666,17.22222222222222,19.92063492063492,16.904761904761905,-321.8253968253968
325.0,-67.22222222222221,325.0,-84.52380952380952,-325.0,-56.58730158730158,325.0,-79.76190476190476,-38.49206349206349,-36.58730158730159,99.76190476190476,123.25396825396825,-133.73015873015873,-210.2380952380952,-322.3015873015873,-78.65079365079364,325.0,-72.93650793650794,48.17460317460317,91.66666666666666,17.22222222222222,19.92063492063492,16.904761904761905,-321.8253968253968
325.0,-67.22222222222221,325.0,-84.52380952380952,-325.0,-56.58730158730158,325.0,-79.76190476190476,-38.49206349206349,-36.58730158730159,99.76190476190476,123.25396825396825,-133.73015873015873,-210.2380952380952,-322.3015873015873,-78.65079365079364,325.0,-72.93650793650794,48.17460317460317,91.66666666666666,17.22222222222222,19.92063492063492,16.904761904761905,-321.8253968253968
325.0,-65.15873015873015,325.0,-82.77777777777777,-316.26984126984127,-59.44444444444444,325.0,-88.65079365079364,-35.15873015873016,-35.79365079365079,118.96825396825396,114.04761904761904,-129.28571428571428,-224.52380952380952,-312.1428571428571,-76.1111111111111,325.0,-70.87301587301587,48.33333333333333,82.3015873015873,14.206349206349206,20.555555555555554,16.904761904761905,-321.8253968253968
325.0,-65.15873015873015,325.0,-82.77777777777777,-316.26984126984127,-59.44444444444444,325.0,-88.65079365079364,-35.15873015873016,-35.79365079365079,118.96825396825396,114.04761904761904,-129.28571428571428,-224.52380952380952,-312.1428571428571,-76.1111111111111,325.0,-70.87301587301587,48.33333333333333,82.3015873015873,14.206349206349206,20.555555555555554,16.904761904761905,-321.8253968253968
325.0,-37.06349206349206,325.0,-59.12698412698413,-312.77777777777777,132.77777777777777,325.0,77.6984126984127,-17.22222222222222,-25.634920634920633,204.52380952380952,202.77777777777777,-127.6984126984127,-84.04761904761904,-308.3333333333333,-75.15873015873015,325.0,-67.06349206349206,81.98412698412697,-18.65079365079365,21.349206349206348,1.349206349206349,-0.7142857142857142,-166.26984126984127
325.0,-37.06349206349206,325.0,-59.12698412698413,-312.77777777777777,132.77777777777777,325.0,77.6984126984127,-17.22222222222222,-25.634920634920633,204.52380952380952,202.77777777777777,-127.6984126984127,-84.04761904761904,-308.3333333333333,-75.15873015873015,325.0,-67.06349206349206,81.98412698412697,-18.65079365079365,21.349206349206348,1.349206349206349,-0.7142857142857142,-166.26984126984127
325.0,-8.809523809523808,325.0,-35.317460317460316,-309.2857142857143,325.0,325.0,244.2063492063492,0.7142857142857142,-15.317460317460316,290.07936507936506,291.66666666666663,-125.95238095238095,56.58730158730158,-304.5238095238095,-74.2063492063492,325.0,-63.25396825396825,115.79365079365078,-119.44444444444444,28.49206349206349,-17.857142857142858,-18.333333333333332,-166.26984126984127
325.0,-8.809523809523808,325.0,-35.317460317460316,-309.2857142857143,325.0,325.0,244.2063492063492,0.7142857142857142,-15.317460317460316,290.07936507936506,291.66666666666663,-125.95238095238095,56.58730158730158,-304.5238095238095,-74.2063492063492,325.0,-63.25396825396825,115.79365079365078,-119.44444444444444,28.49206349206349,-17.857142857142858,-18.333333333333332,-166.26984126984127
325.0,6.904761904761904,324.5238095238095,-26.11111111111111,-300.7142857142857,325.0,325.0,276.74603174603175,15.793650793650793,-6.904761904761904,298.17460317460313,287.22222222222223,-122.30158730158729,39.76190476190476,-296.1111111111111,-71.98412698412697,325.0,-58.96825396825397,108.65079365079364,-167.38095238095238,27.22222222222222,-19.92063492063492,-18.96825396825397,-166.26984126984127
325.0,6.904761904761904,324.5238095238095,-26.11111111111111,-300.7142857142857,325.0,325.0,276.74603174603175,15.793650793650793,-6.904761904761904,298.17460317460313,287.22222222222223,-122.30158730158729,39.76190476190476,-296.1111111111111,-71.98412698412697,325.0,-58.96825396825397,108.65079365079364,-167.38095238095238,27.22222222222222,-19.92063492063492,-18.96825396825397,-166.26984126984127
325.0,-69.44444444444444,320.7142857142857,-83.25396825396825,-295.95238095238096,13.888888888888888,325.0,57.857142857142854,-35.63492063492063,-35.79365079365079,105.0,133.73015873015873,-120.07936507936508,-174.84126984126982,-291.19047619047615,-70.71428571428571,325.0,-66.74603174603175,50.55555555555555,67.85714285714285,11.349206349206348,19.92063492063492,18.96825396825397,-166.26984126984127
325.0,-69.44444444444444,320.7142857142857,-83.25396825396825,-295.95238095238096,13.888888888888888,325.0,57.857142857142854,-35.63492063492063,-35.79365079365079,105.0,133.73015873015873,-120.07936507936508,-174.84126984126982,-291.19047619047615,-70.71428571428571,325.0,-66.74603174603175,50.55555555555555,67.85714285714285,11.349206349206348,19.92063492063492,18.96825396825397,-166.26984126984127
325.0,4.365079365079365,312.46031746031747,-17.857142857142858,-291.19047619047615,325.0,307.38095238095235,292.6190476190476,-32.77777777777778,-9.126984126984127,314.04761904761904,270.39682539682536,-118.17460317460316,55.95238095238095,-286.90476190476187,-69.6031746031746,325.0,-57.22222222222222,106.1111111111111,-185.95238095238093,26.11111111111111,-20.07936507936508,-18.96825396825397,-166.26984126984127
325.0,4.365079365079365,312.46031746031747,-17.857142857142858,-291.19047619047615,325.0,307.38095238095235,292.6190476190476,-32.77777777777778,-9.126984126984127,314.04761904761904,270.39682539682536,-118.17460317460316,55.95238095238095,-286.90476190476187,-69.6031746031746,325.0,-57.22222222222222,106.1111111111111,-185.95238095238093,26.11111111111111,-20.07936507936508,-18.96825396825397,-166.26984126984127
49.44444444444444,-68.80952380952381,178.8095238095238,-81.66666666666666,-286.4285714285714,28.809523809523807,325.0,85.79365079365078,-35.63492063492063,-35.317460317460316,6.26984126984127,101.34920634920634,-115.95238095238095,-59.76190476190476,-281.8253968253968,-68.17460317460318,109.92063492063491,-64.84126984126983,36.42857142857142,5.0,21.507936507936506,21.825396825396822,19.126984126984127,-321.8253968253968
49.44444444444444,-68.80952380952381,178.8095238095238,-81.66666666666666,-286.4285714285714,28.809523809523807,325.0,85.79365079365078,-35.63492063492063,-35.317460317460316,6.26984126984127,101.34920634920634,-115.95238095238095,-59.76190476190476,-281.8253968253968,-68.17460317460318,109.92063492063491,-64.84126984126983,36.42857142857142,5.0,21.507936507936506,21.825396825396822,19.126984126984127,-321.8253968253968
-280.23809523809524,-0.3968253968253968,-227.06349206349205,-27.857142857142854,-282.9365079365079,325.0,325.0,325.0,-35.476190476190474,-13.73015873015873,-130.7142857142857,276.4285714285714,-114.2063492063492,50.87301587301587,-278.4920634920635,-67.22222222222221,-325.0,-59.92063492063492,98.33333333333333,-325.0,26.26984126984127,-23.57142857142857,-19.92063492063492,-321.8253968253968
-280.23809523809524,-0.3968253968253968,-227.06349206349205,-27.857142857142854,-282.9365079365079,325.0,325.0,325.0,-35.476190476190474,-13.73015873015873,-130.7142857142857,276.4285714285714,-114.2063492063492,50.87301587301587,-278.4920634920635,-67.22222222222221,-325.0,-59.92063492063492,98.33333333333333,-325.0,26.26984126984127,-23.57142857142857,-19.92063492063492,-321.8253968253968
-302.6190476190476,-36.74603174603175,-172.46031746031744,-55.63492063492063,-279.6031746031746,213.25396825396825,325.0,279.1269841269841,-34.84126984126984,-24.68253968253968,-123.88888888888889,222.61904761904762,-112.77777777777777,-4.841269841269841,-275.0,-12.3015873015873,-273.0952380952381,-61.19047619047619,78.17460317460316,-241.34920634920633,25.79365079365079,-4.0476190476190474,-1.1904761904761905,-321.8253968253968
-302.6190476190476,-36.74603174603175,-172.46031746031744,-55.63492063492063,-279.6031746031746,213.25396825396825,325.0,279.1269841269841,-34.84126984126984,-24.68253968253968,-123.88888888888889,222.61904761904762,-112.77777777777777,-4.841269841269841,-275.0,-12.3015873015873,-273.0952380952381,-61.19047619047619,78.17460317460316,-241.34920634920633,25.79365079365079,-4.0476190476190474,-1.1904761904761905,-321.8253968253968
-325.0,-72.93650793650794,-117.6984126984127,-83.25396825396825,-276.26984126984127,101.5079365079365,325.0,233.4126984126984,-34.2063492063492,-35.63492063492063,-116.9047619047619,168.96825396825395,-111.34920634920634,-60.39682539682539,-271.5079365079365,42.61904761904761,-221.03174603174602,-62.460317460317455,58.17460317460317,-157.53968253968253,25.476190476190474,15.476190476190474,17.698412698412696,-321.8253968253968
-325.0,-72.93650793650794,-117.6984126984127,-83.25396825396825,-276.26984126984127,101.5079365079365,325.0,233.4126984126984,-34.2063492063492,-35.63492063492063,-116.9047619047619,168.96825396825395,-111.34920634920634,-60.39682539682539,-271.5079365079365,42.61904761904761,-221.03174603174602,-62.460317460317455,58.17460317460317,-157.53968253968253,25.476190476190474,15.476190476190474,17.698412698412696,-321.8253968253968
-325.0,-72.93650793650794,-117.6984126984127,-83.25396825396825,-276.26984126984127,101.5079365079365,325.0,233.4126984126984,-34.2063492063492,-35.63492063492063,-116.9047619047619,168.96825396825395,-111.34920634920634,-60.39682539682539,-271.5079365079365,42.61904761904761,-221.03174603174602,-62.460317460317455,58.17460317460317,-157.53968253968253,25.476190476190474,15.476190476190474,17.698412698412696,-321.8253968253968
-325.0,-72.93650793650794,-117.6984126984127,-83.25396825396825,-276.26984126984127,101.5079365079365,325.0,233.4126984126984,-34.2063492063492,-35.63492063492063,-116.9047619047619,168.96825396825395,-111.34920634920634,-60.39682539682539,-271.5079365079365,42.61904761904761,-221.03174603174602,-62.460317460317455,58.17460317460317,-157.53968253968253,25.476190476190474,15.476190476190474,17.698412698412696,-321.8253968253968
-325.0,-72.93650793650794,-117.6984126984127,-83.25396825396825,-276.26984126984127,101.5079365079365,325.0,233.4126984126984,-34.2063492063492,-35.63492063492063,-116.9047619047619,168.96825396825395,-111.34920634920634,-60.39682539682539,-271.5079365079365,42.61904761904761,-221.03174603174602,-62.460317460317455,58.17460317460317,-157.53968253968253,25.476190476190474,15.476190476190474,17.698412698412696,-166.26984126984127
-325.0,-72.93650793650794,-117.6984126984127,-83.25396825396825,-276.26984126984127,101.5079365079365,325.0,233.4126984126984,-34.2063492063492,-35.63492063492063,-116.9047619047619,168.96825396825395,-111.34920634920634,-60.39682539682539,-271.5079365079365,42.61904761904761,-221.03174603174602,-62.460317460317455,58.17460317460317,-157.53968253968253,25.476190476190474,15.476190476190474,17.698412698412696,-166.26984126984127
-321.5079365079365,-71.98412698412697,-71.19047619047619,-81.19047619047619,-267.38095238095235,117.6984126984127,325.0,235.3174603174603,-33.095238095238095,-35.0,-112.77777777777777,167.69841269841268,-107.53968253968253,-64.52380952380952,-262.9365079365079,54.68253968253968,-180.3968253968254,-60.71428571428571,58.8095238095238,-155.47619047619048,24.68253968253968,14.84126984126984,16.587301587301585,-166.26984126984127
-321.5079365079365,-71.98412698412697,-71.19047619047619,-81.19047619047619,-267.38095238095235,117.6984126984127,325.0,235.3174603174603,-33.095238095238095,-35.0,-112.77777777777777,167.69841269841268,-107.53968253968253,-64.52380952380952,-262.9365079365079,54.68253968253968,-180.3968253968254,-60.71428571428571,58.8095238095238,-155.47619047619048,24.68253968253968,14.84126984126984,16.587301587301585,-166.26984126984127
-206.9047619047619,12.142857142857142,-181.5079365079365,-14.523809523809524,-255.63492063492063,323.73015873015873,325.0,299.1269841269841,-31.666666666666664,5.0,-93.73015873015872,237.2222222222222,-102.77777777777777,60.238095238095234,-251.5079365079365,325.0,-198.33333333333331,-45.79365079365079,95.79365079365078,-325.0,23.41269841269841,-18.96825396825397,-18.015873015873016,-166.26984126984127
-206.9047619047619,12.142857142857142,-181.5079365079365,-14.523809523809524,-255.63492063492063,323.73015873015873,325.0,299.1269841269841,-31.666666666666664,5.0,-93.73015873015872,237.2222222222222,-102.77777777777777,60.238095238095234,-251.5079365079365,325.0,-198.33333333333331,-45.79365079365079,95.79365079365078,-325.0,23.41269841269841,-18.96825396825397,-18.015873015873016,-166.26984126984127
-188.17460317460316,-64.68253968253968,-20.873015873015873,-74.36507936507937,-251.5079365079365,18.80952380952381,325.0,147.85714285714286,-31.19047619047619,-31.98412698412698,-105.0,100.87301587301587,-100.87301587301587,-84.52380952380952,-247.2222222222222,260.7142857142857,-85.0,-57.06349206349206,41.34920634920635,-102.14285714285714,23.095238095238095,18.174603174603174,18.015873015873016,-166.26984126984127
-188.17460317460316,-64.68253968253968,-20.873015873015873,-74.36507936507937,-251.5079365079365,18.80952380952381,325.0,147.85714285714286,-31.19047619047619,-31.98412698412698,-105.0,100.87301587301587,-100.87301587301587,-84.52380952380952,-247.2222222222222,260.7142857142857,-85.0,-57.06349206349206,41.34920634920635,-102.14285714285714,23.095238095238095,18.174603174603174,18.015873015873016,-166.26984126984127
-221.5079365079365,13.253968253968253,-204.52380952380952,-14.84126984126984,-247.53968253968253,318.6507936507936,309.2857142857143,295.95238095238096,-30.71428571428571,4.365079365079365,-89.6031746031746,233.09523809523807,-99.44444444444444,60.71428571428571,-243.25396825396825,325.0,-209.28571428571428,-44.84126984126984,93.57142857142857,-325.0,22.619047619047617,-19.444444444444443,-18.174603174603174,-166.26984126984127
-221.5079365079365,13.253968253968253,-204.52380952380952,-14.84126984126984,-247.53968253968253,318.6507936507936,309.2857142857143,295.95238095238096,-30.71428571428571,4.365079365079365,-89.6031746031746,233.09523809523807,-99.44444444444444,60.71428571428571,-243.25396825396825,325.0,-209.28571428571428,-44.84126984126984,93.57142857142857,-325.0,22.619047619047617,-19.444444444444443,-18.174603174603174,-166.26984126984127
-274.2063492063492,-63.73015873015873,-23.095238095238095,-72.3015873015873,-243.57142857142856,23.095238095238095,325.0,148.4920634920635,-30.07936507936508,-31.349206349206348,-101.34920634920634,101.03174603174602,-97.53968253968253,-99.92063492063491,-239.12698412698413,37.53968253968254,-111.5079365079365,-55.317460317460316,35.317460317460316,-110.23809523809523,22.3015873015873,18.65079365079365,18.174603174603174,-321.8253968253968
-274.2063492063492,-63.73015873015873,-23.095238095238095,-72.3015873015873,-243.57142857142856,23.095238095238095,325.0,148.4920634920635,-30.07936507936508,-31.349206349206348,-101.34920634920634,101.03174603174602,-97.53968253968253,-99.92063492063491,-239.12698412698413,37.53968253968254,-111.5079365079365,-55.317460317460316,35.317460317460316,-110.23809523809523,22.3015873015873,18.65079365079365,18.174603174603174,-321.8253968253968
-124.2063492063492,32.14285714285714,-273.73015873015873,0.5555555555555556,-240.3968253968254,325.0,240.2380952380952,325.0,-29.6031746031746,13.412698412698411,-81.34920634920634,253.7301587301587,-96.42857142857142,53.41269841269841,-236.26984126984127,189.76190476190476,-280.23809523809524,-43.25396825396825,89.28571428571428,-325.0,21.984126984126984,-25.79365079365079,-22.46031746031746,-321.8253968253968
-124.2063492063492,32.14285714285714,-273.73015873015873,0.5555555555555556,-240.3968253968254,325.0,240.2380952380952,325.0,-29.6031746031746,13.412698412698411,-81.34920634920634,253.7301587301587,-96.42857142857142,53.41269841269841,-236.26984126984127,189.76190476190476,-280.23809523809524,-43.25396825396825,89.28571428571428,-325.0,21.984126984126984,-25.79365079365079,-22.46031746031746,-321.8253968253968
-210.07936507936506,-63.25396825396825,-47.38095238095238,-71.19047619047619,-235.79365079365078,34.2063492063492,325.0,325.0,-29.126984126984127,-31.666666666666664,-97.85714285714285,80.55555555555556,-94.2063492063492,-66.58730158730158,-231.5079365079365,-48.01587301587301,-111.5079365079365,-53.888888888888886,21.825396825396822,-118.8095238095238,21.19047619047619,18.49206349206349,18.174603174603174,-321.8253968253968
-210.07936507936506,-63.25396825396825,-47.38095238095238,-71.19047619047619,-235.79365079365078,34.2063492063492,325.0,325.0,-29.126984126984127,-31.666666666666664,-97.85714285714285,80.55555555555556,-94.2063492063492,-66.58730158730158,-231.5079365079365,-48.01587301587301,-111.5079365079365,-53.888888888888886,21.825396825396822,-118.8095238095238,21.19047619047619,18.49206349206349,18.174603174603174,-321.8253968253968
-149.12698412698413,-37.38095238095238,-128.65079365079364,-51.19047619047619,-232.93650793650792,258.17460317460313,225.3174603174603,325.0,-28.809523809523807,-20.07936507936508,-91.98412698412697,159.28571428571428,-92.93650793650794,22.46031746031746,-228.65079365079364,-1.349206349206349,-152.14285714285714,-49.76190476190476,66.9047619047619,-262.9365079365079,21.349206349206348,1.0317460317460316,0.3968253968253968,-321.8253968253968
-149.12698412698413,-37.38095238095238,-128.65079365079364,-51.19047619047619,-232.93650793650792,258.17460317460313,225.3174603174603,325.0,-28.809523809523807,-20.07936507936508,-91.98412698412697,159.28571428571428,-92.93650793650794,22.46031746031746,-228.65079365079364,-1.349206349206349,-152.14285714285714,-49.76190476190476,66.9047619047619,-262.9365079365079,21.349206349206348,1.0317460317460316,0.3968253968253968,-321.8253968253968
-36.58730158730159,13.253968253968253,-220.7142857142857,-11.666666666666666,-228.17460317460316,325.0,34.047619047619044,325.0,-28.333333333333332,3.73015873015873,-75.15873015873015,208.33333333333331,-91.03174603174602,67.85714285714285,-224.36507936507934,21.984126984126984,-196.58730158730157,-44.52380952380952,88.01587301587301,-325.0,20.873015873015873,-18.333333333333332,-18.174603174603174,-321.8253968253968
-36.58730158730159,13.253968253968253,-220.7142857142857,-11.666666666666666,-228.17460317460316,325.0,34.047619047619044,325.0,-28.333333333333332,3.73015873015873,-75.15873015873015,208.33333333333331,-91.03174603174602,67.85714285714285,-224.36507936507934,21.984126984126984,-196.58730158730157,-44.52380952380952,88.01587301587301,-325.0,20.873015873015873,-18.333333333333332,-18.174603174603174,-321.8253968253968
-18.65079365079365,32.61904761904762,-276.74603174603175,5.317460317460317,-225.47619047619045,325.0,-57.38095238095238,325.0,-27.857142857142854,14.047619047619047,-64.36507936507937,244.52380952380952,-90.07936507936508,61.34920634920635,-221.8253968253968,59.92063492063492,-245.0,-43.888888888888886,85.47619047619047,-325.0,20.555555555555554,-25.476190476190474,-22.142857142857142,-166.26984126984127
-18.65079365079365,32.61904761904762,-276.74603174603175,5.317460317460317,-225.47619047619045,325.0,-57.38095238095238,325.0,-27.857142857142854,14.047619047619047,-64.36507936507937,244.52380952380952,-90.07936507936508,61.34920634920635,-221.8253968253968,59.92063492063492,-245.0,-43.888888888888886,85.47619047619047,-325.0,20.555555555555554,-25.476190476190474,-22.142857142857142,-166.26984126984127
-144.68253968253967,-11.825396825396824,-300.87301587301585,-29.444444444444443,-216.26984126984127,93.88888888888889,-191.19047619047618,325.0,-26.587301587301585,-7.222222222222221,-74.52380952380952,94.36507936507935,-86.1111111111111,-13.888888888888888,-212.77777777777777,-24.68253968253968,-285.0,-45.79365079365079,27.22222222222222,-301.5079365079365,19.76190476190476,0.873015873015873,1.507936507936508,-166.26984126984127
-144.68253968253967,-11.825396825396824,-300.87301587301585,-29.444444444444443,-216.26984126984127,93.88888888888889,-191.19047619047618,325.0,-26.587301587301585,-7.222222222222221,-74.52380952380952,94.36507936507935,-86.1111111111111,-13.888888888888888,-212.77777777777777,-24.68253968253968,-285.0,-45.79365079365079,27.22222222222222,-301.5079365079365,19.76190476190476,0.873015873015873,1.507936507936508,-166.26984126984127
-266.90476190476187,-19.126984126984127,-325.0,-34.52380952380952,-204.84126984126982,276.58730158730157,-325.0,325.0,-25.0,-10.079365079365079,-83.73015873015872,176.26984126984127,-80.87301587301587,21.03174603174603,-201.03174603174602,-90.71428571428571,-325.0,-45.15873015873016,55.317460317460316,-325.0,18.65079365079365,-9.444444444444445,-6.587301587301587,-166.26984126984127
-266.90476190476187,-19.126984126984127,-325.0,-34.52380952380952,-204.84126984126982,276.58730158730157,-325.0,325.0,-25.0,-10.079365079365079,-83.73015873015872,176.26984126984127,-80.87301587301587,21.03174603174603,-201.03174603174602,-90.71428571428571,-325.0,-45.15873015873016,55.317460317460316,-325.0,18.65079365079365,-9.444444444444445,-6.587301587301587,-166.26984126984127
-242.3015873015873,-15.476190476190474,-325.0,-33.73015873015873,-202.61904761904762,89.92063492063491,-325.0,325.0,-24.523809523809522,-10.238095238095237,-82.46031746031746,93.57142857142857,-79.92063492063491,-10.555555555555555,-198.65079365079364,-92.30158730158729,-325.0,-44.52380952380952,29.920634920634917,-268.3333333333333,18.49206349206349,0.07936507936507936,0.23809523809523808,-166.26984126984127
-242.3015873015873,-15.476190476190474,-325.0,-33.73015873015873,-202.61904761904762,89.92063492063491,-325.0,325.0,-24.523809523809522,-10.238095238095237,-82.46031746031746,93.57142857142857,-79.92063492063491,-10.555555555555555,-198.65079365079364,-92.30158730158729,-325.0,-44.52380952380952,29.920634920634917,-268.3333333333333,18.49206349206349,0.07936507936507936,0.23809523809523808,-166.26984126984127
-88.33333333333333,-12.142857142857142,-297.38095238095235,-30.07936507936508,-198.65079365079364,276.4285714285714,-99.28571428571428,325.0,-24.365079365079364,-4.365079365079365,-45.79365079365079,180.7142857142857,-78.33333333333333,24.84126984126984,-194.84126984126982,12.142857142857142,-250.2380952380952,-43.41269841269841,58.8095238095238,-312.3015873015873,18.174603174603174,-11.349206349206348,-6.746031746031746,-166.26984126984127
-88.33333333333333,-12.142857142857142,-297.38095238095235,-30.07936507936508,-198.65079365079364,276.4285714285714,-99.28571428571428,325.0,-24.365079365079364,-4.365079365079365,-45.79365079365079,180.7142857142857,-78.33333333333333,24.84126984126984,-194.84126984126982,12.142857142857142,-250.2380952380952,-43.41269841269841,58.8095238095238,-312.3015873015873,18.174603174603174,-11.349206349206348,-6.746031746031746,-166.26984126984127
63.73015873015873,-32.93650793650794,77.38095238095238,-47.53968253968254,-195.63492063492063,24.206349206349206,325.0,-103.73015873015872,-24.206349206349206,-18.333333333333332,-61.507936507936506,29.285714285714285,-77.22222222222221,-176.11111111111111,-191.8253968253968,-68.80952380952381,61.666666666666664,-44.047619047619044,10.873015873015872,-62.93650793650793,9.920634920634921,8.174603174603174,5.317460317460317,-321.8253968253968
63.73015873015873,-32.93650793650794,77.38095238095238,-47.53968253968254,-195.63492063492063,24.206349206349206,325.0,-103.73015873015872,-24.206349206349206,-18.333333333333332,-61.507936507936506,29.285714285714285,-77.22222222222221,-176.11111111111111,-191.8253968253968,-68.80952380952381,61.666666666666664,-44.047619047619044,10.873015873015872,-62.93650793650793,9.920634920634921,8.174603174603174,5.317460317460317,-321.8253968253968
-96.42857142857142,-7.857142857142857,-115.31746031746032,-21.507936507936506,-192.3015873015873,254.04761904761904,325.0,189.12698412698413,-23.730158730158728,6.904761904761904,-38.65079365079365,172.93650793650792,-75.95238095238095,-48.96825396825397,-188.8095238095238,84.04761904761904,-127.53968253968253,-40.238095238095234,51.82539682539682,-250.7142857142857,14.84126984126984,-10.238095238095237,-6.904761904761904,-321.8253968253968
-96.42857142857142,-7.857142857142857,-115.31746031746032,-21.507936507936506,-192.3015873015873,254.04761904761904,325.0,189.12698412698413,-23.730158730158728,6.904761904761904,-38.65079365079365,172.93650793650792,-75.95238095238095,-48.96825396825397,-188.8095238095238,84.04761904761904,-127.53968253968253,-40.238095238095234,51.82539682539682,-250.7142857142857,14.84126984126984,-10.238095238095237,-6.904761904761904,-321.8253968253968
-26.746031746031743,-31.03174603174603,30.396825396825395,-43.41269841269841,-189.44444444444443,-1.349206349206349,325.0,-89.6031746031746,-23.253968253968253,-13.888888888888888,-58.96825396825397,31.349206349206348,-74.68253968253968,-177.69841269841268,-185.63492063492063,-64.2063492063492,19.126984126984127,-41.98412698412698,6.111111111111111,-92.46031746031746,4.2063492063492065,9.126984126984127,7.063492063492063,-321.8253968253968
-26.746031746031743,-31.03174603174603,30.396825396825395,-43.41269841269841,-189.44444444444443,-1.349206349206349,325.0,-89.6031746031746,-23.253968253968253,-13.888888888888888,-58.96825396825397,31.349206349206348,-74.68253968253968,-177.69841269841268,-185.63492063492063,-64.2063492063492,19.126984126984127,-41.98412698412698,6.111111111111111,-92.46031746031746,4.2063492063492065,9.126984126984127,7.063492063492063,-321.8253968253968
84.52380952380952,-9.920634920634921,-105.15873015873015,-29.285714285714285,-186.42857142857142,256.4285714285714,325.0,196.11111111111111,-23.095238095238095,-1.507936507936508,-31.666666666666664,170.7142857142857,-73.57142857142857,-41.82539682539682,-182.77777777777777,211.98412698412696,-79.92063492063491,-39.76190476190476,50.238095238095234,-252.14285714285714,12.777777777777777,-11.031746031746032,-7.063492063492063,-321.8253968253968
84.52380952380952,-9.920634920634921,-105.15873015873015,-29.285714285714285,-186.42857142857142,256.4285714285714,325.0,196.11111111111111,-23.095238095238095,-1.507936507936508,-31.666666666666664,170.7142857142857,-73.57142857142857,-41.82539682539682,-182.77777777777777,211.98412698412696,-79.92063492063491,-39.76190476190476,50.238095238095234,-252.14285714285714,12.777777777777777,-11.031746031746032,-7.063492063492063,-321.8253968253968
147.85714285714286,-9.444444444444445,-16.11111111111111,-30.87301587301587,-184.04761904761904,186.26984126984127,325.0,2.9365079365079363,-22.619047619047617,-5.634920634920634,-35.63492063492063,102.77777777777777,-72.46031746031746,-24.047619047619047,-180.3968253968254,55.0,30.87301587301587,-39.6031746031746,63.41269841269841,-252.6190476190476,15.634920634920634,-8.174603174603174,-11.507936507936508,-321.8253968253968
147.85714285714286,-9.444444444444445,-16.11111111111111,-30.87301587301587,-184.04761904761904,186.26984126984127,325.0,2.9365079365079363,-22.619047619047617,-5.634920634920634,-35.63492063492063,102.77777777777777,-72.46031746031746,-24.047619047619047,-180.3968253968254,55.0,30.87301587301587,-39.6031746031746,63.41269841269841,-252.6190476190476,15.634920634920634,-8.174603174603174,-11.507936507936508,-321.8253968253968
46.904761904761905,-12.46031746031746,-41.34920634920635,-28.65079365079365,-180.55555555555554,254.68253968253967,325.0,200.23809523809524,-22.3015873015873,-0.3968253968253968,-6.746031746031746,163.88888888888889,-70.87301587301587,-37.22222222222222,-176.74603174603175,325.0,-58.01587301587301,-40.55555555555555,45.476190476190474,-228.96825396825395,11.507936507936508,-10.555555555555555,-7.857142857142857,-166.26984126984127
46.904761904761905,-12.46031746031746,-41.34920634920635,-28.65079365079365,-180.55555555555554,254.68253968253967,325.0,200.23809523809524,-22.3015873015873,-0.3968253968253968,-6.746031746031746,163.88888888888889,-70.87301587301587,-37.22222222222222,-176.74603174603175,325.0,-58.01587301587301,-40.55555555555555,45.476190476190474,-228.96825396825395,11.507936507936508,-10.555555555555555,-7.857142857142857,-166.26984126984127
40.714285714285715,-33.41269841269841,116.74603174603173,-46.11111111111111,-177.53968253968253,-37.698412698412696,325.0,-127.22222222222221,-21.984126984126984,-17.698412698412696,-43.095238095238095,-12.142857142857142,-69.76190476190476,-184.2063492063492,-174.04761904761904,43.095238095238095,47.22222222222222,-40.714285714285715,-20.873015873015873,-10.396825396825395,-8.809523809523808,10.396825396825395,8.015873015873016,-166.26984126984127
40.714285714285715,-33.41269841269841,116.74603174603173,-46.11111111111111,-177.53968253968253,-37.698412698412696,325.0,-127.22222222222221,-21.984126984126984,-17.698412698412696,-43.095238095238095,-12.142857142857142,-69.76190476190476,-184.2063492063492,-174.04761904761904,43.095238095238095,47.22222222222222,-40.714285714285715,-20.873015873015873,-10.396825396825395,-8.809523809523808,10.396825396825395,8.015873015873016,-166.26984126984127
130.3968253968254,-1.6666666666666665,-36.904761904761905,-19.126984126984127,-174.52380952380952,253.09523809523807,319.2857142857143,182.14285714285714,-21.666666666666664,8.968253968253968,17.698412698412696,160.55555555555554,-68.4920634920635,-38.01587301587301,-171.03174603174602,325.0,-66.42857142857143,-36.904761904761905,43.73015873015873,-229.9206349206349,9.285714285714285,-11.507936507936508,-8.65079365079365,-166.26984126984127
130.3968253968254,-1.6666666666666665,-36.904761904761905,-19.126984126984127,-174.52380952380952,253.09523809523807,319.2857142857143,182.14285714285714,-21.666666666666664,8.968253968253968,17.698412698412696,160.55555555555554,-68.4920634920635,-38.01587301587301,-171.03174603174602,325.0,-66.42857142857143,-36.904761904761905,43.73015873015873,-229.9206349206349,9.285714285714285,-11.507936507936508,-8.65079365079365,-166.26984126984127
19.126984126984127,-54.68253968253968,47.38095238095238,-55.476190476190474,-170.3968253968254,-25.79365079365079,325.0,-51.507936507936506,-20.873015873015873,-21.825396825396822,-74.36507936507937,0.873015873015873,-66.9047619047619,-225.15873015873015,-166.74603174603175,185.47619047619045,-14.206349206349206,-40.079365079365076,-36.42857142857142,-20.396825396825395,-14.84126984126984,18.80952380952381,18.174603174603174,-166.26984126984127
19.126984126984127,-54.68253968253968,47.38095238095238,-55.476190476190474,-170.3968253968254,-25.79365079365079,325.0,-51.507936507936506,-20.873015873015873,-21.825396825396822,-74.36507936507937,0.873015873015873,-66.9047619047619,-225.15873015873015,-166.74603174603175,185.47619047619045,-14.206349206349206,-40.079365079365076,-36.42857142857142,-20.396825396825395,-14.84126984126984,18.80952380952381,18.174603174603174,-166.26984126984127
53.57142857142857,-33.73015873015873,-29.920634920634917,-41.82539682539682,-168.4920634920635,159.9206349206349,325.0,41.19047619047619,-20.71428571428571,-11.031746031746032,-52.14285714285714,87.38095238095238,-66.11111111111111,-73.57142857142857,-164.68253968253967,325.0,-43.73015873015873,-38.96825396825397,34.682539682539684,-189.44444444444443,8.968253968253968,0.5555555555555556,0.07936507936507936,-166.26984126984127
53.57142857142857,-33.73015873015873,-29.920634920634917,-41.82539682539682,-168.4920634920635,159.9206349206349,325.0,41.19047619047619,-20.71428571428571,-11.031746031746032,-52.14285714285714,87.38095238095238,-66.11111111111111,-73.57142857142857,-164.68253968253967,325.0,-43.73015873015873,-38.96825396825397,34.682539682539684,-189.44444444444443,8.968253968253968,0.5555555555555556,0.07936507936507936,-166.26984126984127
7.857142857142857,-54.68253968253968,22.619047619047617,-52.93650793650794,-164.68253968253967,-19.6031746031746,325.0,-45.15873015873016,-20.238095238095237,-20.238095238095237,-69.76190476190476,-6.111111111111111,-64.52380952380952,-218.8095238095238,-161.5079365079365,309.1269841269841,-29.126984126984127,-38.80952380952381,-37.857142857142854,-40.238095238095234,-18.333333333333332,18.174603174603174,17.38095238095238,-321.8253968253968
7.857142857142857,-54.68253968253968,22.619047619047617,-52.93650793650794,-164.68253968253967,-19.6031746031746,325.0,-45.15873015873016,-20.238095238095237,-20.238095238095237,-69.76190476190476,-6.111111111111111,-64.52380952380952,-218.8095238095238,-161.5079365079365,309.1269841269841,-29.126984126984127,-38.80952380952381,-37.857142857142854,-40.238095238095234,-18.333333333333332,18.174603174603174,17.38095238095238,-321.8253968253968
100.23809523809523,31.349206349206348,-94.04761904761904,4.365079365079365,-162.3015873015873,236.26984126984127,251.03174603174602,76.74603174603175,-20.238095238095237,27.063492063492063,26.11111111111111,149.44444444444443,-63.57142857142857,22.142857142857142,-158.8095238095238,297.53968253968253,-70.23809523809524,-29.444444444444443,67.38095238095238,-276.4285714285714,16.428571428571427,-18.65079365079365,-18.333333333333332,-321.8253968253968
100.23809523809523,31.349206349206348,-94.04761904761904,4.365079365079365,-162.3015873015873,236.26984126984127,251.03174603174602,76.74603174603175,-20.238095238095237,27.063492063492063,26.11111111111111,149.44444444444443,-63.57142857142857,22.142857142857142,-158.8095238095238,297.53968253968253,-70.23809523809524,-29.444444444444443,67.38095238095238,-276.4285714285714,16.428571428571427,-18.65079365079365,-18.333333333333332,-321.8253968253968
27.698412698412696,-28.174603174603174,-14.84126984126984,-36.269841269841265,-160.23809523809524,177.06349206349205,245.15873015873015,6.26984126984127,-19.92063492063492,-3.253968253968254,-20.873015873015873,97.22222222222221,-62.460317460317455,-69.76190476190476,-156.9047619047619,297.53968253968253,-13.571428571428571,-35.317460317460316,39.44444444444444,-200.87301587301587,7.063492063492063,-0.873015873015873,-1.0317460317460316,-321.8253968253968
27.698412698412696,-28.174603174603174,-14.84126984126984,-36.269841269841265,-160.23809523809524,177.06349206349205,245.15873015873015,6.26984126984127,-19.92063492063492,-3.253968253968254,-20.873015873015873,97.22222222222221,-62.460317460317455,-69.76190476190476,-156.9047619047619,297.53968253968253,-13.571428571428571,-35.317460317460316,39.44444444444444,-200.87301587301587,7.063492063492063,-0.873015873015873,-1.0317460317460316,-321.8253968253968
184.84126984126982,42.93650793650794,-14.047619047619047,12.777777777777777,-156.9047619047619,231.5079365079365,-268.968253968254,108.17460317460316,-19.444444444444443,43.41269841269841,117.85714285714285,144.2063492063492,-61.507936507936506,41.666666666666664,-153.73015873015873,325.0,64.52380952380952,-25.476190476190474,69.28571428571428,-249.76190476190476,11.666666666666666,-18.015873015873016,-18.49206349206349,-321.8253968253968
184.84126984126982,42.93650793650794,-14.047619047619047,12.777777777777777,-156.9047619047619,231.5079365079365,-268.968253968254,108.17460317460316,-19.444444444444443,43.41269841269841,117.85714285714285,144.2063492063492,-61.507936507936506,41.666666666666664,-153.73015873015873,325.0,64.52380952380952,-25.476190476190474,69.28571428571428,-249.76190476190476,11.666666666666666,-18.015873015873016,-18.49206349206349,-321.8253968253968
143.57142857142856,-52.460317460317455,115.0,-49.6031746031746,-154.36507936507937,-2.142857142857143,10.555555555555555,-56.74603174603174,-18.96825396825397,-14.206349206349206,-16.904761904761905,5.634920634920634,-60.238095238095234,-206.58730158730157,-151.19047619047618,325.0,103.4126984126984,-36.904761904761905,-24.206349206349206,-26.746031746031743,-35.0,17.22222222222222,17.063492063492063,-321.8253968253968
143.57142857142856,-52.460317460317455,115.0,-49.6031746031746,-154.36507936507937,-2.142857142857143,10.555555555555555,-56.74603174603174,-18.96825396825397,-14.206349206349206,-16.904761904761905,5.634920634920634,-60.238095238095234,-206.58730158730157,-151.19047619047618,325.0,103.4126984126984,-36.904761904761905,-24.206349206349206,-26.746031746031743,-35.0,17.22222222222222,17.063492063492063,-321.8253968253968
159.6031746031746,-51.666666666666664,35.79365079365079,-43.41269841269841,-153.57142857142856,219.28571428571428,-21.507936507936506,107.6984126984127,-18.80952380952381,0.5555555555555556,4.2063492063492065,108.17460317460316,-59.92063492063492,-88.01587301587301,-150.3968253968254,325.0,35.476190476190474,-37.06349206349206,22.619047619047617,-177.69841269841268,-5.952380952380952,4.523809523809524,6.746031746031746,-166.26984126984127
159.6031746031746,-51.666666666666664,35.79365079365079,-43.41269841269841,-153.57142857142856,219.28571428571428,-21.507936507936506,107.6984126984127,-18.80952380952381,0.5555555555555556,4.2063492063492065,108.17460317460316,-59.92063492063492,-88.01587301587301,-150.3968253968254,325.0,35.476190476190474,-37.06349206349206,22.619047619047617,-177.69841269841268,-5.952380952380952,4.523809523809524,6.746031746031746,-166.26984126984127
-66.74603174603175,-53.095238095238095,-89.6031746031746,-51.82539682539682,-149.28571428571428,-11.825396825396824,-245.95238095238093,-80.71428571428571,-18.333333333333332,-18.65079365079365,-59.12698412698413,5.317460317460317,-58.17460317460317,-211.5079365079365,-145.95238095238093,325.0,-109.92063492063491,-35.95238095238095,-24.84126984126984,-116.42857142857142,-38.17460317460317,18.96825396825397,18.65079365079365,-166.26984126984127
-66.74603174603175,-53.095238095238095,-89.6031746031746,-51.82539682539682,-149.28571428571428,-11.825396825396824,-245.95238095238093,-80.71428571428571,-18.333333333333332,-18.65079365079365,-59.12698412698413,5.317460317460317,-58.17460317460317,-211.5079365079365,-145.95238095238093,325.0,-109.92063492063491,-35.95238095238095,-24.84126984126984,-116.42857142857142,-38.17460317460317,18.96825396825397,18.65079365079365,-166.26984126984127
-202.77777777777777,-52.77777777777777,-325.0,-48.17460317460317,-148.4920634920635,202.61904761904762,-325.0,89.76190476190476,-18.015873015873016,-7.5396825396825395,-79.12698412698413,107.06349206349206,-57.857142857142854,-97.85714285714285,-145.3174603174603,325.0,-325.0,-36.269841269841265,23.095238095238095,-325.0,-6.428571428571428,5.952380952380952,8.65079365079365,-166.26984126984127
-202.77777777777777,-52.77777777777777,-325.0,-48.17460317460317,-148.4920634920635,202.61904761904762,-325.0,89.76190476190476,-18.015873015873016,-7.5396825396825395,-79.12698412698413,107.06349206349206,-57.857142857142854,-97.85714285714285,-145.3174603174603,325.0,-325.0,-36.269841269841265,23.095238095238095,-325.0,-6.428571428571428,5.952380952380952,8.65079365079365,-166.26984126984127
-273.73015873015873,-52.460317460317455,-325.0,-51.19047619047619,-144.04761904761904,12.936507936507935,-325.0,-58.49206349206349,-17.38095238095238,-17.063492063492063,-73.73015873015872,2.142857142857143,-55.63492063492063,-174.04761904761904,-141.03174603174602,325.0,-325.0,-34.682539682539684,-21.984126984126984,-291.031746031746,17.539682539682538,17.22222222222222,16.587301587301585,-166.26984126984127
-273.73015873015873,-52.460317460317455,-325.0,-51.19047619047619,-144.04761904761904,12.936507936507935,-325.0,-58.49206349206349,-17.38095238095238,-17.063492063492063,-73.73015873015872,2.142857142857143,-55.63492063492063,-174.04761904761904,-141.03174603174602,325.0,-325.0,-34.682539682539684,-21.984126984126984,-291.031746031746,17.539682539682538,17.22222222222222,16.587301587301585,-166.26984126984127
-269.1269841269841,109.12698412698413,-325.0,66.11111111111111,-142.61904761904762,325.0,-325.0,242.46031746031744,-17.539682539682538,96.58730158730158,-73.09523809523809,205.3174603174603,-55.15873015873016,96.74603174603175,-139.44444444444443,325.0,-325.0,-2.142857142857143,74.68253968253968,-325.0,18.96825396825397,-31.825396825396822,-28.96825396825397,-166.26984126984127
-269.1269841269841,109.12698412698413,-325.0,66.11111111111111,-142.61904761904762,325.0,-325.0,242.46031746031744,-17.539682539682538,96.58730158730158,-73.09523809523809,205.3174603174603,-55.15873015873016,96.74603174603175,-139.44444444444443,325.0,-325.0,-2.142857142857143,74.68253968253968,-325.0,18.96825396825397,-31.825396825396822,-28.96825396825397,-166.26984126984127
-263.57142857142856,-53.25396825396825,-325.0,-54.36507936507936,-139.76190476190476,-212.14285714285714,-325.0,-222.77777777777777,-16.746031746031743,-30.87301587301587,-71.19047619047619,-99.44444444444444,-54.2063492063492,-306.58730158730157,-136.9047619047619,264.8412698412698,-325.0,-33.888888888888886,-75.0,-193.88888888888889,16.904761904761905,32.460317460317455,28.333333333333332,-321.8253968253968
-263.57142857142856,-53.25396825396825,-325.0,-54.36507936507936,-139.76190476190476,-212.14285714285714,-325.0,-222.77777777777777,-16.746031746031743,-30.87301587301587,-71.19047619047619,-99.44444444444444,-54.2063492063492,-306.58730158730157,-136.9047619047619,264.8412698412698,-325.0,-33.888888888888886,-75.0,-193.88888888888889,16.904761904761905,32.460317460317455,28.333333333333332,-321.8253968253968
-263.57142857142856,-53.25396825396825,-325.0,-54.36507936507936,-139.76190476190476,-212.14285714285714,-325.0,-222.77777777777777,-16.746031746031743,-30.87301587301587,-71.19047619047619,-99.44444444444444,-54.2063492063492,-306.58730158730157,-136.9047619047619,264.8412698412698,-325.0,-33.888888888888886,-75.0,-193.88888888888889,16.904761904761905,32.460317460317455,28.333333333333332,-321.8253968253968
-263.57142857142856,-53.25396825396825,-325.0,-54.36507936507936,-139.76190476190476,-212.14285714285714,-325.0,-222.77777777777777,-16.746031746031743,-30.87301587301587,-71.19047619047619,-99.44444444444444,-54.2063492063492,-306.58730158730157,-136.9047619047619,264.8412698412698,-325.0,-33.888888888888886,-75.0,-193.88888888888889,16.904761904761905,32.460317460317455,28.333333333333332,-321.8253968253968
-263.57142857142856,-53.25396825396825,-325.0,-54.36507936507936,-139.76190476190476,-212.14285714285714,-325.0,-222.77777777777777,-16.746031746031743,-30.87301587301587,-71.19047619047619,-99.44444444444444,-54.2063492063492,-306.58730158730157,-136.9047619047619,264.8412698412698,-325.0,-33.888888888888886,-75.0,-193.88888888888889,16.904761904761905,32.460317460317455,28.333333333333332,-321.8253968253968
-263.57142857142856,-53.25396825396825,-325.0,-54.36507936507936,-139.76190476190476,-212.14285714285714,-325.0,-222.77777777777777,-16.746031746031743,-30.87301587301587,-71.19047619047619,-99.44444444444444,-54.2063492063492,-306.58730158730157,-136.9047619047619,264.8412698412698,-325.0,-33.888888888888886,-75.0,-193.88888888888889,16.904761904761905,32.460317460317455,28.333333333333332,-321.8253968253968
-263.57142857142856,-53.25396825396825,-325.0,-54.36507936507936,-139.76190476190476,-212.14285714285714,-325.0,-222.77777777777777,-16.746031746031743,-30.87301587301587,-71.19047619047619,-99.44444444444444,-54.2063492063492,-306.58730158730157,-136.9047619047619,264.8412698412698,-325.0,-33.888888888888886,-75.0,-193.88888888888889,16.904761904761905,32.460317460317455,28.333333333333332,-321.8253968253968
-263.57142857142856,-53.25396825396825,-325.0,-54.36507936507936,-139.76190476190476,-212.14285714285714,-325.0,-222.77777777777777,-16.746031746031743,-30.87301587301587,-71.19047619047619,-99.44444444444444,-54.2063492063492,-306.58730158730157,-136.9047619047619,264.8412698412698,-325.0,-33.888888888888886,-75.0,-193.88888888888889,16.904761904761905,32.460317460317455,28.333333333333332,-321.8253968253968
-263.57142857142856,-53.25396825396825,-325.0,-54.36507936507936,-139.76190476190476,-212.14285714285714,-325.0,-222.77777777777777,-16.746031746031743,-30.87301587301587,-71.19047619047619,-99.44444444444444,-54.2063492063492,-306.58730158730157,-136.9047619047619,264.8412698412698,-325.0,-33.888888888888886,-75.0,-193.88888888888889,16.904761904761905,32.460317460317455,28.333333333333332,-321.8253968253968
-263.57142857142856,-53.25396825396825,-325.0,-54.36507936507936,-139.76190476190476,-212.14285714285714,-325.0,-222.77777777777777,-16.746031746031743,-30.87301587301587,-71.19047619047619,-99.44444444444444,-54.2063492063492,-306.58730158730157,-136.9047619047619,264.8412698412698,-325.0,-33.888888888888886,-75.0,-193.88888888888889,16.904761904761905,32.460317460317455,28.333333333333332,-321.8253968253968
-263.57142857142856,-53.25396825396825,-325.0,-54.36507936507936,-139.76190476190476,-212.14285714285714,-325.0,-222.77777777777777,-16.746031746031743,-30.87301587301587,-71.19047619047619,-99.44444444444444,-54.2063492063492,-306.58730158730157,-136.9047619047619,264.8412698412698,-325.0,-33.888888888888886,-75.0,-193.88888888888889,16.904761904761905,32.460317460317455,28.333333333333332,-166.26984126984127
-263.57142857142856,-53.25396825396825,-325.0,-54.36507936507936,-139.76190476190476,-212.14285714285714,-325.0,-222.77777777777777,-16.746031746031743,-30.87301587301587,-71.19047619047619,-99.44444444444444,-54.2063492063492,-306.58730158730157,-136.9047619047619,264.8412698412698,-325.0,-33.888888888888886,-75.0,-193.88888888888889,16.904761904761905,32.460317460317455,28.333333333333332,-166.26984126984127
-235.79365079365078,-55.0,-325.0,-54.36507936507936,-127.06349206349206,-172.93650793650792,-325.0,235.79365079365078,-15.476190476190474,-34.2063492063492,-63.888888888888886,-107.06349206349206,-48.96825396825397,-159.28571428571428,-124.04761904761904,-287.06349206349205,-325.0,-32.460317460317455,-88.65079365079364,-154.52380952380952,2.9365079365079363,30.87301587301587,28.015873015873016,-166.26984126984127
-235.79365079365078,-55.0,-325.0,-54.36507936507936,-127.06349206349206,-172.93650793650792,-325.0,235.79365079365078,-15.476190476190474,-34.2063492063492,-63.888888888888886,-107.06349206349206,-48.96825396825397,-159.28571428571428,-124.04761904761904,-287.06349206349205,-325.0,-32.460317460317455,-88.65079365079364,-154.52380952380952,2.9365079365079363,30.87301587301587,28.015873015873016,-166.26984126984127
-235.79365079365078,-55.0,-325.0,-54.36507936507936,-127.06349206349206,-172.93650793650792,-325.0,235.79365079365078,-15.476190476190474,-34.2063492063492,-63.888888888888886,-107.06349206349206,-48.96825396825397,-159.28571428571428,-124.04761904761904,-287.06349206349205,-325.0,-32.460317460317455,-88.65079365079364,-154.52380952380952,2.9365079365079363,30.87301587301587,28.015873015873016,-166.26984126984127
-235.79365079365078,-55.0,-325.0,-54.36507936507936,-127.06349206349206,-172.93650793650792,-325.0,235.79365079365078,-15.476190476190474,-34.2063492063492,-63.888888888888886,-107.06349206349206,-48.96825396825397,-159.28571428571428,-124.04761904761904,-287.06349206349205,-325.0,-32.460317460317455,-88.65079365079364,-154.52380952380952,2.9365079365079363,30.87301587301587,28.015873015873016,-166.26984126984127
-235.79365079365078,-55.0,-325.0,-54.36507936507936,-127.06349206349206,-172.93650793650792,-325.0,235.79365079365078,-15.476190476190474,-34.2063492063492,-63.888888888888886,-107.06349206349206,-48.96825396825397,-159.28571428571428,-124.04761904761904,-287.06349206349205,-325.0,-32.460317460317455,-88.65079365079364,-154.52380952380952,2.9365079365079363,30.87301587301587,28.015873015873016,-166.26984126984127
-235.79365079365078,-55.0,-325.0,-54.36507936507936,-127.06349206349206,-172.93650793650792,-325.0,235.79365079365078,-15.476190476190474,-34.2063492063492,-63.888888888888886,-107.06349206349206,-48.96825396825397,-159.28571428571428,-124.04761904761904,-287.06349206349205,-325.0,-32.460317460317455,-88.65079365079364,-154.52380952380952,2.9365079365079363,30.87301587301587,28.015873015873016,-166.26984126984127
-228.33333333333331,-26.26984126984127,-325.0,-33.73015873015873,-123.57142857142857,75.95238095238095,-325.0,270.39682539682536,-15.317460317460316,-15.0,-62.14285714285714,-29.126984126984127,-47.53968253968254,-21.984126984126984,-120.71428571428571,-285.6349206349206,-325.0,-26.428571428571427,-17.698412698412696,-239.76190476190476,9.444444444444445,13.73015873015873,11.825396825396824,-166.26984126984127
-228.33333333333331,-26.26984126984127,-325.0,-33.73015873015873,-123.57142857142857,75.95238095238095,-325.0,270.39682539682536,-15.317460317460316,-15.0,-62.14285714285714,-29.126984126984127,-47.53968253968254,-21.984126984126984,-120.71428571428571,-285.6349206349206,-325.0,-26.428571428571427,-17.698412698412696,-239.76190476190476,9.444444444444445,13.73015873015873,11.825396825396824,-166.26984126984127
-217.69841269841268,-51.98412698412698,-325.0,-41.34920634920635,-118.65079365079364,198.33333333333331,-325.0,289.6031746031746,-14.84126984126984,-7.063492063492063,-59.12698412698413,14.682539682539682,-45.63492063492063,13.888888888888888,-115.95238095238095,-194.52380952380952,-325.0,-30.87301587301587,-20.07936507936508,-234.36507936507934,3.73015873015873,14.206349206349206,15.317460317460316,-321.8253968253968
-217.69841269841268,-51.98412698412698,-325.0,-41.34920634920635,-118.65079365079364,198.33333333333331,-325.0,289.6031746031746,-14.84126984126984,-7.063492063492063,-59.12698412698413,14.682539682539682,-45.63492063492063,13.888888888888888,-115.95238095238095,-194.52380952380952,-325.0,-30.87301587301587,-20.07936507936508,-234.36507936507934,3.73015873015873,14.206349206349206,15.317460317460316,-321.8253968253968
-213.57142857142856,58.650793650793645,-325.0,33.73015873015873,-116.9047619047619,314.36507936507934,-325.0,295.95238095238096,-14.682539682539682,54.047619047619044,-58.17460317460317,123.57142857142857,-44.84126984126984,108.96825396825396,-114.04761904761904,-190.23809523809524,-324.68253968253964,-6.587301587301587,54.36507936507936,-325.0,16.26984126984127,-15.158730158730158,-16.428571428571427,-321.8253968253968
-213.57142857142856,58.650793650793645,-325.0,33.73015873015873,-116.9047619047619,314.36507936507934,-325.0,295.95238095238096,-14.682539682539682,54.047619047619044,-58.17460317460317,123.57142857142857,-44.84126984126984,108.96825396825396,-114.04761904761904,-190.23809523809524,-324.68253968253964,-6.587301587301587,54.36507936507936,-325.0,16.26984126984127,-15.158730158730158,-16.428571428571427,-321.8253968253968
-209.44444444444443,-46.74603174603175,-325.0,-34.682539682539684,-114.84126984126983,160.7142857142857,-325.0,272.77777777777777,-14.365079365079364,6.26984126984127,-57.06349206349206,19.285714285714285,-43.888888888888886,-23.57142857142857,-112.14285714285714,-315.7936507936508,-322.77777777777777,-25.952380952380953,-43.888888888888886,-223.88888888888889,0.07936507936507936,15.158730158730158,14.84126984126984,-321.8253968253968
-209.44444444444443,-46.74603174603175,-325.0,-34.682539682539684,-114.84126984126983,160.7142857142857,-325.0,272.77777777777777,-14.365079365079364,6.26984126984127,-57.06349206349206,19.285714285714285,-43.888888888888886,-23.57142857142857,-112.14285714285714,-315.7936507936508,-322.77777777777777,-25.952380952380953,-43.888888888888886,-223.88888888888889,0.07936507936507936,15.158730158730158,14.84126984126984,-321.8253968253968
-203.7301587301587,-17.38095238095238,-325.0,-13.253968253968253,-113.57142857142857,230.7142857142857,-325.0,215.3174603174603,-14.206349206349206,25.476190476190474,-56.269841269841265,89.92063492063491,-43.57142857142857,15.95238095238095,-111.03174603174602,-310.55555555555554,-317.53968253968253,-19.76190476190476,25.317460317460316,-325.0,12.619047619047619,-0.873015873015873,-1.349206349206349,-321.8253968253968
-203.7301587301587,-17.38095238095238,-325.0,-13.253968253968253,-113.57142857142857,230.7142857142857,-325.0,215.3174603174603,-14.206349206349206,25.476190476190474,-56.269841269841265,89.92063492063491,-43.57142857142857,15.95238095238095,-111.03174603174602,-310.55555555555554,-317.53968253968253,-19.76190476190476,25.317460317460316,-325.0,12.619047619047619,-0.873015873015873,-1.349206349206349,-321.8253968253968
-200.55555555555554,-41.666666666666664,-325.0,-25.634920634920633,-110.87301587301587,85.0,-325.0,35.317460317460316,-13.73015873015873,15.317460317460316,-55.0,22.777777777777775,-42.460317460317455,-185.95238095238093,-108.49206349206348,-288.3333333333333,-312.9365079365079,-20.71428571428571,-51.19047619047619,-215.63492063492063,-4.0476190476190474,14.523809523809524,15.158730158730158,-321.8253968253968
-200.55555555555554,-41.666666666666664,-325.0,-25.634920634920633,-110.87301587301587,85.0,-325.0,35.317460317460316,-13.73015873015873,15.317460317460316,-55.0,22.777777777777775,-42.460317460317455,-185.95238095238093,-108.49206349206348,-288.3333333333333,-312.9365079365079,-20.71428571428571,-51.19047619047619,-215.63492063492063,-4.0476190476190474,14.523809523809524,15.158730158730158,-321.8253968253968
-185.47619047619045,-13.888888888888888,-325.0,-5.476190476190476,-109.76190476190476,186.26984126984127,-325.0,63.25396825396825,-13.73015873015873,34.36507936507936,-53.73015873015873,86.74603174603175,-41.98412698412698,-86.58730158730158,-107.22222222222221,-266.1111111111111,-300.23809523809524,-14.84126984126984,18.96825396825397,-325.0,11.19047619047619,-1.349206349206349,-0.7142857142857142,-166.26984126984127
-185.47619047619045,-13.888888888888888,-325.0,-5.476190476190476,-109.76190476190476,186.26984126984127,-325.0,63.25396825396825,-13.73015873015873,34.36507936507936,-53.73015873015873,86.74603174603175,-41.98412698412698,-86.58730158730158,-107.22222222222221,-266.1111111111111,-300.23809523809524,-14.84126984126984,18.96825396825397,-325.0,11.19047619047619,-1.349206349206349,-0.7142857142857142,-166.26984126984127
-197.38095238095238,-39.92063492063492,-325.0,-21.03174603174603,-107.38095238095238,50.079365079365076,-325.0,1.1904761904761905,-13.412698412698411,21.825396825396822,-52.93650793650794,16.904761904761905,-41.03174603174603,-197.53968253968253,-104.84126984126983,-285.0,-296.58730158730157,-16.11111111111111,-59.6031746031746,-202.61904761904762,-8.968253968253968,13.412698412698411,14.682539682539682,-166.26984126984127
-197.38095238095238,-39.92063492063492,-325.0,-21.03174603174603,-107.38095238095238,50.079365079365076,-325.0,1.1904761904761905,-13.412698412698411,21.825396825396822,-52.93650793650794,16.904761904761905,-41.03174603174603,-197.53968253968253,-104.84126984126983,-285.0,-296.58730158730157,-16.11111111111111,-59.6031746031746,-202.61904761904762,-8.968253968253968,13.412698412698411,14.682539682539682,-166.26984126984127
-191.98412698412696,-11.507936507936508,-325.0,0.7142857142857142,-106.26984126984127,177.06349206349205,-325.0,51.98412698412698,-13.253968253968253,42.14285714285714,-51.19047619047619,81.82539682539682,-40.55555555555555,-94.52380952380952,-103.57142857142857,-270.87301587301585,-277.06349206349205,-9.444444444444445,17.539682539682538,-325.0,9.444444444444445,-2.142857142857143,-0.7142857142857142,-166.26984126984127
-191.98412698412696,-11.507936507936508,-325.0,0.7142857142857142,-106.26984126984127,177.06349206349205,-325.0,51.98412698412698,-13.253968253968253,42.14285714285714,-51.19047619047619,81.82539682539682,-40.55555555555555,-94.52380952380952,-103.57142857142857,-270.87301587301585,-277.06349206349205,-9.444444444444445,17.539682539682538,-325.0,9.444444444444445,-2.142857142857143,-0.7142857142857142,-166.26984126984127
-188.65079365079364,-31.19047619047619,-319.9206349206349,-19.126984126984127,-104.2063492063492,45.317460317460316,-325.0,-8.174603174603174,-12.936507936507935,25.79365079365079,-51.19047619047619,18.015873015873016,-39.6031746031746,-190.3968253968254,-101.5079365079365,-42.77777777777778,-271.984126984127,-11.031746031746032,-58.33333333333333,-194.36507936507937,-11.19047619047619,13.412698412698411,14.365079365079364,-166.26984126984127
-188.65079365079364,-31.19047619047619,-319.9206349206349,-19.126984126984127,-104.2063492063492,45.317460317460316,-325.0,-8.174603174603174,-12.936507936507935,25.79365079365079,-51.19047619047619,18.015873015873016,-39.6031746031746,-190.3968253968254,-101.5079365079365,-42.77777777777778,-271.984126984127,-11.031746031746032,-58.33333333333333,-194.36507936507937,-11.19047619047619,13.412698412698411,14.365079365079364,-166.26984126984127
-182.3015873015873,-1.984126984126984,-325.0,2.7777777777777777,-102.93650793650794,167.69841269841268,-325.0,14.047619047619047,-12.777777777777777,46.904761904761905,-48.33333333333333,81.5079365079365,-39.285714285714285,-96.58730158730158,-100.23809523809523,7.698412698412698,-254.84126984126982,-4.0476190476190474,14.682539682539682,-318.015873015873,7.222222222222221,-1.349206349206349,-1.507936507936508,-166.26984126984127
-182.3015873015873,-1.984126984126984,-325.0,2.7777777777777777,-102.93650793650794,167.69841269841268,-325.0,14.047619047619047,-12.777777777777777,46.904761904761905,-48.33333333333333,81.5079365079365,-39.285714285714285,-96.58730158730158,-100.23809523809523,7.698412698412698,-254.84126984126982,-4.0476190476190474,14.682539682539682,-318.015873015873,7.222222222222221,-1.349206349206349,-1.507936507936508,-166.26984126984127
-178.65079365079364,-31.03174603174603,-286.4285714285714,-7.063492063492063,-100.71428571428571,48.17460317460317,-325.0,-38.17460317460317,-12.619047619047619,31.19047619047619,-49.285714285714285,23.41269841269841,-38.33333333333333,-195.63492063492063,-98.17460317460316,-317.69841269841265,-242.93650793650792,-7.063492063492063,-53.888888888888886,-186.42857142857142,-14.047619047619047,13.095238095238095,13.73015873015873,-321.8253968253968
-178.65079365079364,-31.03174603174603,-286.4285714285714,-7.063492063492063,-100.71428571428571,48.17460317460317,-325.0,-38.17460317460317,-12.619047619047619,31.19047619047619,-49.285714285714285,23.41269841269841,-38.33333333333333,-195.63492063492063,-98.17460317460316,-317.69841269841265,-242.93650793650792,-7.063492063492063,-53.888888888888886,-186.42857142857142,-14.047619047619047,13.095238095238095,13.73015873015873,-321.8253968253968
-172.93650793650792,0.873015873015873,-325.0,46.42857142857142,-100.39682539682539,314.2063492063492,-325.0,115.31746031746032,-12.46031746031746,110.87301587301587,-48.33333333333333,118.49206349206348,-38.33333333333333,-66.11111111111111,-97.85714285714285,-310.39682539682536,-312.1428571428571,17.38095238095238,20.873015873015873,-325.0,4.2063492063492065,-5.476190476190476,-0.7142857142857142,-321.8253968253968
-172.93650793650792,0.873015873015873,-325.0,46.42857142857142,-100.39682539682539,314.2063492063492,-325.0,115.31746031746032,-12.46031746031746,110.87301587301587,-48.33333333333333,118.49206349206348,-38.33333333333333,-66.11111111111111,-97.85714285714285,-310.39682539682536,-312.1428571428571,17.38095238095238,20.873015873015873,-325.0,4.2063492063492065,-5.476190476190476,-0.7142857142857142,-321.8253968253968
79.28571428571428,-29.76190476190476,-202.61904761904762,-11.666666666666666,-97.53968253968253,45.95238095238095,-325.0,-7.5396825396825395,-12.3015873015873,34.682539682539684,-27.857142857142854,16.746031746031743,-37.22222222222222,-170.07936507936506,-95.31746031746032,325.0,-30.396825396825395,-8.174603174603174,-46.904761904761905,-146.58730158730157,-13.888888888888888,11.349206349206348,12.619047619047619,-321.8253968253968
79.28571428571428,-29.76190476190476,-202.61904761904762,-11.666666666666666,-97.53968253968253,45.95238095238095,-325.0,-7.5396825396825395,-12.3015873015873,34.682539682539684,-27.857142857142854,16.746031746031743,-37.22222222222222,-170.07936507936506,-95.31746031746032,325.0,-30.396825396825395,-8.174603174603174,-46.904761904761905,-146.58730158730157,-13.888888888888888,11.349206349206348,12.619047619047619,-321.8253968253968
311.66666666666663,148.65079365079364,-147.2222222222222,121.34920634920634,-96.74603174603175,325.0,-325.0,217.38095238095238,-12.46031746031746,158.33333333333331,142.61904761904762,182.3015873015873,-37.06349206349206,124.68253968253967,-94.36507936507935,325.0,74.2063492063492,32.61904761904762,78.01587301587301,-325.0,14.84126984126984,-30.87301587301587,-28.174603174603174,-321.8253968253968
311.66666666666663,148.65079365079364,-147.2222222222222,121.34920634920634,-96.74603174603175,325.0,-325.0,217.38095238095238,-12.46031746031746,158.33333333333331,142.61904761904762,182.3015873015873,-37.06349206349206,124.68253968253967,-94.36507936507935,325.0,74.2063492063492,32.61904761904762,78.01587301587301,-325.0,14.84126984126984,-30.87301587301587,-28.174603174603174,-321.8253968253968
311.66666666666663,148.65079365079364,-147.2222222222222,121.34920634920634,-96.74603174603175,325.0,-325.0,217.38095238095238,-12.46031746031746,158.33333333333331,142.61904761904762,182.3015873015873,-37.06349206349206,124.68253968253967,-94.36507936507935,325.0,74.2063492063492,32.61904761904762,78.01587301587301,-325.0,14.84126984126984,-30.87301587301587,-28.174603174603174,-321.8253968253968
311.66666666666663,148.65079365079364,-147.2222222222222,121.34920634920634,-96.74603174603175,325.0,-325.0,217.38095238095238,-12.46031746031746,158.33333333333331,142.61904761904762,182.3015873015873,-37.06349206349206,124.68253968253967,-94.36507936507935,325.0,74.2063492063492,32.61904761904762,78.01587301587301,-325.0,14.84126984126984,-30.87301587301587,-28.174603174603174,-321.8253968253968
311.66666666666663,148.65079365079364,-147.2222222222222,121.34920634920634,-96.74603174603175,325.0,-325.0,217.38095238095238,-12.46031746031746,158.33333333333331,142.61904761904762,182.3015873015873,-37.06349206349206,124.68253968253967,-94.36507936507935,325.0,74.2063492063492,32.61904761904762,78.01587301587301,-325.0,14.84126984126984,-30.87301587301587,-28.174603174603174,-166.26984126984127
311.66666666666663,148.65079365079364,-147.2222222222222,121.34920634920634,-96.74603174603175,325.0,-325.0,217.38095238095238,-12.46031746031746,158.33333333333331,142.61904761904762,182.3015873015873,-37.06349206349206,124.68253968253967,-94.36507936507935,325.0,74.2063492063492,32.61904761904762,78.01587301587301,-325.0,14.84126984126984,-30.87301587301587,-28.174603174603174,-166.26984126984127
311.66666666666663,148.65079365079364,-147.2222222222222,121.34920634920634,-96.74603174603175,325.0,-325.0,217.38095238095238,-12.46031746031746,158.33333333333331,142.61904761904762,182.3015873015873,-37.06349206349206,124.68253968253967,-94.36507936507935,325.0,74.2063492063492,32.61904761904762,78.01587301587301,-325.0,14.84126984126984,-30.87301587301587,-28.174603174603174,-166.26984126984127
311.66666666666663,148.65079365079364,-147.2222222222222,121.34920634920634,-96.74603174603175,325.0,-325.0,217.38095238095238,-12.46031746031746,158.33333333333331,142.61904761904762,182.3015873015873,-37.06349206349206,124.68253968253967,-94.36507936507935,325.0,74.2063492063492,32.61904761904762,78.01587301587301,-325.0,14.84126984126984,-30.87301587301587,-28.174603174603174,-166.26984126984127
311.66666666666663,148.65079365079364,-147.2222222222222,121.34920634920634,-96.74603174603175,325.0,-325.0,217.38095238095238,-12.46031746031746,158.33333333333331,142.61904761904762,182.3015873015873,-37.06349206349206,124.68253968253967,-94.36507936507935,325.0,74.2063492063492,32.61904761904762,78.01587301587301,-325.0,14.84126984126984,-30.87301587301587,-28.174603174603174,-166.26984126984127
311.66666666666663,148.65079365079364,-147.2222222222222,121.34920634920634,-96.74603174603175,325.0,-325.0,217.38095238095238,-12.46031746031746,158.33333333333331,142.61904761904762,182.3015873015873,-37.06349206349206,124.68253968253967,-94.36507936507935,325.0,74.2063492063492,32.61904761904762,78.01587301587301,-325.0,14.84126984126984,-30.87301587301587,-28.174603174603174,-166.26984126984127
311.66666666666663,148.65079365079364,-147.2222222222222,121.34920634920634,-96.74603174603175,325.0,-325.0,217.38095238095238,-12.46031746031746,158.33333333333331,142.61904761904762,182.3015873015873,-37.06349206349206,124.68253968253967,-94.36507936507935,325.0,74.2063492063492,32.61904761904762,78.01587301587301,-325.0,14.84126984126984,-30.87301587301587,-28.174603174603174,-166.26984126984127
311.66666666666663,148.65079365079364,-147.2222222222222,121.34920634920634,-96.74603174603175,325.0,-325.0,217.38095238095238,-12.46031746031746,158.33333333333331,142.61904761904762,182.3015873015873,-37.06349206349206,124.68253968253967,-94.36507936507935,325.0,74.2063492063492,32.61904761904762,78.01587301587301,-325.0,14.84126984126984,-30.87301587301587,-28.174603174603174,-166.26984126984127
325.0,103.25396825396825,309.1269841269841,88.17460317460316,-75.31746031746032,143.73015873015873,325.0,39.92063492063492,-5.0,108.33333333333333,325.0,88.01587301587301,-10.714285714285714,-71.98412698412697,-74.84126984126983,-79.44444444444444,325.0,29.126984126984127,26.26984126984127,-84.68253968253968,-91.5079365079365,-14.682539682539682,-14.365079365079364,-166.26984126984127
325.0,103.25396825396825,309.1269841269841,88.17460317460316,-75.31746031746032,143.73015873015873,325.0,39.92063492063492,-5.0,108.33333333333333,325.0,88.01587301587301,-10.714285714285714,-71.98412698412697,-74.84126984126983,-79.44444444444444,325.0,29.126984126984127,26.26984126984127,-84.68253968253968,-91.5079365079365,-14.682539682539682,-14.365079365079364,-166.26984126984127
325.0,-13.095238095238095,325.0,2.3015873015873014,-86.74603174603175,55.476190476190474,325.0,20.555555555555554,-11.507936507936508,46.74603174603175,325.0,43.095238095238095,-32.14285714285714,-187.85714285714283,-84.68253968253968,192.61904761904762,325.0,-5.317460317460317,-30.87301587301587,163.88888888888889,-127.53968253968253,11.19047619047619,12.142857142857142,-321.8253968253968
325.0,-13.095238095238095,325.0,2.3015873015873014,-86.74603174603175,55.476190476190474,325.0,20.555555555555554,-11.507936507936508,46.74603174603175,325.0,43.095238095238095,-32.14285714285714,-187.85714285714283,-84.68253968253968,192.61904761904762,325.0,-5.317460317460317,-30.87301587301587,163.88888888888889,-127.53968253968253,11.19047619047619,12.142857142857142,-321.8253968253968
