Fp1[1],Fp2[2],F3[3],F4[4],C3[5],C4[6],P3[7],P4[8],O1[9],O2[10],F7[11],F8[12],T3[13],T4[14],T5[15],T6[16],Fz[17],Pz[18],Cz[19],Pg1[20],Pg2[21],EOGR[22],EOOGL[23],EMG[24]
67.06349206349206,38.33333333333333,81.82539682539682,65.79365079365078,53.25396825396825,35.63492063492063,47.38095238095238,30.71428571428571,41.19047619047619,13.095238095238095,48.650793650793645,-75.0,31.19047619047619,1.1904761904761905,38.17460317460317,28.809523809523807,-3.095238095238095,1.349206349206349,-325.0,-325.0,-325.0,-325.0,-325.0,-7.5396825396825395
67.06349206349206,38.33333333333333,81.82539682539682,65.79365079365078,53.25396825396825,35.63492063492063,47.38095238095238,30.71428571428571,41.19047619047619,13.095238095238095,48.650793650793645,-75.0,31.19047619047619,1.1904761904761905,38.17460317460317,28.809523809523807,-3.095238095238095,1.349206349206349,-325.0,-325.0,-325.0,-325.0,-325.0,-7.5396825396825395
23.88888888888889,29.76190476190476,21.825396825396822,40.714285714285715,-4.682539682539682,7.698412698412698,-17.857142857142858,5.317460317460317,-7.857142857142857,3.73015873015873,16.746031746031743,-59.12698412698413,10.555555555555555,-24.206349206349206,-6.428571428571428,15.317460317460316,-3.253968253968254,1.1904761904761905,-325.0,-325.0,-325.0,-325.0,-325.0,-7.5396825396825395
23.88888888888889,29.76190476190476,21.825396825396822,40.714285714285715,-4.682539682539682,7.698412698412698,-17.857142857142858,5.317460317460317,-7.857142857142857,3.73015873015873,16.746031746031743,-59.12698412698413,10.555555555555555,-24.206349206349206,-6.428571428571428,15.317460317460316,-3.253968253968254,1.1904761904761905,-325.0,-325.0,-325.0,-325.0,-325.0,-7.5396825396825395
4.523809523809524,-11.031746031746032,2.619047619047619,27.698412698412696,-17.22222222222222,4.365079365079365,-45.317460317460316,0.23809523809523808,-25.158730158730158,2.7777777777777777,5.158730158730158,-36.74603174603175,19.76190476190476,-28.333333333333332,-28.96825396825397,8.65079365079365,-1.6666666666666665,1.349206349206349,-325.0,-325.0,-325.0,-325.0,-325.0,-7.5396825396825395
4.523809523809524,-11.031746031746032,2.619047619047619,27.698412698412696,-17.22222222222222,4.365079365079365,-45.317460317460316,0.23809523809523808,-25.158730158730158,2.7777777777777777,5.158730158730158,-36.74603174603175,19.76190476190476,-28.333333333333332,-28.96825396825397,8.65079365079365,-1.6666666666666665,1.349206349206349,-325.0,-325.0,-325.0,-325.0,-325.0,-7.5396825396825395
-12.142857142857142,-45.63492063492063,-21.507936507936506,-9.126984126984127,-25.79365079365079,-24.047619047619047,-49.6031746031746,-11.19047619047619,-29.285714285714285,-0.873015873015873,5.476190476190476,-58.96825396825397,27.857142857142854,-8.333333333333332,-21.984126984126984,-6.904761904761904,-1.984126984126984,0.7142857142857142,-325.0,-325.0,-325.0,-325.0,-325.0,-7.5396825396825395
-12.142857142857142,-45.63492063492063,-21.507936507936506,-9.126984126984127,-25.79365079365079,-24.047619047619047,-49.6031746031746,-11.19047619047619,-29.285714285714285,-0.873015873015873,5.476190476190476,-58.96825396825397,27.857142857142854,-8.333333333333332,-21.984126984126984,-6.904761904761904,-1.984126984126984,0.7142857142857142,-325.0,-325.0,-325.0,-325.0,-325.0,-7.5396825396825395
-12.936507936507935,-47.22222222222222,-12.3015873015873,-4.841269841269841,-10.079365079365079,-12.3015873015873,-16.11111111111111,5.476190476190476,-5.317460317460317,22.777777777777775,11.031746031746032,-61.82539682539682,32.93650793650794,-41.19047619047619,4.365079365079365,19.92063492063492,-2.9365079365079363,1.0317460317460316,-325.0,-325.0,-325.0,-325.0,-325.0,-7.5396825396825395
-12.936507936507935,-47.22222222222222,-12.3015873015873,-4.841269841269841,-10.079365079365079,-12.3015873015873,-16.11111111111111,5.476190476190476,-5.317460317460317,22.777777777777775,11.031746031746032,-61.82539682539682,32.93650793650794,-41.19047619047619,4.365079365079365,19.92063492063492,-2.9365079365079363,1.0317460317460316,-325.0,-325.0,-325.0,-325.0,-325.0,-7.5396825396825395
-17.22222222222222,-41.03174603174603,-5.634920634920634,21.666666666666664,-8.492063492063492,19.92063492063492,-2.7777777777777777,26.9047619047619,-1.984126984126984,42.93650793650794,7.857142857142857,-79.12698412698413,23.095238095238095,-23.730158730158728,11.031746031746032,29.126984126984127,-1.8253968253968254,1.1904761904761905,-325.0,-325.0,-325.0,-325.0,-325.0,-321.8253968253968
-17.22222222222222,-41.03174603174603,-5.634920634920634,21.666666666666664,-8.492063492063492,19.92063492063492,-2.7777777777777777,26.9047619047619,-1.984126984126984,42.93650793650794,7.857142857142857,-79.12698412698413,23.095238095238095,-23.730158730158728,11.031746031746032,29.126984126984127,-1.8253968253968254,1.1904761904761905,-325.0,-325.0,-325.0,-325.0,-325.0,-321.8253968253968
-3.095238095238095,-38.65079365079365,21.19047619047619,26.428571428571427,18.015873015873016,28.809523809523807,18.333333333333332,20.396825396825395,3.888888888888889,27.857142857142854,18.80952380952381,-42.77777777777778,23.57142857142857,-29.920634920634917,15.95238095238095,15.158730158730158,-1.984126984126984,1.507936507936508,-325.0,-325.0,-325.0,-325.0,-325.0,-321.8253968253968
-3.095238095238095,-38.65079365079365,21.19047619047619,26.428571428571427,18.015873015873016,28.809523809523807,18.333333333333332,20.396825396825395,3.888888888888889,27.857142857142854,18.80952380952381,-42.77777777777778,23.57142857142857,-29.920634920634917,15.95238095238095,15.158730158730158,-1.984126984126984,1.507936507936508,-325.0,-325.0,-325.0,-325.0,-325.0,-321.8253968253968
-1.984126984126984,-22.46031746031746,16.587301587301585,41.34920634920635,14.523809523809524,38.17460317460317,22.619047619047617,29.76190476190476,4.2063492063492065,23.253968253968253,26.26984126984127,-39.44444444444444,16.587301587301585,-27.857142857142854,4.682539682539682,18.49206349206349,-2.7777777777777777,1.0317460317460316,-325.0,-325.0,-325.0,-325.0,-325.0,-321.8253968253968
-1.984126984126984,-22.46031746031746,16.587301587301585,41.34920634920635,14.523809523809524,38.17460317460317,22.619047619047617,29.76190476190476,4.2063492063492065,23.253968253968253,26.26984126984127,-39.44444444444444,16.587301587301585,-27.857142857142854,4.682539682539682,18.49206349206349,-2.7777777777777777,1.0317460317460316,-325.0,-325.0,-325.0,-325.0,-325.0,-321.8253968253968
-30.555555555555554,-20.555555555555554,-15.793650793650793,17.539682539682538,-12.3015873015873,31.666666666666664,13.73015873015873,37.22222222222222,3.73015873015873,27.539682539682538,1.349206349206349,-16.11111111111111,-0.5555555555555556,-13.888888888888888,0.3968253968253968,28.96825396825397,-2.9365079365079363,1.507936507936508,-325.0,-325.0,-325.0,-325.0,-325.0,-321.8253968253968
-30.555555555555554,-20.555555555555554,-15.793650793650793,17.539682539682538,-12.3015873015873,31.666666666666664,13.73015873015873,37.22222222222222,3.73015873015873,27.539682539682538,1.349206349206349,-16.11111111111111,-0.5555555555555556,-13.888888888888888,0.3968253968253968,28.96825396825397,-2.9365079365079363,1.507936507936508,-325.0,-325.0,-325.0,-325.0,-325.0,-321.8253968253968
-47.06349206349206,-26.9047619047619,-33.57142857142857,14.365079365079364,-30.238095238095237,30.238095238095237,9.920634920634921,34.36507936507936,2.619047619047619,26.9047619047619,-21.507936507936506,-27.22222222222222,-10.873015873015872,-0.7142857142857142,-3.571428571428571,38.17460317460317,-2.7777777777777777,1.349206349206349,-325.0,-325.0,-325.0,-325.0,-325.0,-321.8253968253968
-47.06349206349206,-26.9047619047619,-33.57142857142857,14.365079365079364,-30.238095238095237,30.238095238095237,9.920634920634921,34.36507936507936,2.619047619047619,26.9047619047619,-21.507936507936506,-27.22222222222222,-10.873015873015872,-0.7142857142857142,-3.571428571428571,38.17460317460317,-2.7777777777777777,1.349206349206349,-325.0,-325.0,-325.0,-325.0,-325.0,-321.8253968253968
-57.857142857142854,-24.206349206349206,-54.52380952380952,-0.873015873015873,-50.87301587301587,-0.23809523809523808,-11.984126984126984,-4.2063492063492065,-17.857142857142858,-1.6666666666666665,-37.22222222222222,-12.46031746031746,-17.063492063492063,14.523809523809524,-6.111111111111111,8.174603174603174,-3.095238095238095,1.6666666666666665,-325.0,-325.0,-325.0,-325.0,-325.0,-7.5396825396825395
-57.857142857142854,-24.206349206349206,-54.52380952380952,-0.873015873015873,-50.87301587301587,-0.23809523809523808,-11.984126984126984,-4.2063492063492065,-17.857142857142858,-1.6666666666666665,-37.22222222222222,-12.46031746031746,-17.063492063492063,14.523809523809524,-6.111111111111111,8.174603174603174,-3.095238095238095,1.6666666666666665,-325.0,-325.0,-325.0,-325.0,-325.0,-7.5396825396825395
-45.63492063492063,-12.46031746031746,-30.87301587301587,27.539682539682538,-16.904761904761905,23.095238095238095,13.73015873015873,-3.4126984126984126,-3.571428571428571,-0.7142857142857142,-18.174603174603174,-12.142857142857142,-4.2063492063492065,-9.285714285714285,7.698412698412698,0.23809523809523808,-2.46031746031746,1.349206349206349,-325.0,-325.0,-325.0,-325.0,-325.0,-7.5396825396825395
-45.63492063492063,-12.46031746031746,-30.87301587301587,27.539682539682538,-16.904761904761905,23.095238095238095,13.73015873015873,-3.4126984126984126,-3.571428571428571,-0.7142857142857142,-18.174603174603174,-12.142857142857142,-4.2063492063492065,-9.285714285714285,7.698412698412698,0.23809523809523808,-2.46031746031746,1.349206349206349,-325.0,-325.0,-325.0,-325.0,-325.0,-7.5396825396825395
-39.92063492063492,3.571428571428571,-20.71428571428571,39.92063492063492,2.7777777777777777,40.079365079365076,18.015873015873016,12.777777777777777,-5.317460317460317,0.07936507936507936,-19.92063492063492,-1.6666666666666665,-5.0,-6.428571428571428,-3.4126984126984126,1.6666666666666665,-3.253968253968254,1.984126984126984,-325.0,-325.0,-325.0,-325.0,-325.0,-7.5396825396825395
-39.92063492063492,3.571428571428571,-20.71428571428571,39.92063492063492,2.7777777777777777,40.079365079365076,18.015873015873016,12.777777777777777,-5.317460317460317,0.07936507936507936,-19.92063492063492,-1.6666666666666665,-5.0,-6.428571428571428,-3.4126984126984126,1.6666666666666665,-3.253968253968254,1.984126984126984,-325.0,-325.0,-325.0,-325.0,-325.0,-7.5396825396825395
-38.01587301587301,18.174603174603174,-38.49206349206349,30.555555555555554,-15.95238095238095,42.14285714285714,-0.5555555555555556,18.333333333333332,-14.365079365079364,2.9365079365079363,-27.698412698412696,14.84126984126984,-23.253968253968253,-7.857142857142857,-25.634920634920633,4.523809523809524,-3.095238095238095,1.8253968253968254,-325.0,-325.0,-325.0,-325.0,-325.0,-7.5396825396825395
-38.01587301587301,18.174603174603174,-38.49206349206349,30.555555555555554,-15.95238095238095,42.14285714285714,-0.5555555555555556,18.333333333333332,-14.365079365079364,2.9365079365079363,-27.698412698412696,14.84126984126984,-23.253968253968253,-7.857142857142857,-25.634920634920633,4.523809523809524,-3.095238095238095,1.8253968253968254,-325.0,-325.0,-325.0,-325.0,-325.0,-7.5396825396825395
5.0,35.79365079365079,-11.349206349206348,33.57142857142857,-5.7936507936507935,40.238095238095234,-13.253968253968253,8.174603174603174,-11.507936507936508,0.23809523809523808,-6.111111111111111,8.492063492063492,-5.634920634920634,-1.984126984126984,-26.26984126984127,12.619047619047619,-3.73015873015873,1.1904761904761905,-325.0,-325.0,-325.0,-325.0,-325.0,-7.5396825396825395
5.0,35.79365079365079,-11.349206349206348,33.57142857142857,-5.7936507936507935,40.238095238095234,-13.253968253968253,8.174603174603174,-11.507936507936508,0.23809523809523808,-6.111111111111111,8.492063492063492,-5.634920634920634,-1.984126984126984,-26.26984126984127,12.619047619047619,-3.73015873015873,1.1904761904761905,-325.0,-325.0,-325.0,-325.0,-325.0,-7.5396825396825395
19.285714285714285,32.3015873015873,-13.888888888888888,9.603174603174603,-15.158730158730158,15.95238095238095,-35.79365079365079,-8.492063492063492,-26.587301587301585,-6.111111111111111,-1.349206349206349,13.095238095238095,-13.412698412698411,-1.984126984126984,-31.98412698412698,9.285714285714285,-3.253968253968254,1.507936507936508,-325.0,-325.0,-325.0,-325.0,-325.0,-321.8253968253968
19.285714285714285,32.3015873015873,-13.888888888888888,9.603174603174603,-15.158730158730158,15.95238095238095,-35.79365079365079,-8.492063492063492,-26.587301587301585,-6.111111111111111,-1.349206349206349,13.095238095238095,-13.412698412698411,-1.984126984126984,-31.98412698412698,9.285714285714285,-3.253968253968254,1.507936507936508,-325.0,-325.0,-325.0,-325.0,-325.0,-321.8253968253968
18.96825396825397,43.73015873015873,-22.777777777777775,23.41269841269841,-25.79365079365079,30.71428571428571,-38.01587301587301,9.761904761904761,-25.79365079365079,8.174603174603174,-8.492063492063492,23.88888888888889,-19.285714285714285,1.507936507936508,-32.14285714285714,20.07936507936508,-3.73015873015873,1.0317460317460316,-325.0,-325.0,-325.0,-325.0,-325.0,-321.8253968253968
18.96825396825397,43.73015873015873,-22.777777777777775,23.41269841269841,-25.79365079365079,30.71428571428571,-38.01587301587301,9.761904761904761,-25.79365079365079,8.174603174603174,-8.492063492063492,23.88888888888889,-19.285714285714285,1.507936507936508,-32.14285714285714,20.07936507936508,-3.73015873015873,1.0317460317460316,-325.0,-325.0,-325.0,-325.0,-325.0,-321.8253968253968
24.523809523809522,41.03174603174603,-8.492063492063492,19.444444444444443,-7.222222222222221,34.682539682539684,-3.253968253968254,24.84126984126984,0.873015873015873,22.46031746031746,1.6666666666666665,19.76190476190476,-7.857142857142857,-4.682539682539682,-0.3968253968253968,17.539682539682538,-3.571428571428571,1.507936507936508,-325.0,-325.0,-325.0,-325.0,-325.0,-321.8253968253968
24.523809523809522,41.03174603174603,-8.492063492063492,19.444444444444443,-7.222222222222221,34.682539682539684,-3.253968253968254,24.84126984126984,0.873015873015873,22.46031746031746,1.6666666666666665,19.76190476190476,-7.857142857142857,-4.682539682539682,-0.3968253968253968,17.539682539682538,-3.571428571428571,1.507936507936508,-325.0,-325.0,-325.0,-325.0,-325.0,-321.8253968253968
10.714285714285714,34.047619047619044,-9.603174603174603,24.047619047619047,-7.5396825396825395,40.079365079365076,9.920634920634921,40.079365079365076,15.158730158730158,48.80952380952381,-1.8253968253968254,4.682539682539682,-5.317460317460317,-18.65079365079365,27.857142857142854,35.15873015873016,-4.0476190476190474,1.6666666666666665,-325.0,-325.0,-325.0,-325.0,-325.0,-321.8253968253968
10.714285714285714,34.047619047619044,-9.603174603174603,24.047619047619047,-7.5396825396825395,40.079365079365076,9.920634920634921,40.079365079365076,15.158730158730158,48.80952380952381,-1.8253968253968254,4.682539682539682,-5.317460317460317,-18.65079365079365,27.857142857142854,35.15873015873016,-4.0476190476190474,1.6666666666666665,-325.0,-325.0,-325.0,-325.0,-325.0,-321.8253968253968
-10.555555555555555,16.746031746031743,-23.88888888888889,11.349206349206348,-23.253968253968253,25.79365079365079,5.952380952380952,37.06349206349206,11.507936507936508,62.460317460317455,-8.015873015873016,6.587301587301587,-8.65079365079365,-18.333333333333332,22.619047619047617,35.317460317460316,-3.253968253968254,1.6666666666666665,-325.0,-325.0,-325.0,-325.0,-325.0,-321.8253968253968
-10.555555555555555,16.746031746031743,-23.88888888888889,11.349206349206348,-23.253968253968253,25.79365079365079,5.952380952380952,37.06349206349206,11.507936507936508,62.460317460317455,-8.015873015873016,6.587301587301587,-8.65079365079365,-18.333333333333332,22.619047619047617,35.317460317460316,-3.253968253968254,1.6666666666666665,-325.0,-325.0,-325.0,-325.0,-325.0,-321.8253968253968
-31.03174603174603,3.253968253968254,-33.57142857142857,5.317460317460317,-38.65079365079365,20.396825396825395,4.523809523809524,35.79365079365079,5.7936507936507935,55.79365079365079,-20.238095238095237,-13.571428571428571,-1.349206349206349,-38.17460317460317,22.619047619047617,34.047619047619044,-4.2063492063492065,1.8253968253968254,-325.0,-325.0,-325.0,-325.0,-325.0,-7.5396825396825395
-31.03174603174603,3.253968253968254,-33.57142857142857,5.317460317460317,-38.65079365079365,20.396825396825395,4.523809523809524,35.79365079365079,5.7936507936507935,55.79365079365079,-20.238095238095237,-13.571428571428571,-1.349206349206349,-38.17460317460317,22.619047619047617,34.047619047619044,-4.2063492063492065,1.8253968253968254,-325.0,-325.0,-325.0,-325.0,-325.0,-7.5396825396825395
-30.87301587301587,-3.095238095238095,-27.22222222222222,2.619047619047619,-35.15873015873016,18.015873015873016,0.07936507936507936,32.3015873015873,-5.317460317460317,41.03174603174603,-22.46031746031746,-5.158730158730158,-6.428571428571428,-22.777777777777775,-2.619047619047619,27.698412698412696,-3.4126984126984126,1.507936507936508,-325.0,-325.0,-325.0,-325.0,-325.0,-7.5396825396825395
-30.87301587301587,-3.095238095238095,-27.22222222222222,2.619047619047619,-35.15873015873016,18.015873015873016,0.07936507936507936,32.3015873015873,-5.317460317460317,41.03174603174603,-22.46031746031746,-5.158730158730158,-6.428571428571428,-22.777777777777775,-2.619047619047619,27.698412698412696,-3.4126984126984126,1.507936507936508,-325.0,-325.0,-325.0,-325.0,-325.0,-7.5396825396825395
-17.539682539682538,-1.0317460317460316,-8.015873015873016,15.317460317460316,-25.476190476190474,23.730158730158728,-1.0317460317460316,31.349206349206348,4.2063492063492065,32.3015873015873,-10.238095238095237,11.031746031746032,-6.746031746031746,-10.396825396825395,-9.761904761904761,28.015873015873016,-3.571428571428571,1.507936507936508,-325.0,-325.0,-325.0,-325.0,-325.0,-7.5396825396825395
-17.539682539682538,-1.0317460317460316,-8.015873015873016,15.317460317460316,-25.476190476190474,23.730158730158728,-1.0317460317460316,31.349206349206348,4.2063492063492065,32.3015873015873,-10.238095238095237,11.031746031746032,-6.746031746031746,-10.396825396825395,-9.761904761904761,28.015873015873016,-3.571428571428571,1.507936507936508,-325.0,-325.0,-325.0,-325.0,-325.0,-7.5396825396825395
-11.031746031746032,-1.507936507936508,-7.222222222222221,10.714285714285714,-29.285714285714285,17.698412698412696,-19.92063492063492,21.666666666666664,-5.7936507936507935,13.73015873015873,-9.920634920634921,22.142857142857142,-19.6031746031746,8.968253968253968,-21.19047619047619,19.76190476190476,-4.0476190476190474,1.507936507936508,-325.0,-325.0,-325.0,-325.0,-325.0,-7.5396825396825395
-11.031746031746032,-1.507936507936508,-7.222222222222221,10.714285714285714,-29.285714285714285,17.698412698412696,-19.92063492063492,21.666666666666664,-5.7936507936507935,13.73015873015873,-9.920634920634921,22.142857142857142,-19.6031746031746,8.968253968253968,-21.19047619047619,19.76190476190476,-4.0476190476190474,1.507936507936508,-325.0,-325.0,-325.0,-325.0,-325.0,-7.5396825396825395
-0.23809523809523808,5.317460317460317,-3.253968253968254,15.793650793650793,-35.0,18.333333333333332,-44.36507936507936,2.7777777777777777,-22.936507936507937,-11.984126984126984,-0.7142857142857142,28.809523809523807,-25.634920634920633,22.777777777777775,-41.666666666666664,8.174603174603174,-4.0476190476190474,1.507936507936508,-325.0,-325.0,-325.0,-325.0,-325.0,-7.5396825396825395
-0.23809523809523808,5.317460317460317,-3.253968253968254,15.793650793650793,-35.0,18.333333333333332,-44.36507936507936,2.7777777777777777,-22.936507936507937,-11.984126984126984,-0.7142857142857142,28.809523809523807,-25.634920634920633,22.777777777777775,-41.666666666666664,8.174603174603174,-4.0476190476190474,1.507936507936508,-325.0,-325.0,-325.0,-325.0,-325.0,-7.5396825396825395
6.904761904761904,12.142857142857142,-3.571428571428571,24.365079365079364,-22.46031746031746,19.444444444444443,-44.68253968253968,-7.698412698412698,-25.634920634920633,-22.3015873015873,13.73015873015873,48.650793650793645,-21.825396825396822,30.71428571428571,-24.84126984126984,-0.7142857142857142,-3.73015873015873,1.349206349206349,-325.0,-325.0,-325.0,-325.0,-325.0,-321.8253968253968
6.904761904761904,12.142857142857142,-3.571428571428571,24.365079365079364,-22.46031746031746,19.444444444444443,-44.68253968253968,-7.698412698412698,-25.634920634920633,-22.3015873015873,13.73015873015873,48.650793650793645,-21.825396825396822,30.71428571428571,-24.84126984126984,-0.7142857142857142,-3.73015873015873,1.349206349206349,-325.0,-325.0,-325.0,-325.0,-325.0,-321.8253968253968
19.126984126984127,13.571428571428571,10.714285714285714,27.38095238095238,-2.619047619047619,25.317460317460316,-24.84126984126984,-0.23809523809523808,-6.904761904761904,-6.26984126984127,27.698412698412696,56.42857142857142,-14.047619047619047,31.666666666666664,-27.857142857142854,-3.888888888888889,-4.365079365079365,1.349206349206349,-325.0,-325.0,-325.0,-325.0,-325.0,-321.8253968253968
19.126984126984127,13.571428571428571,10.714285714285714,27.38095238095238,-2.619047619047619,25.317460317460316,-24.84126984126984,-0.23809523809523808,-6.904761904761904,-6.26984126984127,27.698412698412696,56.42857142857142,-14.047619047619047,31.666666666666664,-27.857142857142854,-3.888888888888889,-4.365079365079365,1.349206349206349,-325.0,-325.0,-325.0,-325.0,-325.0,-321.8253968253968
-5.0,1.1904761904761905,-1.8253968253968254,24.365079365079364,-8.333333333333332,28.96825396825397,-12.46031746031746,10.396825396825395,-7.698412698412698,9.285714285714285,9.285714285714285,43.25396825396825,-21.19047619047619,14.365079365079364,-25.158730158730158,2.46031746031746,-3.571428571428571,1.1904761904761905,-325.0,-325.0,-325.0,-325.0,-325.0,-321.8253968253968
-5.0,1.1904761904761905,-1.8253968253968254,24.365079365079364,-8.333333333333332,28.96825396825397,-12.46031746031746,10.396825396825395,-7.698412698412698,9.285714285714285,9.285714285714285,43.25396825396825,-21.19047619047619,14.365079365079364,-25.158730158730158,2.46031746031746,-3.571428571428571,1.1904761904761905,-325.0,-325.0,-325.0,-325.0,-325.0,-321.8253968253968
-38.17460317460317,-17.857142857142858,-33.095238095238095,1.8253968253968254,-35.15873015873016,4.841269841269841,-20.71428571428571,-6.904761904761904,-15.476190476190474,5.7936507936507935,-7.857142857142857,30.238095238095237,-11.984126984126984,18.174603174603174,-20.71428571428571,-8.65079365079365,-3.888888888888889,1.507936507936508,-325.0,-325.0,-325.0,-325.0,-325.0,-321.8253968253968
-38.17460317460317,-17.857142857142858,-33.095238095238095,1.8253968253968254,-35.15873015873016,4.841269841269841,-20.71428571428571,-6.904761904761904,-15.476190476190474,5.7936507936507935,-7.857142857142857,30.238095238095237,-11.984126984126984,18.174603174603174,-20.71428571428571,-8.65079365079365,-3.888888888888889,1.507936507936508,-325.0,-325.0,-325.0,-325.0,-325.0,-321.8253968253968
-62.77777777777777,-22.936507936507937,-51.19047619047619,2.619047619047619,-42.93650793650794,4.2063492063492065,-24.84126984126984,-9.920634920634921,-21.507936507936506,9.126984126984127,-21.03174603174603,25.79365079365079,-9.444444444444445,2.3015873015873014,-27.38095238095238,-6.587301587301587,-3.73015873015873,1.507936507936508,-325.0,-325.0,-325.0,-325.0,-325.0,-321.8253968253968
-62.77777777777777,-22.936507936507937,-51.19047619047619,2.619047619047619,-42.93650793650794,4.2063492063492065,-24.84126984126984,-9.920634920634921,-21.507936507936506,9.126984126984127,-21.03174603174603,25.79365079365079,-9.444444444444445,2.3015873015873014,-27.38095238095238,-6.587301587301587,-3.73015873015873,1.507936507936508,-325.0,-325.0,-325.0,-325.0,-325.0,-321.8253968253968
-55.15873015873016,-29.6031746031746,-42.460317460317455,1.6666666666666665,-28.96825396825397,4.0476190476190474,-15.317460317460316,-18.65079365079365,-19.76190476190476,-12.46031746031746,-18.96825396825397,26.746031746031743,-16.11111111111111,9.444444444444445,-16.11111111111111,-11.666666666666666,-3.888888888888889,1.349206349206349,-325.0,-325.0,-325.0,-325.0,-325.0,-7.5396825396825395
-55.15873015873016,-29.6031746031746,-42.460317460317455,1.6666666666666665,-28.96825396825397,4.0476190476190474,-15.317460317460316,-18.65079365079365,-19.76190476190476,-12.46031746031746,-18.96825396825397,26.746031746031743,-16.11111111111111,9.444444444444445,-16.11111111111111,-11.666666666666666,-3.888888888888889,1.349206349206349,-325.0,-325.0,-325.0,-325.0,-325.0,-7.5396825396825395
-40.714285714285715,-16.587301587301585,-21.03174603174603,18.015873015873016,-9.920634920634921,24.365079365079364,1.984126984126984,0.7142857142857142,-3.571428571428571,-0.07936507936507936,-11.666666666666666,35.95238095238095,-15.158730158730158,15.0,-14.047619047619047,3.73015873015873,-3.571428571428571,0.873015873015873,-325.0,-325.0,-325.0,-325.0,-325.0,-7.5396825396825395
-40.714285714285715,-16.587301587301585,-21.03174603174603,18.015873015873016,-9.920634920634921,24.365079365079364,1.984126984126984,0.7142857142857142,-3.571428571428571,-0.07936507936507936,-11.666666666666666,35.95238095238095,-15.158730158730158,15.0,-14.047619047619047,3.73015873015873,-3.571428571428571,0.873015873015873,-325.0,-325.0,-325.0,-325.0,-325.0,-7.5396825396825395
-38.96825396825397,-22.3015873015873,-12.142857142857142,22.936507936507937,-3.73015873015873,28.333333333333332,22.3015873015873,11.825396825396824,12.936507936507935,10.714285714285714,-9.920634920634921,28.174603174603174,-14.84126984126984,7.222222222222221,-0.3968253968253968,16.904761904761905,-3.4126984126984126,1.0317460317460316,-325.0,-325.0,-325.0,-325.0,-325.0,-7.5396825396825395
-38.96825396825397,-22.3015873015873,-12.142857142857142,22.936507936507937,-3.73015873015873,28.333333333333332,22.3015873015873,11.825396825396824,12.936507936507935,10.714285714285714,-9.920634920634921,28.174603174603174,-14.84126984126984,7.222222222222221,-0.3968253968253968,16.904761904761905,-3.4126984126984126,1.0317460317460316,-325.0,-325.0,-325.0,-325.0,-325.0,-7.5396825396825395
-58.650793650793645,-39.285714285714285,-38.49206349206349,-15.95238095238095,-30.555555555555554,-7.063492063492063,-8.333333333333332,-5.0,-12.46031746031746,8.809523809523808,-22.3015873015873,3.888888888888889,-18.174603174603174,-5.317460317460317,-15.158730158730158,11.825396825396824,-3.095238095238095,1.1904761904761905,-325.0,-325.0,-325.0,-325.0,-325.0,-7.5396825396825395
-58.650793650793645,-39.285714285714285,-38.49206349206349,-15.95238095238095,-30.555555555555554,-7.063492063492063,-8.333333333333332,-5.0,-12.46031746031746,8.809523809523808,-22.3015873015873,3.888888888888889,-18.174603174603174,-5.317460317460317,-15.158730158730158,11.825396825396824,-3.095238095238095,1.1904761904761905,-325.0,-325.0,-325.0,-325.0,-325.0,-7.5396825396825395
-51.507936507936506,-42.460317460317455,-40.39682539682539,-36.269841269841265,-35.63492063492063,-27.063492063492063,-29.920634920634917,-23.88888888888889,-16.26984126984127,3.73015873015873,-13.888888888888888,-8.333333333333332,-9.603174603174603,-16.746031746031743,-22.619047619047617,-0.7142857142857142,-3.888888888888889,1.0317460317460316,-325.0,-325.0,-325.0,-325.0,-325.0,-7.5396825396825395
-51.507936507936506,-42.460317460317455,-40.39682539682539,-36.269841269841265,-35.63492063492063,-27.063492063492063,-29.920634920634917,-23.88888888888889,-16.26984126984127,3.73015873015873,-13.888888888888888,-8.333333333333332,-9.603174603174603,-16.746031746031743,-22.619047619047617,-0.7142857142857142,-3.888888888888889,1.0317460317460316,-325.0,-325.0,-325.0,-325.0,-325.0,-7.5396825396825395
-65.47619047619047,-36.42857142857142,-48.33333333333333,-30.396825396825395,-47.857142857142854,-12.3015873015873,-48.80952380952381,-16.904761904761905,-31.507936507936506,13.095238095238095,-21.03174603174603,-7.222222222222221,-7.063492063492063,-24.365079365079364,-15.95238095238095,-1.507936507936508,-3.571428571428571,1.349206349206349,-325.0,-325.0,-325.0,-325.0,-325.0,-321.8253968253968
-65.47619047619047,-36.42857142857142,-48.33333333333333,-30.396825396825395,-47.857142857142854,-12.3015873015873,-48.80952380952381,-16.904761904761905,-31.507936507936506,13.095238095238095,-21.03174603174603,-7.222222222222221,-7.063492063492063,-24.365079365079364,-15.95238095238095,-1.507936507936508,-3.571428571428571,1.349206349206349,-325.0,-325.0,-325.0,-325.0,-325.0,-321.8253968253968
-86.9047619047619,-46.58730158730158,-60.71428571428571,-44.68253968253968,-63.41269841269841,-18.015873015873016,-58.49206349206349,-20.396825396825395,-43.57142857142857,4.523809523809524,-32.14285714285714,-10.714285714285714,-18.80952380952381,-20.238095238095237,-32.77777777777778,-10.555555555555555,-3.571428571428571,1.507936507936508,-325.0,-325.0,-325.0,-325.0,-325.0,-321.8253968253968
-86.9047619047619,-46.58730158730158,-60.71428571428571,-44.68253968253968,-63.41269841269841,-18.015873015873016,-58.49206349206349,-20.396825396825395,-43.57142857142857,4.523809523809524,-32.14285714285714,-10.714285714285714,-18.80952380952381,-20.238095238095237,-32.77777777777778,-10.555555555555555,-3.571428571428571,1.507936507936508,-325.0,-325.0,-325.0,-325.0,-325.0,-321.8253968253968
-86.42857142857143,-48.01587301587301,-49.44444444444444,-42.77777777777778,-43.25396825396825,-18.49206349206349,-36.58730158730159,-12.46031746031746,-25.0,2.3015873015873014,-20.555555555555554,-7.698412698412698,-4.0476190476190474,-13.095238095238095,-21.349206349206348,-8.968253968253968,-4.0476190476190474,1.349206349206349,-325.0,-325.0,-325.0,-325.0,-325.0,-321.8253968253968
-86.42857142857143,-48.01587301587301,-49.44444444444444,-42.77777777777778,-43.25396825396825,-18.49206349206349,-36.58730158730159,-12.46031746031746,-25.0,2.3015873015873014,-20.555555555555554,-7.698412698412698,-4.0476190476190474,-13.095238095238095,-21.349206349206348,-8.968253968253968,-4.0476190476190474,1.349206349206349,-325.0,-325.0,-325.0,-325.0,-325.0,-321.8253968253968
-101.82539682539682,-59.92063492063492,-46.74603174603175,-48.17460317460317,-26.9047619047619,-19.285714285714285,-11.984126984126984,-6.111111111111111,-14.365079365079364,-2.7777777777777777,-25.476190476190474,-8.492063492063492,3.571428571428571,-4.682539682539682,-18.333333333333332,-5.476190476190476,-5.0,0.873015873015873,-325.0,-325.0,-325.0,-325.0,-325.0,-321.8253968253968
-101.82539682539682,-59.92063492063492,-46.74603174603175,-48.17460317460317,-26.9047619047619,-19.285714285714285,-11.984126984126984,-6.111111111111111,-14.365079365079364,-2.7777777777777777,-25.476190476190474,-8.492063492063492,3.571428571428571,-4.682539682539682,-18.333333333333332,-5.476190476190476,-5.0,0.873015873015873,-325.0,-325.0,-325.0,-325.0,-325.0,-321.8253968253968
-118.01587301587301,-80.55555555555556,-53.73015873015873,-52.61904761904761,-31.349206349206348,-21.03174603174603,0.873015873015873,-10.238095238095237,-9.920634920634921,-8.174603174603174,-47.53968253968254,-3.095238095238095,-16.428571428571427,7.3809523809523805,7.857142857142857,-4.0476190476190474,-4.0476190476190474,0.5555555555555556,-325.0,-325.0,-325.0,-325.0,-325.0,-321.8253968253968
-118.01587301587301,-80.55555555555556,-53.73015873015873,-52.61904761904761,-31.349206349206348,-21.03174603174603,0.873015873015873,-10.238095238095237,-9.920634920634921,-8.174603174603174,-47.53968253968254,-3.095238095238095,-16.428571428571427,7.3809523809523805,7.857142857142857,-4.0476190476190474,-4.0476190476190474,0.5555555555555556,-325.0,-325.0,-325.0,-325.0,-325.0,-321.8253968253968
-105.95238095238095,-86.1111111111111,-53.57142857142857,-53.25396825396825,-43.41269841269841,-30.71428571428571,-22.3015873015873,-23.095238095238095,-21.507936507936506,-20.555555555555554,-44.36507936507936,-1.1904761904761905,-26.587301587301585,9.603174603174603,-9.920634920634921,-7.698412698412698,-4.2063492063492065,1.0317460317460316,-325.0,-325.0,-325.0,-325.0,-325.0,-7.5396825396825395
-105.95238095238095,-86.1111111111111,-53.57142857142857,-53.25396825396825,-43.41269841269841,-30.71428571428571,-22.3015873015873,-23.095238095238095,-21.507936507936506,-20.555555555555554,-44.36507936507936,-1.1904761904761905,-26.587301587301585,9.603174603174603,-9.920634920634921,-7.698412698412698,-4.2063492063492065,1.0317460317460316,-325.0,-325.0,-325.0,-325.0,-325.0,-7.5396825396825395
-65.79365079365078,-67.53968253968253,-22.619047619047617,-31.03174603174603,-26.11111111111111,-23.095238095238095,-35.95238095238095,-23.730158730158728,-27.22222222222222,-29.126984126984127,-17.857142857142858,8.015873015873016,-27.857142857142854,14.047619047619047,-28.809523809523807,-9.603174603174603,-4.682539682539682,0.873015873015873,-325.0,-325.0,-325.0,-325.0,-325.0,-7.5396825396825395
-65.79365079365078,-67.53968253968253,-22.619047619047617,-31.03174603174603,-26.11111111111111,-23.095238095238095,-35.95238095238095,-23.730158730158728,-27.22222222222222,-29.126984126984127,-17.857142857142858,8.015873015873016,-27.857142857142854,14.047619047619047,-28.809523809523807,-9.603174603174603,-4.682539682539682,0.873015873015873,-325.0,-325.0,-325.0,-325.0,-325.0,-7.5396825396825395
-28.65079365079365,-40.238095238095234,3.571428571428571,-19.76190476190476,-5.7936507936507935,-18.174603174603174,-18.174603174603174,-17.22222222222222,-11.031746031746032,-26.746031746031743,-1.507936507936508,16.26984126984127,-26.428571428571427,15.158730158730158,-30.396825396825395,-16.746031746031743,-4.682539682539682,0.5555555555555556,-325.0,-325.0,-325.0,-325.0,-325.0,-7.5396825396825395
-28.65079365079365,-40.238095238095234,3.571428571428571,-19.76190476190476,-5.7936507936507935,-18.174603174603174,-18.174603174603174,-17.22222222222222,-11.031746031746032,-26.746031746031743,-1.507936507936508,16.26984126984127,-26.428571428571427,15.158730158730158,-30.396825396825395,-16.746031746031743,-4.682539682539682,0.5555555555555556,-325.0,-325.0,-325.0,-325.0,-325.0,-7.5396825396825395
6.746031746031746,-14.523809523809524,23.095238095238095,-3.571428571428571,8.333333333333332,-7.3809523809523805,2.142857142857143,-6.111111111111111,4.841269841269841,-5.476190476190476,18.49206349206349,19.6031746031746,-2.619047619047619,1.984126984126984,-4.0476190476190474,-10.238095238095237,-4.523809523809524,0.873015873015873,-325.0,-325.0,-325.0,-325.0,-325.0,-7.5396825396825395
6.746031746031746,-14.523809523809524,23.095238095238095,-3.571428571428571,8.333333333333332,-7.3809523809523805,2.142857142857143,-6.111111111111111,4.841269841269841,-5.476190476190476,18.49206349206349,19.6031746031746,-2.619047619047619,1.984126984126984,-4.0476190476190474,-10.238095238095237,-4.523809523809524,0.873015873015873,-325.0,-325.0,-325.0,-325.0,-325.0,-7.5396825396825395
6.428571428571428,-10.238095238095237,13.095238095238095,-4.682539682539682,9.444444444444445,-2.3015873015873014,14.682539682539682,7.063492063492063,17.698412698412696,15.95238095238095,19.444444444444443,11.507936507936508,9.444444444444445,-1.984126984126984,20.07936507936508,-3.571428571428571,-4.2063492063492065,1.1904761904761905,-325.0,-325.0,-325.0,-325.0,-325.0,-7.5396825396825395
6.428571428571428,-10.238095238095237,13.095238095238095,-4.682539682539682,9.444444444444445,-2.3015873015873014,14.682539682539682,7.063492063492063,17.698412698412696,15.95238095238095,19.444444444444443,11.507936507936508,9.444444444444445,-1.984126984126984,20.07936507936508,-3.571428571428571,-4.2063492063492065,1.1904761904761905,-325.0,-325.0,-325.0,-325.0,-325.0,-7.5396825396825395
-47.698412698412696,-10.238095238095237,-28.96825396825397,-5.158730158730158,-20.07936507936508,3.73015873015873,-6.587301587301587,21.349206349206348,-15.158730158730158,28.015873015873016,-24.68253968253968,9.603174603174603,-3.4126984126984126,-5.158730158730158,6.904761904761904,4.365079365079365,-3.888888888888889,1.0317460317460316,-325.0,-325.0,-325.0,-325.0,-325.0,-321.8253968253968
-47.698412698412696,-10.238095238095237,-28.96825396825397,-5.158730158730158,-20.07936507936508,3.73015873015873,-6.587301587301587,21.349206349206348,-15.158730158730158,28.015873015873016,-24.68253968253968,9.603174603174603,-3.4126984126984126,-5.158730158730158,6.904761904761904,4.365079365079365,-3.888888888888889,1.0317460317460316,-325.0,-325.0,-325.0,-325.0,-325.0,-321.8253968253968
-45.476190476190474,-18.65079365079365,-16.587301587301585,-6.904761904761904,2.9365079365079363,11.507936507936508,24.206349206349206,24.206349206349206,8.015873015873016,23.730158730158728,-24.047619047619047,4.682539682539682,8.968253968253968,-2.46031746031746,30.71428571428571,9.444444444444445,-3.73015873015873,1.0317460317460316,-325.0,-325.0,-325.0,-325.0,-325.0,-321.8253968253968
-45.476190476190474,-18.65079365079365,-16.587301587301585,-6.904761904761904,2.9365079365079363,11.507936507936508,24.206349206349206,24.206349206349206,8.015873015873016,23.730158730158728,-24.047619047619047,4.682539682539682,8.968253968253968,-2.46031746031746,30.71428571428571,9.444444444444445,-3.73015873015873,1.0317460317460316,-325.0,-325.0,-325.0,-325.0,-325.0,-321.8253968253968
-46.269841269841265,-24.206349206349206,-4.523809523809524,-8.809523809523808,18.96825396825397,15.0,49.12698412698413,25.0,32.14285714285714,21.984126984126984,-22.3015873015873,2.7777777777777777,19.92063492063492,3.888888888888889,53.73015873015873,16.11111111111111,-4.0476190476190474,1.0317460317460316,-325.0,-325.0,-325.0,-325.0,-325.0,-321.8253968253968
-46.269841269841265,-24.206349206349206,-4.523809523809524,-8.809523809523808,18.96825396825397,15.0,49.12698412698413,25.0,32.14285714285714,21.984126984126984,-22.3015873015873,2.7777777777777777,19.92063492063492,3.888888888888889,53.73015873015873,16.11111111111111,-4.0476190476190474,1.0317460317460316,-325.0,-325.0,-325.0,-325.0,-325.0,-321.8253968253968
-55.79365079365079,-16.746031746031743,-13.253968253968253,1.349206349206349,4.841269841269841,15.158730158730158,30.07936507936508,22.936507936507937,13.253968253968253,8.809523809523808,-30.555555555555554,17.063492063492063,18.49206349206349,15.0,35.63492063492063,19.285714285714285,-3.571428571428571,1.1904761904761905,-325.0,-325.0,-325.0,-325.0,-325.0,-321.8253968253968
-55.79365079365079,-16.746031746031743,-13.253968253968253,1.349206349206349,4.841269841269841,15.158730158730158,30.07936507936508,22.936507936507937,13.253968253968253,8.809523809523808,-30.555555555555554,17.063492063492063,18.49206349206349,15.0,35.63492063492063,19.285714285714285,-3.571428571428571,1.1904761904761905,-325.0,-325.0,-325.0,-325.0,-325.0,-321.8253968253968
-45.0,-5.158730158730158,-9.920634920634921,11.825396825396824,2.9365079365079363,19.285714285714285,12.142857142857142,5.0,-5.0,-11.349206349206348,-22.936507936507937,23.730158730158728,21.349206349206348,15.158730158730158,11.507936507936508,-2.7777777777777777,-3.888888888888889,0.873015873015873,-325.0,-325.0,-325.0,-325.0,-325.0,-321.8253968253968
-45.0,-5.158730158730158,-9.920634920634921,11.825396825396824,2.9365079365079363,19.285714285714285,12.142857142857142,5.0,-5.0,-11.349206349206348,-22.936507936507937,23.730158730158728,21.349206349206348,15.158730158730158,11.507936507936508,-2.7777777777777777,-3.888888888888889,0.873015873015873,-325.0,-325.0,-325.0,-325.0,-325.0,-321.8253968253968
-13.095238095238095,12.936507936507935,8.015873015873016,9.761904761904761,18.333333333333332,7.222222222222221,14.365079365079364,-15.158730158730158,2.142857142857143,-15.95238095238095,5.476190476190476,30.238095238095237,39.12698412698413,13.73015873015873,25.0,-17.063492063492063,-4.2063492063492065,1.1904761904761905,-325.0,-325.0,-325.0,-325.0,-325.0,-7.5396825396825395
-13.095238095238095,12.936507936507935,8.015873015873016,9.761904761904761,18.333333333333332,7.222222222222221,14.365079365079364,-15.158730158730158,2.142857142857143,-15.95238095238095,5.476190476190476,30.238095238095237,39.12698412698413,13.73015873015873,25.0,-17.063492063492063,-4.2063492063492065,1.1904761904761905,-325.0,-325.0,-325.0,-325.0,-325.0,-7.5396825396825395
-4.2063492063492065,14.365079365079364,6.428571428571428,1.984126984126984,10.873015873015872,1.507936507936508,-3.4126984126984126,-20.07936507936508,-10.873015873015872,-21.03174603174603,14.047619047619047,23.095238095238095,34.36507936507936,12.3015873015873,0.5555555555555556,-23.88888888888889,-3.888888888888889,1.349206349206349,-325.0,-325.0,-325.0,-325.0,-325.0,-7.5396825396825395
-4.2063492063492065,14.365079365079364,6.428571428571428,1.984126984126984,10.873015873015872,1.507936507936508,-3.4126984126984126,-20.07936507936508,-10.873015873015872,-21.03174603174603,14.047619047619047,23.095238095238095,34.36507936507936,12.3015873015873,0.5555555555555556,-23.88888888888889,-3.888888888888889,1.349206349206349,-325.0,-325.0,-325.0,-325.0,-325.0,-7.5396825396825395
4.2063492063492065,2.7777777777777777,6.26984126984127,-13.73015873015873,15.158730158730158,-11.19047619047619,-0.3968253968253968,-25.952380952380953,-2.9365079365079363,-19.76190476190476,19.285714285714285,7.3809523809523805,42.77777777777778,8.015873015873016,8.174603174603174,-25.952380952380953,-4.0476190476190474,1.6666666666666665,-325.0,-325.0,-325.0,-325.0,-325.0,-7.5396825396825395
4.2063492063492065,2.7777777777777777,6.26984126984127,-13.73015873015873,15.158730158730158,-11.19047619047619,-0.3968253968253968,-25.952380952380953,-2.9365079365079363,-19.76190476190476,19.285714285714285,7.3809523809523805,42.77777777777778,8.015873015873016,8.174603174603174,-25.952380952380953,-4.0476190476190474,1.6666666666666665,-325.0,-325.0,-325.0,-325.0,-325.0,-7.5396825396825395
11.031746031746032,-14.047619047619047,19.126984126984127,-25.634920634920633,32.93650793650794,-18.65079365079365,24.365079365079364,-18.333333333333332,24.68253968253968,-9.761904761904761,30.07936507936508,-8.492063492063492,60.55555555555555,-6.587301587301587,37.22222222222222,-20.238095238095237,-3.888888888888889,1.6666666666666665,-325.0,-325.0,-325.0,-325.0,-325.0,-7.5396825396825395
11.031746031746032,-14.047619047619047,19.126984126984127,-25.634920634920633,32.93650793650794,-18.65079365079365,24.365079365079364,-18.333333333333332,24.68253968253968,-9.761904761904761,30.07936507936508,-8.492063492063492,60.55555555555555,-6.587301587301587,37.22222222222222,-20.238095238095237,-3.888888888888889,1.6666666666666665,-325.0,-325.0,-325.0,-325.0,-325.0,-7.5396825396825395
-11.984126984126984,-14.206349206349206,4.0476190476190474,-22.3015873015873,22.777777777777775,-15.158730158730158,23.730158730158728,-1.507936507936508,27.22222222222222,6.428571428571428,8.65079365079365,-8.492063492063492,47.38095238095238,-10.396825396825395,42.14285714285714,-8.015873015873016,-4.365079365079365,1.6666666666666665,-325.0,-325.0,-325.0,-325.0,-325.0,-7.5396825396825395
-11.984126984126984,-14.206349206349206,4.0476190476190474,-22.3015873015873,22.777777777777775,-15.158730158730158,23.730158730158728,-1.507936507936508,27.22222222222222,6.428571428571428,8.65079365079365,-8.492063492063492,47.38095238095238,-10.396825396825395,42.14285714285714,-8.015873015873016,-4.365079365079365,1.6666666666666665,-325.0,-325.0,-325.0,-325.0,-325.0,-7.5396825396825395
13.253968253968253,-4.2063492063492065,33.57142857142857,-1.349206349206349,47.53968253968254,9.920634920634921,56.904761904761905,22.619047619047617,61.666666666666664,23.57142857142857,29.920634920634917,7.063492063492063,55.476190476190474,0.23809523809523808,59.44444444444444,11.031746031746032,-3.888888888888889,1.1904761904761905,-325.0,-325.0,-325.0,-325.0,-325.0,-321.8253968253968
13.253968253968253,-4.2063492063492065,33.57142857142857,-1.349206349206349,47.53968253968254,9.920634920634921,56.904761904761905,22.619047619047617,61.666666666666664,23.57142857142857,29.920634920634917,7.063492063492063,55.476190476190474,0.23809523809523808,59.44444444444444,11.031746031746032,-3.888888888888889,1.1904761904761905,-325.0,-325.0,-325.0,-325.0,-325.0,-321.8253968253968
9.444444444444445,2.9365079365079363,37.698412698412696,17.698412698412696,40.714285714285715,28.333333333333332,47.53968253968254,26.9047619047619,48.650793650793645,21.03174603174603,29.6031746031746,13.73015873015873,45.15873015873016,1.984126984126984,51.82539682539682,15.634920634920634,-3.888888888888889,1.1904761904761905,-325.0,-325.0,-325.0,-325.0,-325.0,-321.8253968253968
9.444444444444445,2.9365079365079363,37.698412698412696,17.698412698412696,40.714285714285715,28.333333333333332,47.53968253968254,26.9047619047619,48.650793650793645,21.03174603174603,29.6031746031746,13.73015873015873,45.15873015873016,1.984126984126984,51.82539682539682,15.634920634920634,-3.888888888888889,1.1904761904761905,-325.0,-325.0,-325.0,-325.0,-325.0,-321.8253968253968
25.952380952380953,10.238095238095237,45.63492063492063,23.41269841269841,44.84126984126984,26.587301587301585,49.285714285714285,20.555555555555554,48.33333333333333,9.603174603174603,35.95238095238095,20.873015873015873,45.317460317460316,8.968253968253968,43.41269841269841,2.142857142857143,-3.73015873015873,1.507936507936508,-325.0,-325.0,-325.0,-325.0,-325.0,-321.8253968253968
25.952380952380953,10.238095238095237,45.63492063492063,23.41269841269841,44.84126984126984,26.587301587301585,49.285714285714285,20.555555555555554,48.33333333333333,9.603174603174603,35.95238095238095,20.873015873015873,45.317460317460316,8.968253968253968,43.41269841269841,2.142857142857143,-3.73015873015873,1.507936507936508,-325.0,-325.0,-325.0,-325.0,-325.0,-321.8253968253968
49.44444444444444,14.523809523809524,58.33333333333333,23.57142857142857,49.6031746031746,21.984126984126984,40.87301587301587,6.746031746031746,37.22222222222222,-14.206349206349206,51.98412698412698,28.49206349206349,45.15873015873016,15.0,33.73015873015873,-2.46031746031746,-4.523809523809524,1.1904761904761905,-325.0,-325.0,-325.0,-325.0,-325.0,-321.8253968253968
49.44444444444444,14.523809523809524,58.33333333333333,23.57142857142857,49.6031746031746,21.984126984126984,40.87301587301587,6.746031746031746,37.22222222222222,-14.206349206349206,51.98412698412698,28.49206349206349,45.15873015873016,15.0,33.73015873015873,-2.46031746031746,-4.523809523809524,1.1904761904761905,-325.0,-325.0,-325.0,-325.0,-325.0,-321.8253968253968
61.507936507936506,19.92063492063492,70.55555555555556,21.349206349206348,51.507936507936506,19.285714285714285,32.3015873015873,-8.015873015873016,32.93650793650794,-33.73015873015873,53.41269841269841,38.17460317460317,39.44444444444444,27.539682539682538,21.349206349206348,-11.984126984126984,-4.2063492063492065,1.0317460317460316,-325.0,-325.0,-325.0,-325.0,-325.0,-321.8253968253968
61.507936507936506,19.92063492063492,70.55555555555556,21.349206349206348,51.507936507936506,19.285714285714285,32.3015873015873,-8.015873015873016,32.93650793650794,-33.73015873015873,53.41269841269841,38.17460317460317,39.44444444444444,27.539682539682538,21.349206349206348,-11.984126984126984,-4.2063492063492065,1.0317460317460316,-325.0,-325.0,-325.0,-325.0,-325.0,-321.8253968253968
57.53968253968254,12.3015873015873,70.55555555555556,11.666666666666666,42.61904761904761,8.174603174603174,17.857142857142858,-19.126984126984127,21.19047619047619,-32.14285714285714,46.58730158730158,28.174603174603174,31.03174603174603,24.523809523809522,20.396825396825395,-15.634920634920634,-3.73015873015873,1.349206349206349,-325.0,-325.0,-325.0,-325.0,-325.0,-7.5396825396825395
57.53968253968254,12.3015873015873,70.55555555555556,11.666666666666666,42.61904761904761,8.174603174603174,17.857142857142858,-19.126984126984127,21.19047619047619,-32.14285714285714,46.58730158730158,28.174603174603174,31.03174603174603,24.523809523809522,20.396825396825395,-15.634920634920634,-3.73015873015873,1.349206349206349,-325.0,-325.0,-325.0,-325.0,-325.0,-7.5396825396825395
45.15873015873016,10.079365079365079,43.888888888888886,-4.682539682539682,25.952380952380953,-9.126984126984127,9.126984126984127,-22.777777777777775,12.46031746031746,-36.269841269841265,37.698412698412696,26.746031746031743,20.873015873015873,26.587301587301585,15.476190476190474,-18.65079365079365,-4.2063492063492065,1.507936507936508,-325.0,-325.0,-325.0,-325.0,-325.0,-7.5396825396825395
45.15873015873016,10.079365079365079,43.888888888888886,-4.682539682539682,25.952380952380953,-9.126984126984127,9.126984126984127,-22.777777777777775,12.46031746031746,-36.269841269841265,37.698412698412696,26.746031746031743,20.873015873015873,26.587301587301585,15.476190476190474,-18.65079365079365,-4.2063492063492065,1.507936507936508,-325.0,-325.0,-325.0,-325.0,-325.0,-7.5396825396825395
32.460317460317455,-6.26984126984127,12.46031746031746,-35.95238095238095,2.619047619047619,-34.2063492063492,-13.253968253968253,-38.80952380952381,-3.571428571428571,-49.76190476190476,27.063492063492063,4.841269841269841,10.396825396825395,17.22222222222222,1.984126984126984,-28.015873015873016,-4.0476190476190474,1.8253968253968254,-325.0,-325.0,-325.0,-325.0,-325.0,-7.5396825396825395
32.460317460317455,-6.26984126984127,12.46031746031746,-35.95238095238095,2.619047619047619,-34.2063492063492,-13.253968253968253,-38.80952380952381,-3.571428571428571,-49.76190476190476,27.063492063492063,4.841269841269841,10.396825396825395,17.22222222222222,1.984126984126984,-28.015873015873016,-4.0476190476190474,1.8253968253968254,-325.0,-325.0,-325.0,-325.0,-325.0,-7.5396825396825395
26.26984126984127,-8.174603174603174,-8.492063492063492,-40.079365079365076,-11.031746031746032,-28.65079365079365,-21.825396825396822,-37.698412698412696,0.873015873015873,-36.11111111111111,15.0,-0.07936507936507936,-3.4126984126984126,6.26984126984127,-13.412698412698411,-28.49206349206349,-3.73015873015873,1.6666666666666665,-325.0,-325.0,-325.0,-325.0,-325.0,-7.5396825396825395
26.26984126984127,-8.174603174603174,-8.492063492063492,-40.079365079365076,-11.031746031746032,-28.65079365079365,-21.825396825396822,-37.698412698412696,0.873015873015873,-36.11111111111111,15.0,-0.07936507936507936,-3.4126984126984126,6.26984126984127,-13.412698412698411,-28.49206349206349,-3.73015873015873,1.6666666666666665,-325.0,-325.0,-325.0,-325.0,-325.0,-7.5396825396825395
45.95238095238095,8.174603174603174,20.07936507936508,-15.793650793650793,15.0,-7.5396825396825395,-6.587301587301587,-18.96825396825397,10.714285714285714,-24.84126984126984,33.41269841269841,2.9365079365079363,3.888888888888889,2.3015873015873014,-1.349206349206349,-17.38095238095238,-4.2063492063492065,1.8253968253968254,-325.0,-325.0,-325.0,-325.0,-325.0,-7.5396825396825395
45.95238095238095,8.174603174603174,20.07936507936508,-15.793650793650793,15.0,-7.5396825396825395,-6.587301587301587,-18.96825396825397,10.714285714285714,-24.84126984126984,33.41269841269841,2.9365079365079363,3.888888888888889,2.3015873015873014,-1.349206349206349,-17.38095238095238,-4.2063492063492065,1.8253968253968254,-325.0,-325.0,-325.0,-325.0,-325.0,-7.5396825396825395
58.650793650793645,21.507936507936506,44.68253968253968,-1.6666666666666665,38.17460317460317,9.920634920634921,12.619047619047619,4.2063492063492065,20.71428571428571,-1.507936507936508,41.34920634920635,6.746031746031746,-1.1904761904761905,-3.095238095238095,4.682539682539682,-3.888888888888889,-4.365079365079365,2.3015873015873014,-325.0,-325.0,-325.0,-325.0,-325.0,-321.8253968253968
58.650793650793645,21.507936507936506,44.68253968253968,-1.6666666666666665,38.17460317460317,9.920634920634921,12.619047619047619,4.2063492063492065,20.71428571428571,-1.507936507936508,41.34920634920635,6.746031746031746,-1.1904761904761905,-3.095238095238095,4.682539682539682,-3.888888888888889,-4.365079365079365,2.3015873015873014,-325.0,-325.0,-325.0,-325.0,-325.0,-321.8253968253968
41.98412698412698,11.349206349206348,43.41269841269841,-0.23809523809523808,42.14285714285714,10.873015873015872,24.68253968253968,10.873015873015872,20.396825396825395,6.111111111111111,28.96825396825397,-8.809523809523808,-6.587301587301587,-19.444444444444443,8.65079365079365,2.3015873015873014,-3.888888888888889,2.142857142857143,-325.0,-325.0,-325.0,-325.0,-325.0,-321.8253968253968
41.98412698412698,11.349206349206348,43.41269841269841,-0.23809523809523808,42.14285714285714,10.873015873015872,24.68253968253968,10.873015873015872,20.396825396825395,6.111111111111111,28.96825396825397,-8.809523809523808,-6.587301587301587,-19.444444444444443,8.65079365079365,2.3015873015873014,-3.888888888888889,2.142857142857143,-325.0,-325.0,-325.0,-325.0,-325.0,-321.8253968253968
24.68253968253968,4.365079365079365,36.42857142857142,-4.365079365079365,40.079365079365076,2.7777777777777777,41.82539682539682,12.619047619047619,36.269841269841265,15.634920634920634,15.158730158730158,-15.158730158730158,-10.555555555555555,-22.46031746031746,26.587301587301585,7.063492063492063,-3.888888888888889,1.984126984126984,-325.0,-325.0,-325.0,-325.0,-325.0,-321.8253968253968
24.68253968253968,4.365079365079365,36.42857142857142,-4.365079365079365,40.079365079365076,2.7777777777777777,41.82539682539682,12.619047619047619,36.269841269841265,15.634920634920634,15.158730158730158,-15.158730158730158,-10.555555555555555,-22.46031746031746,26.587301587301585,7.063492063492063,-3.888888888888889,1.984126984126984,-325.0,-325.0,-325.0,-325.0,-325.0,-321.8253968253968
11.984126984126984,12.619047619047619,32.460317460317455,-3.095238095238095,42.93650793650794,-0.873015873015873,51.666666666666664,7.063492063492063,40.87301587301587,17.38095238095238,4.682539682539682,-15.793650793650793,-9.126984126984127,-26.428571428571427,45.79365079365079,5.952380952380952,-3.571428571428571,1.8253968253968254,-325.0,-325.0,-325.0,-325.0,-325.0,-321.8253968253968
11.984126984126984,12.619047619047619,32.460317460317455,-3.095238095238095,42.93650793650794,-0.873015873015873,51.666666666666664,7.063492063492063,40.87301587301587,17.38095238095238,4.682539682539682,-15.793650793650793,-9.126984126984127,-26.428571428571427,45.79365079365079,5.952380952380952,-3.571428571428571,1.8253968253968254,-325.0,-325.0,-325.0,-325.0,-325.0,-321.8253968253968
1.507936507936508,22.936507936507937,28.96825396825397,3.253968253968254,37.38095238095238,-1.8253968253968254,44.52380952380952,-6.587301587301587,28.174603174603174,7.063492063492063,-1.0317460317460316,-17.38095238095238,0.3968253968253968,-35.476190476190474,35.0,-11.031746031746032,-4.365079365079365,1.507936507936508,-325.0,-325.0,-325.0,-325.0,-325.0,-321.8253968253968
1.507936507936508,22.936507936507937,28.96825396825397,3.253968253968254,37.38095238095238,-1.8253968253968254,44.52380952380952,-6.587301587301587,28.174603174603174,7.063492063492063,-1.0317460317460316,-17.38095238095238,0.3968253968253968,-35.476190476190474,35.0,-11.031746031746032,-4.365079365079365,1.507936507936508,-325.0,-325.0,-325.0,-325.0,-325.0,-321.8253968253968
-6.587301587301587,30.87301587301587,19.285714285714285,0.23809523809523808,27.38095238095238,-5.952380952380952,32.93650793650794,-12.142857142857142,15.793650793650793,3.571428571428571,-5.634920634920634,-13.888888888888888,0.7142857142857142,-44.2063492063492,24.047619047619047,-21.19047619047619,-3.888888888888889,1.349206349206349,-325.0,-325.0,-325.0,-325.0,-325.0,-7.5396825396825395
-6.587301587301587,30.87301587301587,19.285714285714285,0.23809523809523808,27.38095238095238,-5.952380952380952,32.93650793650794,-12.142857142857142,15.793650793650793,3.571428571428571,-5.634920634920634,-13.888888888888888,0.7142857142857142,-44.2063492063492,24.047619047619047,-21.19047619047619,-3.888888888888889,1.349206349206349,-325.0,-325.0,-325.0,-325.0,-325.0,-7.5396825396825395
8.174603174603174,30.555555555555554,26.11111111111111,-1.507936507936508,32.77777777777778,-10.079365079365079,32.93650793650794,-15.476190476190474,17.22222222222222,4.0476190476190474,10.238095238095237,-11.507936507936508,16.11111111111111,-41.507936507936506,29.76190476190476,-25.158730158730158,-3.73015873015873,1.349206349206349,-325.0,-325.0,-325.0,-325.0,-325.0,-7.5396825396825395
8.174603174603174,30.555555555555554,26.11111111111111,-1.507936507936508,32.77777777777778,-10.079365079365079,32.93650793650794,-15.476190476190474,17.22222222222222,4.0476190476190474,10.238095238095237,-11.507936507936508,16.11111111111111,-41.507936507936506,29.76190476190476,-25.158730158730158,-3.73015873015873,1.349206349206349,-325.0,-325.0,-325.0,-325.0,-325.0,-7.5396825396825395
-15.95238095238095,16.428571428571427,-1.1904761904761905,-13.412698412698411,5.952380952380952,-13.571428571428571,11.031746031746032,-3.4126984126984126,4.2063492063492065,11.825396825396824,-10.079365079365079,-26.587301587301585,-2.7777777777777777,-38.96825396825397,17.857142857142858,-14.047619047619047,-3.73015873015873,1.984126984126984,-325.0,-325.0,-325.0,-325.0,-325.0,-7.5396825396825395
-15.95238095238095,16.428571428571427,-1.1904761904761905,-13.412698412698411,5.952380952380952,-13.571428571428571,11.031746031746032,-3.4126984126984126,4.2063492063492065,11.825396825396824,-10.079365079365079,-26.587301587301585,-2.7777777777777777,-38.96825396825397,17.857142857142858,-14.047619047619047,-3.73015873015873,1.984126984126984,-325.0,-325.0,-325.0,-325.0,-325.0,-7.5396825396825395
-11.666666666666666,0.3968253968253968,4.0476190476190474,-21.825396825396822,12.46031746031746,-12.777777777777777,15.793650793650793,-0.7142857142857142,8.492063492063492,2.142857142857143,-3.73015873015873,-30.87301587301587,-2.9365079365079363,-38.96825396825397,14.206349206349206,-9.761904761904761,-3.73015873015873,1.507936507936508,-325.0,-325.0,-325.0,-325.0,-325.0,-7.5396825396825395
-11.666666666666666,0.3968253968253968,4.0476190476190474,-21.825396825396822,12.46031746031746,-12.777777777777777,15.793650793650793,-0.7142857142857142,8.492063492063492,2.142857142857143,-3.73015873015873,-30.87301587301587,-2.9365079365079363,-38.96825396825397,14.206349206349206,-9.761904761904761,-3.73015873015873,1.507936507936508,-325.0,-325.0,-325.0,-325.0,-325.0,-7.5396825396825395
-6.746031746031746,-12.777777777777777,8.492063492063492,-28.174603174603174,16.746031746031743,-10.555555555555555,23.730158730158728,0.7142857142857142,14.682539682539682,-8.492063492063492,0.3968253968253968,-31.98412698412698,-5.0,-27.539682539682538,7.063492063492063,-8.968253968253968,-3.095238095238095,1.984126984126984,-325.0,-325.0,-325.0,-325.0,-325.0,-7.5396825396825395
-6.746031746031746,-12.777777777777777,8.492063492063492,-28.174603174603174,16.746031746031743,-10.555555555555555,23.730158730158728,0.7142857142857142,14.682539682539682,-8.492063492063492,0.3968253968253968,-31.98412698412698,-5.0,-27.539682539682538,7.063492063492063,-8.968253968253968,-3.095238095238095,1.984126984126984,-325.0,-325.0,-325.0,-325.0,-325.0,-7.5396825396825395
-5.634920634920634,-24.365079365079364,3.4126984126984126,-38.65079365079365,12.777777777777777,-18.96825396825397,26.26984126984127,-0.07936507936507936,25.158730158730158,-3.888888888888889,-2.3015873015873014,-30.07936507936508,-0.07936507936507936,-23.095238095238095,15.476190476190474,-3.888888888888889,-3.253968253968254,1.8253968253968254,-325.0,-325.0,-325.0,-325.0,-325.0,-321.8253968253968
-5.634920634920634,-24.365079365079364,3.4126984126984126,-38.65079365079365,12.777777777777777,-18.96825396825397,26.26984126984127,-0.07936507936507936,25.158730158730158,-3.888888888888889,-2.3015873015873014,-30.07936507936508,-0.07936507936507936,-23.095238095238095,15.476190476190474,-3.888888888888889,-3.253968253968254,1.8253968253968254,-325.0,-325.0,-325.0,-325.0,-325.0,-321.8253968253968
-10.238095238095237,-23.41269841269841,-18.333333333333332,-44.52380952380952,-15.158730158730158,-31.507936507936506,-8.174603174603174,-24.523809523809522,1.349206349206349,-18.333333333333332,-10.714285714285714,-32.3015873015873,-7.063492063492063,-22.936507936507937,-2.46031746031746,-11.666666666666666,-3.4126984126984126,1.507936507936508,-325.0,-325.0,-325.0,-325.0,-325.0,-321.8253968253968
-10.238095238095237,-23.41269841269841,-18.333333333333332,-44.52380952380952,-15.158730158730158,-31.507936507936506,-8.174603174603174,-24.523809523809522,1.349206349206349,-18.333333333333332,-10.714285714285714,-32.3015873015873,-7.063492063492063,-22.936507936507937,-2.46031746031746,-11.666666666666666,-3.4126984126984126,1.507936507936508,-325.0,-325.0,-325.0,-325.0,-325.0,-321.8253968253968
-11.031746031746032,-26.587301587301585,-26.26984126984127,-52.3015873015873,-12.3015873015873,-39.6031746031746,-12.46031746031746,-38.49206349206349,-5.952380952380952,-24.365079365079364,-6.111111111111111,-35.63492063492063,-2.7777777777777777,-26.11111111111111,5.634920634920634,-16.587301587301585,-3.888888888888889,1.8253968253968254,-325.0,-325.0,-325.0,-325.0,-325.0,-321.8253968253968
-11.031746031746032,-26.587301587301585,-26.26984126984127,-52.3015873015873,-12.3015873015873,-39.6031746031746,-12.46031746031746,-38.49206349206349,-5.952380952380952,-24.365079365079364,-6.111111111111111,-35.63492063492063,-2.7777777777777777,-26.11111111111111,5.634920634920634,-16.587301587301585,-3.888888888888889,1.8253968253968254,-325.0,-325.0,-325.0,-325.0,-325.0,-321.8253968253968
5.476190476190476,-25.0,-5.0,-46.42857142857142,13.73015873015873,-38.01587301587301,1.507936507936508,-41.19047619047619,0.5555555555555556,-28.809523809523807,12.142857142857142,-32.460317460317455,1.6666666666666665,-22.777777777777775,6.111111111111111,-24.365079365079364,-3.571428571428571,1.6666666666666665,-325.0,-325.0,-325.0,-325.0,-325.0,-321.8253968253968
5.476190476190476,-25.0,-5.0,-46.42857142857142,13.73015873015873,-38.01587301587301,1.507936507936508,-41.19047619047619,0.5555555555555556,-28.809523809523807,12.142857142857142,-32.460317460317455,1.6666666666666665,-22.777777777777775,6.111111111111111,-24.365079365079364,-3.571428571428571,1.6666666666666665,-325.0,-325.0,-325.0,-325.0,-325.0,-321.8253968253968
8.65079365079365,-15.317460317460316,8.809523809523808,-24.523809523809522,20.07936507936508,-11.984126984126984,12.3015873015873,-22.46031746031746,10.396825396825395,-19.6031746031746,16.428571428571427,-22.936507936507937,-6.746031746031746,-18.96825396825397,2.3015873015873014,-20.396825396825395,-3.253968253968254,0.873015873015873,-325.0,-325.0,-325.0,-325.0,-325.0,-321.8253968253968
8.65079365079365,-15.317460317460316,8.809523809523808,-24.523809523809522,20.07936507936508,-11.984126984126984,12.3015873015873,-22.46031746031746,10.396825396825395,-19.6031746031746,16.428571428571427,-22.936507936507937,-6.746031746031746,-18.96825396825397,2.3015873015873014,-20.396825396825395,-3.253968253968254,0.873015873015873,-325.0,-325.0,-325.0,-325.0,-325.0,-321.8253968253968
-14.523809523809524,-21.19047619047619,-5.476190476190476,-12.46031746031746,10.238095238095237,7.3809523809523805,17.063492063492063,2.46031746031746,10.079365079365079,-2.142857142857143,-1.6666666666666665,-13.571428571428571,-18.49206349206349,-11.984126984126984,10.079365079365079,-8.492063492063492,-3.4126984126984126,1.0317460317460316,-325.0,-325.0,-325.0,-325.0,-325.0,-7.5396825396825395
-14.523809523809524,-21.19047619047619,-5.476190476190476,-12.46031746031746,10.238095238095237,7.3809523809523805,17.063492063492063,2.46031746031746,10.079365079365079,-2.142857142857143,-1.6666666666666665,-13.571428571428571,-18.49206349206349,-11.984126984126984,10.079365079365079,-8.492063492063492,-3.4126984126984126,1.0317460317460316,-325.0,-325.0,-325.0,-325.0,-325.0,-7.5396825396825395
-70.55555555555556,-69.6031746031746,-22.3015873015873,-12.777777777777777,-7.3809523809523805,14.047619047619047,14.365079365079364,15.95238095238095,16.11111111111111,13.253968253968253,-13.412698412698411,-14.682539682539682,-21.825396825396822,-12.777777777777777,13.888888888888888,5.476190476190476,-2.9365079365079363,1.507936507936508,-325.0,-325.0,-325.0,-325.0,-325.0,-7.5396825396825395
-70.55555555555556,-69.6031746031746,-22.3015873015873,-12.777777777777777,-7.3809523809523805,14.047619047619047,14.365079365079364,15.95238095238095,16.11111111111111,13.253968253968253,-13.412698412698411,-14.682539682539682,-21.825396825396822,-12.777777777777777,13.888888888888888,5.476190476190476,-2.9365079365079363,1.507936507936508,-325.0,-325.0,-325.0,-325.0,-325.0,-7.5396825396825395
-115.95238095238095,-139.44444444444443,-18.015873015873016,-41.98412698412698,-1.984126984126984,-11.031746031746032,23.88888888888889,1.6666666666666665,32.93650793650794,-1.6666666666666665,-13.571428571428571,-39.6031746031746,-13.095238095238095,-21.349206349206348,23.095238095238095,-4.682539682539682,-2.7777777777777777,1.507936507936508,-325.0,-325.0,-325.0,-325.0,-325.0,-7.5396825396825395
-115.95238095238095,-139.44444444444443,-18.015873015873016,-41.98412698412698,-1.984126984126984,-11.031746031746032,23.88888888888889,1.6666666666666665,32.93650793650794,-1.6666666666666665,-13.571428571428571,-39.6031746031746,-13.095238095238095,-21.349206349206348,23.095238095238095,-4.682539682539682,-2.7777777777777777,1.507936507936508,-325.0,-325.0,-325.0,-325.0,-325.0,-7.5396825396825395
-158.8095238095238,-170.7142857142857,-14.365079365079364,-43.888888888888886,-1.1904761904761905,-18.49206349206349,9.761904761904761,-6.26984126984127,20.873015873015873,-13.412698412698411,-16.587301587301585,-38.33333333333333,-7.063492063492063,-14.682539682539682,11.19047619047619,-11.666666666666666,-3.4126984126984126,1.1904761904761905,-325.0,-325.0,-325.0,-325.0,-325.0,-7.5396825396825395
-158.8095238095238,-170.7142857142857,-14.365079365079364,-43.888888888888886,-1.1904761904761905,-18.49206349206349,9.761904761904761,-6.26984126984127,20.873015873015873,-13.412698412698411,-16.587301587301585,-38.33333333333333,-7.063492063492063,-14.682539682539682,11.19047619047619,-11.666666666666666,-3.4126984126984126,1.1904761904761905,-325.0,-325.0,-325.0,-325.0,-325.0,-7.5396825396825395
-212.46031746031744,-194.36507936507937,-46.269841269841265,-46.42857142857142,-40.39682539682539,-23.253968253968253,-34.52380952380952,-8.968253968253968,-10.873015873015872,-12.3015873015873,-46.58730158730158,-34.84126984126984,-23.730158730158728,-7.698412698412698,-22.3015873015873,-18.015873015873016,-4.0476190476190474,1.1904761904761905,-325.0,-325.0,-325.0,-325.0,-325.0,-7.5396825396825395
-212.46031746031744,-194.36507936507937,-46.269841269841265,-46.42857142857142,-40.39682539682539,-23.253968253968253,-34.52380952380952,-8.968253968253968,-10.873015873015872,-12.3015873015873,-46.58730158730158,-34.84126984126984,-23.730158730158728,-7.698412698412698,-22.3015873015873,-18.015873015873016,-4.0476190476190474,1.1904761904761905,-325.0,-325.0,-325.0,-325.0,-325.0,-7.5396825396825395
-225.47619047619045,-204.04761904761904,-44.84126984126984,-55.476190476190474,-40.238095238095234,-35.79365079365079,-40.714285714285715,-14.84126984126984,-15.793650793650793,-15.0,-40.714285714285715,-37.857142857142854,-29.444444444444443,-11.349206349206348,-32.460317460317455,-21.984126984126984,-3.571428571428571,1.0317460317460316,-325.0,-325.0,-325.0,-325.0,-325.0,-321.8253968253968
-225.47619047619045,-204.04761904761904,-44.84126984126984,-55.476190476190474,-40.238095238095234,-35.79365079365079,-40.714285714285715,-14.84126984126984,-15.793650793650793,-15.0,-40.714285714285715,-37.857142857142854,-29.444444444444443,-11.349206349206348,-32.460317460317455,-21.984126984126984,-3.571428571428571,1.0317460317460316,-325.0,-325.0,-325.0,-325.0,-325.0,-321.8253968253968
-217.69841269841268,-190.87301587301587,-49.285714285714285,-68.80952380952381,-46.74603174603175,-50.87301587301587,-50.079365079365076,-30.07936507936508,-28.809523809523807,-29.126984126984127,-41.507936507936506,-40.238095238095234,-32.93650793650794,-11.507936507936508,-43.41269841269841,-29.6031746031746,-2.7777777777777777,0.873015873015873,-325.0,-325.0,-325.0,-325.0,-325.0,-321.8253968253968
-217.69841269841268,-190.87301587301587,-49.285714285714285,-68.80952380952381,-46.74603174603175,-50.87301587301587,-50.079365079365076,-30.07936507936508,-28.809523809523807,-29.126984126984127,-41.507936507936506,-40.238095238095234,-32.93650793650794,-11.507936507936508,-43.41269841269841,-29.6031746031746,-2.7777777777777777,0.873015873015873,-325.0,-325.0,-325.0,-325.0,-325.0,-321.8253968253968
-183.09523809523807,-154.36507936507937,-51.98412698412698,-74.04761904761904,-46.904761904761905,-61.666666666666664,-49.6031746031746,-41.98412698412698,-29.6031746031746,-33.888888888888886,-39.76190476190476,-37.06349206349206,-25.317460317460316,-17.063492063492063,-31.98412698412698,-34.2063492063492,-2.9365079365079363,0.873015873015873,-325.0,-325.0,-325.0,-325.0,-325.0,-321.8253968253968
-183.09523809523807,-154.36507936507937,-51.98412698412698,-74.04761904761904,-46.904761904761905,-61.666666666666664,-49.6031746031746,-41.98412698412698,-29.6031746031746,-33.888888888888886,-39.76190476190476,-37.06349206349206,-25.317460317460316,-17.063492063492063,-31.98412698412698,-34.2063492063492,-2.9365079365079363,0.873015873015873,-325.0,-325.0,-325.0,-325.0,-325.0,-321.8253968253968
-145.79365079365078,-113.88888888888889,-39.92063492063492,-53.095238095238095,-42.14285714285714,-52.3015873015873,-47.06349206349206,-34.047619047619044,-30.555555555555554,-28.015873015873016,-29.6031746031746,-16.587301587301585,-18.49206349206349,-10.238095238095237,-31.03174603174603,-30.238095238095237,-2.9365079365079363,0.3968253968253968,-325.0,-325.0,-325.0,-325.0,-325.0,-321.8253968253968
-145.79365079365078,-113.88888888888889,-39.92063492063492,-53.095238095238095,-42.14285714285714,-52.3015873015873,-47.06349206349206,-34.047619047619044,-30.555555555555554,-28.015873015873016,-29.6031746031746,-16.587301587301585,-18.49206349206349,-10.238095238095237,-31.03174603174603,-30.238095238095237,-2.9365079365079363,0.3968253968253968,-325.0,-325.0,-325.0,-325.0,-325.0,-321.8253968253968
-139.76190476190476,-77.22222222222221,-63.25396825396825,-44.84126984126984,-72.3015873015873,-50.238095238095234,-77.85714285714285,-34.52380952380952,-56.42857142857142,-25.0,-41.82539682539682,-7.222222222222221,-26.428571428571427,-4.0476190476190474,-54.68253968253968,-26.9047619047619,-1.984126984126984,1.0317460317460316,-325.0,-325.0,-325.0,-325.0,-325.0,-321.8253968253968
-139.76190476190476,-77.22222222222221,-63.25396825396825,-44.84126984126984,-72.3015873015873,-50.238095238095234,-77.85714285714285,-34.52380952380952,-56.42857142857142,-25.0,-41.82539682539682,-7.222222222222221,-26.428571428571427,-4.0476190476190474,-54.68253968253968,-26.9047619047619,-1.984126984126984,1.0317460317460316,-325.0,-325.0,-325.0,-325.0,-325.0,-321.8253968253968
-111.34920634920634,-62.77777777777777,-53.41269841269841,-46.11111111111111,-61.82539682539682,-49.285714285714285,-62.61904761904761,-37.698412698412696,-39.44444444444444,-25.79365079365079,-37.53968253968254,-13.73015873015873,-24.047619047619047,-7.857142857142857,-36.42857142857142,-31.349206349206348,-3.095238095238095,0.5555555555555556,-325.0,-325.0,-325.0,-325.0,-325.0,-7.5396825396825395
-111.34920634920634,-62.77777777777777,-53.41269841269841,-46.11111111111111,-61.82539682539682,-49.285714285714285,-62.61904761904761,-37.698412698412696,-39.44444444444444,-25.79365079365079,-37.53968253968254,-13.73015873015873,-24.047619047619047,-7.857142857142857,-36.42857142857142,-31.349206349206348,-3.095238095238095,0.5555555555555556,-325.0,-325.0,-325.0,-325.0,-325.0,-7.5396825396825395
-74.36507936507937,-27.063492063492063,-38.33333333333333,-28.174603174603174,-38.01587301587301,-38.49206349206349,-34.047619047619044,-33.73015873015873,-18.333333333333332,-16.26984126984127,-21.825396825396822,1.8253968253968254,-17.857142857142858,-5.0,-18.80952380952381,-31.349206349206348,-3.4126984126984126,1.0317460317460316,-325.0,-325.0,-325.0,-325.0,-325.0,-7.5396825396825395
-74.36507936507937,-27.063492063492063,-38.33333333333333,-28.174603174603174,-38.01587301587301,-38.49206349206349,-34.047619047619044,-33.73015873015873,-18.333333333333332,-16.26984126984127,-21.825396825396822,1.8253968253968254,-17.857142857142858,-5.0,-18.80952380952381,-31.349206349206348,-3.4126984126984126,1.0317460317460316,-325.0,-325.0,-325.0,-325.0,-325.0,-7.5396825396825395
-30.07936507936508,12.46031746031746,-19.92063492063492,-8.492063492063492,-17.22222222222222,-17.063492063492063,-29.76190476190476,-27.857142857142854,-25.0,-19.6031746031746,-7.698412698412698,6.746031746031746,-10.079365079365079,2.142857142857143,-17.38095238095238,-27.698412698412696,-3.095238095238095,1.349206349206349,-325.0,-325.0,-325.0,-325.0,-325.0,-7.5396825396825395
-30.07936507936508,12.46031746031746,-19.92063492063492,-8.492063492063492,-17.22222222222222,-17.063492063492063,-29.76190476190476,-27.857142857142854,-25.0,-19.6031746031746,-7.698412698412698,6.746031746031746,-10.079365079365079,2.142857142857143,-17.38095238095238,-27.698412698412696,-3.095238095238095,1.349206349206349,-325.0,-325.0,-325.0,-325.0,-325.0,-7.5396825396825395
31.19047619047619,48.01587301587301,6.587301587301587,-1.8253968253968254,9.285714285714285,-13.412698412698411,-17.698412698412696,-31.349206349206348,-10.396825396825395,-29.444444444444443,26.428571428571427,26.9047619047619,10.873015873015872,23.253968253968253,-20.07936507936508,-34.52380952380952,-2.7777777777777777,1.1904761904761905,-325.0,-325.0,-325.0,-325.0,-325.0,-7.5396825396825395
31.19047619047619,48.01587301587301,6.587301587301587,-1.8253968253968254,9.285714285714285,-13.412698412698411,-17.698412698412696,-31.349206349206348,-10.396825396825395,-29.444444444444443,26.428571428571427,26.9047619047619,10.873015873015872,23.253968253968253,-20.07936507936508,-34.52380952380952,-2.7777777777777777,1.1904761904761905,-325.0,-325.0,-325.0,-325.0,-325.0,-7.5396825396825395
24.68253968253968,58.49206349206349,-25.0,-6.746031746031746,-17.857142857142858,-4.841269841269841,-33.73015873015873,-14.523809523809524,-25.317460317460316,-16.904761904761905,1.349206349206349,10.396825396825395,-11.825396825396824,12.3015873015873,-23.57142857142857,-15.634920634920634,-1.984126984126984,1.1904761904761905,-325.0,-325.0,-325.0,-325.0,-325.0,-7.5396825396825395
24.68253968253968,58.49206349206349,-25.0,-6.746031746031746,-17.857142857142858,-4.841269841269841,-33.73015873015873,-14.523809523809524,-25.317460317460316,-16.904761904761905,1.349206349206349,10.396825396825395,-11.825396825396824,12.3015873015873,-23.57142857142857,-15.634920634920634,-1.984126984126984,1.1904761904761905,-325.0,-325.0,-325.0,-325.0,-325.0,-7.5396825396825395
42.93650793650794,65.63492063492063,-4.682539682539682,-4.523809523809524,0.873015873015873,0.3968253968253968,-17.063492063492063,0.873015873015873,-16.904761904761905,-13.571428571428571,7.063492063492063,56.74603174603174,-4.365079365079365,17.539682539682538,-23.253968253968253,-5.317460317460317,-2.9365079365079363,1.0317460317460316,-325.0,-325.0,-325.0,-325.0,-325.0,-321.8253968253968
42.93650793650794,65.63492063492063,-4.682539682539682,-4.523809523809524,0.873015873015873,0.3968253968253968,-17.063492063492063,0.873015873015873,-16.904761904761905,-13.571428571428571,7.063492063492063,56.74603174603174,-4.365079365079365,17.539682539682538,-23.253968253968253,-5.317460317460317,-2.9365079365079363,1.0317460317460316,-325.0,-325.0,-325.0,-325.0,-325.0,-321.8253968253968
51.507936507936506,51.82539682539682,-0.07936507936507936,-18.96825396825397,4.682539682539682,-22.3015873015873,-13.095238095238095,-33.095238095238095,-24.206349206349206,-49.44444444444444,6.26984126984127,61.34920634920635,1.1904761904761905,47.22222222222222,-8.333333333333332,-31.825396825396822,-2.619047619047619,1.349206349206349,-325.0,-325.0,-325.0,-325.0,-325.0,-321.8253968253968
51.507936507936506,51.82539682539682,-0.07936507936507936,-18.96825396825397,4.682539682539682,-22.3015873015873,-13.095238095238095,-33.095238095238095,-24.206349206349206,-49.44444444444444,6.26984126984127,61.34920634920635,1.1904761904761905,47.22222222222222,-8.333333333333332,-31.825396825396822,-2.619047619047619,1.349206349206349,-325.0,-325.0,-325.0,-325.0,-325.0,-321.8253968253968
61.666666666666664,68.4920634920635,17.857142857142858,19.285714285714285,20.238095238095237,8.968253968253968,6.428571428571428,-21.666666666666664,-13.888888888888888,-49.6031746031746,16.428571428571427,78.80952380952381,12.3015873015873,42.14285714285714,8.809523809523808,-19.76190476190476,-3.095238095238095,1.349206349206349,-325.0,-325.0,-325.0,-325.0,-325.0,-321.8253968253968
61.666666666666664,68.4920634920635,17.857142857142858,19.285714285714285,20.238095238095237,8.968253968253968,6.428571428571428,-21.666666666666664,-13.888888888888888,-49.6031746031746,16.428571428571427,78.80952380952381,12.3015873015873,42.14285714285714,8.809523809523808,-19.76190476190476,-3.095238095238095,1.349206349206349,-325.0,-325.0,-325.0,-325.0,-325.0,-321.8253968253968
64.36507936507937,75.95238095238095,20.71428571428571,-9.126984126984127,24.206349206349206,-9.444444444444445,8.333333333333332,-32.460317460317455,-9.444444444444445,-57.857142857142854,18.015873015873016,113.09523809523809,16.428571428571427,50.71428571428571,-1.6666666666666665,-39.12698412698413,-2.46031746031746,1.1904761904761905,-325.0,-325.0,-325.0,-325.0,-325.0,-321.8253968253968
64.36507936507937,75.95238095238095,20.71428571428571,-9.126984126984127,24.206349206349206,-9.444444444444445,8.333333333333332,-32.460317460317455,-9.444444444444445,-57.857142857142854,18.015873015873016,113.09523809523809,16.428571428571427,50.71428571428571,-1.6666666666666665,-39.12698412698413,-2.46031746031746,1.1904761904761905,-325.0,-325.0,-325.0,-325.0,-325.0,-321.8253968253968
90.87301587301587,86.74603174603175,17.539682539682538,-14.047619047619047,19.6031746031746,-16.26984126984127,7.3809523809523805,-30.71428571428571,4.0476190476190474,-47.38095238095238,32.61904761904762,124.36507936507935,21.507936507936506,115.47619047619047,11.349206349206348,-36.42857142857142,-2.619047619047619,1.0317460317460316,-325.0,-325.0,-325.0,-325.0,-325.0,-321.8253968253968
90.87301587301587,86.74603174603175,17.539682539682538,-14.047619047619047,19.6031746031746,-16.26984126984127,7.3809523809523805,-30.71428571428571,4.0476190476190474,-47.38095238095238,32.61904761904762,124.36507936507935,21.507936507936506,115.47619047619047,11.349206349206348,-36.42857142857142,-2.619047619047619,1.0317460317460316,-325.0,-325.0,-325.0,-325.0,-325.0,-321.8253968253968
98.65079365079364,60.873015873015866,-1.1904761904761905,-73.57142857142857,-0.07936507936507936,-53.095238095238095,-31.825396825396822,-48.96825396825397,-27.857142857142854,-56.904761904761905,35.63492063492063,142.93650793650792,19.92063492063492,57.38095238095238,-27.857142857142854,-56.11111111111111,-2.46031746031746,0.5555555555555556,-325.0,-325.0,-325.0,-325.0,-325.0,-7.5396825396825395
98.65079365079364,60.873015873015866,-1.1904761904761905,-73.57142857142857,-0.07936507936507936,-53.095238095238095,-31.825396825396822,-48.96825396825397,-27.857142857142854,-56.904761904761905,35.63492063492063,142.93650793650792,19.92063492063492,57.38095238095238,-27.857142857142854,-56.11111111111111,-2.46031746031746,0.5555555555555556,-325.0,-325.0,-325.0,-325.0,-325.0,-7.5396825396825395
99.12698412698413,61.34920634920635,-5.0,-59.12698412698413,-2.142857142857143,-69.6031746031746,-45.476190476190474,-68.96825396825396,-39.76190476190476,-61.98412698412698,39.44444444444444,143.88888888888889,26.11111111111111,164.36507936507937,-22.142857142857142,-69.12698412698413,-2.142857142857143,0.5555555555555556,-325.0,-325.0,-325.0,-325.0,-325.0,-7.5396825396825395
99.12698412698413,61.34920634920635,-5.0,-59.12698412698413,-2.142857142857143,-69.6031746031746,-45.476190476190474,-68.96825396825396,-39.76190476190476,-61.98412698412698,39.44444444444444,143.88888888888889,26.11111111111111,164.36507936507937,-22.142857142857142,-69.12698412698413,-2.142857142857143,0.5555555555555556,-325.0,-325.0,-325.0,-325.0,-325.0,-7.5396825396825395
98.33333333333333,60.71428571428571,9.920634920634921,-42.3015873015873,17.539682539682538,-54.52380952380952,-24.365079365079364,-62.460317460317455,-29.6031746031746,-52.460317460317455,41.666666666666664,91.5079365079365,30.555555555555554,135.47619047619048,-15.0,-61.507936507936506,-2.3015873015873014,0.5555555555555556,-325.0,-325.0,-325.0,-325.0,-325.0,-7.5396825396825395
98.33333333333333,60.71428571428571,9.920634920634921,-42.3015873015873,17.539682539682538,-54.52380952380952,-24.365079365079364,-62.460317460317455,-29.6031746031746,-52.460317460317455,41.666666666666664,91.5079365079365,30.555555555555554,135.47619047619048,-15.0,-61.507936507936506,-2.3015873015873014,0.5555555555555556,-325.0,-325.0,-325.0,-325.0,-325.0,-7.5396825396825395
84.52380952380952,68.65079365079364,27.22222222222222,1.984126984126984,38.33333333333333,7.222222222222221,15.0,-1.6666666666666665,3.4126984126984126,6.428571428571428,23.41269841269841,123.4126984126984,30.238095238095237,30.555555555555554,24.365079365079364,-5.476190476190476,-2.619047619047619,0.3968253968253968,-325.0,-325.0,-325.0,-325.0,-325.0,-7.5396825396825395
84.52380952380952,68.65079365079364,27.22222222222222,1.984126984126984,38.33333333333333,7.222222222222221,15.0,-1.6666666666666665,3.4126984126984126,6.428571428571428,23.41269841269841,123.4126984126984,30.238095238095237,30.555555555555554,24.365079365079364,-5.476190476190476,-2.619047619047619,0.3968253968253968,-325.0,-325.0,-325.0,-325.0,-325.0,-7.5396825396825395
74.2063492063492,120.07936507936508,36.58730158730159,53.095238095238095,35.317460317460316,38.96825396825397,24.365079365079364,22.619047619047617,15.476190476190474,13.888888888888888,6.26984126984127,31.98412698412698,17.539682539682538,28.96825396825397,27.857142857142854,8.968253968253968,-2.619047619047619,1.1904761904761905,-325.0,-325.0,-325.0,-325.0,-325.0,-7.5396825396825395
74.2063492063492,120.07936507936508,36.58730158730159,53.095238095238095,35.317460317460316,38.96825396825397,24.365079365079364,22.619047619047617,15.476190476190474,13.888888888888888,6.26984126984127,31.98412698412698,17.539682539682538,28.96825396825397,27.857142857142854,8.968253968253968,-2.619047619047619,1.1904761904761905,-325.0,-325.0,-325.0,-325.0,-325.0,-7.5396825396825395
80.71428571428571,91.5079365079365,49.44444444444444,37.698412698412696,45.317460317460316,25.476190476190474,38.01587301587301,12.777777777777777,27.857142857142854,2.3015873015873014,6.746031746031746,17.063492063492063,17.22222222222222,1.984126984126984,42.77777777777778,11.349206349206348,-3.095238095238095,1.0317460317460316,-325.0,-325.0,-325.0,-325.0,-325.0,-321.8253968253968
80.71428571428571,91.5079365079365,49.44444444444444,37.698412698412696,45.317460317460316,25.476190476190474,38.01587301587301,12.777777777777777,27.857142857142854,2.3015873015873014,6.746031746031746,17.063492063492063,17.22222222222222,1.984126984126984,42.77777777777778,11.349206349206348,-3.095238095238095,1.0317460317460316,-325.0,-325.0,-325.0,-325.0,-325.0,-321.8253968253968
71.03174603174602,130.07936507936506,58.33333333333333,70.23809523809524,52.460317460317455,50.71428571428571,55.0,33.888888888888886,40.079365079365076,17.22222222222222,-0.5555555555555556,35.79365079365079,3.095238095238095,31.03174603174603,40.55555555555555,23.57142857142857,-2.9365079365079363,0.873015873015873,-325.0,-325.0,-325.0,-325.0,-325.0,-321.8253968253968
71.03174603174602,130.07936507936506,58.33333333333333,70.23809523809524,52.460317460317455,50.71428571428571,55.0,33.888888888888886,40.079365079365076,17.22222222222222,-0.5555555555555556,35.79365079365079,3.095238095238095,31.03174603174603,40.55555555555555,23.57142857142857,-2.9365079365079363,0.873015873015873,-325.0,-325.0,-325.0,-325.0,-325.0,-321.8253968253968
74.68253968253968,119.44444444444444,66.26984126984127,64.04761904761905,71.5079365079365,45.476190476190474,81.5079365079365,38.65079365079365,50.71428571428571,12.46031746031746,14.84126984126984,11.984126984126984,19.285714285714285,-7.5396825396825395,61.507936507936506,18.96825396825397,-3.095238095238095,0.873015873015873,-325.0,-325.0,-325.0,-325.0,-325.0,-321.8253968253968
74.68253968253968,119.44444444444444,66.26984126984127,64.04761904761905,71.5079365079365,45.476190476190474,81.5079365079365,38.65079365079365,50.71428571428571,12.46031746031746,14.84126984126984,11.984126984126984,19.285714285714285,-7.5396825396825395,61.507936507936506,18.96825396825397,-3.095238095238095,0.873015873015873,-325.0,-325.0,-325.0,-325.0,-325.0,-321.8253968253968
101.34920634920634,128.33333333333331,68.80952380952381,65.63492063492063,66.74603174603175,49.76190476190476,81.5079365079365,37.53968253968254,48.17460317460317,12.936507936507935,38.65079365079365,-4.523809523809524,23.88888888888889,-26.9047619047619,54.68253968253968,22.936507936507937,-3.4126984126984126,0.5555555555555556,-325.0,-325.0,-325.0,-325.0,-325.0,-321.8253968253968
101.34920634920634,128.33333333333331,68.80952380952381,65.63492063492063,66.74603174603175,49.76190476190476,81.5079365079365,37.53968253968254,48.17460317460317,12.936507936507935,38.65079365079365,-4.523809523809524,23.88888888888889,-26.9047619047619,54.68253968253968,22.936507936507937,-3.4126984126984126,0.5555555555555556,-325.0,-325.0,-325.0,-325.0,-325.0,-321.8253968253968
102.46031746031746,133.25396825396825,46.74603174603175,53.41269841269841,36.42857142857142,45.79365079365079,34.682539682539684,26.11111111111111,13.412698412698411,3.095238095238095,34.36507936507936,1.1904761904761905,14.523809523809524,-49.285714285714285,24.047619047619047,12.3015873015873,-4.2063492063492065,0.7142857142857142,-325.0,-325.0,-325.0,-325.0,-325.0,-321.8253968253968
102.46031746031746,133.25396825396825,46.74603174603175,53.41269841269841,36.42857142857142,45.79365079365079,34.682539682539684,26.11111111111111,13.412698412698411,3.095238095238095,34.36507936507936,1.1904761904761905,14.523809523809524,-49.285714285714285,24.047619047619047,12.3015873015873,-4.2063492063492065,0.7142857142857142,-325.0,-325.0,-325.0,-325.0,-325.0,-321.8253968253968
84.84126984126983,106.42857142857142,25.476190476190474,73.4126984126984,28.333333333333332,59.44444444444444,11.666666666666666,31.666666666666664,-0.07936507936507936,16.26984126984127,28.174603174603174,-32.61904761904762,13.412698412698411,-63.25396825396825,12.777777777777777,21.19047619047619,-4.0476190476190474,1.349206349206349,-325.0,-325.0,-325.0,-325.0,-325.0,-7.5396825396825395
84.84126984126983,106.42857142857142,25.476190476190474,73.4126984126984,28.333333333333332,59.44444444444444,11.666666666666666,31.666666666666664,-0.07936507936507936,16.26984126984127,28.174603174603174,-32.61904761904762,13.412698412698411,-63.25396825396825,12.777777777777777,21.19047619047619,-4.0476190476190474,1.349206349206349,-325.0,-325.0,-325.0,-325.0,-325.0,-7.5396825396825395
81.19047619047619,75.63492063492063,11.19047619047619,18.96825396825397,29.6031746031746,24.84126984126984,26.11111111111111,19.6031746031746,18.80952380952381,24.84126984126984,39.44444444444444,-41.98412698412698,24.365079365079364,-47.857142857142854,20.873015873015873,18.015873015873016,-3.888888888888889,0.7142857142857142,-325.0,-325.0,-325.0,-325.0,-325.0,-7.5396825396825395
81.19047619047619,75.63492063492063,11.19047619047619,18.96825396825397,29.6031746031746,24.84126984126984,26.11111111111111,19.6031746031746,18.80952380952381,24.84126984126984,39.44444444444444,-41.98412698412698,24.365079365079364,-47.857142857142854,20.873015873015873,18.015873015873016,-3.888888888888889,0.7142857142857142,-325.0,-325.0,-325.0,-325.0,-325.0,-7.5396825396825395
89.6031746031746,75.95238095238095,25.0,35.0,46.11111111111111,42.3015873015873,37.698412698412696,38.65079365079365,30.396825396825395,34.84126984126984,48.80952380952381,-58.8095238095238,26.9047619047619,-85.63492063492063,34.84126984126984,44.52380952380952,-3.571428571428571,1.507936507936508,-325.0,-325.0,-325.0,-325.0,-325.0,-7.5396825396825395
89.6031746031746,75.95238095238095,25.0,35.0,46.11111111111111,42.3015873015873,37.698412698412696,38.65079365079365,30.396825396825395,34.84126984126984,48.80952380952381,-58.8095238095238,26.9047619047619,-85.63492063492063,34.84126984126984,44.52380952380952,-3.571428571428571,1.507936507936508,-325.0,-325.0,-325.0,-325.0,-325.0,-7.5396825396825395
101.82539682539682,79.76190476190476,41.34920634920635,35.63492063492063,69.12698412698413,51.507936507936506,55.317460317460316,43.888888888888886,38.33333333333333,36.74603174603175,55.0,-29.920634920634917,29.76190476190476,-59.92063492063492,39.285714285714285,26.9047619047619,-3.888888888888889,1.349206349206349,-325.0,-325.0,-325.0,-325.0,-325.0,-7.5396825396825395
101.82539682539682,79.76190476190476,41.34920634920635,35.63492063492063,69.12698412698413,51.507936507936506,55.317460317460316,43.888888888888886,38.33333333333333,36.74603174603175,55.0,-29.920634920634917,29.76190476190476,-59.92063492063492,39.285714285714285,26.9047619047619,-3.888888888888889,1.349206349206349,-325.0,-325.0,-325.0,-325.0,-325.0,-7.5396825396825395
102.14285714285714,84.04761904761904,34.2063492063492,46.42857142857142,67.85714285714285,59.12698412698413,58.17460317460317,46.904761904761905,41.98412698412698,44.36507936507936,49.285714285714285,-48.650793650793645,26.11111111111111,-80.71428571428571,38.80952380952381,29.920634920634917,-3.253968253968254,1.507936507936508,-325.0,-325.0,-325.0,-325.0,-325.0,-7.5396825396825395
102.14285714285714,84.04761904761904,34.2063492063492,46.42857142857142,67.85714285714285,59.12698412698413,58.17460317460317,46.904761904761905,41.98412698412698,44.36507936507936,49.285714285714285,-48.650793650793645,26.11111111111111,-80.71428571428571,38.80952380952381,29.920634920634917,-3.253968253968254,1.507936507936508,-325.0,-325.0,-325.0,-325.0,-325.0,-7.5396825396825395
82.3015873015873,65.95238095238095,8.65079365079365,50.238095238095234,49.285714285714285,55.63492063492063,36.42857142857142,44.36507936507936,21.666666666666664,47.698412698412696,38.80952380952381,-57.06349206349206,19.444444444444443,-73.09523809523809,29.285714285714285,41.507936507936506,-3.4126984126984126,1.349206349206349,-325.0,-325.0,-325.0,-325.0,-325.0,-321.8253968253968
82.3015873015873,65.95238095238095,8.65079365079365,50.238095238095234,49.285714285714285,55.63492063492063,36.42857142857142,44.36507936507936,21.666666666666664,47.698412698412696,38.80952380952381,-57.06349206349206,19.444444444444443,-73.09523809523809,29.285714285714285,41.507936507936506,-3.4126984126984126,1.349206349206349,-325.0,-325.0,-325.0,-325.0,-325.0,-321.8253968253968
63.25396825396825,28.49206349206349,-22.142857142857142,22.619047619047617,15.317460317460316,38.49206349206349,7.222222222222221,36.74603174603175,5.7936507936507935,43.41269841269841,18.80952380952381,-66.74603174603175,5.0,-65.63492063492063,14.682539682539682,36.74603174603175,-3.888888888888889,0.5555555555555556,-325.0,-325.0,-325.0,-325.0,-325.0,-321.8253968253968
63.25396825396825,28.49206349206349,-22.142857142857142,22.619047619047617,15.317460317460316,38.49206349206349,7.222222222222221,36.74603174603175,5.7936507936507935,43.41269841269841,18.80952380952381,-66.74603174603175,5.0,-65.63492063492063,14.682539682539682,36.74603174603175,-3.888888888888889,0.5555555555555556,-325.0,-325.0,-325.0,-325.0,-325.0,-321.8253968253968
65.47619047619047,40.39682539682539,-19.92063492063492,35.476190476190474,18.333333333333332,35.317460317460316,1.349206349206349,28.015873015873016,1.0317460317460316,46.904761904761905,18.174603174603174,-68.96825396825396,6.587301587301587,-80.23809523809523,17.063492063492063,35.476190476190474,-3.571428571428571,1.1904761904761905,-325.0,-325.0,-325.0,-325.0,-325.0,-321.8253968253968
65.47619047619047,40.39682539682539,-19.92063492063492,35.476190476190474,18.333333333333332,35.317460317460316,1.349206349206349,28.015873015873016,1.0317460317460316,46.904761904761905,18.174603174603174,-68.96825396825396,6.587301587301587,-80.23809523809523,17.063492063492063,35.476190476190474,-3.571428571428571,1.1904761904761905,-325.0,-325.0,-325.0,-325.0,-325.0,-321.8253968253968
63.57142857142857,38.80952380952381,-23.095238095238095,35.95238095238095,16.904761904761905,40.87301587301587,8.333333333333332,28.809523809523807,16.26984126984127,51.34920634920635,17.22222222222222,-60.079365079365076,-0.5555555555555556,-60.079365079365076,26.26984126984127,29.920634920634917,-3.73015873015873,1.1904761904761905,-325.0,-325.0,-325.0,-325.0,-325.0,-321.8253968253968
63.57142857142857,38.80952380952381,-23.095238095238095,35.95238095238095,16.904761904761905,40.87301587301587,8.333333333333332,28.809523809523807,16.26984126984127,51.34920634920635,17.22222222222222,-60.079365079365076,-0.5555555555555556,-60.079365079365076,26.26984126984127,29.920634920634917,-3.73015873015873,1.1904761904761905,-325.0,-325.0,-325.0,-325.0,-325.0,-321.8253968253968
39.285714285714285,48.49206349206349,-48.49206349206349,33.25396825396825,-16.587301587301585,39.44444444444444,-13.095238095238095,36.11111111111111,1.984126984126984,51.82539682539682,-6.428571428571428,-24.523809523809522,-25.158730158730158,-60.873015873015866,7.063492063492063,28.174603174603174,-3.888888888888889,1.1904761904761905,-325.0,-325.0,-325.0,-325.0,-325.0,-321.8253968253968
39.285714285714285,48.49206349206349,-48.49206349206349,33.25396825396825,-16.587301587301585,39.44444444444444,-13.095238095238095,36.11111111111111,1.984126984126984,51.82539682539682,-6.428571428571428,-24.523809523809522,-25.158730158730158,-60.873015873015866,7.063492063492063,28.174603174603174,-3.888888888888889,1.1904761904761905,-325.0,-325.0,-325.0,-325.0,-325.0,-321.8253968253968
59.44444444444444,75.15873015873015,-16.587301587301585,89.44444444444444,-3.253968253968254,78.65079365079364,2.7777777777777777,61.666666666666664,22.619047619047617,65.15873015873015,6.111111111111111,-43.73015873015873,-15.0,-54.36507936507936,14.682539682539682,49.92063492063492,-3.888888888888889,0.873015873015873,-325.0,-325.0,-325.0,-325.0,-325.0,-7.5396825396825395
59.44444444444444,75.15873015873015,-16.587301587301585,89.44444444444444,-3.253968253968254,78.65079365079364,2.7777777777777777,61.666666666666664,22.619047619047617,65.15873015873015,6.111111111111111,-43.73015873015873,-15.0,-54.36507936507936,14.682539682539682,49.92063492063492,-3.888888888888889,0.873015873015873,-325.0,-325.0,-325.0,-325.0,-325.0,-7.5396825396825395
76.58730158730158,69.92063492063491,12.619047619047619,62.14285714285714,12.46031746031746,46.269841269841265,-2.9365079365079363,30.238095238095237,15.158730158730158,29.6031746031746,26.746031746031743,-2.3015873015873014,-1.984126984126984,-12.46031746031746,7.3809523809523805,13.73015873015873,-3.888888888888889,1.1904761904761905,-325.0,-325.0,-325.0,-325.0,-325.0,-7.5396825396825395
76.58730158730158,69.92063492063491,12.619047619047619,62.14285714285714,12.46031746031746,46.269841269841265,-2.9365079365079363,30.238095238095237,15.158730158730158,29.6031746031746,26.746031746031743,-2.3015873015873014,-1.984126984126984,-12.46031746031746,7.3809523809523805,13.73015873015873,-3.888888888888889,1.1904761904761905,-325.0,-325.0,-325.0,-325.0,-325.0,-7.5396825396825395
83.73015873015872,91.82539682539682,44.2063492063492,92.61904761904762,42.93650793650794,75.79365079365078,6.428571428571428,50.079365079365076,12.777777777777777,34.2063492063492,48.17460317460317,19.444444444444443,13.095238095238095,-21.03174603174603,4.2063492063492065,39.44444444444444,-4.0476190476190474,0.873015873015873,-325.0,-325.0,-325.0,-325.0,-325.0,-7.5396825396825395
83.73015873015872,91.82539682539682,44.2063492063492,92.61904761904762,42.93650793650794,75.79365079365078,6.428571428571428,50.079365079365076,12.777777777777777,34.2063492063492,48.17460317460317,19.444444444444443,13.095238095238095,-21.03174603174603,4.2063492063492065,39.44444444444444,-4.0476190476190474,0.873015873015873,-325.0,-325.0,-325.0,-325.0,-325.0,-7.5396825396825395
84.52380952380952,83.57142857142857,51.98412698412698,90.39682539682539,42.93650793650794,73.25396825396825,-9.920634920634921,40.238095238095234,-4.2063492063492065,19.92063492063492,56.58730158730158,2.142857142857143,20.238095238095237,-4.682539682539682,-6.26984126984127,28.333333333333332,-3.253968253968254,0.873015873015873,-325.0,-325.0,-325.0,-325.0,-325.0,-7.5396825396825395
84.52380952380952,83.57142857142857,51.98412698412698,90.39682539682539,42.93650793650794,73.25396825396825,-9.920634920634921,40.238095238095234,-4.2063492063492065,19.92063492063492,56.58730158730158,2.142857142857143,20.238095238095237,-4.682539682539682,-6.26984126984127,28.333333333333332,-3.253968253968254,0.873015873015873,-325.0,-325.0,-325.0,-325.0,-325.0,-7.5396825396825395
74.68253968253968,84.68253968253968,37.38095238095238,97.38095238095238,19.76190476190476,73.88888888888889,-28.333333333333332,36.904761904761905,-12.142857142857142,21.19047619047619,41.507936507936506,16.26984126984127,16.11111111111111,-0.873015873015873,-16.587301587301585,28.333333333333332,-3.571428571428571,1.507936507936508,-325.0,-325.0,-325.0,-325.0,-325.0,-7.5396825396825395
74.68253968253968,84.68253968253968,37.38095238095238,97.38095238095238,19.76190476190476,73.88888888888889,-28.333333333333332,36.904761904761905,-12.142857142857142,21.19047619047619,41.507936507936506,16.26984126984127,16.11111111111111,-0.873015873015873,-16.587301587301585,28.333333333333332,-3.571428571428571,1.507936507936508,-325.0,-325.0,-325.0,-325.0,-325.0,-7.5396825396825395
62.14285714285714,79.76190476190476,8.174603174603174,66.42857142857143,2.9365079365079363,45.317460317460316,-31.349206349206348,22.777777777777775,-9.920634920634921,21.825396825396822,31.507936507936506,26.11111111111111,-1.0317460317460316,-7.063492063492063,-28.96825396825397,25.317460317460316,-4.0476190476190474,0.873015873015873,-325.0,-325.0,-325.0,-325.0,-325.0,-321.8253968253968
62.14285714285714,79.76190476190476,8.174603174603174,66.42857142857143,2.9365079365079363,45.317460317460316,-31.349206349206348,22.777777777777775,-9.920634920634921,21.825396825396822,31.507936507936506,26.11111111111111,-1.0317460317460316,-7.063492063492063,-28.96825396825397,25.317460317460316,-4.0476190476190474,0.873015873015873,-325.0,-325.0,-325.0,-325.0,-325.0,-321.8253968253968
45.0,76.26984126984127,-8.492063492063492,54.2063492063492,-6.904761904761904,40.55555555555555,-30.07936507936508,27.857142857142854,-8.174603174603174,28.174603174603174,14.84126984126984,-0.7142857142857142,-12.619047619047619,-8.492063492063492,-35.476190476190474,40.238095238095234,-3.888888888888889,1.0317460317460316,-325.0,-325.0,-325.0,-325.0,-325.0,-321.8253968253968
45.0,76.26984126984127,-8.492063492063492,54.2063492063492,-6.904761904761904,40.55555555555555,-30.07936507936508,27.857142857142854,-8.174603174603174,28.174603174603174,14.84126984126984,-0.7142857142857142,-12.619047619047619,-8.492063492063492,-35.476190476190474,40.238095238095234,-3.888888888888889,1.0317460317460316,-325.0,-325.0,-325.0,-325.0,-325.0,-321.8253968253968
33.888888888888886,67.22222222222221,-8.809523809523808,46.42857142857142,5.317460317460317,35.63492063492063,-4.0476190476190474,31.19047619047619,8.492063492063492,35.95238095238095,13.73015873015873,-12.936507936507935,-13.888888888888888,-8.968253968253968,-17.698412698412696,41.34920634920635,-4.0476190476190474,1.1904761904761905,-325.0,-325.0,-325.0,-325.0,-325.0,-321.8253968253968
33.888888888888886,67.22222222222221,-8.809523809523808,46.42857142857142,5.317460317460317,35.63492063492063,-4.0476190476190474,31.19047619047619,8.492063492063492,35.95238095238095,13.73015873015873,-12.936507936507935,-13.888888888888888,-8.968253968253968,-17.698412698412696,41.34920634920635,-4.0476190476190474,1.1904761904761905,-325.0,-325.0,-325.0,-325.0,-325.0,-321.8253968253968
24.68253968253968,63.73015873015873,-8.492063492063492,32.77777777777778,7.3809523809523805,37.698412698412696,18.96825396825397,43.73015873015873,23.253968253968253,53.73015873015873,-4.0476190476190474,-9.126984126984127,-11.031746031746032,-2.619047619047619,6.904761904761904,42.3015873015873,-3.73015873015873,0.873015873015873,-325.0,-325.0,-325.0,-325.0,-325.0,-321.8253968253968
24.68253968253968,63.73015873015873,-8.492063492063492,32.77777777777778,7.3809523809523805,37.698412698412696,18.96825396825397,43.73015873015873,23.253968253968253,53.73015873015873,-4.0476190476190474,-9.126984126984127,-11.031746031746032,-2.619047619047619,6.904761904761904,42.3015873015873,-3.73015873015873,0.873015873015873,-325.0,-325.0,-325.0,-325.0,-325.0,-321.8253968253968
40.87301587301587,69.76190476190476,16.428571428571427,30.555555555555554,35.95238095238095,47.06349206349206,67.22222222222221,72.77777777777777,67.85714285714285,83.09523809523809,10.396825396825395,7.857142857142857,6.587301587301587,-14.365079365079364,47.53968253968254,64.36507936507937,-4.0476190476190474,0.873015873015873,-325.0,-325.0,-325.0,-325.0,-325.0,-321.8253968253968
40.87301587301587,69.76190476190476,16.428571428571427,30.555555555555554,35.95238095238095,47.06349206349206,67.22222222222221,72.77777777777777,67.85714285714285,83.09523809523809,10.396825396825395,7.857142857142857,6.587301587301587,-14.365079365079364,47.53968253968254,64.36507936507937,-4.0476190476190474,0.873015873015873,-325.0,-325.0,-325.0,-325.0,-325.0,-321.8253968253968
1.1904761904761905,37.698412698412696,-24.68253968253968,-16.904761904761905,1.6666666666666665,13.888888888888888,28.65079365079365,53.25396825396825,22.936507936507937,68.4920634920635,-18.65079365079365,1.349206349206349,-4.365079365079365,-8.968253968253968,28.809523809523807,45.15873015873016,-3.4126984126984126,1.0317460317460316,-325.0,-325.0,-325.0,-325.0,-325.0,-7.5396825396825395
1.1904761904761905,37.698412698412696,-24.68253968253968,-16.904761904761905,1.6666666666666665,13.888888888888888,28.65079365079365,53.25396825396825,22.936507936507937,68.4920634920635,-18.65079365079365,1.349206349206349,-4.365079365079365,-8.968253968253968,28.809523809523807,45.15873015873016,-3.4126984126984126,1.0317460317460316,-325.0,-325.0,-325.0,-325.0,-325.0,-7.5396825396825395
-10.396825396825395,-1.8253968253968254,-47.22222222222222,-50.39682539682539,-9.285714285714285,-7.3809523809523805,17.539682539682538,35.476190476190474,12.619047619047619,49.285714285714285,-22.3015873015873,12.777777777777777,3.4126984126984126,9.920634920634921,26.587301587301585,32.3015873015873,-4.523809523809524,1.507936507936508,-325.0,-325.0,-325.0,-325.0,-325.0,-7.5396825396825395
-10.396825396825395,-1.8253968253968254,-47.22222222222222,-50.39682539682539,-9.285714285714285,-7.3809523809523805,17.539682539682538,35.476190476190474,12.619047619047619,49.285714285714285,-22.3015873015873,12.777777777777777,3.4126984126984126,9.920634920634921,26.587301587301585,32.3015873015873,-4.523809523809524,1.507936507936508,-325.0,-325.0,-325.0,-325.0,-325.0,-7.5396825396825395
-14.047619047619047,-32.77777777777778,-31.349206349206348,-39.6031746031746,-0.23809523809523808,1.1904761904761905,35.15873015873016,28.015873015873016,25.634920634920633,30.396825396825395,-16.746031746031743,-21.825396825396822,21.349206349206348,5.7936507936507935,50.079365079365076,33.888888888888886,-4.2063492063492065,1.0317460317460316,-325.0,-325.0,-325.0,-325.0,-325.0,-7.5396825396825395
-14.047619047619047,-32.77777777777778,-31.349206349206348,-39.6031746031746,-0.23809523809523808,1.1904761904761905,35.15873015873016,28.015873015873016,25.634920634920633,30.396825396825395,-16.746031746031743,-21.825396825396822,21.349206349206348,5.7936507936507935,50.079365079365076,33.888888888888886,-4.2063492063492065,1.0317460317460316,-325.0,-325.0,-325.0,-325.0,-325.0,-7.5396825396825395
-47.38095238095238,-43.41269841269841,-48.650793650793645,-40.55555555555555,-25.158730158730158,-0.07936507936507936,8.015873015873016,17.698412698412696,0.07936507936507936,26.26984126984127,-28.809523809523807,2.142857142857143,17.857142857142858,15.317460317460316,35.0,29.444444444444443,-4.0476190476190474,1.0317460317460316,-325.0,-325.0,-325.0,-325.0,-325.0,-7.5396825396825395
-47.38095238095238,-43.41269841269841,-48.650793650793645,-40.55555555555555,-25.158730158730158,-0.07936507936507936,8.015873015873016,17.698412698412696,0.07936507936507936,26.26984126984127,-28.809523809523807,2.142857142857143,17.857142857142858,15.317460317460316,35.0,29.444444444444443,-4.0476190476190474,1.0317460317460316,-325.0,-325.0,-325.0,-325.0,-325.0,-7.5396825396825395
-35.317460317460316,-51.34920634920635,-27.857142857142854,-29.126984126984127,-12.777777777777777,6.746031746031746,4.365079365079365,0.873015873015873,-5.158730158730158,7.857142857142857,-17.22222222222222,5.0,29.285714285714285,31.825396825396822,27.22222222222222,22.142857142857142,-3.253968253968254,1.6666666666666665,-325.0,-325.0,-325.0,-325.0,-325.0,-7.5396825396825395
-35.317460317460316,-51.34920634920635,-27.857142857142854,-29.126984126984127,-12.777777777777777,6.746031746031746,4.365079365079365,0.873015873015873,-5.158730158730158,7.857142857142857,-17.22222222222222,5.0,29.285714285714285,31.825396825396822,27.22222222222222,22.142857142857142,-3.253968253968254,1.6666666666666665,-325.0,-325.0,-325.0,-325.0,-325.0,-7.5396825396825395
-16.904761904761905,-38.96825396825397,-6.904761904761904,-5.317460317460317,-1.8253968253968254,9.761904761904761,-1.8253968253968254,-3.888888888888889,-6.904761904761904,-1.349206349206349,-4.841269841269841,12.936507936507935,31.19047619047619,29.6031746031746,15.634920634920634,17.063492063492063,-3.095238095238095,1.349206349206349,-325.0,-325.0,-325.0,-325.0,-325.0,-321.8253968253968
-16.904761904761905,-38.96825396825397,-6.904761904761904,-5.317460317460317,-1.8253968253968254,9.761904761904761,-1.8253968253968254,-3.888888888888889,-6.904761904761904,-1.349206349206349,-4.841269841269841,12.936507936507935,31.19047619047619,29.6031746031746,15.634920634920634,17.063492063492063,-3.095238095238095,1.349206349206349,-325.0,-325.0,-325.0,-325.0,-325.0,-321.8253968253968
4.2063492063492065,-26.26984126984127,25.634920634920633,10.714285714285714,22.3015873015873,14.84126984126984,12.619047619047619,-4.0476190476190474,5.158730158730158,-10.873015873015872,10.079365079365079,13.571428571428571,41.03174603174603,30.396825396825395,20.396825396825395,9.126984126984127,-3.73015873015873,1.0317460317460316,-325.0,-325.0,-325.0,-325.0,-325.0,-321.8253968253968
4.2063492063492065,-26.26984126984127,25.634920634920633,10.714285714285714,22.3015873015873,14.84126984126984,12.619047619047619,-4.0476190476190474,5.158730158730158,-10.873015873015872,10.079365079365079,13.571428571428571,41.03174603174603,30.396825396825395,20.396825396825395,9.126984126984127,-3.73015873015873,1.0317460317460316,-325.0,-325.0,-325.0,-325.0,-325.0,-321.8253968253968
0.3968253968253968,3.095238095238095,2.9365079365079363,18.49206349206349,12.142857142857142,19.126984126984127,12.619047619047619,17.539682539682538,3.253968253968254,8.492063492063492,2.7777777777777777,16.746031746031743,30.238095238095237,31.349206349206348,15.634920634920634,20.873015873015873,-3.4126984126984126,1.0317460317460316,-325.0,-325.0,-325.0,-325.0,-325.0,-321.8253968253968
0.3968253968253968,3.095238095238095,2.9365079365079363,18.49206349206349,12.142857142857142,19.126984126984127,12.619047619047619,17.539682539682538,3.253968253968254,8.492063492063492,2.7777777777777777,16.746031746031743,30.238095238095237,31.349206349206348,15.634920634920634,20.873015873015873,-3.4126984126984126,1.0317460317460316,-325.0,-325.0,-325.0,-325.0,-325.0,-321.8253968253968
-5.634920634920634,-3.4126984126984126,-13.571428571428571,-1.507936507936508,-7.3809523809523805,-1.984126984126984,4.2063492063492065,17.22222222222222,3.253968253968254,19.285714285714285,-3.095238095238095,25.952380952380953,21.19047619047619,31.349206349206348,2.9365079365079363,17.698412698412696,-3.888888888888889,1.349206349206349,-325.0,-325.0,-325.0,-325.0,-325.0,-321.8253968253968
-5.634920634920634,-3.4126984126984126,-13.571428571428571,-1.507936507936508,-7.3809523809523805,-1.984126984126984,4.2063492063492065,17.22222222222222,3.253968253968254,19.285714285714285,-3.095238095238095,25.952380952380953,21.19047619047619,31.349206349206348,2.9365079365079363,17.698412698412696,-3.888888888888889,1.349206349206349,-325.0,-325.0,-325.0,-325.0,-325.0,-321.8253968253968
0.873015873015873,-12.142857142857142,-42.93650793650794,-24.206349206349206,-16.746031746031743,-25.317460317460316,-0.23809523809523808,7.698412698412698,6.587301587301587,15.0,2.9365079365079363,1.0317460317460316,19.6031746031746,20.71428571428571,11.984126984126984,10.396825396825395,-3.73015873015873,1.0317460317460316,-325.0,-325.0,-325.0,-325.0,-325.0,-321.8253968253968
0.873015873015873,-12.142857142857142,-42.93650793650794,-24.206349206349206,-16.746031746031743,-25.317460317460316,-0.23809523809523808,7.698412698412698,6.587301587301587,15.0,2.9365079365079363,1.0317460317460316,19.6031746031746,20.71428571428571,11.984126984126984,10.396825396825395,-3.73015873015873,1.0317460317460316,-325.0,-325.0,-325.0,-325.0,-325.0,-321.8253968253968
-9.761904761904761,-1.0317460317460316,-47.698412698412696,-16.904761904761905,-22.142857142857142,-26.9047619047619,-17.063492063492063,5.634920634920634,-13.253968253968253,12.142857142857142,-7.063492063492063,13.253968253968253,10.873015873015872,17.857142857142858,-4.523809523809524,9.444444444444445,-3.888888888888889,1.507936507936508,-325.0,-325.0,-325.0,-325.0,-325.0,-7.5396825396825395
-9.761904761904761,-1.0317460317460316,-47.698412698412696,-16.904761904761905,-22.142857142857142,-26.9047619047619,-17.063492063492063,5.634920634920634,-13.253968253968253,12.142857142857142,-7.063492063492063,13.253968253968253,10.873015873015872,17.857142857142858,-4.523809523809524,9.444444444444445,-3.888888888888889,1.507936507936508,-325.0,-325.0,-325.0,-325.0,-325.0,-7.5396825396825395
3.888888888888889,-1.0317460317460316,-14.682539682539682,5.634920634920634,0.873015873015873,-13.888888888888888,-5.634920634920634,6.111111111111111,-9.603174603174603,1.1904761904761905,2.9365079365079363,21.03174603174603,12.46031746031746,23.41269841269841,-3.4126984126984126,10.396825396825395,-4.365079365079365,1.349206349206349,-325.0,-325.0,-325.0,-325.0,-325.0,-7.5396825396825395
3.888888888888889,-1.0317460317460316,-14.682539682539682,5.634920634920634,0.873015873015873,-13.888888888888888,-5.634920634920634,6.111111111111111,-9.603174603174603,1.1904761904761905,2.9365079365079363,21.03174603174603,12.46031746031746,23.41269841269841,-3.4126984126984126,10.396825396825395,-4.365079365079365,1.349206349206349,-325.0,-325.0,-325.0,-325.0,-325.0,-7.5396825396825395
0.7142857142857142,7.5396825396825395,-3.095238095238095,27.38095238095238,0.873015873015873,5.158730158730158,-12.619047619047619,13.73015873015873,-9.285714285714285,8.174603174603174,-2.142857142857143,31.825396825396822,2.9365079365079363,29.285714285714285,-4.365079365079365,20.555555555555554,-3.571428571428571,0.873015873015873,-325.0,-325.0,-325.0,-325.0,-325.0,-7.5396825396825395
0.7142857142857142,7.5396825396825395,-3.095238095238095,27.38095238095238,0.873015873015873,5.158730158730158,-12.619047619047619,13.73015873015873,-9.285714285714285,8.174603174603174,-2.142857142857143,31.825396825396822,2.9365079365079363,29.285714285714285,-4.365079365079365,20.555555555555554,-3.571428571428571,0.873015873015873,-325.0,-325.0,-325.0,-325.0,-325.0,-7.5396825396825395
-1.349206349206349,20.555555555555554,1.8253968253968254,41.82539682539682,-7.857142857142857,15.95238095238095,-11.984126984126984,18.65079365079365,-8.333333333333332,6.428571428571428,-11.825396825396824,34.36507936507936,-15.793650793650793,31.03174603174603,-9.444444444444445,22.46031746031746,-3.888888888888889,1.1904761904761905,-325.0,-325.0,-325.0,-325.0,-325.0,-7.5396825396825395
-1.349206349206349,20.555555555555554,1.8253968253968254,41.82539682539682,-7.857142857142857,15.95238095238095,-11.984126984126984,18.65079365079365,-8.333333333333332,6.428571428571428,-11.825396825396824,34.36507936507936,-15.793650793650793,31.03174603174603,-9.444444444444445,22.46031746031746,-3.888888888888889,1.1904761904761905,-325.0,-325.0,-325.0,-325.0,-325.0,-7.5396825396825395
8.65079365079365,46.42857142857142,1.8253968253968254,51.666666666666664,-11.349206349206348,19.444444444444443,-16.428571428571427,0.873015873015873,-10.873015873015872,-11.825396825396824,-8.492063492063492,53.25396825396825,-24.523809523809522,35.79365079365079,-19.6031746031746,4.365079365079365,-3.888888888888889,1.0317460317460316,-325.0,-325.0,-325.0,-325.0,-325.0,-7.5396825396825395
8.65079365079365,46.42857142857142,1.8253968253968254,51.666666666666664,-11.349206349206348,19.444444444444443,-16.428571428571427,0.873015873015873,-10.873015873015872,-11.825396825396824,-8.492063492063492,53.25396825396825,-24.523809523809522,35.79365079365079,-19.6031746031746,4.365079365079365,-3.888888888888889,1.0317460317460316,-325.0,-325.0,-325.0,-325.0,-325.0,-7.5396825396825395
10.714285714285714,43.57142857142857,-8.65079365079365,41.666666666666664,-24.365079365079364,6.904761904761904,-37.53968253968254,-2.7777777777777777,-27.22222222222222,-9.920634920634921,-8.65079365079365,49.6031746031746,-19.126984126984127,31.825396825396822,-40.39682539682539,0.07936507936507936,-3.571428571428571,0.7142857142857142,-325.0,-325.0,-325.0,-325.0,-325.0,-321.8253968253968
10.714285714285714,43.57142857142857,-8.65079365079365,41.666666666666664,-24.365079365079364,6.904761904761904,-37.53968253968254,-2.7777777777777777,-27.22222222222222,-9.920634920634921,-8.65079365079365,49.6031746031746,-19.126984126984127,31.825396825396822,-40.39682539682539,0.07936507936507936,-3.571428571428571,0.7142857142857142,-325.0,-325.0,-325.0,-325.0,-325.0,-321.8253968253968
8.333333333333332,27.698412698412696,-8.492063492063492,22.936507936507937,-23.095238095238095,-1.507936507936508,-40.238095238095234,-0.7142857142857142,-19.444444444444443,2.619047619047619,-9.920634920634921,31.825396825396822,-20.555555555555554,13.095238095238095,-42.77777777777778,6.111111111111111,-3.888888888888889,0.7142857142857142,-325.0,-325.0,-325.0,-325.0,-325.0,-321.8253968253968
8.333333333333332,27.698412698412696,-8.492063492063492,22.936507936507937,-23.095238095238095,-1.507936507936508,-40.238095238095234,-0.7142857142857142,-19.444444444444443,2.619047619047619,-9.920634920634921,31.825396825396822,-20.555555555555554,13.095238095238095,-42.77777777777778,6.111111111111111,-3.888888888888889,0.7142857142857142,-325.0,-325.0,-325.0,-325.0,-325.0,-321.8253968253968
0.873015873015873,5.317460317460317,-18.015873015873016,2.9365079365079363,-27.539682539682538,-14.365079365079364,-47.06349206349206,-5.476190476190476,-29.76190476190476,-5.634920634920634,-12.777777777777777,20.71428571428571,-36.74603174603175,10.079365079365079,-45.63492063492063,2.619047619047619,-3.253968253968254,1.349206349206349,-325.0,-325.0,-325.0,-325.0,-325.0,-321.8253968253968
0.873015873015873,5.317460317460317,-18.015873015873016,2.9365079365079363,-27.539682539682538,-14.365079365079364,-47.06349206349206,-5.476190476190476,-29.76190476190476,-5.634920634920634,-12.777777777777777,20.71428571428571,-36.74603174603175,10.079365079365079,-45.63492063492063,2.619047619047619,-3.253968253968254,1.349206349206349,-325.0,-325.0,-325.0,-325.0,-325.0,-321.8253968253968
-18.80952380952381,-2.142857142857143,-25.0,8.174603174603174,-48.33333333333333,-14.365079365079364,-58.8095238095238,2.619047619047619,-40.55555555555555,1.8253968253968254,-16.904761904761905,22.777777777777775,-47.698412698412696,21.19047619047619,-56.904761904761905,15.793650793650793,-3.888888888888889,1.0317460317460316,-325.0,-325.0,-325.0,-325.0,-325.0,-321.8253968253968
-18.80952380952381,-2.142857142857143,-25.0,8.174603174603174,-48.33333333333333,-14.365079365079364,-58.8095238095238,2.619047619047619,-40.55555555555555,1.8253968253968254,-16.904761904761905,22.777777777777775,-47.698412698412696,21.19047619047619,-56.904761904761905,15.793650793650793,-3.888888888888889,1.0317460317460316,-325.0,-325.0,-325.0,-325.0,-325.0,-321.8253968253968
-18.80952380952381,-31.03174603174603,-18.80952380952381,-11.984126984126984,-46.42857142857142,-24.365079365079364,-29.920634920634917,4.523809523809524,-13.095238095238095,-2.3015873015873014,-22.3015873015873,8.015873015873016,-44.68253968253968,18.49206349206349,-31.98412698412698,16.11111111111111,-4.365079365079365,1.1904761904761905,-325.0,-325.0,-325.0,-325.0,-325.0,-321.8253968253968
-18.80952380952381,-31.03174603174603,-18.80952380952381,-11.984126984126984,-46.42857142857142,-24.365079365079364,-29.920634920634917,4.523809523809524,-13.095238095238095,-2.3015873015873014,-22.3015873015873,8.015873015873016,-44.68253968253968,18.49206349206349,-31.98412698412698,16.11111111111111,-4.365079365079365,1.1904761904761905,-325.0,-325.0,-325.0,-325.0,-325.0,-321.8253968253968
-32.77777777777778,-33.095238095238095,-5.952380952380952,15.95238095238095,-29.76190476190476,7.3809523809523805,4.365079365079365,37.06349206349206,15.634920634920634,27.698412698412696,-27.38095238095238,6.26984126984127,-41.98412698412698,26.11111111111111,0.23809523809523808,33.25396825396825,-4.523809523809524,1.0317460317460316,-325.0,-325.0,-325.0,-325.0,-325.0,-7.5396825396825395
-32.77777777777778,-33.095238095238095,-5.952380952380952,15.95238095238095,-29.76190476190476,7.3809523809523805,4.365079365079365,37.06349206349206,15.634920634920634,27.698412698412696,-27.38095238095238,6.26984126984127,-41.98412698412698,26.11111111111111,0.23809523809523808,33.25396825396825,-4.523809523809524,1.0317460317460316,-325.0,-325.0,-325.0,-325.0,-325.0,-7.5396825396825395
-27.22222222222222,-40.55555555555555,28.015873015873016,34.2063492063492,7.3809523809523805,28.96825396825397,44.84126984126984,52.14285714285714,35.79365079365079,31.03174603174603,-17.698412698412696,4.523809523809524,-31.98412698412698,15.634920634920634,29.285714285714285,39.6031746031746,-4.365079365079365,0.873015873015873,-325.0,-325.0,-325.0,-325.0,-325.0,-7.5396825396825395
-27.22222222222222,-40.55555555555555,28.015873015873016,34.2063492063492,7.3809523809523805,28.96825396825397,44.84126984126984,52.14285714285714,35.79365079365079,31.03174603174603,-17.698412698412696,4.523809523809524,-31.98412698412698,15.634920634920634,29.285714285714285,39.6031746031746,-4.365079365079365,0.873015873015873,-325.0,-325.0,-325.0,-325.0,-325.0,-7.5396825396825395
-4.365079365079365,-30.71428571428571,63.888888888888886,36.42857142857142,30.238095238095237,33.25396825396825,63.888888888888886,45.95238095238095,35.95238095238095,17.698412698412696,-1.0317460317460316,7.3809523809523805,-25.317460317460316,13.888888888888888,23.88888888888889,26.746031746031743,-3.888888888888889,0.7142857142857142,-325.0,-325.0,-325.0,-325.0,-325.0,-7.5396825396825395
-4.365079365079365,-30.71428571428571,63.888888888888886,36.42857142857142,30.238095238095237,33.25396825396825,63.888888888888886,45.95238095238095,35.95238095238095,17.698412698412696,-1.0317460317460316,7.3809523809523805,-25.317460317460316,13.888888888888888,23.88888888888889,26.746031746031743,-3.888888888888889,0.7142857142857142,-325.0,-325.0,-325.0,-325.0,-325.0,-7.5396825396825395
