Fp1[1],Fp2[2],F3[3],F4[4],C3[5],C4[6],P3[7],P4[8],O1[9],O2[10],F7[11],F8[12],T3[13],T4[14],T5[15],T6[16],Fz[17],Pz[18],Cz[19],Pg1[20],Pg2[21],EOGR[22],EOOGL[23],EMG[24]
-61.98412698412698,34.047619047619044,-63.57142857142857,32.3015873015873,-52.77777777777777,35.79365079365079,-48.33333333333333,35.63492063492063,-51.666666666666664,33.888888888888886,-53.41269841269841,40.714285714285715,-49.6031746031746,23.88888888888889,-52.460317460317455,31.98412698412698,-3.571428571428571,0.3968253968253968,-325.0,-325.0,-325.0,-325.0,-325.0,-7.5396825396825395
-61.98412698412698,34.047619047619044,-63.57142857142857,32.3015873015873,-52.77777777777777,35.79365079365079,-48.33333333333333,35.63492063492063,-51.666666666666664,33.888888888888886,-53.41269841269841,40.714285714285715,-49.6031746031746,23.88888888888889,-52.460317460317455,31.98412698412698,-3.571428571428571,0.3968253968253968,-325.0,-325.0,-325.0,-325.0,-325.0,-7.5396825396825395
-54.841269841269835,20.396825396825395,-58.8095238095238,27.698412698412696,-45.476190476190474,35.476190476190474,-37.06349206349206,35.476190476190474,-43.888888888888886,32.61904761904762,-55.79365079365079,35.95238095238095,-45.476190476190474,27.539682539682538,-41.19047619047619,31.825396825396822,-3.571428571428571,0.3968253968253968,-325.0,-325.0,-325.0,-325.0,-325.0,-7.5396825396825395
-54.841269841269835,20.396825396825395,-58.8095238095238,27.698412698412696,-45.476190476190474,35.476190476190474,-37.06349206349206,35.476190476190474,-43.888888888888886,32.61904761904762,-55.79365079365079,35.95238095238095,-45.476190476190474,27.539682539682538,-41.19047619047619,31.825396825396822,-3.571428571428571,0.3968253968253968,-325.0,-325.0,-325.0,-325.0,-325.0,-7.5396825396825395
-55.476190476190474,-10.714285714285714,-49.285714285714285,1.507936507936508,-35.63492063492063,14.047619047619047,-22.619047619047617,12.619047619047619,-25.0,13.095238095238095,-52.3015873015873,4.0476190476190474,-33.41269841269841,1.984126984126984,-19.444444444444443,15.476190476190474,-3.73015873015873,1.1904761904761905,-325.0,-325.0,-325.0,-325.0,-325.0,-7.5396825396825395
-55.476190476190474,-10.714285714285714,-49.285714285714285,1.507936507936508,-35.63492063492063,14.047619047619047,-22.619047619047617,12.619047619047619,-25.0,13.095238095238095,-52.3015873015873,4.0476190476190474,-33.41269841269841,1.984126984126984,-19.444444444444443,15.476190476190474,-3.73015873015873,1.1904761904761905,-325.0,-325.0,-325.0,-325.0,-325.0,-7.5396825396825395
-41.19047619047619,-13.73015873015873,-43.57142857142857,-11.507936507936508,-25.952380952380953,-2.46031746031746,-10.714285714285714,-3.095238095238095,-13.888888888888888,1.1904761904761905,-40.079365079365076,-5.0,-23.57142857142857,-8.65079365079365,-9.444444444444445,0.873015873015873,-3.73015873015873,0.873015873015873,-325.0,-325.0,-325.0,-325.0,-325.0,-7.5396825396825395
-41.19047619047619,-13.73015873015873,-43.57142857142857,-11.507936507936508,-25.952380952380953,-2.46031746031746,-10.714285714285714,-3.095238095238095,-13.888888888888888,1.1904761904761905,-40.079365079365076,-5.0,-23.57142857142857,-8.65079365079365,-9.444444444444445,0.873015873015873,-3.73015873015873,0.873015873015873,-325.0,-325.0,-325.0,-325.0,-325.0,-7.5396825396825395
-19.444444444444443,-5.634920634920634,-18.65079365079365,-4.2063492063492065,-10.396825396825395,0.7142857142857142,4.523809523809524,-3.571428571428571,-3.571428571428571,1.1904761904761905,-19.285714285714285,-1.0317460317460316,-23.57142857142857,-7.5396825396825395,-0.23809523809523808,-3.095238095238095,-3.888888888888889,1.0317460317460316,-325.0,-325.0,-325.0,-325.0,-325.0,-7.5396825396825395
-19.444444444444443,-5.634920634920634,-18.65079365079365,-4.2063492063492065,-10.396825396825395,0.7142857142857142,4.523809523809524,-3.571428571428571,-3.571428571428571,1.1904761904761905,-19.285714285714285,-1.0317460317460316,-23.57142857142857,-7.5396825396825395,-0.23809523809523808,-3.095238095238095,-3.888888888888889,1.0317460317460316,-325.0,-325.0,-325.0,-325.0,-325.0,-7.5396825396825395
-7.222222222222221,28.809523809523807,-8.015873015873016,27.063492063492063,-5.476190476190476,33.095238095238095,-0.7142857142857142,16.11111111111111,-13.73015873015873,17.063492063492063,-8.65079365079365,31.507936507936506,-27.22222222222222,16.904761904761905,-14.365079365079364,13.095238095238095,-4.0476190476190474,1.0317460317460316,-325.0,-325.0,-325.0,-325.0,-325.0,-321.8253968253968
-7.222222222222221,28.809523809523807,-8.015873015873016,27.063492063492063,-5.476190476190476,33.095238095238095,-0.7142857142857142,16.11111111111111,-13.73015873015873,17.063492063492063,-8.65079365079365,31.507936507936506,-27.22222222222222,16.904761904761905,-14.365079365079364,13.095238095238095,-4.0476190476190474,1.0317460317460316,-325.0,-325.0,-325.0,-325.0,-325.0,-321.8253968253968
-3.253968253968254,33.888888888888886,-5.952380952380952,25.952380952380953,-4.841269841269841,16.904761904761905,-10.714285714285714,5.634920634920634,-19.285714285714285,12.142857142857142,3.571428571428571,29.444444444444443,-17.063492063492063,10.079365079365079,-8.809523809523808,6.111111111111111,-4.365079365079365,1.0317460317460316,-325.0,-325.0,-325.0,-325.0,-325.0,-321.8253968253968
-3.253968253968254,33.888888888888886,-5.952380952380952,25.952380952380953,-4.841269841269841,16.904761904761905,-10.714285714285714,5.634920634920634,-19.285714285714285,12.142857142857142,3.571428571428571,29.444444444444443,-17.063492063492063,10.079365079365079,-8.809523809523808,6.111111111111111,-4.365079365079365,1.0317460317460316,-325.0,-325.0,-325.0,-325.0,-325.0,-321.8253968253968
-16.904761904761905,21.19047619047619,-26.9047619047619,16.904761904761905,-27.063492063492063,9.285714285714285,-29.285714285714285,-1.6666666666666665,-28.65079365079365,4.841269841269841,-19.444444444444443,23.253968253968253,-29.444444444444443,9.920634920634921,-21.984126984126984,2.142857142857143,-4.2063492063492065,0.3968253968253968,-325.0,-325.0,-325.0,-325.0,-325.0,-321.8253968253968
-16.904761904761905,21.19047619047619,-26.9047619047619,16.904761904761905,-27.063492063492063,9.285714285714285,-29.285714285714285,-1.6666666666666665,-28.65079365079365,4.841269841269841,-19.444444444444443,23.253968253968253,-29.444444444444443,9.920634920634921,-21.984126984126984,2.142857142857143,-4.2063492063492065,0.3968253968253968,-325.0,-325.0,-325.0,-325.0,-325.0,-321.8253968253968
-20.238095238095237,11.666666666666666,-37.53968253968254,-0.873015873015873,-25.952380952380953,-6.428571428571428,-25.634920634920633,-14.047619047619047,-20.555555555555554,-7.3809523809523805,-17.698412698412696,11.19047619047619,-24.206349206349206,7.5396825396825395,-27.22222222222222,-5.476190476190476,-4.365079365079365,0.5555555555555556,-325.0,-325.0,-325.0,-325.0,-325.0,-321.8253968253968
-20.238095238095237,11.666666666666666,-37.53968253968254,-0.873015873015873,-25.952380952380953,-6.428571428571428,-25.634920634920633,-14.047619047619047,-20.555555555555554,-7.3809523809523805,-17.698412698412696,11.19047619047619,-24.206349206349206,7.5396825396825395,-27.22222222222222,-5.476190476190476,-4.365079365079365,0.5555555555555556,-325.0,-325.0,-325.0,-325.0,-325.0,-321.8253968253968
-16.746031746031743,5.7936507936507935,-33.57142857142857,1.1904761904761905,-17.698412698412696,3.571428571428571,-13.095238095238095,-5.317460317460317,-11.666666666666666,-7.063492063492063,-18.96825396825397,12.46031746031746,-19.76190476190476,10.873015873015872,-8.015873015873016,0.07936507936507936,-3.888888888888889,0.873015873015873,-325.0,-325.0,-325.0,-325.0,-325.0,-321.8253968253968
-16.746031746031743,5.7936507936507935,-33.57142857142857,1.1904761904761905,-17.698412698412696,3.571428571428571,-13.095238095238095,-5.317460317460317,-11.666666666666666,-7.063492063492063,-18.96825396825397,12.46031746031746,-19.76190476190476,10.873015873015872,-8.015873015873016,0.07936507936507936,-3.888888888888889,0.873015873015873,-325.0,-325.0,-325.0,-325.0,-325.0,-321.8253968253968
-16.587301587301585,13.571428571428571,-26.11111111111111,14.682539682539682,-16.746031746031743,21.666666666666664,-15.95238095238095,10.238095238095237,-15.476190476190474,-0.3968253968253968,-16.746031746031743,13.571428571428571,-25.634920634920633,15.95238095238095,-21.19047619047619,9.444444444444445,-4.0476190476190474,0.873015873015873,-325.0,-325.0,-325.0,-325.0,-325.0,-7.5396825396825395
-16.587301587301585,13.571428571428571,-26.11111111111111,14.682539682539682,-16.746031746031743,21.666666666666664,-15.95238095238095,10.238095238095237,-15.476190476190474,-0.3968253968253968,-16.746031746031743,13.571428571428571,-25.634920634920633,15.95238095238095,-21.19047619047619,9.444444444444445,-4.0476190476190474,0.873015873015873,-325.0,-325.0,-325.0,-325.0,-325.0,-7.5396825396825395
-3.888888888888889,4.365079365079365,-17.698412698412696,14.047619047619047,-14.047619047619047,19.444444444444443,-17.063492063492063,8.174603174603174,-14.365079365079364,-2.7777777777777777,-15.317460317460316,8.968253968253968,-16.26984126984127,11.507936507936508,-17.698412698412696,3.571428571428571,-4.0476190476190474,0.3968253968253968,-325.0,-325.0,-325.0,-325.0,-325.0,-7.5396825396825395
-3.888888888888889,4.365079365079365,-17.698412698412696,14.047619047619047,-14.047619047619047,19.444444444444443,-17.063492063492063,8.174603174603174,-14.365079365079364,-2.7777777777777777,-15.317460317460316,8.968253968253968,-16.26984126984127,11.507936507936508,-17.698412698412696,3.571428571428571,-4.0476190476190474,0.3968253968253968,-325.0,-325.0,-325.0,-325.0,-325.0,-7.5396825396825395
-9.444444444444445,-8.968253968253968,-14.365079365079364,1.984126984126984,-8.492063492063492,27.698412698412696,-4.365079365079365,14.682539682539682,-6.428571428571428,6.587301587301587,-9.920634920634921,0.7142857142857142,-13.571428571428571,3.888888888888889,-11.825396825396824,8.015873015873016,-3.73015873015873,1.0317460317460316,-325.0,-325.0,-325.0,-325.0,-325.0,-7.5396825396825395
-9.444444444444445,-8.968253968253968,-14.365079365079364,1.984126984126984,-8.492063492063492,27.698412698412696,-4.365079365079365,14.682539682539682,-6.428571428571428,6.587301587301587,-9.920634920634921,0.7142857142857142,-13.571428571428571,3.888888888888889,-11.825396825396824,8.015873015873016,-3.73015873015873,1.0317460317460316,-325.0,-325.0,-325.0,-325.0,-325.0,-7.5396825396825395
-2.9365079365079363,-3.253968253968254,8.333333333333332,17.857142857142858,19.92063492063492,45.15873015873016,19.92063492063492,20.396825396825395,12.619047619047619,21.825396825396822,2.3015873015873014,3.888888888888889,-2.46031746031746,-1.1904761904761905,9.761904761904761,17.38095238095238,-4.0476190476190474,1.0317460317460316,-325.0,-325.0,-325.0,-325.0,-325.0,-7.5396825396825395
-2.9365079365079363,-3.253968253968254,8.333333333333332,17.857142857142858,19.92063492063492,45.15873015873016,19.92063492063492,20.396825396825395,12.619047619047619,21.825396825396822,2.3015873015873014,3.888888888888889,-2.46031746031746,-1.1904761904761905,9.761904761904761,17.38095238095238,-4.0476190476190474,1.0317460317460316,-325.0,-325.0,-325.0,-325.0,-325.0,-7.5396825396825395
-10.238095238095237,-2.9365079365079363,-6.904761904761904,13.095238095238095,-0.23809523809523808,40.87301587301587,8.968253968253968,11.666666666666666,-0.23809523809523808,9.444444444444445,-2.9365079365079363,3.73015873015873,-1.349206349206349,-5.0,7.3809523809523805,10.714285714285714,-4.682539682539682,1.349206349206349,-325.0,-325.0,-325.0,-325.0,-325.0,-7.5396825396825395
-10.238095238095237,-2.9365079365079363,-6.904761904761904,13.095238095238095,-0.23809523809523808,40.87301587301587,8.968253968253968,11.666666666666666,-0.23809523809523808,9.444444444444445,-2.9365079365079363,3.73015873015873,-1.349206349206349,-5.0,7.3809523809523805,10.714285714285714,-4.682539682539682,1.349206349206349,-325.0,-325.0,-325.0,-325.0,-325.0,-7.5396825396825395
5.317460317460317,23.095238095238095,-4.2063492063492065,28.96825396825397,9.126984126984127,40.238095238095234,21.825396825396822,11.984126984126984,8.809523809523808,13.73015873015873,-0.23809523809523808,24.365079365079364,9.603174603174603,7.698412698412698,13.73015873015873,7.698412698412698,-3.571428571428571,0.5555555555555556,-325.0,-325.0,-325.0,-325.0,-325.0,-321.8253968253968
5.317460317460317,23.095238095238095,-4.2063492063492065,28.96825396825397,9.126984126984127,40.238095238095234,21.825396825396822,11.984126984126984,8.809523809523808,13.73015873015873,-0.23809523809523808,24.365079365079364,9.603174603174603,7.698412698412698,13.73015873015873,7.698412698412698,-3.571428571428571,0.5555555555555556,-325.0,-325.0,-325.0,-325.0,-325.0,-321.8253968253968
39.92063492063492,34.2063492063492,39.12698412698413,38.49206349206349,48.650793650793645,52.61904761904761,66.9047619047619,22.936507936507937,48.96825396825397,24.523809523809522,35.63492063492063,24.365079365079364,51.82539682539682,4.365079365079365,54.52380952380952,11.984126984126984,-3.571428571428571,0.7142857142857142,-325.0,-325.0,-325.0,-325.0,-325.0,-321.8253968253968
39.92063492063492,34.2063492063492,39.12698412698413,38.49206349206349,48.650793650793645,52.61904761904761,66.9047619047619,22.936507936507937,48.96825396825397,24.523809523809522,35.63492063492063,24.365079365079364,51.82539682539682,4.365079365079365,54.52380952380952,11.984126984126984,-3.571428571428571,0.7142857142857142,-325.0,-325.0,-325.0,-325.0,-325.0,-321.8253968253968
206.1111111111111,32.14285714285714,200.23809523809524,33.888888888888886,204.84126984126982,40.079365079365076,211.34920634920633,12.142857142857142,196.42857142857142,15.634920634920634,201.5079365079365,18.80952380952381,215.47619047619045,-1.0317460317460316,202.61904761904762,7.698412698412698,-3.73015873015873,0.3968253968253968,-325.0,-325.0,-325.0,-325.0,-325.0,-321.8253968253968
206.1111111111111,32.14285714285714,200.23809523809524,33.888888888888886,204.84126984126982,40.079365079365076,211.34920634920633,12.142857142857142,196.42857142857142,15.634920634920634,201.5079365079365,18.80952380952381,215.47619047619045,-1.0317460317460316,202.61904761904762,7.698412698412698,-3.73015873015873,0.3968253968253968,-325.0,-325.0,-325.0,-325.0,-325.0,-321.8253968253968
309.6031746031746,21.19047619047619,298.4920634920635,17.38095238095238,298.3333333333333,23.095238095238095,302.1428571428571,7.698412698412698,300.23809523809524,20.238095238095237,307.38095238095235,12.936507936507935,314.8412698412698,-0.873015873015873,302.6190476190476,10.396825396825395,-4.682539682539682,0.873015873015873,-325.0,-325.0,-325.0,-325.0,-325.0,-321.8253968253968
309.6031746031746,21.19047619047619,298.4920634920635,17.38095238095238,298.3333333333333,23.095238095238095,302.1428571428571,7.698412698412698,300.23809523809524,20.238095238095237,307.38095238095235,12.936507936507935,314.8412698412698,-0.873015873015873,302.6190476190476,10.396825396825395,-4.682539682539682,0.873015873015873,-325.0,-325.0,-325.0,-325.0,-325.0,-321.8253968253968
325.0,17.698412698412696,325.0,7.063492063492063,325.0,12.619047619047619,325.0,6.587301587301587,325.0,16.428571428571427,325.0,13.73015873015873,325.0,6.746031746031746,325.0,9.603174603174603,-4.2063492063492065,0.873015873015873,-325.0,-325.0,-325.0,-325.0,-325.0,-321.8253968253968
325.0,17.698412698412696,325.0,7.063492063492063,325.0,12.619047619047619,325.0,6.587301587301587,325.0,16.428571428571427,325.0,13.73015873015873,325.0,6.746031746031746,325.0,9.603174603174603,-4.2063492063492065,0.873015873015873,-325.0,-325.0,-325.0,-325.0,-325.0,-321.8253968253968
325.0,-1.1904761904761905,325.0,-1.349206349206349,325.0,8.968253968253968,325.0,10.079365079365079,325.0,9.126984126984127,325.0,12.936507936507935,325.0,10.555555555555555,325.0,9.444444444444445,-4.365079365079365,1.1904761904761905,-325.0,-325.0,-325.0,-325.0,-325.0,-7.5396825396825395
325.0,-1.1904761904761905,325.0,-1.349206349206349,325.0,8.968253968253968,325.0,10.079365079365079,325.0,9.126984126984127,325.0,12.936507936507935,325.0,10.555555555555555,325.0,9.444444444444445,-4.365079365079365,1.1904761904761905,-325.0,-325.0,-325.0,-325.0,-325.0,-7.5396825396825395
325.0,21.507936507936506,312.1428571428571,20.07936507936508,324.5238095238095,9.126984126984127,321.031746031746,3.888888888888889,320.55555555555554,0.873015873015873,325.0,26.746031746031743,325.0,15.158730158730158,322.6190476190476,0.23809523809523808,-4.2063492063492065,1.1904761904761905,-325.0,-325.0,-325.0,-325.0,-325.0,-7.5396825396825395
325.0,21.507936507936506,312.1428571428571,20.07936507936508,324.5238095238095,9.126984126984127,321.031746031746,3.888888888888889,320.55555555555554,0.873015873015873,325.0,26.746031746031743,325.0,15.158730158730158,322.6190476190476,0.23809523809523808,-4.2063492063492065,1.1904761904761905,-325.0,-325.0,-325.0,-325.0,-325.0,-7.5396825396825395
302.9365079365079,24.84126984126984,282.46031746031747,5.476190476190476,288.968253968254,-1.984126984126984,277.22222222222223,-6.904761904761904,278.3333333333333,1.984126984126984,290.7142857142857,26.746031746031743,297.22222222222223,14.365079365079364,274.36507936507934,-4.2063492063492065,-4.2063492063492065,1.1904761904761905,-325.0,-325.0,-325.0,-325.0,-325.0,-7.5396825396825395
302.9365079365079,24.84126984126984,282.46031746031747,5.476190476190476,288.968253968254,-1.984126984126984,277.22222222222223,-6.904761904761904,278.3333333333333,1.984126984126984,290.7142857142857,26.746031746031743,297.22222222222223,14.365079365079364,274.36507936507934,-4.2063492063492065,-4.2063492063492065,1.1904761904761905,-325.0,-325.0,-325.0,-325.0,-325.0,-7.5396825396825395
249.9206349206349,29.920634920634917,231.5079365079365,19.92063492063492,232.3015873015873,8.492063492063492,215.79365079365078,-2.7777777777777777,217.85714285714283,1.0317460317460316,240.07936507936506,27.857142857142854,235.0,12.46031746031746,219.76190476190476,-2.142857142857143,-4.0476190476190474,1.349206349206349,-325.0,-325.0,-325.0,-325.0,-325.0,-7.5396825396825395
249.9206349206349,29.920634920634917,231.5079365079365,19.92063492063492,232.3015873015873,8.492063492063492,215.79365079365078,-2.7777777777777777,217.85714285714283,1.0317460317460316,240.07936507936506,27.857142857142854,235.0,12.46031746031746,219.76190476190476,-2.142857142857143,-4.0476190476190474,1.349206349206349,-325.0,-325.0,-325.0,-325.0,-325.0,-7.5396825396825395
193.4126984126984,9.761904761904761,175.47619047619045,22.3015873015873,175.47619047619045,21.666666666666664,155.15873015873015,10.079365079365079,163.88888888888889,6.111111111111111,179.12698412698413,13.73015873015873,179.12698412698413,7.5396825396825395,161.8253968253968,5.634920634920634,-3.888888888888889,1.0317460317460316,-325.0,-325.0,-325.0,-325.0,-325.0,-7.5396825396825395
193.4126984126984,9.761904761904761,175.47619047619045,22.3015873015873,175.47619047619045,21.666666666666664,155.15873015873015,10.079365079365079,163.88888888888889,6.111111111111111,179.12698412698413,13.73015873015873,179.12698412698413,7.5396825396825395,161.8253968253968,5.634920634920634,-3.888888888888889,1.0317460317460316,-325.0,-325.0,-325.0,-325.0,-325.0,-7.5396825396825395
143.73015873015873,3.571428571428571,119.12698412698413,13.73015873015873,125.95238095238095,21.666666666666664,108.49206349206348,19.6031746031746,125.0,12.936507936507935,127.6984126984127,7.5396825396825395,126.42857142857142,13.095238095238095,120.55555555555554,17.698412698412696,-4.682539682539682,1.0317460317460316,-325.0,-325.0,-325.0,-325.0,-325.0,-321.8253968253968
143.73015873015873,3.571428571428571,119.12698412698413,13.73015873015873,125.95238095238095,21.666666666666664,108.49206349206348,19.6031746031746,125.0,12.936507936507935,127.6984126984127,7.5396825396825395,126.42857142857142,13.095238095238095,120.55555555555554,17.698412698412696,-4.682539682539682,1.0317460317460316,-325.0,-325.0,-325.0,-325.0,-325.0,-321.8253968253968
90.07936507936508,-20.555555555555554,62.460317460317455,-6.746031746031746,70.07936507936508,4.2063492063492065,62.61904761904761,12.619047619047619,85.0,8.015873015873016,78.33333333333333,-7.222222222222221,73.09523809523809,11.349206349206348,81.82539682539682,17.539682539682538,-4.523809523809524,1.1904761904761905,-325.0,-325.0,-325.0,-325.0,-325.0,-321.8253968253968
90.07936507936508,-20.555555555555554,62.460317460317455,-6.746031746031746,70.07936507936508,4.2063492063492065,62.61904761904761,12.619047619047619,85.0,8.015873015873016,78.33333333333333,-7.222222222222221,73.09523809523809,11.349206349206348,81.82539682539682,17.539682539682538,-4.523809523809524,1.1904761904761905,-325.0,-325.0,-325.0,-325.0,-325.0,-321.8253968253968
61.82539682539682,-1.1904761904761905,25.476190476190474,2.3015873015873014,34.682539682539684,-1.507936507936508,25.476190476190474,5.952380952380952,39.6031746031746,-1.8253968253968254,43.73015873015873,7.698412698412698,31.507936507936506,19.6031746031746,31.507936507936506,8.968253968253968,-4.841269841269841,1.0317460317460316,-325.0,-325.0,-325.0,-325.0,-325.0,-321.8253968253968
61.82539682539682,-1.1904761904761905,25.476190476190474,2.3015873015873014,34.682539682539684,-1.507936507936508,25.476190476190474,5.952380952380952,39.6031746031746,-1.8253968253968254,43.73015873015873,7.698412698412698,31.507936507936506,19.6031746031746,31.507936507936506,8.968253968253968,-4.841269841269841,1.0317460317460316,-325.0,-325.0,-325.0,-325.0,-325.0,-321.8253968253968
34.36507936507936,5.317460317460317,4.2063492063492065,8.015873015873016,18.49206349206349,6.746031746031746,18.333333333333332,14.84126984126984,30.396825396825395,13.253968253968253,21.349206349206348,10.079365079365079,15.793650793650793,12.3015873015873,30.238095238095237,13.253968253968253,-4.365079365079365,1.0317460317460316,-325.0,-325.0,-325.0,-325.0,-325.0,-321.8253968253968
34.36507936507936,5.317460317460317,4.2063492063492065,8.015873015873016,18.49206349206349,6.746031746031746,18.333333333333332,14.84126984126984,30.396825396825395,13.253968253968253,21.349206349206348,10.079365079365079,15.793650793650793,12.3015873015873,30.238095238095237,13.253968253968253,-4.365079365079365,1.0317460317460316,-325.0,-325.0,-325.0,-325.0,-325.0,-321.8253968253968
-0.7142857142857142,36.74603174603175,-26.11111111111111,22.142857142857142,-13.253968253968253,13.73015873015873,-17.539682539682538,21.349206349206348,-12.777777777777777,21.507936507936506,-11.19047619047619,23.253968253968253,-14.365079365079364,10.714285714285714,-14.206349206349206,17.857142857142858,-4.523809523809524,1.0317460317460316,-325.0,-325.0,-325.0,-325.0,-325.0,-321.8253968253968
-0.7142857142857142,36.74603174603175,-26.11111111111111,22.142857142857142,-13.253968253968253,13.73015873015873,-17.539682539682538,21.349206349206348,-12.777777777777777,21.507936507936506,-11.19047619047619,23.253968253968253,-14.365079365079364,10.714285714285714,-14.206349206349206,17.857142857142858,-4.523809523809524,1.0317460317460316,-325.0,-325.0,-325.0,-325.0,-325.0,-321.8253968253968
-9.920634920634921,31.19047619047619,-16.746031746031743,29.285714285714285,-4.365079365079365,33.25396825396825,-8.65079365079365,41.34920634920635,-10.396825396825395,39.44444444444444,-10.714285714285714,33.25396825396825,-26.9047619047619,19.92063492063492,-16.26984126984127,30.87301587301587,-4.2063492063492065,1.1904761904761905,-325.0,-325.0,-325.0,-325.0,-325.0,-7.5396825396825395
-9.920634920634921,31.19047619047619,-16.746031746031743,29.285714285714285,-4.365079365079365,33.25396825396825,-8.65079365079365,41.34920634920635,-10.396825396825395,39.44444444444444,-10.714285714285714,33.25396825396825,-26.9047619047619,19.92063492063492,-16.26984126984127,30.87301587301587,-4.2063492063492065,1.1904761904761905,-325.0,-325.0,-325.0,-325.0,-325.0,-7.5396825396825395
-35.476190476190474,35.79365079365079,-32.93650793650794,31.825396825396822,-30.238095238095237,32.61904761904762,-36.74603174603175,36.42857142857142,-33.73015873015873,34.36507936507936,-31.825396825396822,38.33333333333333,-48.33333333333333,25.634920634920633,-32.14285714285714,27.698412698412696,-4.523809523809524,1.1904761904761905,-325.0,-325.0,-325.0,-325.0,-325.0,-7.5396825396825395
-35.476190476190474,35.79365079365079,-32.93650793650794,31.825396825396822,-30.238095238095237,32.61904761904762,-36.74603174603175,36.42857142857142,-33.73015873015873,34.36507936507936,-31.825396825396822,38.33333333333333,-48.33333333333333,25.634920634920633,-32.14285714285714,27.698412698412696,-4.523809523809524,1.1904761904761905,-325.0,-325.0,-325.0,-325.0,-325.0,-7.5396825396825395
-63.73015873015873,20.71428571428571,-67.85714285714285,13.095238095238095,-73.73015873015872,9.761904761904761,-73.09523809523809,17.857142857142858,-63.41269841269841,22.142857142857142,-59.44444444444444,28.65079365079365,-78.17460317460316,23.41269841269841,-67.22222222222221,17.063492063492063,-3.888888888888889,0.873015873015873,-325.0,-325.0,-325.0,-325.0,-325.0,-7.5396825396825395
-63.73015873015873,20.71428571428571,-67.85714285714285,13.095238095238095,-73.73015873015872,9.761904761904761,-73.09523809523809,17.857142857142858,-63.41269841269841,22.142857142857142,-59.44444444444444,28.65079365079365,-78.17460317460316,23.41269841269841,-67.22222222222221,17.063492063492063,-3.888888888888889,0.873015873015873,-325.0,-325.0,-325.0,-325.0,-325.0,-7.5396825396825395
-89.76190476190476,9.761904761904761,-103.57142857142857,6.746031746031746,-112.14285714285714,-2.3015873015873014,-122.93650793650794,6.428571428571428,-105.0,9.603174603174603,-85.15873015873015,22.936507936507937,-102.93650793650794,30.87301587301587,-100.55555555555554,16.746031746031743,-4.2063492063492065,1.0317460317460316,-325.0,-325.0,-325.0,-325.0,-325.0,-7.5396825396825395
-89.76190476190476,9.761904761904761,-103.57142857142857,6.746031746031746,-112.14285714285714,-2.3015873015873014,-122.93650793650794,6.428571428571428,-105.0,9.603174603174603,-85.15873015873015,22.936507936507937,-102.93650793650794,30.87301587301587,-100.55555555555554,16.746031746031743,-4.2063492063492065,1.0317460317460316,-325.0,-325.0,-325.0,-325.0,-325.0,-7.5396825396825395
-81.5079365079365,24.365079365079364,-100.55555555555554,32.460317460317455,-108.65079365079364,11.507936507936508,-122.46031746031746,7.063492063492063,-105.0,1.1904761904761905,-91.03174603174602,26.11111111111111,-115.47619047619047,31.825396825396822,-111.03174603174602,13.571428571428571,-4.365079365079365,1.0317460317460316,-325.0,-325.0,-325.0,-325.0,-325.0,-7.5396825396825395
-81.5079365079365,24.365079365079364,-100.55555555555554,32.460317460317455,-108.65079365079364,11.507936507936508,-122.46031746031746,7.063492063492063,-105.0,1.1904761904761905,-91.03174603174602,26.11111111111111,-115.47619047619047,31.825396825396822,-111.03174603174602,13.571428571428571,-4.365079365079365,1.0317460317460316,-325.0,-325.0,-325.0,-325.0,-325.0,-7.5396825396825395
-71.66666666666666,46.11111111111111,-90.07936507936508,41.507936507936506,-96.26984126984127,25.79365079365079,-107.6984126984127,25.952380952380953,-96.42857142857142,20.238095238095237,-83.73015873015872,31.349206349206348,-125.47619047619047,22.3015873015873,-105.47619047619047,24.047619047619047,-3.73015873015873,1.1904761904761905,-325.0,-325.0,-325.0,-325.0,-325.0,-321.8253968253968
-71.66666666666666,46.11111111111111,-90.07936507936508,41.507936507936506,-96.26984126984127,25.79365079365079,-107.6984126984127,25.952380952380953,-96.42857142857142,20.238095238095237,-83.73015873015872,31.349206349206348,-125.47619047619047,22.3015873015873,-105.47619047619047,24.047619047619047,-3.73015873015873,1.1904761904761905,-325.0,-325.0,-325.0,-325.0,-325.0,-321.8253968253968
-73.09523809523809,38.17460317460317,-83.88888888888889,40.714285714285715,-88.17460317460316,26.587301587301585,-87.6984126984127,40.238095238095234,-82.3015873015873,40.079365079365076,-75.0,34.84126984126984,-128.015873015873,21.03174603174603,-102.93650793650794,32.460317460317455,-3.571428571428571,0.3968253968253968,-325.0,-325.0,-325.0,-325.0,-325.0,-321.8253968253968
-73.09523809523809,38.17460317460317,-83.88888888888889,40.714285714285715,-88.17460317460316,26.587301587301585,-87.6984126984127,40.238095238095234,-82.3015873015873,40.079365079365076,-75.0,34.84126984126984,-128.015873015873,21.03174603174603,-102.93650793650794,32.460317460317455,-3.571428571428571,0.3968253968253968,-325.0,-325.0,-325.0,-325.0,-325.0,-321.8253968253968
-100.55555555555554,18.333333333333332,-93.73015873015872,26.587301587301585,-88.33333333333333,26.26984126984127,-89.6031746031746,33.095238095238095,-91.5079365079365,27.539682539682538,-92.93650793650794,25.0,-127.38095238095238,16.11111111111111,-91.82539682539682,25.79365079365079,-4.0476190476190474,0.23809523809523808,-325.0,-325.0,-325.0,-325.0,-325.0,-321.8253968253968
-100.55555555555554,18.333333333333332,-93.73015873015872,26.587301587301585,-88.33333333333333,26.26984126984127,-89.6031746031746,33.095238095238095,-91.5079365079365,27.539682539682538,-92.93650793650794,25.0,-127.38095238095238,16.11111111111111,-91.82539682539682,25.79365079365079,-4.0476190476190474,0.23809523809523808,-325.0,-325.0,-325.0,-325.0,-325.0,-321.8253968253968
-121.03174603174602,13.253968253968253,-115.95238095238095,35.476190476190474,-106.58730158730158,24.047619047619047,-105.47619047619047,31.98412698412698,-102.61904761904762,37.53968253968254,-111.19047619047619,31.349206349206348,-126.58730158730158,26.587301587301585,-105.0,33.41269841269841,-4.523809523809524,0.5555555555555556,-325.0,-325.0,-325.0,-325.0,-325.0,-321.8253968253968
-121.03174603174602,13.253968253968253,-115.95238095238095,35.476190476190474,-106.58730158730158,24.047619047619047,-105.47619047619047,31.98412698412698,-102.61904761904762,37.53968253968254,-111.19047619047619,31.349206349206348,-126.58730158730158,26.587301587301585,-105.0,33.41269841269841,-4.523809523809524,0.5555555555555556,-325.0,-325.0,-325.0,-325.0,-325.0,-321.8253968253968
-128.96825396825395,10.079365079365079,-124.04761904761904,8.492063492063492,-110.87301587301587,3.253968253968254,-105.31746031746032,20.396825396825395,-104.68253968253968,29.6031746031746,-120.71428571428571,20.396825396825395,-114.52380952380952,16.904761904761905,-104.36507936507935,20.555555555555554,-4.365079365079365,0.3968253968253968,-325.0,-325.0,-325.0,-325.0,-325.0,-321.8253968253968
-128.96825396825395,10.079365079365079,-124.04761904761904,8.492063492063492,-110.87301587301587,3.253968253968254,-105.31746031746032,20.396825396825395,-104.68253968253968,29.6031746031746,-120.71428571428571,20.396825396825395,-114.52380952380952,16.904761904761905,-104.36507936507935,20.555555555555554,-4.365079365079365,0.3968253968253968,-325.0,-325.0,-325.0,-325.0,-325.0,-321.8253968253968
-130.87301587301587,9.603174603174603,-119.28571428571428,14.365079365079364,-109.6031746031746,5.952380952380952,-111.66666666666666,18.174603174603174,-117.22222222222221,20.71428571428571,-117.85714285714285,15.793650793650793,-112.46031746031746,15.0,-104.36507936507935,13.253968253968253,-3.888888888888889,0.873015873015873,-325.0,-325.0,-325.0,-325.0,-325.0,-7.5396825396825395
-130.87301587301587,9.603174603174603,-119.28571428571428,14.365079365079364,-109.6031746031746,5.952380952380952,-111.66666666666666,18.174603174603174,-117.22222222222221,20.71428571428571,-117.85714285714285,15.793650793650793,-112.46031746031746,15.0,-104.36507936507935,13.253968253968253,-3.888888888888889,0.873015873015873,-325.0,-325.0,-325.0,-325.0,-325.0,-7.5396825396825395
-118.49206349206348,25.476190476190474,-110.71428571428571,31.666666666666664,-100.71428571428571,26.428571428571427,-111.34920634920634,23.095238095238095,-112.46031746031746,20.07936507936508,-114.84126984126983,15.476190476190474,-107.06349206349206,16.904761904761905,-105.31746031746032,11.984126984126984,-3.571428571428571,1.0317460317460316,-325.0,-325.0,-325.0,-325.0,-325.0,-7.5396825396825395
-118.49206349206348,25.476190476190474,-110.71428571428571,31.666666666666664,-100.71428571428571,26.428571428571427,-111.34920634920634,23.095238095238095,-112.46031746031746,20.07936507936508,-114.84126984126983,15.476190476190474,-107.06349206349206,16.904761904761905,-105.31746031746032,11.984126984126984,-3.571428571428571,1.0317460317460316,-325.0,-325.0,-325.0,-325.0,-325.0,-7.5396825396825395
-101.98412698412697,26.746031746031743,-108.65079365079364,24.523809523809522,-101.34920634920634,10.873015873015872,-115.47619047619047,8.015873015873016,-112.14285714285714,17.698412698412696,-99.12698412698413,16.428571428571427,-88.65079365079364,7.5396825396825395,-104.36507936507935,8.174603174603174,-3.888888888888889,-0.07936507936507936,-325.0,-325.0,-325.0,-325.0,-325.0,-7.5396825396825395
-101.98412698412697,26.746031746031743,-108.65079365079364,24.523809523809522,-101.34920634920634,10.873015873015872,-115.47619047619047,8.015873015873016,-112.14285714285714,17.698412698412696,-99.12698412698413,16.428571428571427,-88.65079365079364,7.5396825396825395,-104.36507936507935,8.174603174603174,-3.888888888888889,-0.07936507936507936,-325.0,-325.0,-325.0,-325.0,-325.0,-7.5396825396825395
-94.68253968253968,19.444444444444443,-102.61904761904762,15.634920634920634,-92.14285714285714,4.682539682539682,-88.4920634920635,16.587301587301585,-83.73015873015872,25.158730158730158,-87.38095238095238,11.031746031746032,-77.06349206349206,6.746031746031746,-74.2063492063492,18.80952380952381,-4.682539682539682,0.7142857142857142,-325.0,-325.0,-325.0,-325.0,-325.0,-7.5396825396825395
-94.68253968253968,19.444444444444443,-102.61904761904762,15.634920634920634,-92.14285714285714,4.682539682539682,-88.4920634920635,16.587301587301585,-83.73015873015872,25.158730158730158,-87.38095238095238,11.031746031746032,-77.06349206349206,6.746031746031746,-74.2063492063492,18.80952380952381,-4.682539682539682,0.7142857142857142,-325.0,-325.0,-325.0,-325.0,-325.0,-7.5396825396825395
-90.71428571428571,9.126984126984127,-88.96825396825396,11.349206349206348,-73.57142857142857,-7.3809523809523805,-65.95238095238095,19.444444444444443,-65.31746031746032,17.857142857142858,-86.74603174603175,13.412698412698411,-79.28571428571428,12.619047619047619,-62.77777777777777,19.126984126984127,-4.2063492063492065,0.3968253968253968,-325.0,-325.0,-325.0,-325.0,-325.0,-7.5396825396825395
-90.71428571428571,9.126984126984127,-88.96825396825396,11.349206349206348,-73.57142857142857,-7.3809523809523805,-65.95238095238095,19.444444444444443,-65.31746031746032,17.857142857142858,-86.74603174603175,13.412698412698411,-79.28571428571428,12.619047619047619,-62.77777777777777,19.126984126984127,-4.2063492063492065,0.3968253968253968,-325.0,-325.0,-325.0,-325.0,-325.0,-7.5396825396825395
-79.44444444444444,5.476190476190476,-79.44444444444444,7.222222222222221,-69.28571428571428,-12.3015873015873,-60.238095238095234,19.285714285714285,-61.98412698412698,8.492063492063492,-77.06349206349206,18.96825396825397,-71.98412698412697,20.555555555555554,-69.12698412698413,17.857142857142858,-4.2063492063492065,0.07936507936507936,-325.0,-325.0,-325.0,-325.0,-325.0,-321.8253968253968
-79.44444444444444,5.476190476190476,-79.44444444444444,7.222222222222221,-69.28571428571428,-12.3015873015873,-60.238095238095234,19.285714285714285,-61.98412698412698,8.492063492063492,-77.06349206349206,18.96825396825397,-71.98412698412697,20.555555555555554,-69.12698412698413,17.857142857142858,-4.2063492063492065,0.07936507936507936,-325.0,-325.0,-325.0,-325.0,-325.0,-321.8253968253968
-48.01587301587301,23.57142857142857,-45.95238095238095,16.26984126984127,-32.93650793650794,-16.26984126984127,-23.57142857142857,12.777777777777777,-29.920634920634917,7.222222222222221,-45.63492063492063,24.84126984126984,-46.269841269841265,18.65079365079365,-25.317460317460316,11.666666666666666,-4.365079365079365,0.23809523809523808,-325.0,-325.0,-325.0,-325.0,-325.0,-321.8253968253968
-48.01587301587301,23.57142857142857,-45.95238095238095,16.26984126984127,-32.93650793650794,-16.26984126984127,-23.57142857142857,12.777777777777777,-29.920634920634917,7.222222222222221,-45.63492063492063,24.84126984126984,-46.269841269841265,18.65079365079365,-25.317460317460316,11.666666666666666,-4.365079365079365,0.23809523809523808,-325.0,-325.0,-325.0,-325.0,-325.0,-321.8253968253968
-16.746031746031743,19.285714285714285,-7.222222222222221,11.349206349206348,5.952380952380952,-11.349206349206348,11.666666666666666,15.95238095238095,1.8253968253968254,9.126984126984127,-5.7936507936507935,22.936507936507937,-6.111111111111111,21.825396825396822,1.8253968253968254,13.095238095238095,-3.571428571428571,0.07936507936507936,-325.0,-325.0,-325.0,-325.0,-325.0,-321.8253968253968
-16.746031746031743,19.285714285714285,-7.222222222222221,11.349206349206348,5.952380952380952,-11.349206349206348,11.666666666666666,15.95238095238095,1.8253968253968254,9.126984126984127,-5.7936507936507935,22.936507936507937,-6.111111111111111,21.825396825396822,1.8253968253968254,13.095238095238095,-3.571428571428571,0.07936507936507936,-325.0,-325.0,-325.0,-325.0,-325.0,-321.8253968253968
96.42857142857142,20.873015873015873,102.30158730158729,12.936507936507935,101.34920634920634,-18.015873015873016,105.63492063492063,11.031746031746032,99.44444444444444,12.142857142857142,101.5079365079365,17.857142857142858,112.46031746031746,10.396825396825395,102.93650793650794,6.904761904761904,-4.682539682539682,0.3968253968253968,-325.0,-325.0,-325.0,-325.0,-325.0,-321.8253968253968
96.42857142857142,20.873015873015873,102.30158730158729,12.936507936507935,101.34920634920634,-18.015873015873016,105.63492063492063,11.031746031746032,99.44444444444444,12.142857142857142,101.5079365079365,17.857142857142858,112.46031746031746,10.396825396825395,102.93650793650794,6.904761904761904,-4.682539682539682,0.3968253968253968,-325.0,-325.0,-325.0,-325.0,-325.0,-321.8253968253968
147.53968253968253,-1.349206349206349,158.65079365079364,-1.984126984126984,163.09523809523807,-18.015873015873016,167.2222222222222,7.5396825396825395,157.53968253968253,5.634920634920634,158.65079365079364,-8.333333333333332,166.11111111111111,-6.746031746031746,161.984126984127,1.349206349206349,-4.365079365079365,0.873015873015873,-325.0,-325.0,-325.0,-325.0,-325.0,-321.8253968253968
147.53968253968253,-1.349206349206349,158.65079365079364,-1.984126984126984,163.09523809523807,-18.015873015873016,167.2222222222222,7.5396825396825395,157.53968253968253,5.634920634920634,158.65079365079364,-8.333333333333332,166.11111111111111,-6.746031746031746,161.984126984127,1.349206349206349,-4.365079365079365,0.873015873015873,-325.0,-325.0,-325.0,-325.0,-325.0,-321.8253968253968
154.04761904761904,10.714285714285714,159.28571428571428,11.984126984126984,160.23809523809524,-9.285714285714285,157.53968253968253,12.3015873015873,154.68253968253967,11.19047619047619,165.47619047619045,0.7142857142857142,166.11111111111111,-3.095238095238095,152.61904761904762,2.46031746031746,-4.2063492063492065,0.5555555555555556,-325.0,-325.0,-325.0,-325.0,-325.0,-7.5396825396825395
154.04761904761904,10.714285714285714,159.28571428571428,11.984126984126984,160.23809523809524,-9.285714285714285,157.53968253968253,12.3015873015873,154.68253968253967,11.19047619047619,165.47619047619045,0.7142857142857142,166.11111111111111,-3.095238095238095,152.61904761904762,2.46031746031746,-4.2063492063492065,0.5555555555555556,-325.0,-325.0,-325.0,-325.0,-325.0,-7.5396825396825395
143.73015873015873,2.3015873015873014,146.9047619047619,-5.634920634920634,159.76190476190476,-18.80952380952381,152.61904761904762,8.015873015873016,149.9206349206349,12.46031746031746,164.04761904761904,-0.5555555555555556,174.2063492063492,-4.0476190476190474,165.63492063492063,2.142857142857143,-5.0,-0.07936507936507936,-325.0,-325.0,-325.0,-325.0,-325.0,-7.5396825396825395
143.73015873015873,2.3015873015873014,146.9047619047619,-5.634920634920634,159.76190476190476,-18.80952380952381,152.61904761904762,8.015873015873016,149.9206349206349,12.46031746031746,164.04761904761904,-0.5555555555555556,174.2063492063492,-4.0476190476190474,165.63492063492063,2.142857142857143,-5.0,-0.07936507936507936,-325.0,-325.0,-325.0,-325.0,-325.0,-7.5396825396825395
137.06349206349205,-15.317460317460316,131.5079365079365,-29.285714285714285,139.9206349206349,-32.14285714285714,143.25396825396825,-4.841269841269841,143.09523809523807,-3.4126984126984126,156.11111111111111,-15.317460317460316,160.7142857142857,-14.206349206349206,148.96825396825395,-5.0,-4.523809523809524,-0.23809523809523808,-325.0,-325.0,-325.0,-325.0,-325.0,-7.5396825396825395
137.06349206349205,-15.317460317460316,131.5079365079365,-29.285714285714285,139.9206349206349,-32.14285714285714,143.25396825396825,-4.841269841269841,143.09523809523807,-3.4126984126984126,156.11111111111111,-15.317460317460316,160.7142857142857,-14.206349206349206,148.96825396825395,-5.0,-4.523809523809524,-0.23809523809523808,-325.0,-325.0,-325.0,-325.0,-325.0,-7.5396825396825395
105.95238095238095,3.571428571428571,100.39682539682539,-16.26984126984127,112.77777777777777,-20.873015873015873,127.38095238095238,10.238095238095237,130.07936507936506,13.095238095238095,115.63492063492063,-5.317460317460317,124.2063492063492,-8.015873015873016,134.68253968253967,7.857142857142857,-4.523809523809524,0.07936507936507936,-325.0,-325.0,-325.0,-325.0,-325.0,-7.5396825396825395
105.95238095238095,3.571428571428571,100.39682539682539,-16.26984126984127,112.77777777777777,-20.873015873015873,127.38095238095238,10.238095238095237,130.07936507936506,13.095238095238095,115.63492063492063,-5.317460317460317,124.2063492063492,-8.015873015873016,134.68253968253967,7.857142857142857,-4.523809523809524,0.07936507936507936,-325.0,-325.0,-325.0,-325.0,-325.0,-7.5396825396825395
98.01587301587301,2.9365079365079363,87.85714285714285,-8.174603174603174,95.79365079365078,-15.0,104.68253968253968,6.111111111111111,108.01587301587301,1.8253968253968254,101.5079365079365,0.7142857142857142,98.96825396825396,-7.222222222222221,107.6984126984127,2.619047619047619,-4.0476190476190474,-0.23809523809523808,-325.0,-325.0,-325.0,-325.0,-325.0,-7.5396825396825395
98.01587301587301,2.9365079365079363,87.85714285714285,-8.174603174603174,95.79365079365078,-15.0,104.68253968253968,6.111111111111111,108.01587301587301,1.8253968253968254,101.5079365079365,0.7142857142857142,98.96825396825396,-7.222222222222221,107.6984126984127,2.619047619047619,-4.0476190476190474,-0.23809523809523808,-325.0,-325.0,-325.0,-325.0,-325.0,-7.5396825396825395
72.14285714285714,8.015873015873016,63.57142857142857,-1.0317460317460316,68.96825396825396,-19.6031746031746,58.96825396825397,-6.111111111111111,64.68253968253968,-4.682539682539682,71.34920634920634,5.952380952380952,57.698412698412696,-2.7777777777777777,57.698412698412696,1.0317460317460316,-3.4126984126984126,-0.3968253968253968,-325.0,-325.0,-325.0,-325.0,-325.0,-321.8253968253968
72.14285714285714,8.015873015873016,63.57142857142857,-1.0317460317460316,68.96825396825396,-19.6031746031746,58.96825396825397,-6.111111111111111,64.68253968253968,-4.682539682539682,71.34920634920634,5.952380952380952,57.698412698412696,-2.7777777777777777,57.698412698412696,1.0317460317460316,-3.4126984126984126,-0.3968253968253968,-325.0,-325.0,-325.0,-325.0,-325.0,-321.8253968253968
57.38095238095238,10.555555555555555,47.38095238095238,2.142857142857143,44.52380952380952,-19.6031746031746,30.87301587301587,-13.571428571428571,36.74603174603175,-14.682539682539682,55.0,5.7936507936507935,34.52380952380952,-5.158730158730158,34.047619047619044,-5.317460317460317,-3.888888888888889,0.3968253968253968,-325.0,-325.0,-325.0,-325.0,-325.0,-321.8253968253968
57.38095238095238,10.555555555555555,47.38095238095238,2.142857142857143,44.52380952380952,-19.6031746031746,30.87301587301587,-13.571428571428571,36.74603174603175,-14.682539682539682,55.0,5.7936507936507935,34.52380952380952,-5.158730158730158,34.047619047619044,-5.317460317460317,-3.888888888888889,0.3968253968253968,-325.0,-325.0,-325.0,-325.0,-325.0,-321.8253968253968
26.26984126984127,13.888888888888888,19.92063492063492,13.095238095238095,20.238095238095237,-5.7936507936507935,14.206349206349206,-2.142857142857143,14.047619047619047,-7.5396825396825395,16.428571428571427,12.619047619047619,0.873015873015873,1.1904761904761905,9.444444444444445,-0.5555555555555556,-3.73015873015873,0.7142857142857142,-325.0,-325.0,-325.0,-325.0,-325.0,-321.8253968253968
26.26984126984127,13.888888888888888,19.92063492063492,13.095238095238095,20.238095238095237,-5.7936507936507935,14.206349206349206,-2.142857142857143,14.047619047619047,-7.5396825396825395,16.428571428571427,12.619047619047619,0.873015873015873,1.1904761904761905,9.444444444444445,-0.5555555555555556,-3.73015873015873,0.7142857142857142,-325.0,-325.0,-325.0,-325.0,-325.0,-321.8253968253968
-35.0,4.365079365079365,-35.15873015873016,1.984126984126984,-38.01587301587301,-8.333333333333332,-49.12698412698413,-1.507936507936508,-47.698412698412696,-11.825396825396824,-38.96825396825397,-0.7142857142857142,-41.82539682539682,-5.952380952380952,-52.460317460317455,-1.984126984126984,-3.888888888888889,0.7142857142857142,-325.0,-325.0,-325.0,-325.0,-325.0,-321.8253968253968
-35.0,4.365079365079365,-35.15873015873016,1.984126984126984,-38.01587301587301,-8.333333333333332,-49.12698412698413,-1.507936507936508,-47.698412698412696,-11.825396825396824,-38.96825396825397,-0.7142857142857142,-41.82539682539682,-5.952380952380952,-52.460317460317455,-1.984126984126984,-3.888888888888889,0.7142857142857142,-325.0,-325.0,-325.0,-325.0,-325.0,-321.8253968253968
-98.49206349206348,2.3015873015873014,-95.95238095238095,-0.23809523809523808,-94.52380952380952,-5.0,-98.65079365079364,2.46031746031746,-91.66666666666666,1.984126984126984,-100.07936507936508,-2.9365079365079363,-83.88888888888889,-7.063492063492063,-80.71428571428571,0.7142857142857142,-3.4126984126984126,0.5555555555555556,-325.0,-325.0,-325.0,-325.0,-325.0,-321.8253968253968
-98.49206349206348,2.3015873015873014,-95.95238095238095,-0.23809523809523808,-94.52380952380952,-5.0,-98.65079365079364,2.46031746031746,-91.66666666666666,1.984126984126984,-100.07936507936508,-2.9365079365079363,-83.88888888888889,-7.063492063492063,-80.71428571428571,0.7142857142857142,-3.4126984126984126,0.5555555555555556,-325.0,-325.0,-325.0,-325.0,-325.0,-321.8253968253968
-99.92063492063491,-0.873015873015873,-100.23809523809523,-11.666666666666666,-100.07936507936508,-16.26984126984127,-104.04761904761904,-10.079365079365079,-99.76190476190476,-4.523809523809524,-104.68253968253968,-4.682539682539682,-80.87301587301587,-11.984126984126984,-92.14285714285714,-6.746031746031746,-3.253968253968254,0.873015873015873,-325.0,-325.0,-325.0,-325.0,-325.0,-7.5396825396825395
-99.92063492063491,-0.873015873015873,-100.23809523809523,-11.666666666666666,-100.07936507936508,-16.26984126984127,-104.04761904761904,-10.079365079365079,-99.76190476190476,-4.523809523809524,-104.68253968253968,-4.682539682539682,-80.87301587301587,-11.984126984126984,-92.14285714285714,-6.746031746031746,-3.253968253968254,0.873015873015873,-325.0,-325.0,-325.0,-325.0,-325.0,-7.5396825396825395
-30.396825396825395,-0.873015873015873,-30.238095238095237,2.3015873015873014,-38.49206349206349,-7.063492063492063,-44.2063492063492,-5.7936507936507935,-48.49206349206349,-10.714285714285714,-46.904761904761905,-4.365079365079365,-27.063492063492063,-9.444444444444445,-46.11111111111111,-5.0,-3.253968253968254,0.873015873015873,-325.0,-325.0,-325.0,-325.0,-325.0,-7.5396825396825395
-30.396825396825395,-0.873015873015873,-30.238095238095237,2.3015873015873014,-38.49206349206349,-7.063492063492063,-44.2063492063492,-5.7936507936507935,-48.49206349206349,-10.714285714285714,-46.904761904761905,-4.365079365079365,-27.063492063492063,-9.444444444444445,-46.11111111111111,-5.0,-3.253968253968254,0.873015873015873,-325.0,-325.0,-325.0,-325.0,-325.0,-7.5396825396825395
-45.317460317460316,-9.285714285714285,-60.39682539682539,-7.857142857142857,-67.85714285714285,-15.0,-64.04761904761905,-8.015873015873016,-63.41269841269841,-10.714285714285714,-63.41269841269841,-9.126984126984127,-47.06349206349206,-11.507936507936508,-63.25396825396825,-4.365079365079365,-3.095238095238095,1.1904761904761905,-325.0,-325.0,-325.0,-325.0,-325.0,-7.5396825396825395
-45.317460317460316,-9.285714285714285,-60.39682539682539,-7.857142857142857,-67.85714285714285,-15.0,-64.04761904761905,-8.015873015873016,-63.41269841269841,-10.714285714285714,-63.41269841269841,-9.126984126984127,-47.06349206349206,-11.507936507936508,-63.25396825396825,-4.365079365079365,-3.095238095238095,1.1904761904761905,-325.0,-325.0,-325.0,-325.0,-325.0,-7.5396825396825395
-73.73015873015872,-14.682539682539682,-89.44444444444444,-16.587301587301585,-91.98412698412697,-18.65079365079365,-81.66666666666666,-6.746031746031746,-76.74603174603175,1.6666666666666665,-90.71428571428571,-14.682539682539682,-72.77777777777777,-13.253968253968253,-84.04761904761904,1.0317460317460316,-3.253968253968254,1.349206349206349,-325.0,-325.0,-325.0,-325.0,-325.0,-7.5396825396825395
-73.73015873015872,-14.682539682539682,-89.44444444444444,-16.587301587301585,-91.98412698412697,-18.65079365079365,-81.66666666666666,-6.746031746031746,-76.74603174603175,1.6666666666666665,-90.71428571428571,-14.682539682539682,-72.77777777777777,-13.253968253968253,-84.04761904761904,1.0317460317460316,-3.253968253968254,1.349206349206349,-325.0,-325.0,-325.0,-325.0,-325.0,-7.5396825396825395
-106.74603174603175,-20.71428571428571,-117.6984126984127,-17.698412698412696,-110.87301587301587,-11.19047619047619,-101.5079365079365,-0.873015873015873,-100.87301587301587,-0.3968253968253968,-114.04761904761904,-15.158730158730158,-98.80952380952381,-11.19047619047619,-96.42857142857142,2.7777777777777777,-3.73015873015873,1.349206349206349,-325.0,-325.0,-325.0,-325.0,-325.0,-7.5396825396825395
-106.74603174603175,-20.71428571428571,-117.6984126984127,-17.698412698412696,-110.87301587301587,-11.19047619047619,-101.5079365079365,-0.873015873015873,-100.87301587301587,-0.3968253968253968,-114.04761904761904,-15.158730158730158,-98.80952380952381,-11.19047619047619,-96.42857142857142,2.7777777777777777,-3.73015873015873,1.349206349206349,-325.0,-325.0,-325.0,-325.0,-325.0,-7.5396825396825395
-114.52380952380952,-28.174603174603174,-122.14285714285714,-24.68253968253968,-118.33333333333333,-24.206349206349206,-117.38095238095238,-16.11111111111111,-114.36507936507935,-12.46031746031746,-115.63492063492063,-17.698412698412696,-104.04761904761904,-14.365079365079364,-107.22222222222221,-9.444444444444445,-3.73015873015873,1.6666666666666665,-325.0,-325.0,-325.0,-325.0,-325.0,-321.8253968253968
-114.52380952380952,-28.174603174603174,-122.14285714285714,-24.68253968253968,-118.33333333333333,-24.206349206349206,-117.38095238095238,-16.11111111111111,-114.36507936507935,-12.46031746031746,-115.63492063492063,-17.698412698412696,-104.04761904761904,-14.365079365079364,-107.22222222222221,-9.444444444444445,-3.73015873015873,1.6666666666666665,-325.0,-325.0,-325.0,-325.0,-325.0,-321.8253968253968
-115.47619047619047,-37.22222222222222,-122.93650793650794,-25.476190476190474,-119.92063492063491,-28.015873015873016,-125.63492063492063,-21.984126984126984,-120.07936507936508,-14.523809523809524,-111.82539682539682,-25.0,-107.85714285714285,-23.41269841269841,-117.53968253968253,-16.428571428571427,-2.7777777777777777,1.0317460317460316,-325.0,-325.0,-325.0,-325.0,-325.0,-321.8253968253968
-115.47619047619047,-37.22222222222222,-122.93650793650794,-25.476190476190474,-119.92063492063491,-28.015873015873016,-125.63492063492063,-21.984126984126984,-120.07936507936508,-14.523809523809524,-111.82539682539682,-25.0,-107.85714285714285,-23.41269841269841,-117.53968253968253,-16.428571428571427,-2.7777777777777777,1.0317460317460316,-325.0,-325.0,-325.0,-325.0,-325.0,-321.8253968253968
-120.07936507936508,-22.3015873015873,-112.46031746031746,-13.095238095238095,-111.03174603174602,-9.603174603174603,-110.23809523809523,-8.968253968253968,-106.42857142857142,0.873015873015873,-107.85714285714285,-18.174603174603174,-104.36507936507935,-16.428571428571427,-93.09523809523809,-7.5396825396825395,-3.095238095238095,1.1904761904761905,-325.0,-325.0,-325.0,-325.0,-325.0,-321.8253968253968
-120.07936507936508,-22.3015873015873,-112.46031746031746,-13.095238095238095,-111.03174603174602,-9.603174603174603,-110.23809523809523,-8.968253968253968,-106.42857142857142,0.873015873015873,-107.85714285714285,-18.174603174603174,-104.36507936507935,-16.428571428571427,-93.09523809523809,-7.5396825396825395,-3.095238095238095,1.1904761904761905,-325.0,-325.0,-325.0,-325.0,-325.0,-321.8253968253968
-110.87301587301587,-25.476190476190474,-108.01587301587301,-14.682539682539682,-98.80952380952381,-10.079365079365079,-98.96825396825396,-12.619047619047619,-101.98412698412697,-9.603174603174603,-106.1111111111111,-17.698412698412696,-104.36507936507935,-16.746031746031743,-95.79365079365078,-11.984126984126984,-3.571428571428571,1.6666666666666665,-325.0,-325.0,-325.0,-325.0,-325.0,-321.8253968253968
-110.87301587301587,-25.476190476190474,-108.01587301587301,-14.682539682539682,-98.80952380952381,-10.079365079365079,-98.96825396825396,-12.619047619047619,-101.98412698412697,-9.603174603174603,-106.1111111111111,-17.698412698412696,-104.36507936507935,-16.746031746031743,-95.79365079365078,-11.984126984126984,-3.571428571428571,1.6666666666666665,-325.0,-325.0,-325.0,-325.0,-325.0,-321.8253968253968
-120.23809523809523,-11.19047619047619,-102.77777777777777,-3.253968253968254,-104.2063492063492,-8.809523809523808,-108.96825396825396,-15.158730158730158,-113.88888888888889,-13.571428571428571,-107.85714285714285,-11.666666666666666,-115.63492063492063,-11.507936507936508,-109.44444444444444,-11.984126984126984,-3.4126984126984126,1.507936507936508,-325.0,-325.0,-325.0,-325.0,-325.0,-321.8253968253968
-120.23809523809523,-11.19047619047619,-102.77777777777777,-3.253968253968254,-104.2063492063492,-8.809523809523808,-108.96825396825396,-15.158730158730158,-113.88888888888889,-13.571428571428571,-107.85714285714285,-11.666666666666666,-115.63492063492063,-11.507936507936508,-109.44444444444444,-11.984126984126984,-3.4126984126984126,1.507936507936508,-325.0,-325.0,-325.0,-325.0,-325.0,-321.8253968253968
-120.23809523809523,-22.46031746031746,-103.73015873015872,-13.73015873015873,-102.30158730158729,-14.84126984126984,-98.49206349206348,-16.904761904761905,-101.5079365079365,-16.11111111111111,-104.04761904761904,-12.777777777777777,-114.04761904761904,-8.174603174603174,-105.0,-13.571428571428571,-3.253968253968254,1.1904761904761905,-325.0,-325.0,-325.0,-325.0,-325.0,-7.5396825396825395
-120.23809523809523,-22.46031746031746,-103.73015873015872,-13.73015873015873,-102.30158730158729,-14.84126984126984,-98.49206349206348,-16.904761904761905,-101.5079365079365,-16.11111111111111,-104.04761904761904,-12.777777777777777,-114.04761904761904,-8.174603174603174,-105.0,-13.571428571428571,-3.253968253968254,1.1904761904761905,-325.0,-325.0,-325.0,-325.0,-325.0,-7.5396825396825395
-77.85714285714285,-45.0,-50.238095238095234,-18.49206349206349,-51.34920634920635,-17.063492063492063,-52.14285714285714,-23.095238095238095,-48.96825396825397,-18.015873015873016,-51.98412698412698,-21.349206349206348,-55.15873015873016,-15.317460317460316,-50.238095238095234,-16.428571428571427,-3.571428571428571,1.0317460317460316,-325.0,-325.0,-325.0,-325.0,-325.0,-7.5396825396825395
-77.85714285714285,-45.0,-50.238095238095234,-18.49206349206349,-51.34920634920635,-17.063492063492063,-52.14285714285714,-23.095238095238095,-48.96825396825397,-18.015873015873016,-51.98412698412698,-21.349206349206348,-55.15873015873016,-15.317460317460316,-50.238095238095234,-16.428571428571427,-3.571428571428571,1.0317460317460316,-325.0,-325.0,-325.0,-325.0,-325.0,-7.5396825396825395
-63.095238095238095,-93.88888888888889,-17.698412698412696,-49.6031746031746,-10.555555555555555,-44.68253968253968,-12.936507936507935,-44.2063492063492,-12.3015873015873,-44.2063492063492,-16.746031746031743,-41.98412698412698,-12.142857142857142,-32.77777777777778,-9.920634920634921,-38.65079365079365,-4.0476190476190474,1.349206349206349,-325.0,-325.0,-325.0,-325.0,-325.0,-7.5396825396825395
-63.095238095238095,-93.88888888888889,-17.698412698412696,-49.6031746031746,-10.555555555555555,-44.68253968253968,-12.936507936507935,-44.2063492063492,-12.3015873015873,-44.2063492063492,-16.746031746031743,-41.98412698412698,-12.142857142857142,-32.77777777777778,-9.920634920634921,-38.65079365079365,-4.0476190476190474,1.349206349206349,-325.0,-325.0,-325.0,-325.0,-325.0,-7.5396825396825395
-68.4920634920635,-91.03174603174602,-10.396825396825395,-49.92063492063492,-5.952380952380952,-37.06349206349206,-1.507936507936508,-34.84126984126984,0.5555555555555556,-32.61904761904762,-12.936507936507935,-41.507936507936506,-3.888888888888889,-32.3015873015873,-1.6666666666666665,-35.476190476190474,-3.73015873015873,1.507936507936508,-325.0,-325.0,-325.0,-325.0,-325.0,-7.5396825396825395
-68.4920634920635,-91.03174603174602,-10.396825396825395,-49.92063492063492,-5.952380952380952,-37.06349206349206,-1.507936507936508,-34.84126984126984,0.5555555555555556,-32.61904761904762,-12.936507936507935,-41.507936507936506,-3.888888888888889,-32.3015873015873,-1.6666666666666665,-35.476190476190474,-3.73015873015873,1.507936507936508,-325.0,-325.0,-325.0,-325.0,-325.0,-7.5396825396825395
-81.03174603174602,-98.33333333333333,-20.238095238095237,-44.2063492063492,-15.95238095238095,-31.825396825396822,-1.0317460317460316,-31.98412698412698,-1.0317460317460316,-32.460317460317455,-30.87301587301587,-44.047619047619044,-12.46031746031746,-32.61904761904762,1.1904761904761905,-34.047619047619044,-3.4126984126984126,1.6666666666666665,-325.0,-325.0,-325.0,-325.0,-325.0,-7.5396825396825395
-81.03174603174602,-98.33333333333333,-20.238095238095237,-44.2063492063492,-15.95238095238095,-31.825396825396822,-1.0317460317460316,-31.98412698412698,-1.0317460317460316,-32.460317460317455,-30.87301587301587,-44.047619047619044,-12.46031746031746,-32.61904761904762,1.1904761904761905,-34.047619047619044,-3.4126984126984126,1.6666666666666665,-325.0,-325.0,-325.0,-325.0,-325.0,-7.5396825396825395
-133.73015873015873,-92.93650793650794,-65.0,-50.238095238095234,-60.079365079365076,-34.047619047619044,-37.857142857142854,-28.174603174603174,-44.36507936507936,-26.428571428571427,-76.9047619047619,-46.269841269841265,-75.15873015873015,-34.36507936507936,-46.42857142857142,-29.444444444444443,-3.4126984126984126,1.8253968253968254,-325.0,-325.0,-325.0,-325.0,-325.0,-321.8253968253968
-133.73015873015873,-92.93650793650794,-65.0,-50.238095238095234,-60.079365079365076,-34.047619047619044,-37.857142857142854,-28.174603174603174,-44.36507936507936,-26.428571428571427,-76.9047619047619,-46.269841269841265,-75.15873015873015,-34.36507936507936,-46.42857142857142,-29.444444444444443,-3.4126984126984126,1.8253968253968254,-325.0,-325.0,-325.0,-325.0,-325.0,-321.8253968253968
-186.26984126984127,-74.36507936507937,-137.53968253968253,-52.14285714285714,-134.36507936507937,-35.317460317460316,-122.30158730158729,-34.52380952380952,-127.6984126984127,-36.58730158730159,-138.015873015873,-37.857142857142854,-145.95238095238093,-31.19047619047619,-125.95238095238095,-35.476190476190474,-3.73015873015873,1.6666666666666665,-325.0,-325.0,-325.0,-325.0,-325.0,-321.8253968253968
-186.26984126984127,-74.36507936507937,-137.53968253968253,-52.14285714285714,-134.36507936507937,-35.317460317460316,-122.30158730158729,-34.52380952380952,-127.6984126984127,-36.58730158730159,-138.015873015873,-37.857142857142854,-145.95238095238093,-31.19047619047619,-125.95238095238095,-35.476190476190474,-3.73015873015873,1.6666666666666665,-325.0,-325.0,-325.0,-325.0,-325.0,-321.8253968253968
-200.23809523809524,-42.93650793650794,-172.61904761904762,-27.539682539682538,-174.36507936507937,-25.317460317460316,-175.79365079365078,-35.63492063492063,-176.74603174603175,-31.825396825396822,-170.87301587301587,-29.285714285714285,-185.0,-29.444444444444443,-168.96825396825395,-32.93650793650794,-4.0476190476190474,1.1904761904761905,-325.0,-325.0,-325.0,-325.0,-325.0,-321.8253968253968
-200.23809523809524,-42.93650793650794,-172.61904761904762,-27.539682539682538,-174.36507936507937,-25.317460317460316,-175.79365079365078,-35.63492063492063,-176.74603174603175,-31.825396825396822,-170.87301587301587,-29.285714285714285,-185.0,-29.444444444444443,-168.96825396825395,-32.93650793650794,-4.0476190476190474,1.1904761904761905,-325.0,-325.0,-325.0,-325.0,-325.0,-321.8253968253968
-201.5079365079365,-16.11111111111111,-194.84126984126982,-26.26984126984127,-203.57142857142856,-26.746031746031743,-201.66666666666666,-32.3015873015873,-201.19047619047618,-35.317460317460316,-188.96825396825395,-25.79365079365079,-208.33333333333331,-29.920634920634917,-195.95238095238093,-34.047619047619044,-3.73015873015873,0.873015873015873,-325.0,-325.0,-325.0,-325.0,-325.0,-321.8253968253968
-201.5079365079365,-16.11111111111111,-194.84126984126982,-26.26984126984127,-203.57142857142856,-26.746031746031743,-201.66666666666666,-32.3015873015873,-201.19047619047618,-35.317460317460316,-188.96825396825395,-25.79365079365079,-208.33333333333331,-29.920634920634917,-195.95238095238093,-34.047619047619044,-3.73015873015873,0.873015873015873,-325.0,-325.0,-325.0,-325.0,-325.0,-321.8253968253968
-199.44444444444443,-18.96825396825397,-203.7301587301587,-34.2063492063492,-211.03174603174602,-30.555555555555554,-205.3174603174603,-30.07936507936508,-201.66666666666666,-32.77777777777778,-195.3174603174603,-25.317460317460316,-215.47619047619045,-31.03174603174603,-203.25396825396825,-30.07936507936508,-3.571428571428571,1.507936507936508,-325.0,-325.0,-325.0,-325.0,-325.0,-321.8253968253968
-199.44444444444443,-18.96825396825397,-203.7301587301587,-34.2063492063492,-211.03174603174602,-30.555555555555554,-205.3174603174603,-30.07936507936508,-201.66666666666666,-32.77777777777778,-195.3174603174603,-25.317460317460316,-215.47619047619045,-31.03174603174603,-203.25396825396825,-30.07936507936508,-3.571428571428571,1.507936507936508,-325.0,-325.0,-325.0,-325.0,-325.0,-321.8253968253968
-196.58730158730157,-1.0317460317460316,-209.60317460317458,-20.238095238095237,-215.15873015873015,-20.555555555555554,-216.42857142857142,-30.87301587301587,-212.3015873015873,-31.03174603174603,-205.15873015873015,-17.539682539682538,-227.69841269841268,-25.158730158730158,-224.2063492063492,-29.126984126984127,-5.0,1.1904761904761905,-325.0,-325.0,-325.0,-325.0,-325.0,-7.5396825396825395
-196.58730158730157,-1.0317460317460316,-209.60317460317458,-20.238095238095237,-215.15873015873015,-20.555555555555554,-216.42857142857142,-30.87301587301587,-212.3015873015873,-31.03174603174603,-205.15873015873015,-17.539682539682538,-227.69841269841268,-25.158730158730158,-224.2063492063492,-29.126984126984127,-5.0,1.1904761904761905,-325.0,-325.0,-325.0,-325.0,-325.0,-7.5396825396825395
-173.57142857142856,7.5396825396825395,-182.46031746031744,-9.285714285714285,-187.06349206349205,-7.222222222222221,-184.2063492063492,-26.587301587301585,-194.68253968253967,-27.539682539682538,-182.14285714285714,-7.222222222222221,-206.9047619047619,-19.126984126984127,-194.84126984126982,-30.238095238095237,-5.0,1.1904761904761905,-325.0,-325.0,-325.0,-325.0,-325.0,-7.5396825396825395
-173.57142857142856,7.5396825396825395,-182.46031746031744,-9.285714285714285,-187.06349206349205,-7.222222222222221,-184.2063492063492,-26.587301587301585,-194.68253968253967,-27.539682539682538,-182.14285714285714,-7.222222222222221,-206.9047619047619,-19.126984126984127,-194.84126984126982,-30.238095238095237,-5.0,1.1904761904761905,-325.0,-325.0,-325.0,-325.0,-325.0,-7.5396825396825395
-150.87301587301587,-4.682539682539682,-165.15873015873015,-20.555555555555554,-173.88888888888889,-22.142857142857142,-170.7142857142857,-39.6031746031746,-183.88888888888889,-37.38095238095238,-163.25396825396825,-20.873015873015873,-187.85714285714283,-31.507936507936506,-180.23809523809524,-41.507936507936506,-4.682539682539682,1.1904761904761905,-325.0,-325.0,-325.0,-325.0,-325.0,-7.5396825396825395
-150.87301587301587,-4.682539682539682,-165.15873015873015,-20.555555555555554,-173.88888888888889,-22.142857142857142,-170.7142857142857,-39.6031746031746,-183.88888888888889,-37.38095238095238,-163.25396825396825,-20.873015873015873,-187.85714285714283,-31.507936507936506,-180.23809523809524,-41.507936507936506,-4.682539682539682,1.1904761904761905,-325.0,-325.0,-325.0,-325.0,-325.0,-7.5396825396825395
-128.96825396825395,-13.253968253968253,-153.25396825396825,-31.349206349206348,-158.8095238095238,-26.587301587301585,-153.4126984126984,-33.57142857142857,-158.96825396825395,-29.285714285714285,-137.85714285714286,-29.920634920634917,-157.2222222222222,-39.92063492063492,-147.2222222222222,-40.55555555555555,-5.0,1.349206349206349,-325.0,-325.0,-325.0,-325.0,-325.0,-7.5396825396825395
-128.96825396825395,-13.253968253968253,-153.25396825396825,-31.349206349206348,-158.8095238095238,-26.587301587301585,-153.4126984126984,-33.57142857142857,-158.96825396825395,-29.285714285714285,-137.85714285714286,-29.920634920634917,-157.2222222222222,-39.92063492063492,-147.2222222222222,-40.55555555555555,-5.0,1.349206349206349,-325.0,-325.0,-325.0,-325.0,-325.0,-7.5396825396825395
-130.23809523809524,-8.333333333333332,-145.15873015873015,-22.936507936507937,-150.87301587301587,-13.888888888888888,-153.25396825396825,-26.26984126984127,-160.55555555555554,-28.65079365079365,-128.17460317460316,-30.87301587301587,-142.61904761904762,-42.77777777777778,-154.68253968253967,-35.0,-5.317460317460317,1.507936507936508,-325.0,-325.0,-325.0,-325.0,-325.0,-7.5396825396825395
-130.23809523809524,-8.333333333333332,-145.15873015873015,-22.936507936507937,-150.87301587301587,-13.888888888888888,-153.25396825396825,-26.26984126984127,-160.55555555555554,-28.65079365079365,-128.17460317460316,-30.87301587301587,-142.61904761904762,-42.77777777777778,-154.68253968253967,-35.0,-5.317460317460317,1.507936507936508,-325.0,-325.0,-325.0,-325.0,-325.0,-7.5396825396825395
-97.85714285714285,-2.142857142857143,-108.96825396825396,-13.253968253968253,-112.93650793650794,-9.444444444444445,-118.49206349206348,-27.857142857142854,-129.76190476190476,-27.539682539682538,-99.12698412698413,-26.26984126984127,-113.57142857142857,-38.33333333333333,-125.0,-33.095238095238095,-5.317460317460317,1.349206349206349,-325.0,-325.0,-325.0,-325.0,-325.0,-321.8253968253968
-97.85714285714285,-2.142857142857143,-108.96825396825396,-13.253968253968253,-112.93650793650794,-9.444444444444445,-118.49206349206348,-27.857142857142854,-129.76190476190476,-27.539682539682538,-99.12698412698413,-26.26984126984127,-113.57142857142857,-38.33333333333333,-125.0,-33.095238095238095,-5.317460317460317,1.349206349206349,-325.0,-325.0,-325.0,-325.0,-325.0,-321.8253968253968
-91.34920634920634,-11.19047619047619,-105.31746031746032,-21.19047619047619,-105.79365079365078,-11.984126984126984,-102.61904761904762,-25.79365079365079,-108.96825396825396,-27.857142857142854,-99.44444444444444,-28.174603174603174,-115.47619047619047,-34.52380952380952,-118.96825396825396,-27.857142857142854,-5.634920634920634,1.1904761904761905,-325.0,-325.0,-325.0,-325.0,-325.0,-321.8253968253968
-91.34920634920634,-11.19047619047619,-105.31746031746032,-21.19047619047619,-105.79365079365078,-11.984126984126984,-102.61904761904762,-25.79365079365079,-108.96825396825396,-27.857142857142854,-99.44444444444444,-28.174603174603174,-115.47619047619047,-34.52380952380952,-118.96825396825396,-27.857142857142854,-5.634920634920634,1.1904761904761905,-325.0,-325.0,-325.0,-325.0,-325.0,-321.8253968253968
-56.42857142857142,-18.65079365079365,-56.58730158730158,-22.3015873015873,-62.61904761904761,-22.777777777777775,-67.06349206349206,-41.03174603174603,-77.6984126984127,-41.507936507936506,-62.14285714285714,-29.6031746031746,-89.28571428571428,-33.41269841269841,-86.9047619047619,-39.12698412698413,-5.476190476190476,1.0317460317460316,-325.0,-325.0,-325.0,-325.0,-325.0,-321.8253968253968
-56.42857142857142,-18.65079365079365,-56.58730158730158,-22.3015873015873,-62.61904761904761,-22.777777777777775,-67.06349206349206,-41.03174603174603,-77.6984126984127,-41.507936507936506,-62.14285714285714,-29.6031746031746,-89.28571428571428,-33.41269841269841,-86.9047619047619,-39.12698412698413,-5.476190476190476,1.0317460317460316,-325.0,-325.0,-325.0,-325.0,-325.0,-321.8253968253968
-41.03174603174603,-16.26984126984127,-42.61904761904761,-15.95238095238095,-53.095238095238095,-17.539682539682538,-50.87301587301587,-34.84126984126984,-63.095238095238095,-37.857142857142854,-42.93650793650794,-18.96825396825397,-66.58730158730158,-26.11111111111111,-78.80952380952381,-33.888888888888886,-5.158730158730158,0.873015873015873,-325.0,-325.0,-325.0,-325.0,-325.0,-321.8253968253968
-41.03174603174603,-16.26984126984127,-42.61904761904761,-15.95238095238095,-53.095238095238095,-17.539682539682538,-50.87301587301587,-34.84126984126984,-63.095238095238095,-37.857142857142854,-42.93650793650794,-18.96825396825397,-66.58730158730158,-26.11111111111111,-78.80952380952381,-33.888888888888886,-5.158730158730158,0.873015873015873,-325.0,-325.0,-325.0,-325.0,-325.0,-321.8253968253968
-24.047619047619047,-22.619047619047617,-28.333333333333332,-26.746031746031743,-36.11111111111111,-23.730158730158728,-23.88888888888889,-32.77777777777778,-36.58730158730159,-33.095238095238095,-13.412698412698411,-21.666666666666664,-23.88888888888889,-25.79365079365079,-31.825396825396822,-34.047619047619044,-5.476190476190476,1.0317460317460316,-325.0,-325.0,-325.0,-325.0,-325.0,-321.8253968253968
-24.047619047619047,-22.619047619047617,-28.333333333333332,-26.746031746031743,-36.11111111111111,-23.730158730158728,-23.88888888888889,-32.77777777777778,-36.58730158730159,-33.095238095238095,-13.412698412698411,-21.666666666666664,-23.88888888888889,-25.79365079365079,-31.825396825396822,-34.047619047619044,-5.476190476190476,1.0317460317460316,-325.0,-325.0,-325.0,-325.0,-325.0,-321.8253968253968
49.92063492063492,-16.11111111111111,45.79365079365079,-20.873015873015873,40.39682539682539,-13.888888888888888,53.57142857142857,-22.619047619047617,40.39682539682539,-17.38095238095238,65.0,-11.984126984126984,64.04761904761905,-23.57142857142857,48.49206349206349,-28.174603174603174,-5.0,1.349206349206349,-325.0,-325.0,-325.0,-325.0,-325.0,-7.5396825396825395
49.92063492063492,-16.11111111111111,45.79365079365079,-20.873015873015873,40.39682539682539,-13.888888888888888,53.57142857142857,-22.619047619047617,40.39682539682539,-17.38095238095238,65.0,-11.984126984126984,64.04761904761905,-23.57142857142857,48.49206349206349,-28.174603174603174,-5.0,1.349206349206349,-325.0,-325.0,-325.0,-325.0,-325.0,-7.5396825396825395
85.63492063492063,-11.031746031746032,83.73015873015872,-5.7936507936507935,76.9047619047619,-1.8253968253968254,74.68253968253968,-23.88888888888889,67.06349206349206,-24.68253968253968,95.63492063492063,-14.682539682539682,97.85714285714285,-25.634920634920633,72.61904761904762,-29.444444444444443,-5.0,1.0317460317460316,-325.0,-325.0,-325.0,-325.0,-325.0,-7.5396825396825395
85.63492063492063,-11.031746031746032,83.73015873015872,-5.7936507936507935,76.9047619047619,-1.8253968253968254,74.68253968253968,-23.88888888888889,67.06349206349206,-24.68253968253968,95.63492063492063,-14.682539682539682,97.85714285714285,-25.634920634920633,72.61904761904762,-29.444444444444443,-5.0,1.0317460317460316,-325.0,-325.0,-325.0,-325.0,-325.0,-7.5396825396825395
120.55555555555554,-15.634920634920634,131.34920634920636,5.7936507936507935,115.63492063492063,11.507936507936508,101.98412698412697,-11.507936507936508,98.17460317460316,-21.507936507936506,132.14285714285714,-12.46031746031746,118.17460317460316,-22.142857142857142,88.96825396825396,-18.49206349206349,-4.523809523809524,1.349206349206349,-325.0,-325.0,-325.0,-325.0,-325.0,-7.5396825396825395
120.55555555555554,-15.634920634920634,131.34920634920636,5.7936507936507935,115.63492063492063,11.507936507936508,101.98412698412697,-11.507936507936508,98.17460317460316,-21.507936507936506,132.14285714285714,-12.46031746031746,118.17460317460316,-22.142857142857142,88.96825396825396,-18.49206349206349,-4.523809523809524,1.349206349206349,-325.0,-325.0,-325.0,-325.0,-325.0,-7.5396825396825395
145.15873015873015,-3.888888888888889,147.2222222222222,-5.0,133.57142857142856,-1.349206349206349,132.46031746031744,-8.174603174603174,132.93650793650792,-11.349206349206348,156.74603174603175,-11.507936507936508,128.96825396825395,-18.65079365079365,114.68253968253967,-14.047619047619047,-4.841269841269841,1.1904761904761905,-325.0,-325.0,-325.0,-325.0,-325.0,-7.5396825396825395
145.15873015873015,-3.888888888888889,147.2222222222222,-5.0,133.57142857142856,-1.349206349206349,132.46031746031744,-8.174603174603174,132.93650793650792,-11.349206349206348,156.74603174603175,-11.507936507936508,128.96825396825395,-18.65079365079365,114.68253968253967,-14.047619047619047,-4.841269841269841,1.1904761904761905,-325.0,-325.0,-325.0,-325.0,-325.0,-7.5396825396825395
135.79365079365078,-23.41269841269841,133.57142857142856,-11.984126984126984,128.015873015873,0.23809523809523808,144.2063492063492,2.142857142857143,146.58730158730157,4.523809523809524,142.14285714285714,-14.206349206349206,125.0,-16.26984126984127,126.1111111111111,-1.0317460317460316,-4.841269841269841,1.0317460317460316,-325.0,-325.0,-325.0,-325.0,-325.0,-7.5396825396825395
135.79365079365078,-23.41269841269841,133.57142857142856,-11.984126984126984,128.015873015873,0.23809523809523808,144.2063492063492,2.142857142857143,146.58730158730157,4.523809523809524,142.14285714285714,-14.206349206349206,125.0,-16.26984126984127,126.1111111111111,-1.0317460317460316,-4.841269841269841,1.0317460317460316,-325.0,-325.0,-325.0,-325.0,-325.0,-7.5396825396825395
115.95238095238095,-26.11111111111111,101.98412698412697,-22.619047619047617,108.33333333333333,-7.222222222222221,129.9206349206349,-5.634920634920634,129.76190476190476,1.349206349206349,125.79365079365078,-18.333333333333332,125.31746031746032,-10.555555555555555,128.8095238095238,-3.73015873015873,-5.0,1.0317460317460316,-325.0,-325.0,-325.0,-325.0,-325.0,-321.8253968253968
115.95238095238095,-26.11111111111111,101.98412698412697,-22.619047619047617,108.33333333333333,-7.222222222222221,129.9206349206349,-5.634920634920634,129.76190476190476,1.349206349206349,125.79365079365078,-18.333333333333332,125.31746031746032,-10.555555555555555,128.8095238095238,-3.73015873015873,-5.0,1.0317460317460316,-325.0,-325.0,-325.0,-325.0,-325.0,-321.8253968253968
105.0,-26.587301587301585,103.4126984126984,-21.666666666666664,105.15873015873015,-8.968253968253968,119.76190476190476,-9.285714285714285,121.5079365079365,-0.873015873015873,121.34920634920634,-18.65079365079365,127.38095238095238,-14.84126984126984,125.0,-8.174603174603174,-4.365079365079365,1.349206349206349,-325.0,-325.0,-325.0,-325.0,-325.0,-321.8253968253968
105.0,-26.587301587301585,103.4126984126984,-21.666666666666664,105.15873015873015,-8.968253968253968,119.76190476190476,-9.285714285714285,121.5079365079365,-0.873015873015873,121.34920634920634,-18.65079365079365,127.38095238095238,-14.84126984126984,125.0,-8.174603174603174,-4.365079365079365,1.349206349206349,-325.0,-325.0,-325.0,-325.0,-325.0,-321.8253968253968
112.30158730158729,-18.015873015873016,127.85714285714285,-13.095238095238095,123.25396825396825,-3.888888888888889,126.1111111111111,-8.65079365079365,121.98412698412697,-8.492063492063492,122.93650793650794,-15.634920634920634,132.3015873015873,-13.571428571428571,118.96825396825396,-12.142857142857142,-4.2063492063492065,1.507936507936508,-325.0,-325.0,-325.0,-325.0,-325.0,-321.8253968253968
112.30158730158729,-18.015873015873016,127.85714285714285,-13.095238095238095,123.25396825396825,-3.888888888888889,126.1111111111111,-8.65079365079365,121.98412698412697,-8.492063492063492,122.93650793650794,-15.634920634920634,132.3015873015873,-13.571428571428571,118.96825396825396,-12.142857142857142,-4.2063492063492065,1.507936507936508,-325.0,-325.0,-325.0,-325.0,-325.0,-321.8253968253968
117.6984126984127,-3.888888888888889,146.58730158730157,6.111111111111111,135.3174603174603,14.206349206349206,128.96825396825395,3.4126984126984126,116.9047619047619,-5.634920634920634,125.79365079365078,-9.603174603174603,123.88888888888889,-12.3015873015873,118.49206349206348,-7.063492063492063,-4.0476190476190474,1.507936507936508,-325.0,-325.0,-325.0,-325.0,-325.0,-321.8253968253968
117.6984126984127,-3.888888888888889,146.58730158730157,6.111111111111111,135.3174603174603,14.206349206349206,128.96825396825395,3.4126984126984126,116.9047619047619,-5.634920634920634,125.79365079365078,-9.603174603174603,123.88888888888889,-12.3015873015873,118.49206349206348,-7.063492063492063,-4.0476190476190474,1.507936507936508,-325.0,-325.0,-325.0,-325.0,-325.0,-321.8253968253968
93.73015873015872,-2.3015873015873014,110.23809523809523,1.1904761904761905,101.5079365079365,3.73015873015873,95.0,-11.666666666666666,84.04761904761904,-17.063492063492063,98.49206349206348,-9.285714285714285,104.52380952380952,-10.396825396825395,83.88888888888889,-16.428571428571427,-4.841269841269841,1.0317460317460316,-325.0,-325.0,-325.0,-325.0,-325.0,-321.8253968253968
93.73015873015872,-2.3015873015873014,110.23809523809523,1.1904761904761905,101.5079365079365,3.73015873015873,95.0,-11.666666666666666,84.04761904761904,-17.063492063492063,98.49206349206348,-9.285714285714285,104.52380952380952,-10.396825396825395,83.88888888888889,-16.428571428571427,-4.841269841269841,1.0317460317460316,-325.0,-325.0,-325.0,-325.0,-325.0,-321.8253968253968
45.95238095238095,-1.0317460317460316,53.41269841269841,2.142857142857143,48.650793650793645,3.888888888888889,47.38095238095238,-10.714285714285714,45.63492063492063,-6.904761904761904,51.19047619047619,-0.7142857142857142,64.2063492063492,-2.46031746031746,48.650793650793645,-11.825396825396824,-4.523809523809524,1.1904761904761905,-325.0,-325.0,-325.0,-325.0,-325.0,-7.5396825396825395
45.95238095238095,-1.0317460317460316,53.41269841269841,2.142857142857143,48.650793650793645,3.888888888888889,47.38095238095238,-10.714285714285714,45.63492063492063,-6.904761904761904,51.19047619047619,-0.7142857142857142,64.2063492063492,-2.46031746031746,48.650793650793645,-11.825396825396824,-4.523809523809524,1.1904761904761905,-325.0,-325.0,-325.0,-325.0,-325.0,-7.5396825396825395
16.587301587301585,-17.063492063492063,22.3015873015873,-23.57142857142857,19.76190476190476,-15.0,26.9047619047619,-17.063492063492063,28.49206349206349,-7.698412698412698,21.507936507936506,-11.666666666666666,36.904761904761905,-8.174603174603174,31.825396825396822,-8.492063492063492,-4.0476190476190474,1.1904761904761905,-325.0,-325.0,-325.0,-325.0,-325.0,-7.5396825396825395
16.587301587301585,-17.063492063492063,22.3015873015873,-23.57142857142857,19.76190476190476,-15.0,26.9047619047619,-17.063492063492063,28.49206349206349,-7.698412698412698,21.507936507936506,-11.666666666666666,36.904761904761905,-8.174603174603174,31.825396825396822,-8.492063492063492,-4.0476190476190474,1.1904761904761905,-325.0,-325.0,-325.0,-325.0,-325.0,-7.5396825396825395
9.920634920634921,-29.6031746031746,18.65079365079365,-21.03174603174603,11.984126984126984,-17.698412698412696,23.253968253968253,-18.96825396825397,27.38095238095238,-14.206349206349206,6.587301587301587,-17.22222222222222,21.507936507936506,-10.396825396825395,20.873015873015873,-8.174603174603174,-4.682539682539682,1.1904761904761905,-325.0,-325.0,-325.0,-325.0,-325.0,-7.5396825396825395
9.920634920634921,-29.6031746031746,18.65079365079365,-21.03174603174603,11.984126984126984,-17.698412698412696,23.253968253968253,-18.96825396825397,27.38095238095238,-14.206349206349206,6.587301587301587,-17.22222222222222,21.507936507936506,-10.396825396825395,20.873015873015873,-8.174603174603174,-4.682539682539682,1.1904761904761905,-325.0,-325.0,-325.0,-325.0,-325.0,-7.5396825396825395
9.126984126984127,-12.936507936507935,31.825396825396822,-7.857142857142857,19.6031746031746,25.79365079365079,20.238095238095237,-5.634920634920634,28.809523809523807,-3.73015873015873,9.444444444444445,-6.428571428571428,11.031746031746032,-1.984126984126984,23.253968253968253,-3.73015873015873,-4.682539682539682,0.873015873015873,-325.0,-325.0,-325.0,-325.0,-325.0,-7.5396825396825395
9.126984126984127,-12.936507936507935,31.825396825396822,-7.857142857142857,19.6031746031746,25.79365079365079,20.238095238095237,-5.634920634920634,28.809523809523807,-3.73015873015873,9.444444444444445,-6.428571428571428,11.031746031746032,-1.984126984126984,23.253968253968253,-3.73015873015873,-4.682539682539682,0.873015873015873,-325.0,-325.0,-325.0,-325.0,-325.0,-7.5396825396825395
9.126984126984127,13.253968253968253,12.936507936507935,-1.1904761904761905,-3.095238095238095,86.42857142857143,-8.015873015873016,-12.46031746031746,0.873015873015873,-14.206349206349206,1.984126984126984,5.158730158730158,-6.746031746031746,-1.984126984126984,-13.73015873015873,-14.523809523809524,-4.523809523809524,0.873015873015873,-325.0,-325.0,-325.0,-325.0,-325.0,-7.5396825396825395
9.126984126984127,13.253968253968253,12.936507936507935,-1.1904761904761905,-3.095238095238095,86.42857142857143,-8.015873015873016,-12.46031746031746,0.873015873015873,-14.206349206349206,1.984126984126984,5.158730158730158,-6.746031746031746,-1.984126984126984,-13.73015873015873,-14.523809523809524,-4.523809523809524,0.873015873015873,-325.0,-325.0,-325.0,-325.0,-325.0,-7.5396825396825395
2.619047619047619,19.92063492063492,-0.23809523809523808,9.603174603174603,-7.3809523809523805,102.77777777777777,-17.38095238095238,-1.6666666666666665,-10.396825396825395,-1.1904761904761905,-0.3968253968253968,11.984126984126984,-11.984126984126984,1.984126984126984,-12.936507936507935,-3.4126984126984126,-5.0,1.1904761904761905,-325.0,-325.0,-325.0,-325.0,-325.0,-321.8253968253968
2.619047619047619,19.92063492063492,-0.23809523809523808,9.603174603174603,-7.3809523809523805,102.77777777777777,-17.38095238095238,-1.6666666666666665,-10.396825396825395,-1.1904761904761905,-0.3968253968253968,11.984126984126984,-11.984126984126984,1.984126984126984,-12.936507936507935,-3.4126984126984126,-5.0,1.1904761904761905,-325.0,-325.0,-325.0,-325.0,-325.0,-321.8253968253968
-6.111111111111111,2.9365079365079363,-5.634920634920634,-7.698412698412698,-13.888888888888888,76.1111111111111,-15.0,-13.888888888888888,-7.063492063492063,-8.65079365079365,-6.587301587301587,-5.158730158730158,-14.206349206349206,-13.412698412698411,-13.253968253968253,-11.349206349206348,-4.682539682539682,1.349206349206349,-325.0,-325.0,-325.0,-325.0,-325.0,-321.8253968253968
-6.111111111111111,2.9365079365079363,-5.634920634920634,-7.698412698412698,-13.888888888888888,76.1111111111111,-15.0,-13.888888888888888,-7.063492063492063,-8.65079365079365,-6.587301587301587,-5.158730158730158,-14.206349206349206,-13.412698412698411,-13.253968253968253,-11.349206349206348,-4.682539682539682,1.349206349206349,-325.0,-325.0,-325.0,-325.0,-325.0,-321.8253968253968
-15.634920634920634,-18.49206349206349,-1.0317460317460316,-19.76190476190476,-3.4126984126984126,70.07936507936508,3.253968253968254,-2.46031746031746,8.333333333333332,-5.476190476190476,-4.841269841269841,-13.888888888888888,-6.587301587301587,-10.238095238095237,1.1904761904761905,-4.523809523809524,-4.523809523809524,1.0317460317460316,-325.0,-325.0,-325.0,-325.0,-325.0,-321.8253968253968
-15.634920634920634,-18.49206349206349,-1.0317460317460316,-19.76190476190476,-3.4126984126984126,70.07936507936508,3.253968253968254,-2.46031746031746,8.333333333333332,-5.476190476190476,-4.841269841269841,-13.888888888888888,-6.587301587301587,-10.238095238095237,1.1904761904761905,-4.523809523809524,-4.523809523809524,1.0317460317460316,-325.0,-325.0,-325.0,-325.0,-325.0,-321.8253968253968
-28.65079365079365,-24.047619047619047,-7.222222222222221,-14.682539682539682,-13.253968253968253,52.77777777777777,-10.714285714285714,-7.857142857142857,-1.507936507936508,-12.936507936507935,-8.015873015873016,-7.5396825396825395,-3.4126984126984126,1.0317460317460316,-4.841269841269841,-5.476190476190476,-5.0,1.507936507936508,-325.0,-325.0,-325.0,-325.0,-325.0,-321.8253968253968
-28.65079365079365,-24.047619047619047,-7.222222222222221,-14.682539682539682,-13.253968253968253,52.77777777777777,-10.714285714285714,-7.857142857142857,-1.507936507936508,-12.936507936507935,-8.015873015873016,-7.5396825396825395,-3.4126984126984126,1.0317460317460316,-4.841269841269841,-5.476190476190476,-5.0,1.507936507936508,-325.0,-325.0,-325.0,-325.0,-325.0,-321.8253968253968
-58.96825396825397,-47.698412698412696,-22.777777777777775,-29.285714285714285,-22.619047619047617,35.95238095238095,-20.555555555555554,-10.555555555555555,-11.984126984126984,-11.349206349206348,-17.539682539682538,-14.206349206349206,-14.047619047619047,-4.841269841269841,-6.428571428571428,-4.523809523809524,-5.0,1.507936507936508,-325.0,-325.0,-325.0,-325.0,-325.0,-321.8253968253968
-58.96825396825397,-47.698412698412696,-22.777777777777775,-29.285714285714285,-22.619047619047617,35.95238095238095,-20.555555555555554,-10.555555555555555,-11.984126984126984,-11.349206349206348,-17.539682539682538,-14.206349206349206,-14.047619047619047,-4.841269841269841,-6.428571428571428,-4.523809523809524,-5.0,1.507936507936508,-325.0,-325.0,-325.0,-325.0,-325.0,-321.8253968253968
-70.39682539682539,-40.238095238095234,-26.587301587301585,-8.492063492063492,-24.047619047619047,28.96825396825397,-31.98412698412698,-6.587301587301587,-20.238095238095237,2.619047619047619,-12.936507936507935,4.365079365079365,-18.174603174603174,2.9365079365079363,-23.88888888888889,3.095238095238095,-4.365079365079365,1.984126984126984,-325.0,-325.0,-325.0,-325.0,-325.0,-7.5396825396825395
-70.39682539682539,-40.238095238095234,-26.587301587301585,-8.492063492063492,-24.047619047619047,28.96825396825397,-31.98412698412698,-6.587301587301587,-20.238095238095237,2.619047619047619,-12.936507936507935,4.365079365079365,-18.174603174603174,2.9365079365079363,-23.88888888888889,3.095238095238095,-4.365079365079365,1.984126984126984,-325.0,-325.0,-325.0,-325.0,-325.0,-7.5396825396825395
-68.17460317460318,-59.285714285714285,-11.349206349206348,-21.19047619047619,-14.84126984126984,11.507936507936508,-19.285714285714285,-20.555555555555554,-15.158730158730158,-17.857142857142858,-11.984126984126984,-13.253968253968253,-19.76190476190476,-7.698412698412698,-25.952380952380953,-14.84126984126984,-4.523809523809524,1.507936507936508,-325.0,-325.0,-325.0,-325.0,-325.0,-7.5396825396825395
-68.17460317460318,-59.285714285714285,-11.349206349206348,-21.19047619047619,-14.84126984126984,11.507936507936508,-19.285714285714285,-20.555555555555554,-15.158730158730158,-17.857142857142858,-11.984126984126984,-13.253968253968253,-19.76190476190476,-7.698412698412698,-25.952380952380953,-14.84126984126984,-4.523809523809524,1.507936507936508,-325.0,-325.0,-325.0,-325.0,-325.0,-7.5396825396825395
-88.65079365079364,-62.460317460317455,-28.809523809523807,-11.031746031746032,-20.238095238095237,32.61904761904762,-6.111111111111111,5.7936507936507935,-7.5396825396825395,3.73015873015873,-33.888888888888886,-4.2063492063492065,-23.095238095238095,2.619047619047619,-6.428571428571428,4.841269841269841,-4.523809523809524,1.984126984126984,-325.0,-325.0,-325.0,-325.0,-325.0,-7.5396825396825395
-88.65079365079364,-62.460317460317455,-28.809523809523807,-11.031746031746032,-20.238095238095237,32.61904761904762,-6.111111111111111,5.7936507936507935,-7.5396825396825395,3.73015873015873,-33.888888888888886,-4.2063492063492065,-23.095238095238095,2.619047619047619,-6.428571428571428,4.841269841269841,-4.523809523809524,1.984126984126984,-325.0,-325.0,-325.0,-325.0,-325.0,-7.5396825396825395
-88.01587301587301,-81.03174603174602,-26.428571428571427,-39.92063492063492,-18.015873015873016,-5.317460317460317,-0.5555555555555556,-15.0,-5.0,-17.698412698412696,-30.555555555555554,-23.88888888888889,-15.476190476190474,-8.968253968253968,-6.746031746031746,-11.349206349206348,-4.682539682539682,1.0317460317460316,-325.0,-325.0,-325.0,-325.0,-325.0,-7.5396825396825395
-88.01587301587301,-81.03174603174602,-26.428571428571427,-39.92063492063492,-18.015873015873016,-5.317460317460317,-0.5555555555555556,-15.0,-5.0,-17.698412698412696,-30.555555555555554,-23.88888888888889,-15.476190476190474,-8.968253968253968,-6.746031746031746,-11.349206349206348,-4.682539682539682,1.0317460317460316,-325.0,-325.0,-325.0,-325.0,-325.0,-7.5396825396825395
-78.17460317460316,-73.4126984126984,-12.3015873015873,-27.22222222222222,-8.174603174603174,-9.920634920634921,8.333333333333332,-14.365079365079364,-0.873015873015873,-15.793650793650793,-20.71428571428571,-19.6031746031746,-5.0,-8.174603174603174,2.9365079365079363,-14.523809523809524,-4.523809523809524,1.1904761904761905,-325.0,-325.0,-325.0,-325.0,-325.0,-7.5396825396825395
-78.17460317460316,-73.4126984126984,-12.3015873015873,-27.22222222222222,-8.174603174603174,-9.920634920634921,8.333333333333332,-14.365079365079364,-0.873015873015873,-15.793650793650793,-20.71428571428571,-19.6031746031746,-5.0,-8.174603174603174,2.9365079365079363,-14.523809523809524,-4.523809523809524,1.1904761904761905,-325.0,-325.0,-325.0,-325.0,-325.0,-7.5396825396825395
-57.22222222222222,-56.11111111111111,8.809523809523808,-16.904761904761905,8.174603174603174,-8.65079365079365,16.904761904761905,-5.476190476190476,9.285714285714285,-6.746031746031746,-3.4126984126984126,-15.793650793650793,5.634920634920634,-13.571428571428571,9.285714285714285,-5.476190476190476,-5.0,0.873015873015873,-325.0,-325.0,-325.0,-325.0,-325.0,-321.8253968253968
-57.22222222222222,-56.11111111111111,8.809523809523808,-16.904761904761905,8.174603174603174,-8.65079365079365,16.904761904761905,-5.476190476190476,9.285714285714285,-6.746031746031746,-3.4126984126984126,-15.793650793650793,5.634920634920634,-13.571428571428571,9.285714285714285,-5.476190476190476,-5.0,0.873015873015873,-325.0,-325.0,-325.0,-325.0,-325.0,-321.8253968253968
98.01587301587301,-38.17460317460317,154.52380952380952,5.952380952380952,150.07936507936506,-6.587301587301587,155.63492063492063,-8.492063492063492,148.96825396825395,-1.8253968253968254,139.9206349206349,-3.888888888888889,154.36507936507937,-17.857142857142858,148.17460317460316,-10.396825396825395,-5.0,1.349206349206349,-325.0,-325.0,-325.0,-325.0,-325.0,-321.8253968253968
98.01587301587301,-38.17460317460317,154.52380952380952,5.952380952380952,150.07936507936506,-6.587301587301587,155.63492063492063,-8.492063492063492,148.96825396825395,-1.8253968253968254,139.9206349206349,-3.888888888888889,154.36507936507937,-17.857142857142858,148.17460317460316,-10.396825396825395,-5.0,1.349206349206349,-325.0,-325.0,-325.0,-325.0,-325.0,-321.8253968253968
216.58730158730157,-18.96825396825397,260.07936507936506,4.2063492063492065,257.22222222222223,-5.476190476190476,259.2857142857143,-4.2063492063492065,251.66666666666666,-3.571428571428571,248.49206349206347,3.73015873015873,267.06349206349205,-13.888888888888888,255.15873015873015,-9.444444444444445,-4.841269841269841,0.873015873015873,-325.0,-325.0,-325.0,-325.0,-325.0,-321.8253968253968
216.58730158730157,-18.96825396825397,260.07936507936506,4.2063492063492065,257.22222222222223,-5.476190476190476,259.2857142857143,-4.2063492063492065,251.66666666666666,-3.571428571428571,248.49206349206347,3.73015873015873,267.06349206349205,-13.888888888888888,255.15873015873015,-9.444444444444445,-4.841269841269841,0.873015873015873,-325.0,-325.0,-325.0,-325.0,-325.0,-321.8253968253968
291.8253968253968,-2.7777777777777777,309.4444444444444,-2.46031746031746,316.26984126984127,-7.698412698412698,316.26984126984127,2.619047619047619,314.04761904761904,1.984126984126984,301.5079365079365,9.761904761904761,318.17460317460313,-9.126984126984127,303.0952380952381,-3.4126984126984126,-4.523809523809524,1.349206349206349,-325.0,-325.0,-325.0,-325.0,-325.0,-321.8253968253968
291.8253968253968,-2.7777777777777777,309.4444444444444,-2.46031746031746,316.26984126984127,-7.698412698412698,316.26984126984127,2.619047619047619,314.04761904761904,1.984126984126984,301.5079365079365,9.761904761904761,318.17460317460313,-9.126984126984127,303.0952380952381,-3.4126984126984126,-4.523809523809524,1.349206349206349,-325.0,-325.0,-325.0,-325.0,-325.0,-321.8253968253968
325.0,6.746031746031746,312.6190476190476,-15.158730158730158,322.3015873015873,-27.22222222222222,325.0,-5.158730158730158,325.0,-2.3015873015873014,312.9365079365079,15.0,321.031746031746,-8.174603174603174,325.0,-4.0476190476190474,-4.682539682539682,1.0317460317460316,-325.0,-325.0,-325.0,-325.0,-325.0,-321.8253968253968
325.0,6.746031746031746,312.6190476190476,-15.158730158730158,322.3015873015873,-27.22222222222222,325.0,-5.158730158730158,325.0,-2.3015873015873014,312.9365079365079,15.0,321.031746031746,-8.174603174603174,325.0,-4.0476190476190474,-4.682539682539682,1.0317460317460316,-325.0,-325.0,-325.0,-325.0,-325.0,-321.8253968253968
295.6349206349206,18.80952380952381,281.031746031746,-19.76190476190476,277.53968253968253,-47.06349206349206,293.25396825396825,-21.825396825396822,300.39682539682536,-25.0,266.1111111111111,15.317460317460316,262.3015873015873,-11.031746031746032,285.95238095238096,-15.634920634920634,-4.523809523809524,0.873015873015873,-325.0,-325.0,-325.0,-325.0,-325.0,-7.5396825396825395
295.6349206349206,18.80952380952381,281.031746031746,-19.76190476190476,277.53968253968253,-47.06349206349206,293.25396825396825,-21.825396825396822,300.39682539682536,-25.0,266.1111111111111,15.317460317460316,262.3015873015873,-11.031746031746032,285.95238095238096,-15.634920634920634,-4.523809523809524,0.873015873015873,-325.0,-325.0,-325.0,-325.0,-325.0,-7.5396825396825395
305.95238095238096,47.53968253968254,276.90476190476187,-8.809523809523808,264.04761904761904,-67.6984126984127,275.0,-11.19047619047619,282.46031746031747,-10.396825396825395,253.57142857142856,19.285714285714285,232.46031746031744,-18.333333333333332,257.53968253968253,-7.063492063492063,-4.682539682539682,0.7142857142857142,-325.0,-325.0,-325.0,-325.0,-325.0,-7.5396825396825395
305.95238095238096,47.53968253968254,276.90476190476187,-8.809523809523808,264.04761904761904,-67.6984126984127,275.0,-11.19047619047619,282.46031746031747,-10.396825396825395,253.57142857142856,19.285714285714285,232.46031746031744,-18.333333333333332,257.53968253968253,-7.063492063492063,-4.682539682539682,0.7142857142857142,-325.0,-325.0,-325.0,-325.0,-325.0,-7.5396825396825395
287.38095238095235,87.06349206349206,269.2857142857143,37.38095238095238,241.66666666666666,-67.6984126984127,228.49206349206347,15.95238095238095,231.5079365079365,8.809523809523808,231.19047619047618,52.460317460317455,189.12698412698413,-13.888888888888888,208.65079365079364,3.4126984126984126,-4.841269841269841,0.873015873015873,-325.0,-325.0,-325.0,-325.0,-325.0,-7.5396825396825395
287.38095238095235,87.06349206349206,269.2857142857143,37.38095238095238,241.66666666666666,-67.6984126984127,228.49206349206347,15.95238095238095,231.5079365079365,8.809523809523808,231.19047619047618,52.460317460317455,189.12698412698413,-13.888888888888888,208.65079365079364,3.4126984126984126,-4.841269841269841,0.873015873015873,-325.0,-325.0,-325.0,-325.0,-325.0,-7.5396825396825395
260.87301587301585,76.58730158730158,237.06349206349205,13.095238095238095,201.34920634920633,-82.61904761904762,178.33333333333331,-7.5396825396825395,186.26984126984127,-12.46031746031746,207.2222222222222,46.42857142857142,159.12698412698413,-24.047619047619047,168.33333333333331,-12.46031746031746,-4.841269841269841,1.0317460317460316,-325.0,-325.0,-325.0,-325.0,-325.0,-7.5396825396825395
260.87301587301585,76.58730158730158,237.06349206349205,13.095238095238095,201.34920634920633,-82.61904761904762,178.33333333333331,-7.5396825396825395,186.26984126984127,-12.46031746031746,207.2222222222222,46.42857142857142,159.12698412698413,-24.047619047619047,168.33333333333331,-12.46031746031746,-4.841269841269841,1.0317460317460316,-325.0,-325.0,-325.0,-325.0,-325.0,-7.5396825396825395
193.25396825396825,73.25396825396825,149.76190476190476,-0.3968253968253968,123.09523809523809,-87.6984126984127,109.12698412698413,-12.619047619047619,119.6031746031746,-14.523809523809524,149.9206349206349,48.49206349206349,113.88888888888889,-14.206349206349206,124.84126984126983,-11.19047619047619,-5.0,1.349206349206349,-325.0,-325.0,-325.0,-325.0,-325.0,-7.5396825396825395
193.25396825396825,73.25396825396825,149.76190476190476,-0.3968253968253968,123.09523809523809,-87.6984126984127,109.12698412698413,-12.619047619047619,119.6031746031746,-14.523809523809524,149.9206349206349,48.49206349206349,113.88888888888889,-14.206349206349206,124.84126984126983,-11.19047619047619,-5.0,1.349206349206349,-325.0,-325.0,-325.0,-325.0,-325.0,-7.5396825396825395
140.55555555555554,62.77777777777777,84.84126984126983,-4.841269841269841,65.0,-93.88888888888889,45.476190476190474,-14.047619047619047,63.888888888888886,-15.0,104.04761904761904,48.80952380952381,76.58730158730158,-3.253968253968254,72.3015873015873,-4.523809523809524,-5.0,1.0317460317460316,-325.0,-325.0,-325.0,-325.0,-325.0,-321.8253968253968
140.55555555555554,62.77777777777777,84.84126984126983,-4.841269841269841,65.0,-93.88888888888889,45.476190476190474,-14.047619047619047,63.888888888888886,-15.0,104.04761904761904,48.80952380952381,76.58730158730158,-3.253968253968254,72.3015873015873,-4.523809523809524,-5.0,1.0317460317460316,-325.0,-325.0,-325.0,-325.0,-325.0,-321.8253968253968
83.57142857142857,74.04761904761904,31.825396825396822,1.349206349206349,21.666666666666664,-88.01587301587301,5.476190476190476,-14.365079365079364,19.126984126984127,-13.73015873015873,54.68253968253968,59.92063492063492,41.98412698412698,10.238095238095237,29.920634920634917,-6.26984126984127,-4.841269841269841,1.1904761904761905,-325.0,-325.0,-325.0,-325.0,-325.0,-321.8253968253968
83.57142857142857,74.04761904761904,31.825396825396822,1.349206349206349,21.666666666666664,-88.01587301587301,5.476190476190476,-14.365079365079364,19.126984126984127,-13.73015873015873,54.68253968253968,59.92063492063492,41.98412698412698,10.238095238095237,29.920634920634917,-6.26984126984127,-4.841269841269841,1.1904761904761905,-325.0,-325.0,-325.0,-325.0,-325.0,-321.8253968253968
65.15873015873015,63.41269841269841,21.349206349206348,6.111111111111111,13.095238095238095,-77.6984126984127,-2.142857142857143,-22.619047619047617,8.968253968253968,-25.476190476190474,30.07936507936508,49.285714285714285,22.619047619047617,1.8253968253968254,18.174603174603174,-19.92063492063492,-4.841269841269841,1.1904761904761905,-325.0,-325.0,-325.0,-325.0,-325.0,-321.8253968253968
65.15873015873015,63.41269841269841,21.349206349206348,6.111111111111111,13.095238095238095,-77.6984126984127,-2.142857142857143,-22.619047619047617,8.968253968253968,-25.476190476190474,30.07936507936508,49.285714285714285,22.619047619047617,1.8253968253968254,18.174603174603174,-19.92063492063492,-4.841269841269841,1.1904761904761905,-325.0,-325.0,-325.0,-325.0,-325.0,-321.8253968253968
48.33333333333333,72.77777777777777,19.76190476190476,32.93650793650794,17.063492063492063,-47.857142857142854,-8.333333333333332,-3.73015873015873,0.07936507936507936,-15.95238095238095,14.047619047619047,47.38095238095238,1.349206349206349,3.73015873015873,-3.73015873015873,-8.174603174603174,-4.2063492063492065,1.1904761904761905,-325.0,-325.0,-325.0,-325.0,-325.0,-321.8253968253968
48.33333333333333,72.77777777777777,19.76190476190476,32.93650793650794,17.063492063492063,-47.857142857142854,-8.333333333333332,-3.73015873015873,0.07936507936507936,-15.95238095238095,14.047619047619047,47.38095238095238,1.349206349206349,3.73015873015873,-3.73015873015873,-8.174603174603174,-4.2063492063492065,1.1904761904761905,-325.0,-325.0,-325.0,-325.0,-325.0,-321.8253968253968
21.19047619047619,68.01587301587301,-8.174603174603174,31.349206349206348,-3.4126984126984126,-35.15873015873016,-28.015873015873016,9.920634920634921,-20.555555555555554,-1.984126984126984,-12.142857142857142,37.38095238095238,-23.730158730158728,-2.3015873015873014,-20.71428571428571,4.682539682539682,-4.2063492063492065,1.0317460317460316,-325.0,-325.0,-325.0,-325.0,-325.0,-321.8253968253968
21.19047619047619,68.01587301587301,-8.174603174603174,31.349206349206348,-3.4126984126984126,-35.15873015873016,-28.015873015873016,9.920634920634921,-20.555555555555554,-1.984126984126984,-12.142857142857142,37.38095238095238,-23.730158730158728,-2.3015873015873014,-20.71428571428571,4.682539682539682,-4.2063492063492065,1.0317460317460316,-325.0,-325.0,-325.0,-325.0,-325.0,-321.8253968253968
9.761904761904761,78.4920634920635,-18.174603174603174,45.476190476190474,-18.015873015873016,-24.365079365079364,-50.079365079365076,12.3015873015873,-47.22222222222222,-2.142857142857143,-27.698412698412696,44.52380952380952,-42.77777777777778,7.063492063492063,-47.53968253968254,6.904761904761904,-4.0476190476190474,0.7142857142857142,-325.0,-325.0,-325.0,-325.0,-325.0,-7.5396825396825395
9.761904761904761,78.4920634920635,-18.174603174603174,45.476190476190474,-18.015873015873016,-24.365079365079364,-50.079365079365076,12.3015873015873,-47.22222222222222,-2.142857142857143,-27.698412698412696,44.52380952380952,-42.77777777777778,7.063492063492063,-47.53968253968254,6.904761904761904,-4.0476190476190474,0.7142857142857142,-325.0,-325.0,-325.0,-325.0,-325.0,-7.5396825396825395
-4.2063492063492065,75.95238095238095,-21.03174603174603,45.317460317460316,-18.333333333333332,-14.365079365079364,-50.079365079365076,21.349206349206348,-52.3015873015873,1.507936507936508,-39.44444444444444,45.476190476190474,-51.19047619047619,13.888888888888888,-51.19047619047619,8.174603174603174,-3.571428571428571,0.3968253968253968,-325.0,-325.0,-325.0,-325.0,-325.0,-7.5396825396825395
-4.2063492063492065,75.95238095238095,-21.03174603174603,45.317460317460316,-18.333333333333332,-14.365079365079364,-50.079365079365076,21.349206349206348,-52.3015873015873,1.507936507936508,-39.44444444444444,45.476190476190474,-51.19047619047619,13.888888888888888,-51.19047619047619,8.174603174603174,-3.571428571428571,0.3968253968253968,-325.0,-325.0,-325.0,-325.0,-325.0,-7.5396825396825395
-27.38095238095238,58.96825396825397,-43.57142857142857,35.15873015873016,-30.07936507936508,-12.619047619047619,-51.03174603174603,22.46031746031746,-61.34920634920635,9.126984126984127,-61.03174603174603,32.93650793650794,-59.12698412698413,8.968253968253968,-43.25396825396825,7.3809523809523805,-4.523809523809524,1.349206349206349,-325.0,-325.0,-325.0,-325.0,-325.0,-7.5396825396825395
-27.38095238095238,58.96825396825397,-43.57142857142857,35.15873015873016,-30.07936507936508,-12.619047619047619,-51.03174603174603,22.46031746031746,-61.34920634920635,9.126984126984127,-61.03174603174603,32.93650793650794,-59.12698412698413,8.968253968253968,-43.25396825396825,7.3809523809523805,-4.523809523809524,1.349206349206349,-325.0,-325.0,-325.0,-325.0,-325.0,-7.5396825396825395
-49.285714285714285,48.96825396825397,-66.58730158730158,27.698412698412696,-44.68253968253968,-8.492063492063492,-57.698412698412696,25.0,-55.476190476190474,25.158730158730158,-76.42857142857143,27.539682539682538,-60.39682539682539,4.365079365079365,-45.79365079365079,13.412698412698411,-5.158730158730158,1.507936507936508,-325.0,-325.0,-325.0,-325.0,-325.0,-7.5396825396825395
-49.285714285714285,48.96825396825397,-66.58730158730158,27.698412698412696,-44.68253968253968,-8.492063492063492,-57.698412698412696,25.0,-55.476190476190474,25.158730158730158,-76.42857142857143,27.539682539682538,-60.39682539682539,4.365079365079365,-45.79365079365079,13.412698412698411,-5.158730158730158,1.507936507936508,-325.0,-325.0,-325.0,-325.0,-325.0,-7.5396825396825395
-57.22222222222222,40.55555555555555,-79.12698412698413,25.79365079365079,-48.650793650793645,-0.3968253968253968,-63.25396825396825,29.285714285714285,-62.460317460317455,31.666666666666664,-76.58730158730158,12.619047619047619,-66.9047619047619,-0.873015873015873,-45.476190476190474,16.26984126984127,-4.2063492063492065,0.7142857142857142,-325.0,-325.0,-325.0,-325.0,-325.0,-7.5396825396825395
-57.22222222222222,40.55555555555555,-79.12698412698413,25.79365079365079,-48.650793650793645,-0.3968253968253968,-63.25396825396825,29.285714285714285,-62.460317460317455,31.666666666666664,-76.58730158730158,12.619047619047619,-66.9047619047619,-0.873015873015873,-45.476190476190474,16.26984126984127,-4.2063492063492065,0.7142857142857142,-325.0,-325.0,-325.0,-325.0,-325.0,-7.5396825396825395
-60.39682539682539,44.36507936507936,-90.87301587301587,34.047619047619044,-66.42857142857143,7.222222222222221,-84.68253968253968,35.317460317460316,-75.31746031746032,37.53968253968254,-77.22222222222221,18.96825396825397,-80.55555555555556,7.222222222222221,-67.6984126984127,24.206349206349206,-3.73015873015873,0.873015873015873,-325.0,-325.0,-325.0,-325.0,-325.0,-321.8253968253968
-60.39682539682539,44.36507936507936,-90.87301587301587,34.047619047619044,-66.42857142857143,7.222222222222221,-84.68253968253968,35.317460317460316,-75.31746031746032,37.53968253968254,-77.22222222222221,18.96825396825397,-80.55555555555556,7.222222222222221,-67.6984126984127,24.206349206349206,-3.73015873015873,0.873015873015873,-325.0,-325.0,-325.0,-325.0,-325.0,-321.8253968253968
-70.07936507936508,42.93650793650794,-88.96825396825396,41.03174603174603,-64.52380952380952,27.22222222222222,-78.80952380952381,45.95238095238095,-72.14285714285714,48.96825396825397,-75.31746031746032,29.76190476190476,-83.25396825396825,27.857142857142854,-72.3015873015873,34.52380952380952,-4.2063492063492065,1.0317460317460316,-325.0,-325.0,-325.0,-325.0,-325.0,-321.8253968253968
-70.07936507936508,42.93650793650794,-88.96825396825396,41.03174603174603,-64.52380952380952,27.22222222222222,-78.80952380952381,45.95238095238095,-72.14285714285714,48.96825396825397,-75.31746031746032,29.76190476190476,-83.25396825396825,27.857142857142854,-72.3015873015873,34.52380952380952,-4.2063492063492065,1.0317460317460316,-325.0,-325.0,-325.0,-325.0,-325.0,-321.8253968253968
-70.23809523809524,27.22222222222222,-69.76190476190476,35.95238095238095,-46.42857142857142,38.33333333333333,-51.666666666666664,47.53968253968254,-48.01587301587301,44.047619047619044,-70.23809523809524,25.952380952380953,-73.4126984126984,40.238095238095234,-46.58730158730158,37.53968253968254,-4.523809523809524,0.3968253968253968,-325.0,-325.0,-325.0,-325.0,-325.0,-321.8253968253968
-70.23809523809524,27.22222222222222,-69.76190476190476,35.95238095238095,-46.42857142857142,38.33333333333333,-51.666666666666664,47.53968253968254,-48.01587301587301,44.047619047619044,-70.23809523809524,25.952380952380953,-73.4126984126984,40.238095238095234,-46.58730158730158,37.53968253968254,-4.523809523809524,0.3968253968253968,-325.0,-325.0,-325.0,-325.0,-325.0,-321.8253968253968
-52.61904761904761,41.507936507936506,-46.11111111111111,57.698412698412696,-30.87301587301587,62.93650793650793,-37.857142857142854,61.98412698412698,-38.49206349206349,50.079365079365076,-55.476190476190474,46.269841269841265,-62.77777777777777,65.79365079365078,-38.33333333333333,50.71428571428571,-4.841269841269841,0.873015873015873,-325.0,-325.0,-325.0,-325.0,-325.0,-321.8253968253968
-52.61904761904761,41.507936507936506,-46.11111111111111,57.698412698412696,-30.87301587301587,62.93650793650793,-37.857142857142854,61.98412698412698,-38.49206349206349,50.079365079365076,-55.476190476190474,46.269841269841265,-62.77777777777777,65.79365079365078,-38.33333333333333,50.71428571428571,-4.841269841269841,0.873015873015873,-325.0,-325.0,-325.0,-325.0,-325.0,-321.8253968253968
-46.904761904761905,29.444444444444443,-37.53968253968254,36.11111111111111,-26.26984126984127,35.15873015873016,-43.73015873015873,34.682539682539684,-40.079365079365076,25.476190476190474,-45.95238095238095,26.746031746031743,-50.71428571428571,50.238095238095234,-40.55555555555555,33.25396825396825,-5.0,1.349206349206349,-325.0,-325.0,-325.0,-325.0,-325.0,-321.8253968253968
-46.904761904761905,29.444444444444443,-37.53968253968254,36.11111111111111,-26.26984126984127,35.15873015873016,-43.73015873015873,34.682539682539684,-40.079365079365076,25.476190476190474,-45.95238095238095,26.746031746031743,-50.71428571428571,50.238095238095234,-40.55555555555555,33.25396825396825,-5.0,1.349206349206349,-325.0,-325.0,-325.0,-325.0,-325.0,-321.8253968253968
-45.317460317460316,68.96825396825396,-35.63492063492063,68.4920634920635,-30.07936507936508,65.95238095238095,-53.41269841269841,67.53968253968253,-47.22222222222222,63.57142857142857,-42.61904761904761,60.238095238095234,-44.84126984126984,67.53968253968253,-42.460317460317455,61.666666666666664,-4.841269841269841,1.0317460317460316,-325.0,-325.0,-325.0,-325.0,-325.0,-7.5396825396825395
-45.317460317460316,68.96825396825396,-35.63492063492063,68.4920634920635,-30.07936507936508,65.95238095238095,-53.41269841269841,67.53968253968253,-47.22222222222222,63.57142857142857,-42.61904761904761,60.238095238095234,-44.84126984126984,67.53968253968253,-42.460317460317455,61.666666666666664,-4.841269841269841,1.0317460317460316,-325.0,-325.0,-325.0,-325.0,-325.0,-7.5396825396825395
-38.49206349206349,72.93650793650794,-32.77777777777778,68.80952380952381,-27.22222222222222,60.238095238095234,-57.22222222222222,57.857142857142854,-52.61904761904761,64.36507936507937,-30.555555555555554,54.68253968253968,-35.0,53.41269841269841,-42.61904761904761,53.095238095238095,-4.0476190476190474,0.5555555555555556,-325.0,-325.0,-325.0,-325.0,-325.0,-7.5396825396825395
-38.49206349206349,72.93650793650794,-32.77777777777778,68.80952380952381,-27.22222222222222,60.238095238095234,-57.22222222222222,57.857142857142854,-52.61904761904761,64.36507936507937,-30.555555555555554,54.68253968253968,-35.0,53.41269841269841,-42.61904761904761,53.095238095238095,-4.0476190476190474,0.5555555555555556,-325.0,-325.0,-325.0,-325.0,-325.0,-7.5396825396825395
-30.238095238095237,85.95238095238095,-37.06349206349206,70.87301587301587,-27.22222222222222,67.6984126984127,-48.96825396825397,66.58730158730158,-44.68253968253968,77.85714285714285,-28.809523809523807,61.666666666666664,-22.46031746031746,60.39682539682539,-33.57142857142857,63.41269841269841,-4.365079365079365,1.0317460317460316,-325.0,-325.0,-325.0,-325.0,-325.0,-7.5396825396825395
-30.238095238095237,85.95238095238095,-37.06349206349206,70.87301587301587,-27.22222222222222,67.6984126984127,-48.96825396825397,66.58730158730158,-44.68253968253968,77.85714285714285,-28.809523809523807,61.666666666666664,-22.46031746031746,60.39682539682539,-33.57142857142857,63.41269841269841,-4.365079365079365,1.0317460317460316,-325.0,-325.0,-325.0,-325.0,-325.0,-7.5396825396825395
-18.333333333333332,68.96825396825396,-27.539682539682538,66.58730158730158,-17.539682539682538,72.93650793650794,-28.333333333333332,68.17460317460318,-19.285714285714285,74.52380952380952,-20.396825396825395,51.19047619047619,-17.22222222222222,60.55555555555555,-17.38095238095238,62.3015873015873,-4.523809523809524,1.0317460317460316,-325.0,-325.0,-325.0,-325.0,-325.0,-7.5396825396825395
-18.333333333333332,68.96825396825396,-27.539682539682538,66.58730158730158,-17.539682539682538,72.93650793650794,-28.333333333333332,68.17460317460318,-19.285714285714285,74.52380952380952,-20.396825396825395,51.19047619047619,-17.22222222222222,60.55555555555555,-17.38095238095238,62.3015873015873,-4.523809523809524,1.0317460317460316,-325.0,-325.0,-325.0,-325.0,-325.0,-7.5396825396825395
-15.476190476190474,65.15873015873015,-34.682539682539684,66.26984126984127,-28.333333333333332,72.3015873015873,-29.76190476190476,69.44444444444444,-11.666666666666666,72.46031746031746,-23.730158730158728,50.39682539682539,-28.809523809523807,65.63492063492063,-17.22222222222222,72.3015873015873,-4.523809523809524,1.0317460317460316,-325.0,-325.0,-325.0,-325.0,-325.0,-7.5396825396825395
-15.476190476190474,65.15873015873015,-34.682539682539684,66.26984126984127,-28.333333333333332,72.3015873015873,-29.76190476190476,69.44444444444444,-11.666666666666666,72.46031746031746,-23.730158730158728,50.39682539682539,-28.809523809523807,65.63492063492063,-17.22222222222222,72.3015873015873,-4.523809523809524,1.0317460317460316,-325.0,-325.0,-325.0,-325.0,-325.0,-7.5396825396825395
-13.571428571428571,40.238095238095234,-29.126984126984127,53.41269841269841,-18.174603174603174,58.49206349206349,-9.126984126984127,55.0,3.571428571428571,61.19047619047619,-19.444444444444443,28.65079365079365,-21.666666666666664,52.93650793650794,-5.0,62.61904761904761,-4.365079365079365,0.873015873015873,-325.0,-325.0,-325.0,-325.0,-325.0,-321.8253968253968
-13.571428571428571,40.238095238095234,-29.126984126984127,53.41269841269841,-18.174603174603174,58.49206349206349,-9.126984126984127,55.0,3.571428571428571,61.19047619047619,-19.444444444444443,28.65079365079365,-21.666666666666664,52.93650793650794,-5.0,62.61904761904761,-4.365079365079365,0.873015873015873,-325.0,-325.0,-325.0,-325.0,-325.0,-321.8253968253968
-18.333333333333332,27.857142857142854,-28.174603174603174,44.047619047619044,-16.587301587301585,50.87301587301587,-4.841269841269841,42.460317460317455,3.095238095238095,46.42857142857142,-24.206349206349206,20.555555555555554,-17.22222222222222,48.17460317460317,8.65079365079365,51.98412698412698,-4.0476190476190474,1.0317460317460316,-325.0,-325.0,-325.0,-325.0,-325.0,-321.8253968253968
-18.333333333333332,27.857142857142854,-28.174603174603174,44.047619047619044,-16.587301587301585,50.87301587301587,-4.841269841269841,42.460317460317455,3.095238095238095,46.42857142857142,-24.206349206349206,20.555555555555554,-17.22222222222222,48.17460317460317,8.65079365079365,51.98412698412698,-4.0476190476190474,1.0317460317460316,-325.0,-325.0,-325.0,-325.0,-325.0,-321.8253968253968
-12.3015873015873,25.158730158730158,-11.666666666666666,60.71428571428571,1.0317460317460316,63.73015873015873,14.682539682539682,38.49206349206349,5.7936507936507935,31.98412698412698,-18.49206349206349,23.88888888888889,-5.0,51.03174603174603,9.920634920634921,45.317460317460316,-3.571428571428571,0.873015873015873,-325.0,-325.0,-325.0,-325.0,-325.0,-321.8253968253968
-12.3015873015873,25.158730158730158,-11.666666666666666,60.71428571428571,1.0317460317460316,63.73015873015873,14.682539682539682,38.49206349206349,5.7936507936507935,31.98412698412698,-18.49206349206349,23.88888888888889,-5.0,51.03174603174603,9.920634920634921,45.317460317460316,-3.571428571428571,0.873015873015873,-325.0,-325.0,-325.0,-325.0,-325.0,-321.8253968253968
-1.0317460317460316,26.587301587301585,3.253968253968254,62.460317460317455,22.619047619047617,64.68253968253968,34.682539682539684,30.238095238095237,16.746031746031743,19.92063492063492,-9.285714285714285,25.158730158730158,14.365079365079364,41.98412698412698,26.11111111111111,33.57142857142857,-4.0476190476190474,1.0317460317460316,-325.0,-325.0,-325.0,-325.0,-325.0,-321.8253968253968
-1.0317460317460316,26.587301587301585,3.253968253968254,62.460317460317455,22.619047619047617,64.68253968253968,34.682539682539684,30.238095238095237,16.746031746031743,19.92063492063492,-9.285714285714285,25.158730158730158,14.365079365079364,41.98412698412698,26.11111111111111,33.57142857142857,-4.0476190476190474,1.0317460317460316,-325.0,-325.0,-325.0,-325.0,-325.0,-321.8253968253968
-21.03174603174603,22.142857142857142,-8.968253968253968,59.44444444444444,0.3968253968253968,61.19047619047619,11.666666666666666,28.333333333333332,-1.6666666666666665,15.476190476190474,-26.587301587301585,22.3015873015873,12.142857142857142,34.36507936507936,10.396825396825395,26.11111111111111,-3.888888888888889,0.7142857142857142,-325.0,-325.0,-325.0,-325.0,-325.0,-321.8253968253968
-21.03174603174603,22.142857142857142,-8.968253968253968,59.44444444444444,0.3968253968253968,61.19047619047619,11.666666666666666,28.333333333333332,-1.6666666666666665,15.476190476190474,-26.587301587301585,22.3015873015873,12.142857142857142,34.36507936507936,10.396825396825395,26.11111111111111,-3.888888888888889,0.7142857142857142,-325.0,-325.0,-325.0,-325.0,-325.0,-321.8253968253968
-4.841269841269841,16.26984126984127,3.095238095238095,36.74603174603175,3.888888888888889,34.36507936507936,9.761904761904761,16.26984126984127,7.698412698412698,17.38095238095238,-10.873015873015872,11.349206349206348,30.71428571428571,26.11111111111111,17.857142857142858,19.6031746031746,-3.4126984126984126,1.1904761904761905,-325.0,-325.0,-325.0,-325.0,-325.0,-7.5396825396825395
-4.841269841269841,16.26984126984127,3.095238095238095,36.74603174603175,3.888888888888889,34.36507936507936,9.761904761904761,16.26984126984127,7.698412698412698,17.38095238095238,-10.873015873015872,11.349206349206348,30.71428571428571,26.11111111111111,17.857142857142858,19.6031746031746,-3.4126984126984126,1.1904761904761905,-325.0,-325.0,-325.0,-325.0,-325.0,-7.5396825396825395
-4.682539682539682,-11.825396825396824,4.682539682539682,7.5396825396825395,5.476190476190476,0.5555555555555556,1.1904761904761905,-20.71428571428571,-5.0,-11.507936507936508,-10.238095238095237,-22.142857142857142,32.77777777777778,-5.158730158730158,13.571428571428571,-12.142857142857142,-3.888888888888889,1.0317460317460316,-325.0,-325.0,-325.0,-325.0,-325.0,-7.5396825396825395
-4.682539682539682,-11.825396825396824,4.682539682539682,7.5396825396825395,5.476190476190476,0.5555555555555556,1.1904761904761905,-20.71428571428571,-5.0,-11.507936507936508,-10.238095238095237,-22.142857142857142,32.77777777777778,-5.158730158730158,13.571428571428571,-12.142857142857142,-3.888888888888889,1.0317460317460316,-325.0,-325.0,-325.0,-325.0,-325.0,-7.5396825396825395
-5.952380952380952,-31.507936507936506,-3.73015873015873,-1.0317460317460316,-0.873015873015873,-2.9365079365079363,0.5555555555555556,-27.063492063492063,-8.809523809523808,-24.68253968253968,-4.365079365079365,-41.98412698412698,31.666666666666664,-25.0,9.603174603174603,-23.57142857142857,-3.571428571428571,0.873015873015873,-325.0,-325.0,-325.0,-325.0,-325.0,-7.5396825396825395
-5.952380952380952,-31.507936507936506,-3.73015873015873,-1.0317460317460316,-0.873015873015873,-2.9365079365079363,0.5555555555555556,-27.063492063492063,-8.809523809523808,-24.68253968253968,-4.365079365079365,-41.98412698412698,31.666666666666664,-25.0,9.603174603174603,-23.57142857142857,-3.571428571428571,0.873015873015873,-325.0,-325.0,-325.0,-325.0,-325.0,-7.5396825396825395
-2.619047619047619,-29.444444444444443,-7.222222222222221,0.873015873015873,-4.841269841269841,6.428571428571428,1.507936507936508,-16.11111111111111,-6.746031746031746,-19.444444444444443,-4.2063492063492065,-45.63492063492063,26.9047619047619,-27.857142857142854,0.3968253968253968,-18.96825396825397,-3.571428571428571,0.5555555555555556,-325.0,-325.0,-325.0,-325.0,-325.0,-7.5396825396825395
-2.619047619047619,-29.444444444444443,-7.222222222222221,0.873015873015873,-4.841269841269841,6.428571428571428,1.507936507936508,-16.11111111111111,-6.746031746031746,-19.444444444444443,-4.2063492063492065,-45.63492063492063,26.9047619047619,-27.857142857142854,0.3968253968253968,-18.96825396825397,-3.571428571428571,0.5555555555555556,-325.0,-325.0,-325.0,-325.0,-325.0,-7.5396825396825395
