Fp1[1],Fp2[2],F3[3],F4[4],C3[5],C4[6],P3[7],P4[8],O1[9],O2[10],F7[11],F8[12],T3[13],T4[14],T5[15],T6[16],Fz[17],Pz[18],Cz[19],Pg1[20],Pg2[21],EOGR[22],EOOGL[23],EMG[24]
-5.317460317460317,-5.317460317460317,22.777777777777775,14.84126984126984,13.095238095238095,22.3015873015873,7.857142857142857,22.777777777777775,5.952380952380952,5.634920634920634,3.73015873015873,-0.07936507936507936,23.730158730158728,-4.523809523809524,5.476190476190476,8.333333333333332,-4.365079365079365,0.07936507936507936,-325.0,-325.0,-325.0,-325.0,-325.0,-7.5396825396825395
-5.317460317460317,-5.317460317460317,22.777777777777775,14.84126984126984,13.095238095238095,22.3015873015873,7.857142857142857,22.777777777777775,5.952380952380952,5.634920634920634,3.73015873015873,-0.07936507936507936,23.730158730158728,-4.523809523809524,5.476190476190476,8.333333333333332,-4.365079365079365,0.07936507936507936,-325.0,-325.0,-325.0,-325.0,-325.0,-7.5396825396825395
-16.11111111111111,-10.714285714285714,18.65079365079365,5.317460317460317,10.873015873015872,22.936507936507937,15.95238095238095,16.746031746031743,15.793650793650793,8.65079365079365,2.142857142857143,-3.253968253968254,8.65079365079365,-7.857142857142857,24.523809523809522,3.095238095238095,-3.4126984126984126,-0.07936507936507936,-325.0,-325.0,-325.0,-325.0,-325.0,-7.5396825396825395
-16.11111111111111,-10.714285714285714,18.65079365079365,5.317460317460317,10.873015873015872,22.936507936507937,15.95238095238095,16.746031746031743,15.793650793650793,8.65079365079365,2.142857142857143,-3.253968253968254,8.65079365079365,-7.857142857142857,24.523809523809522,3.095238095238095,-3.4126984126984126,-0.07936507936507936,-325.0,-325.0,-325.0,-325.0,-325.0,-7.5396825396825395
-12.777777777777777,-0.3968253968253968,21.03174603174603,10.238095238095237,18.80952380952381,25.634920634920633,12.3015873015873,8.015873015873016,5.476190476190476,1.349206349206349,0.07936507936507936,-1.349206349206349,0.5555555555555556,-10.873015873015872,18.65079365079365,-1.984126984126984,-4.2063492063492065,0.07936507936507936,-325.0,-325.0,-325.0,-325.0,-325.0,-7.5396825396825395
-12.777777777777777,-0.3968253968253968,21.03174603174603,10.238095238095237,18.80952380952381,25.634920634920633,12.3015873015873,8.015873015873016,5.476190476190476,1.349206349206349,0.07936507936507936,-1.349206349206349,0.5555555555555556,-10.873015873015872,18.65079365079365,-1.984126984126984,-4.2063492063492065,0.07936507936507936,-325.0,-325.0,-325.0,-325.0,-325.0,-7.5396825396825395
-4.0476190476190474,-3.253968253968254,19.285714285714285,-7.5396825396825395,25.317460317460316,2.3015873015873014,8.015873015873016,-18.80952380952381,3.73015873015873,-10.396825396825395,16.904761904761905,-5.7936507936507935,31.03174603174603,-17.22222222222222,19.126984126984127,-15.476190476190474,-4.523809523809524,-0.07936507936507936,-325.0,-325.0,-325.0,-325.0,-325.0,-7.5396825396825395
-4.0476190476190474,-3.253968253968254,19.285714285714285,-7.5396825396825395,25.317460317460316,2.3015873015873014,8.015873015873016,-18.80952380952381,3.73015873015873,-10.396825396825395,16.904761904761905,-5.7936507936507935,31.03174603174603,-17.22222222222222,19.126984126984127,-15.476190476190474,-4.523809523809524,-0.07936507936507936,-325.0,-325.0,-325.0,-325.0,-325.0,-7.5396825396825395
-12.777777777777777,-8.333333333333332,9.126984126984127,-21.507936507936506,15.317460317460316,-17.857142857142858,-6.904761904761904,-39.12698412698413,-11.825396825396824,-29.285714285714285,6.746031746031746,-12.3015873015873,11.507936507936508,-10.714285714285714,-1.6666666666666665,-28.015873015873016,-4.365079365079365,0.23809523809523808,-325.0,-325.0,-325.0,-325.0,-325.0,-7.5396825396825395
-12.777777777777777,-8.333333333333332,9.126984126984127,-21.507936507936506,15.317460317460316,-17.857142857142858,-6.904761904761904,-39.12698412698413,-11.825396825396824,-29.285714285714285,6.746031746031746,-12.3015873015873,11.507936507936508,-10.714285714285714,-1.6666666666666665,-28.015873015873016,-4.365079365079365,0.23809523809523808,-325.0,-325.0,-325.0,-325.0,-325.0,-7.5396825396825395
-1.1904761904761905,-0.7142857142857142,15.158730158730158,-23.57142857142857,18.174603174603174,-22.46031746031746,3.4126984126984126,-36.74603174603175,0.23809523809523808,-24.206349206349206,19.76190476190476,-8.174603174603174,3.73015873015873,-8.968253968253968,1.8253968253968254,-21.984126984126984,-3.73015873015873,0.23809523809523808,-325.0,-325.0,-325.0,-325.0,-325.0,-321.8253968253968
-1.1904761904761905,-0.7142857142857142,15.158730158730158,-23.57142857142857,18.174603174603174,-22.46031746031746,3.4126984126984126,-36.74603174603175,0.23809523809523808,-24.206349206349206,19.76190476190476,-8.174603174603174,3.73015873015873,-8.968253968253968,1.8253968253968254,-21.984126984126984,-3.73015873015873,0.23809523809523808,-325.0,-325.0,-325.0,-325.0,-325.0,-321.8253968253968
-4.682539682539682,-0.873015873015873,7.5396825396825395,-11.984126984126984,10.555555555555555,-6.428571428571428,20.71428571428571,-3.095238095238095,19.6031746031746,7.5396825396825395,-0.07936507936507936,-6.111111111111111,-6.111111111111111,-10.714285714285714,7.222222222222221,1.507936507936508,-4.0476190476190474,0.07936507936507936,-325.0,-325.0,-325.0,-325.0,-325.0,-321.8253968253968
-4.682539682539682,-0.873015873015873,7.5396825396825395,-11.984126984126984,10.555555555555555,-6.428571428571428,20.71428571428571,-3.095238095238095,19.6031746031746,7.5396825396825395,-0.07936507936507936,-6.111111111111111,-6.111111111111111,-10.714285714285714,7.222222222222221,1.507936507936508,-4.0476190476190474,0.07936507936507936,-325.0,-325.0,-325.0,-325.0,-325.0,-321.8253968253968
-4.682539682539682,-13.253968253968253,-5.317460317460317,-25.79365079365079,0.07936507936507936,-15.95238095238095,19.285714285714285,1.8253968253968254,18.65079365079365,6.746031746031746,-5.952380952380952,-18.80952380952381,-13.73015873015873,-17.857142857142858,19.444444444444443,0.5555555555555556,-3.571428571428571,0.07936507936507936,-325.0,-325.0,-325.0,-325.0,-325.0,-321.8253968253968
-4.682539682539682,-13.253968253968253,-5.317460317460317,-25.79365079365079,0.07936507936507936,-15.95238095238095,19.285714285714285,1.8253968253968254,18.65079365079365,6.746031746031746,-5.952380952380952,-18.80952380952381,-13.73015873015873,-17.857142857142858,19.444444444444443,0.5555555555555556,-3.571428571428571,0.07936507936507936,-325.0,-325.0,-325.0,-325.0,-325.0,-321.8253968253968
7.222222222222221,3.4126984126984126,-2.142857142857143,-4.523809523809524,-1.507936507936508,-17.38095238095238,2.619047619047619,-24.68253968253968,-9.126984126984127,-14.047619047619047,10.873015873015872,-7.222222222222221,-1.8253968253968254,-21.19047619047619,3.888888888888889,-17.22222222222222,-3.253968253968254,-0.23809523809523808,-325.0,-325.0,-325.0,-325.0,-325.0,-321.8253968253968
7.222222222222221,3.4126984126984126,-2.142857142857143,-4.523809523809524,-1.507936507936508,-17.38095238095238,2.619047619047619,-24.68253968253968,-9.126984126984127,-14.047619047619047,10.873015873015872,-7.222222222222221,-1.8253968253968254,-21.19047619047619,3.888888888888889,-17.22222222222222,-3.253968253968254,-0.23809523809523808,-325.0,-325.0,-325.0,-325.0,-325.0,-321.8253968253968
5.952380952380952,7.063492063492063,0.7142857142857142,-5.476190476190476,0.3968253968253968,-25.317460317460316,-17.698412698412696,-56.58730158730158,-32.3015873015873,-43.25396825396825,11.984126984126984,-2.46031746031746,-9.126984126984127,-8.174603174603174,-12.142857142857142,-40.87301587301587,-3.571428571428571,-0.3968253968253968,-325.0,-325.0,-325.0,-325.0,-325.0,-321.8253968253968
5.952380952380952,7.063492063492063,0.7142857142857142,-5.476190476190476,0.3968253968253968,-25.317460317460316,-17.698412698412696,-56.58730158730158,-32.3015873015873,-43.25396825396825,11.984126984126984,-2.46031746031746,-9.126984126984127,-8.174603174603174,-12.142857142857142,-40.87301587301587,-3.571428571428571,-0.3968253968253968,-325.0,-325.0,-325.0,-325.0,-325.0,-321.8253968253968
11.031746031746032,10.238095238095237,7.698412698412698,7.698412698412698,4.2063492063492065,3.253968253968254,-24.365079365079364,-28.96825396825397,-19.76190476190476,-33.095238095238095,13.571428571428571,12.142857142857142,-2.3015873015873014,9.920634920634921,-24.523809523809522,-21.507936507936506,-3.095238095238095,-0.07936507936507936,-325.0,-325.0,-325.0,-325.0,-325.0,-7.5396825396825395
11.031746031746032,10.238095238095237,7.698412698412698,7.698412698412698,4.2063492063492065,3.253968253968254,-24.365079365079364,-28.96825396825397,-19.76190476190476,-33.095238095238095,13.571428571428571,12.142857142857142,-2.3015873015873014,9.920634920634921,-24.523809523809522,-21.507936507936506,-3.095238095238095,-0.07936507936507936,-325.0,-325.0,-325.0,-325.0,-325.0,-7.5396825396825395
11.19047619047619,-6.428571428571428,11.031746031746032,-5.634920634920634,1.507936507936508,-10.873015873015872,-21.19047619047619,-19.6031746031746,-1.349206349206349,-24.206349206349206,12.777777777777777,-1.1904761904761905,-19.444444444444443,-1.507936507936508,-17.698412698412696,-10.873015873015872,-3.253968253968254,-0.23809523809523808,-325.0,-325.0,-325.0,-325.0,-325.0,-7.5396825396825395
11.19047619047619,-6.428571428571428,11.031746031746032,-5.634920634920634,1.507936507936508,-10.873015873015872,-21.19047619047619,-19.6031746031746,-1.349206349206349,-24.206349206349206,12.777777777777777,-1.1904761904761905,-19.444444444444443,-1.507936507936508,-17.698412698412696,-10.873015873015872,-3.253968253968254,-0.23809523809523808,-325.0,-325.0,-325.0,-325.0,-325.0,-7.5396825396825395
7.698412698412698,-13.888888888888888,0.5555555555555556,-28.015873015873016,-3.888888888888889,-32.460317460317455,-18.80952380952381,-15.0,0.873015873015873,-12.46031746031746,12.142857142857142,-10.079365079365079,12.936507936507935,-15.476190476190474,-11.507936507936508,-2.9365079365079363,-3.253968253968254,-0.3968253968253968,-325.0,-325.0,-325.0,-325.0,-325.0,-7.5396825396825395
7.698412698412698,-13.888888888888888,0.5555555555555556,-28.015873015873016,-3.888888888888889,-32.460317460317455,-18.80952380952381,-15.0,0.873015873015873,-12.46031746031746,12.142857142857142,-10.079365079365079,12.936507936507935,-15.476190476190474,-11.507936507936508,-2.9365079365079363,-3.253968253968254,-0.3968253968253968,-325.0,-325.0,-325.0,-325.0,-325.0,-7.5396825396825395
7.5396825396825395,-20.71428571428571,1.349206349206349,-25.0,-9.285714285714285,-31.98412698412698,-23.730158730158728,-17.857142857142858,-2.7777777777777777,-11.825396825396824,9.285714285714285,-15.95238095238095,-1.984126984126984,-21.666666666666664,-11.825396825396824,-1.0317460317460316,-3.888888888888889,0.5555555555555556,-325.0,-325.0,-325.0,-325.0,-325.0,-7.5396825396825395
7.5396825396825395,-20.71428571428571,1.349206349206349,-25.0,-9.285714285714285,-31.98412698412698,-23.730158730158728,-17.857142857142858,-2.7777777777777777,-11.825396825396824,9.285714285714285,-15.95238095238095,-1.984126984126984,-21.666666666666664,-11.825396825396824,-1.0317460317460316,-3.888888888888889,0.5555555555555556,-325.0,-325.0,-325.0,-325.0,-325.0,-7.5396825396825395
-0.23809523809523808,-15.95238095238095,6.428571428571428,-13.73015873015873,-9.920634920634921,-16.904761904761905,-19.126984126984127,-21.03174603174603,-7.5396825396825395,-15.317460317460316,-2.9365079365079363,-15.793650793650793,-13.73015873015873,-18.015873015873016,-11.984126984126984,-11.19047619047619,-3.095238095238095,-0.23809523809523808,-325.0,-325.0,-325.0,-325.0,-325.0,-7.5396825396825395
-0.23809523809523808,-15.95238095238095,6.428571428571428,-13.73015873015873,-9.920634920634921,-16.904761904761905,-19.126984126984127,-21.03174603174603,-7.5396825396825395,-15.317460317460316,-2.9365079365079363,-15.793650793650793,-13.73015873015873,-18.015873015873016,-11.984126984126984,-11.19047619047619,-3.095238095238095,-0.23809523809523808,-325.0,-325.0,-325.0,-325.0,-325.0,-7.5396825396825395
6.428571428571428,-2.3015873015873014,15.476190476190474,4.841269841269841,1.984126984126984,9.761904761904761,-0.07936507936507936,-5.317460317460317,7.857142857142857,-6.26984126984127,-3.095238095238095,-3.253968253968254,-1.1904761904761905,-8.333333333333332,5.7936507936507935,-10.714285714285714,-3.571428571428571,-0.23809523809523808,-325.0,-325.0,-325.0,-325.0,-325.0,-321.8253968253968
6.428571428571428,-2.3015873015873014,15.476190476190474,4.841269841269841,1.984126984126984,9.761904761904761,-0.07936507936507936,-5.317460317460317,7.857142857142857,-6.26984126984127,-3.095238095238095,-3.253968253968254,-1.1904761904761905,-8.333333333333332,5.7936507936507935,-10.714285714285714,-3.571428571428571,-0.23809523809523808,-325.0,-325.0,-325.0,-325.0,-325.0,-321.8253968253968
-2.9365079365079363,-0.07936507936507936,8.809523809523808,13.253968253968253,-1.0317460317460316,19.444444444444443,-5.634920634920634,3.095238095238095,-3.73015873015873,-13.095238095238095,-7.5396825396825395,6.904761904761904,-10.555555555555555,-1.0317460317460316,-6.111111111111111,-8.809523809523808,-3.253968253968254,-0.3968253968253968,-325.0,-325.0,-325.0,-325.0,-325.0,-321.8253968253968
-2.9365079365079363,-0.07936507936507936,8.809523809523808,13.253968253968253,-1.0317460317460316,19.444444444444443,-5.634920634920634,3.095238095238095,-3.73015873015873,-13.095238095238095,-7.5396825396825395,6.904761904761904,-10.555555555555555,-1.0317460317460316,-6.111111111111111,-8.809523809523808,-3.253968253968254,-0.3968253968253968,-325.0,-325.0,-325.0,-325.0,-325.0,-321.8253968253968
9.920634920634921,3.888888888888889,12.777777777777777,12.142857142857142,2.3015873015873014,12.142857142857142,-9.603174603174603,-0.5555555555555556,-2.9365079365079363,-10.714285714285714,3.095238095238095,7.698412698412698,4.841269841269841,0.7142857142857142,-7.3809523809523805,-5.317460317460317,-3.888888888888889,0.23809523809523808,-325.0,-325.0,-325.0,-325.0,-325.0,-321.8253968253968
9.920634920634921,3.888888888888889,12.777777777777777,12.142857142857142,2.3015873015873014,12.142857142857142,-9.603174603174603,-0.5555555555555556,-2.9365079365079363,-10.714285714285714,3.095238095238095,7.698412698412698,4.841269841269841,0.7142857142857142,-7.3809523809523805,-5.317460317460317,-3.888888888888889,0.23809523809523808,-325.0,-325.0,-325.0,-325.0,-325.0,-321.8253968253968
15.476190476190474,-14.206349206349206,2.7777777777777777,-10.555555555555555,-5.476190476190476,-1.1904761904761905,-10.079365079365079,-6.746031746031746,0.3968253968253968,-12.46031746031746,7.3809523809523805,-9.920634920634921,-0.873015873015873,-15.634920634920634,-7.3809523809523805,-5.7936507936507935,-3.4126984126984126,-0.07936507936507936,-325.0,-325.0,-325.0,-325.0,-325.0,-321.8253968253968
15.476190476190474,-14.206349206349206,2.7777777777777777,-10.555555555555555,-5.476190476190476,-1.1904761904761905,-10.079365079365079,-6.746031746031746,0.3968253968253968,-12.46031746031746,7.3809523809523805,-9.920634920634921,-0.873015873015873,-15.634920634920634,-7.3809523809523805,-5.7936507936507935,-3.4126984126984126,-0.07936507936507936,-325.0,-325.0,-325.0,-325.0,-325.0,-321.8253968253968
20.396825396825395,-26.587301587301585,1.8253968253968254,-21.984126984126984,-0.07936507936507936,-9.761904761904761,-2.9365079365079363,-7.222222222222221,8.809523809523808,-8.968253968253968,11.19047619047619,-21.507936507936506,8.492063492063492,-18.49206349206349,8.333333333333332,-3.73015873015873,-3.4126984126984126,0.3968253968253968,-325.0,-325.0,-325.0,-325.0,-325.0,-321.8253968253968
20.396825396825395,-26.587301587301585,1.8253968253968254,-21.984126984126984,-0.07936507936507936,-9.761904761904761,-2.9365079365079363,-7.222222222222221,8.809523809523808,-8.968253968253968,11.19047619047619,-21.507936507936506,8.492063492063492,-18.49206349206349,8.333333333333332,-3.73015873015873,-3.4126984126984126,0.3968253968253968,-325.0,-325.0,-325.0,-325.0,-325.0,-321.8253968253968
10.079365079365079,-33.095238095238095,4.523809523809524,-26.428571428571427,4.523809523809524,-18.65079365079365,-4.0476190476190474,-18.015873015873016,5.634920634920634,-8.809523809523808,6.26984126984127,-24.523809523809522,0.5555555555555556,-19.76190476190476,8.174603174603174,-13.095238095238095,-3.888888888888889,0.07936507936507936,-325.0,-325.0,-325.0,-325.0,-325.0,-7.5396825396825395
10.079365079365079,-33.095238095238095,4.523809523809524,-26.428571428571427,4.523809523809524,-18.65079365079365,-4.0476190476190474,-18.015873015873016,5.634920634920634,-8.809523809523808,6.26984126984127,-24.523809523809522,0.5555555555555556,-19.76190476190476,8.174603174603174,-13.095238095238095,-3.888888888888889,0.07936507936507936,-325.0,-325.0,-325.0,-325.0,-325.0,-7.5396825396825395
-5.158730158730158,-26.9047619047619,6.587301587301587,-21.507936507936506,6.904761904761904,-15.476190476190474,3.4126984126984126,-17.38095238095238,7.698412698412698,-8.65079365079365,-6.587301587301587,-13.73015873015873,4.2063492063492065,-18.96825396825397,11.666666666666666,-17.539682539682538,-3.4126984126984126,-0.07936507936507936,-325.0,-325.0,-325.0,-325.0,-325.0,-7.5396825396825395
-5.158730158730158,-26.9047619047619,6.587301587301587,-21.507936507936506,6.904761904761904,-15.476190476190474,3.4126984126984126,-17.38095238095238,7.698412698412698,-8.65079365079365,-6.587301587301587,-13.73015873015873,4.2063492063492065,-18.96825396825397,11.666666666666666,-17.539682539682538,-3.4126984126984126,-0.07936507936507936,-325.0,-325.0,-325.0,-325.0,-325.0,-7.5396825396825395
-2.9365079365079363,-17.698412698412696,24.84126984126984,-4.2063492063492065,24.84126984126984,-0.23809523809523808,23.88888888888889,-7.857142857142857,13.73015873015873,-6.26984126984127,5.317460317460317,-10.396825396825395,-4.523809523809524,-20.238095238095237,13.253968253968253,-20.238095238095237,-3.095238095238095,0.07936507936507936,-325.0,-325.0,-325.0,-325.0,-325.0,-7.5396825396825395
-2.9365079365079363,-17.698412698412696,24.84126984126984,-4.2063492063492065,24.84126984126984,-0.23809523809523808,23.88888888888889,-7.857142857142857,13.73015873015873,-6.26984126984127,5.317460317460317,-10.396825396825395,-4.523809523809524,-20.238095238095237,13.253968253968253,-20.238095238095237,-3.095238095238095,0.07936507936507936,-325.0,-325.0,-325.0,-325.0,-325.0,-7.5396825396825395
0.23809523809523808,-5.952380952380952,26.9047619047619,9.761904761904761,20.71428571428571,15.158730158730158,19.6031746031746,10.238095238095237,8.015873015873016,0.873015873015873,4.365079365079365,-4.365079365079365,-21.984126984126984,-18.80952380952381,0.3968253968253968,-14.682539682539682,-2.9365079365079363,-0.07936507936507936,-325.0,-325.0,-325.0,-325.0,-325.0,-7.5396825396825395
0.23809523809523808,-5.952380952380952,26.9047619047619,9.761904761904761,20.71428571428571,15.158730158730158,19.6031746031746,10.238095238095237,8.015873015873016,0.873015873015873,4.365079365079365,-4.365079365079365,-21.984126984126984,-18.80952380952381,0.3968253968253968,-14.682539682539682,-2.9365079365079363,-0.07936507936507936,-325.0,-325.0,-325.0,-325.0,-325.0,-7.5396825396825395
11.031746031746032,-2.46031746031746,28.65079365079365,0.3968253968253968,29.920634920634917,11.825396825396824,25.79365079365079,15.634920634920634,18.333333333333332,5.476190476190476,20.07936507936508,-0.3968253968253968,-4.2063492063492065,-14.206349206349206,1.8253968253968254,-3.571428571428571,-3.4126984126984126,-0.23809523809523808,-325.0,-325.0,-325.0,-325.0,-325.0,-7.5396825396825395
11.031746031746032,-2.46031746031746,28.65079365079365,0.3968253968253968,29.920634920634917,11.825396825396824,25.79365079365079,15.634920634920634,18.333333333333332,5.476190476190476,20.07936507936508,-0.3968253968253968,-4.2063492063492065,-14.206349206349206,1.8253968253968254,-3.571428571428571,-3.4126984126984126,-0.23809523809523808,-325.0,-325.0,-325.0,-325.0,-325.0,-7.5396825396825395
-6.587301587301587,-4.0476190476190474,-1.507936507936508,-6.428571428571428,0.873015873015873,4.523809523809524,-2.142857142857143,8.492063492063492,-7.698412698412698,0.5555555555555556,-3.888888888888889,0.7142857142857142,-9.444444444444445,-8.492063492063492,-15.95238095238095,-9.285714285714285,-3.4126984126984126,-0.07936507936507936,-325.0,-325.0,-325.0,-325.0,-325.0,-321.8253968253968
-6.587301587301587,-4.0476190476190474,-1.507936507936508,-6.428571428571428,0.873015873015873,4.523809523809524,-2.142857142857143,8.492063492063492,-7.698412698412698,0.5555555555555556,-3.888888888888889,0.7142857142857142,-9.444444444444445,-8.492063492063492,-15.95238095238095,-9.285714285714285,-3.4126984126984126,-0.07936507936507936,-325.0,-325.0,-325.0,-325.0,-325.0,-321.8253968253968
-12.46031746031746,-9.920634920634921,-10.079365079365079,-4.0476190476190474,-5.0,8.809523809523808,-15.793650793650793,2.142857142857143,-17.698412698412696,-9.444444444444445,-9.444444444444445,-2.46031746031746,0.23809523809523808,-14.206349206349206,-10.238095238095237,-6.746031746031746,-3.095238095238095,-0.3968253968253968,-325.0,-325.0,-325.0,-325.0,-325.0,-321.8253968253968
-12.46031746031746,-9.920634920634921,-10.079365079365079,-4.0476190476190474,-5.0,8.809523809523808,-15.793650793650793,2.142857142857143,-17.698412698412696,-9.444444444444445,-9.444444444444445,-2.46031746031746,0.23809523809523808,-14.206349206349206,-10.238095238095237,-6.746031746031746,-3.095238095238095,-0.3968253968253968,-325.0,-325.0,-325.0,-325.0,-325.0,-321.8253968253968
-15.634920634920634,-14.84126984126984,-18.015873015873016,-12.936507936507935,-18.015873015873016,-10.873015873015872,-28.174603174603174,-15.634920634920634,-24.68253968253968,-17.063492063492063,-21.03174603174603,-10.714285714285714,-6.428571428571428,-18.333333333333332,-19.126984126984127,-19.92063492063492,-2.9365079365079363,-0.3968253968253968,-325.0,-325.0,-325.0,-325.0,-325.0,-321.8253968253968
-15.634920634920634,-14.84126984126984,-18.015873015873016,-12.936507936507935,-18.015873015873016,-10.873015873015872,-28.174603174603174,-15.634920634920634,-24.68253968253968,-17.063492063492063,-21.03174603174603,-10.714285714285714,-6.428571428571428,-18.333333333333332,-19.126984126984127,-19.92063492063492,-2.9365079365079363,-0.3968253968253968,-325.0,-325.0,-325.0,-325.0,-325.0,-321.8253968253968
-15.476190476190474,-25.0,-18.015873015873016,-21.984126984126984,-20.07936507936508,-24.365079365079364,-15.95238095238095,-22.777777777777775,-8.968253968253968,-11.349206349206348,-19.6031746031746,-15.634920634920634,-15.634920634920634,-14.682539682539682,-3.73015873015873,-22.142857142857142,-3.888888888888889,-0.07936507936507936,-325.0,-325.0,-325.0,-325.0,-325.0,-321.8253968253968
-15.476190476190474,-25.0,-18.015873015873016,-21.984126984126984,-20.07936507936508,-24.365079365079364,-15.95238095238095,-22.777777777777775,-8.968253968253968,-11.349206349206348,-19.6031746031746,-15.634920634920634,-15.634920634920634,-14.682539682539682,-3.73015873015873,-22.142857142857142,-3.888888888888889,-0.07936507936507936,-325.0,-325.0,-325.0,-325.0,-325.0,-321.8253968253968
-3.73015873015873,-16.587301587301585,-9.603174603174603,-18.015873015873016,-19.126984126984127,-19.444444444444443,-16.11111111111111,-13.571428571428571,-4.2063492063492065,-5.158730158730158,-3.095238095238095,-13.571428571428571,-21.984126984126984,-16.904761904761905,-7.698412698412698,-15.0,-3.571428571428571,0.07936507936507936,-325.0,-325.0,-325.0,-325.0,-325.0,-321.8253968253968
-3.73015873015873,-16.587301587301585,-9.603174603174603,-18.015873015873016,-19.126984126984127,-19.444444444444443,-16.11111111111111,-13.571428571428571,-4.2063492063492065,-5.158730158730158,-3.095238095238095,-13.571428571428571,-21.984126984126984,-16.904761904761905,-7.698412698412698,-15.0,-3.571428571428571,0.07936507936507936,-325.0,-325.0,-325.0,-325.0,-325.0,-321.8253968253968
7.222222222222221,-19.6031746031746,11.666666666666666,-14.84126984126984,10.555555555555555,-11.507936507936508,8.015873015873016,-8.809523809523808,13.412698412698411,2.619047619047619,15.476190476190474,-18.015873015873016,22.46031746031746,-25.317460317460316,18.333333333333332,-11.031746031746032,-2.7777777777777777,0.23809523809523808,-325.0,-325.0,-325.0,-325.0,-325.0,-7.5396825396825395
7.222222222222221,-19.6031746031746,11.666666666666666,-14.84126984126984,10.555555555555555,-11.507936507936508,8.015873015873016,-8.809523809523808,13.412698412698411,2.619047619047619,15.476190476190474,-18.015873015873016,22.46031746031746,-25.317460317460316,18.333333333333332,-11.031746031746032,-2.7777777777777777,0.23809523809523808,-325.0,-325.0,-325.0,-325.0,-325.0,-7.5396825396825395
10.079365079365079,-21.19047619047619,12.619047619047619,-17.22222222222222,8.174603174603174,-19.6031746031746,-5.634920634920634,-28.174603174603174,-4.523809523809524,-25.634920634920633,14.682539682539682,-14.84126984126984,16.746031746031743,-19.444444444444443,5.7936507936507935,-24.206349206349206,-2.7777777777777777,-0.07936507936507936,-325.0,-325.0,-325.0,-325.0,-325.0,-7.5396825396825395
10.079365079365079,-21.19047619047619,12.619047619047619,-17.22222222222222,8.174603174603174,-19.6031746031746,-5.634920634920634,-28.174603174603174,-4.523809523809524,-25.634920634920633,14.682539682539682,-14.84126984126984,16.746031746031743,-19.444444444444443,5.7936507936507935,-24.206349206349206,-2.7777777777777777,-0.07936507936507936,-325.0,-325.0,-325.0,-325.0,-325.0,-7.5396825396825395
3.73015873015873,-17.698412698412696,-5.634920634920634,-20.555555555555554,-10.555555555555555,-24.047619047619047,-20.238095238095237,-27.063492063492063,-9.761904761904761,-18.80952380952381,11.19047619047619,-12.3015873015873,-13.095238095238095,-13.253968253968253,-0.5555555555555556,-19.6031746031746,-2.9365079365079363,-0.3968253968253968,-325.0,-325.0,-325.0,-325.0,-325.0,-7.5396825396825395
3.73015873015873,-17.698412698412696,-5.634920634920634,-20.555555555555554,-10.555555555555555,-24.047619047619047,-20.238095238095237,-27.063492063492063,-9.761904761904761,-18.80952380952381,11.19047619047619,-12.3015873015873,-13.095238095238095,-13.253968253968253,-0.5555555555555556,-19.6031746031746,-2.9365079365079363,-0.3968253968253968,-325.0,-325.0,-325.0,-325.0,-325.0,-7.5396825396825395
-3.253968253968254,-21.03174603174603,-10.079365079365079,-21.984126984126984,-14.682539682539682,-29.76190476190476,-5.158730158730158,-16.587301587301585,1.6666666666666665,-11.349206349206348,1.984126984126984,-10.555555555555555,-8.65079365079365,-13.73015873015873,-0.3968253968253968,-15.793650793650793,-3.253968253968254,-0.23809523809523808,-325.0,-325.0,-325.0,-325.0,-325.0,-7.5396825396825395
-3.253968253968254,-21.03174603174603,-10.079365079365079,-21.984126984126984,-14.682539682539682,-29.76190476190476,-5.158730158730158,-16.587301587301585,1.6666666666666665,-11.349206349206348,1.984126984126984,-10.555555555555555,-8.65079365079365,-13.73015873015873,-0.3968253968253968,-15.793650793650793,-3.253968253968254,-0.23809523809523808,-325.0,-325.0,-325.0,-325.0,-325.0,-7.5396825396825395
-10.396825396825395,-27.063492063492063,-7.3809523809523805,-30.07936507936508,-2.142857142857143,-31.349206349206348,21.507936507936506,-14.365079365079364,22.936507936507937,-8.492063492063492,-5.7936507936507935,-17.38095238095238,-4.365079365079365,-18.333333333333332,15.158730158730158,-12.46031746031746,-3.253968253968254,-0.07936507936507936,-325.0,-325.0,-325.0,-325.0,-325.0,-7.5396825396825395
-10.396825396825395,-27.063492063492063,-7.3809523809523805,-30.07936507936508,-2.142857142857143,-31.349206349206348,21.507936507936506,-14.365079365079364,22.936507936507937,-8.492063492063492,-5.7936507936507935,-17.38095238095238,-4.365079365079365,-18.333333333333332,15.158730158730158,-12.46031746031746,-3.253968253968254,-0.07936507936507936,-325.0,-325.0,-325.0,-325.0,-325.0,-7.5396825396825395
1.8253968253968254,-14.523809523809524,7.698412698412698,-16.904761904761905,9.285714285714285,-20.396825396825395,22.619047619047617,-15.317460317460316,19.6031746031746,-16.428571428571427,8.015873015873016,-6.587301587301587,13.571428571428571,-10.873015873015872,20.238095238095237,-18.96825396825397,-3.253968253968254,-0.07936507936507936,-325.0,-325.0,-325.0,-325.0,-325.0,-321.8253968253968
1.8253968253968254,-14.523809523809524,7.698412698412698,-16.904761904761905,9.285714285714285,-20.396825396825395,22.619047619047617,-15.317460317460316,19.6031746031746,-16.428571428571427,8.015873015873016,-6.587301587301587,13.571428571428571,-10.873015873015872,20.238095238095237,-18.96825396825397,-3.253968253968254,-0.07936507936507936,-325.0,-325.0,-325.0,-325.0,-325.0,-321.8253968253968
21.03174603174603,-9.761904761904761,24.365079365079364,-11.507936507936508,17.698412698412696,-20.07936507936508,8.809523809523808,-24.047619047619047,10.396825396825395,-22.46031746031746,24.523809523809522,-5.634920634920634,31.507936507936506,-10.238095238095237,22.142857142857142,-28.333333333333332,-2.619047619047619,0.23809523809523808,-325.0,-325.0,-325.0,-325.0,-325.0,-321.8253968253968
21.03174603174603,-9.761904761904761,24.365079365079364,-11.507936507936508,17.698412698412696,-20.07936507936508,8.809523809523808,-24.047619047619047,10.396825396825395,-22.46031746031746,24.523809523809522,-5.634920634920634,31.507936507936506,-10.238095238095237,22.142857142857142,-28.333333333333332,-2.619047619047619,0.23809523809523808,-325.0,-325.0,-325.0,-325.0,-325.0,-321.8253968253968
18.80952380952381,-6.746031746031746,26.11111111111111,4.365079365079365,22.46031746031746,-0.07936507936507936,8.015873015873016,-14.047619047619047,8.809523809523808,-18.96825396825397,23.095238095238095,-0.23809523809523808,36.904761904761905,-3.73015873015873,16.26984126984127,-24.523809523809522,-2.9365079365079363,0.3968253968253968,-325.0,-325.0,-325.0,-325.0,-325.0,-321.8253968253968
18.80952380952381,-6.746031746031746,26.11111111111111,4.365079365079365,22.46031746031746,-0.07936507936507936,8.015873015873016,-14.047619047619047,8.809523809523808,-18.96825396825397,23.095238095238095,-0.23809523809523808,36.904761904761905,-3.73015873015873,16.26984126984127,-24.523809523809522,-2.9365079365079363,0.3968253968253968,-325.0,-325.0,-325.0,-325.0,-325.0,-321.8253968253968
18.96825396825397,-8.65079365079365,35.63492063492063,11.507936507936508,34.84126984126984,9.761904761904761,21.03174603174603,-6.26984126984127,20.873015873015873,-7.222222222222221,28.809523809523807,-3.253968253968254,22.3015873015873,-4.0476190476190474,26.11111111111111,-14.365079365079364,-3.73015873015873,0.07936507936507936,-325.0,-325.0,-325.0,-325.0,-325.0,-321.8253968253968
18.96825396825397,-8.65079365079365,35.63492063492063,11.507936507936508,34.84126984126984,9.761904761904761,21.03174603174603,-6.26984126984127,20.873015873015873,-7.222222222222221,28.809523809523807,-3.253968253968254,22.3015873015873,-4.0476190476190474,26.11111111111111,-14.365079365079364,-3.73015873015873,0.07936507936507936,-325.0,-325.0,-325.0,-325.0,-325.0,-321.8253968253968
16.428571428571427,-6.587301587301587,37.06349206349206,11.666666666666666,39.285714285714285,13.253968253968253,28.49206349206349,11.19047619047619,30.87301587301587,-2.3015873015873014,23.095238095238095,0.5555555555555556,27.857142857142854,-4.523809523809524,28.809523809523807,-4.365079365079365,-3.095238095238095,0.23809523809523808,-325.0,-325.0,-325.0,-325.0,-325.0,-321.8253968253968
16.428571428571427,-6.587301587301587,37.06349206349206,11.666666666666666,39.285714285714285,13.253968253968253,28.49206349206349,11.19047619047619,30.87301587301587,-2.3015873015873014,23.095238095238095,0.5555555555555556,27.857142857142854,-4.523809523809524,28.809523809523807,-4.365079365079365,-3.095238095238095,0.23809523809523808,-325.0,-325.0,-325.0,-325.0,-325.0,-321.8253968253968
11.666666666666666,-13.253968253968253,20.555555555555554,0.07936507936507936,17.22222222222222,9.444444444444445,23.253968253968253,17.38095238095238,29.126984126984127,9.603174603174603,14.047619047619047,-5.952380952380952,3.73015873015873,-9.761904761904761,23.41269841269841,5.476190476190476,-2.9365079365079363,-0.07936507936507936,-325.0,-325.0,-325.0,-325.0,-325.0,-7.5396825396825395
11.666666666666666,-13.253968253968253,20.555555555555554,0.07936507936507936,17.22222222222222,9.444444444444445,23.253968253968253,17.38095238095238,29.126984126984127,9.603174603174603,14.047619047619047,-5.952380952380952,3.73015873015873,-9.761904761904761,23.41269841269841,5.476190476190476,-2.9365079365079363,-0.07936507936507936,-325.0,-325.0,-325.0,-325.0,-325.0,-7.5396825396825395
-3.888888888888889,-19.285714285714285,-7.857142857142857,-13.571428571428571,-14.206349206349206,1.349206349206349,13.73015873015873,8.015873015873016,13.571428571428571,8.65079365079365,-3.095238095238095,-10.079365079365079,5.0,-7.063492063492063,11.349206349206348,3.095238095238095,-2.9365079365079363,-0.3968253968253968,-325.0,-325.0,-325.0,-325.0,-325.0,-7.5396825396825395
-3.888888888888889,-19.285714285714285,-7.857142857142857,-13.571428571428571,-14.206349206349206,1.349206349206349,13.73015873015873,8.015873015873016,13.571428571428571,8.65079365079365,-3.095238095238095,-10.079365079365079,5.0,-7.063492063492063,11.349206349206348,3.095238095238095,-2.9365079365079363,-0.3968253968253968,-325.0,-325.0,-325.0,-325.0,-325.0,-7.5396825396825395
-12.936507936507935,-22.46031746031746,-19.6031746031746,-24.206349206349206,-21.984126984126984,-9.761904761904761,0.873015873015873,-3.73015873015873,-1.1904761904761905,0.5555555555555556,-8.333333333333332,-16.746031746031743,1.8253968253968254,-13.412698412698411,0.23809523809523808,-5.317460317460317,-3.4126984126984126,-0.5555555555555556,-325.0,-325.0,-325.0,-325.0,-325.0,-7.5396825396825395
-12.936507936507935,-22.46031746031746,-19.6031746031746,-24.206349206349206,-21.984126984126984,-9.761904761904761,0.873015873015873,-3.73015873015873,-1.1904761904761905,0.5555555555555556,-8.333333333333332,-16.746031746031743,1.8253968253968254,-13.412698412698411,0.23809523809523808,-5.317460317460317,-3.4126984126984126,-0.5555555555555556,-325.0,-325.0,-325.0,-325.0,-325.0,-7.5396825396825395
-10.079365079365079,-16.587301587301585,-24.047619047619047,-21.507936507936506,-23.88888888888889,-16.587301587301585,-19.444444444444443,-13.095238095238095,-18.333333333333332,-9.285714285714285,-7.698412698412698,-13.412698412698411,-21.825396825396822,-12.142857142857142,-14.047619047619047,-12.46031746031746,-3.571428571428571,0.23809523809523808,-325.0,-325.0,-325.0,-325.0,-325.0,-7.5396825396825395
-10.079365079365079,-16.587301587301585,-24.047619047619047,-21.507936507936506,-23.88888888888889,-16.587301587301585,-19.444444444444443,-13.095238095238095,-18.333333333333332,-9.285714285714285,-7.698412698412698,-13.412698412698411,-21.825396825396822,-12.142857142857142,-14.047619047619047,-12.46031746031746,-3.571428571428571,0.23809523809523808,-325.0,-325.0,-325.0,-325.0,-325.0,-7.5396825396825395
-26.11111111111111,-7.222222222222221,-33.57142857142857,-18.65079365079365,-36.11111111111111,-20.555555555555554,-40.714285714285715,-20.555555555555554,-34.36507936507936,-12.936507936507935,-26.428571428571427,-8.492063492063492,-48.96825396825397,-7.857142857142857,-31.98412698412698,-18.015873015873016,-3.4126984126984126,-0.3968253968253968,-325.0,-325.0,-325.0,-325.0,-325.0,-7.5396825396825395
-26.11111111111111,-7.222222222222221,-33.57142857142857,-18.65079365079365,-36.11111111111111,-20.555555555555554,-40.714285714285715,-20.555555555555554,-34.36507936507936,-12.936507936507935,-26.428571428571427,-8.492063492063492,-48.96825396825397,-7.857142857142857,-31.98412698412698,-18.015873015873016,-3.4126984126984126,-0.3968253968253968,-325.0,-325.0,-325.0,-325.0,-325.0,-7.5396825396825395
-31.19047619047619,-1.507936507936508,-23.88888888888889,-5.952380952380952,-22.936507936507937,-11.984126984126984,-24.047619047619047,-17.22222222222222,-20.07936507936508,-9.761904761904761,-28.809523809523807,-4.841269841269841,-29.920634920634917,-5.476190476190476,-27.063492063492063,-20.71428571428571,-3.571428571428571,-0.07936507936507936,-325.0,-325.0,-325.0,-325.0,-325.0,-321.8253968253968
-31.19047619047619,-1.507936507936508,-23.88888888888889,-5.952380952380952,-22.936507936507937,-11.984126984126984,-24.047619047619047,-17.22222222222222,-20.07936507936508,-9.761904761904761,-28.809523809523807,-4.841269841269841,-29.920634920634917,-5.476190476190476,-27.063492063492063,-20.71428571428571,-3.571428571428571,-0.07936507936507936,-325.0,-325.0,-325.0,-325.0,-325.0,-321.8253968253968
-38.01587301587301,6.111111111111111,-14.84126984126984,9.444444444444445,-12.46031746031746,10.238095238095237,4.0476190476190474,3.095238095238095,-0.7142857142857142,9.285714285714285,-39.6031746031746,1.6666666666666665,-29.920634920634917,-6.111111111111111,-11.031746031746032,-9.920634920634921,-3.888888888888889,-0.07936507936507936,-325.0,-325.0,-325.0,-325.0,-325.0,-321.8253968253968
-38.01587301587301,6.111111111111111,-14.84126984126984,9.444444444444445,-12.46031746031746,10.238095238095237,4.0476190476190474,3.095238095238095,-0.7142857142857142,9.285714285714285,-39.6031746031746,1.6666666666666665,-29.920634920634917,-6.111111111111111,-11.031746031746032,-9.920634920634921,-3.888888888888889,-0.07936507936507936,-325.0,-325.0,-325.0,-325.0,-325.0,-321.8253968253968
-41.507936507936506,2.9365079365079363,-17.698412698412696,9.920634920634921,-8.809523809523808,15.95238095238095,10.873015873015872,27.38095238095238,0.5555555555555556,26.428571428571427,-45.15873015873016,4.523809523809524,-36.11111111111111,-7.5396825396825395,-1.984126984126984,9.126984126984127,-3.73015873015873,0.07936507936507936,-325.0,-325.0,-325.0,-325.0,-325.0,-321.8253968253968
-41.507936507936506,2.9365079365079363,-17.698412698412696,9.920634920634921,-8.809523809523808,15.95238095238095,10.873015873015872,27.38095238095238,0.5555555555555556,26.428571428571427,-45.15873015873016,4.523809523809524,-36.11111111111111,-7.5396825396825395,-1.984126984126984,9.126984126984127,-3.73015873015873,0.07936507936507936,-325.0,-325.0,-325.0,-325.0,-325.0,-321.8253968253968
-35.0,-9.603174603174603,-10.714285714285714,-15.317460317460316,-8.968253968253968,-12.777777777777777,-14.047619047619047,-7.3809523809523805,-27.698412698412696,-8.968253968253968,-31.666666666666664,-8.333333333333332,-33.57142857142857,-12.619047619047619,-22.3015873015873,-12.936507936507935,-3.571428571428571,-0.07936507936507936,-325.0,-325.0,-325.0,-325.0,-325.0,-321.8253968253968
-35.0,-9.603174603174603,-10.714285714285714,-15.317460317460316,-8.968253968253968,-12.777777777777777,-14.047619047619047,-7.3809523809523805,-27.698412698412696,-8.968253968253968,-31.666666666666664,-8.333333333333332,-33.57142857142857,-12.619047619047619,-22.3015873015873,-12.936507936507935,-3.571428571428571,-0.07936507936507936,-325.0,-325.0,-325.0,-325.0,-325.0,-321.8253968253968
-24.68253968253968,8.809523809523808,-13.412698412698411,-2.46031746031746,-17.857142857142858,-12.936507936507935,-38.01587301587301,-29.920634920634917,-43.57142857142857,-25.158730158730158,-26.746031746031743,4.523809523809524,-33.095238095238095,-1.8253968253968254,-39.12698412698413,-23.730158730158728,-3.4126984126984126,0.23809523809523808,-325.0,-325.0,-325.0,-325.0,-325.0,-321.8253968253968
-24.68253968253968,8.809523809523808,-13.412698412698411,-2.46031746031746,-17.857142857142858,-12.936507936507935,-38.01587301587301,-29.920634920634917,-43.57142857142857,-25.158730158730158,-26.746031746031743,4.523809523809524,-33.095238095238095,-1.8253968253968254,-39.12698412698413,-23.730158730158728,-3.4126984126984126,0.23809523809523808,-325.0,-325.0,-325.0,-325.0,-325.0,-321.8253968253968
-38.96825396825397,-2.619047619047619,-31.507936507936506,-9.603174603174603,-35.15873015873016,-21.507936507936506,-58.96825396825397,-38.33333333333333,-54.52380952380952,-26.428571428571427,-32.93650793650794,0.07936507936507936,-30.71428571428571,0.3968253968253968,-51.19047619047619,-29.76190476190476,-2.9365079365079363,0.5555555555555556,-325.0,-325.0,-325.0,-325.0,-325.0,-7.5396825396825395
-38.96825396825397,-2.619047619047619,-31.507936507936506,-9.603174603174603,-35.15873015873016,-21.507936507936506,-58.96825396825397,-38.33333333333333,-54.52380952380952,-26.428571428571427,-32.93650793650794,0.07936507936507936,-30.71428571428571,0.3968253968253968,-51.19047619047619,-29.76190476190476,-2.9365079365079363,0.5555555555555556,-325.0,-325.0,-325.0,-325.0,-325.0,-7.5396825396825395
-26.428571428571427,8.968253968253968,-25.0,1.349206349206349,-29.285714285714285,-7.857142857142857,-27.698412698412696,-19.126984126984127,-24.365079365079364,-10.396825396825395,-24.523809523809522,8.65079365079365,-22.3015873015873,-2.619047619047619,-21.825396825396822,-15.158730158730158,-3.095238095238095,0.07936507936507936,-325.0,-325.0,-325.0,-325.0,-325.0,-7.5396825396825395
-26.428571428571427,8.968253968253968,-25.0,1.349206349206349,-29.285714285714285,-7.857142857142857,-27.698412698412696,-19.126984126984127,-24.365079365079364,-10.396825396825395,-24.523809523809522,8.65079365079365,-22.3015873015873,-2.619047619047619,-21.825396825396822,-15.158730158730158,-3.095238095238095,0.07936507936507936,-325.0,-325.0,-325.0,-325.0,-325.0,-7.5396825396825395
-11.031746031746032,-3.888888888888889,-12.936507936507935,-4.523809523809524,-15.317460317460316,-4.841269841269841,-2.142857142857143,-8.65079365079365,6.587301587301587,1.349206349206349,-3.095238095238095,3.888888888888889,6.587301587301587,3.571428571428571,1.6666666666666665,-7.063492063492063,-3.253968253968254,0.5555555555555556,-325.0,-325.0,-325.0,-325.0,-325.0,-7.5396825396825395
-11.031746031746032,-3.888888888888889,-12.936507936507935,-4.523809523809524,-15.317460317460316,-4.841269841269841,-2.142857142857143,-8.65079365079365,6.587301587301587,1.349206349206349,-3.095238095238095,3.888888888888889,6.587301587301587,3.571428571428571,1.6666666666666665,-7.063492063492063,-3.253968253968254,0.5555555555555556,-325.0,-325.0,-325.0,-325.0,-325.0,-7.5396825396825395
5.634920634920634,0.23809523809523808,8.333333333333332,3.253968253968254,5.476190476190476,10.873015873015872,15.95238095238095,11.349206349206348,28.333333333333332,12.3015873015873,5.952380952380952,5.317460317460317,3.253968253968254,6.26984126984127,15.476190476190474,9.444444444444445,-2.9365079365079363,0.3968253968253968,-325.0,-325.0,-325.0,-325.0,-325.0,-7.5396825396825395
5.634920634920634,0.23809523809523808,8.333333333333332,3.253968253968254,5.476190476190476,10.873015873015872,15.95238095238095,11.349206349206348,28.333333333333332,12.3015873015873,5.952380952380952,5.317460317460317,3.253968253968254,6.26984126984127,15.476190476190474,9.444444444444445,-2.9365079365079363,0.3968253968253968,-325.0,-325.0,-325.0,-325.0,-325.0,-7.5396825396825395
8.968253968253968,1.1904761904761905,25.0,10.238095238095237,23.253968253968253,23.57142857142857,29.444444444444443,18.015873015873016,32.14285714285714,6.111111111111111,6.428571428571428,3.095238095238095,4.682539682539682,-0.7142857142857142,21.666666666666664,9.126984126984127,-2.7777777777777777,0.07936507936507936,-325.0,-325.0,-325.0,-325.0,-325.0,-7.5396825396825395
8.968253968253968,1.1904761904761905,25.0,10.238095238095237,23.253968253968253,23.57142857142857,29.444444444444443,18.015873015873016,32.14285714285714,6.111111111111111,6.428571428571428,3.095238095238095,4.682539682539682,-0.7142857142857142,21.666666666666664,9.126984126984127,-2.7777777777777777,0.07936507936507936,-325.0,-325.0,-325.0,-325.0,-325.0,-7.5396825396825395
8.492063492063492,6.746031746031746,24.206349206349206,24.523809523809522,22.3015873015873,29.6031746031746,32.3015873015873,24.047619047619047,32.460317460317455,15.634920634920634,11.825396825396824,9.444444444444445,0.3968253968253968,4.0476190476190474,33.888888888888886,8.809523809523808,-3.73015873015873,0.07936507936507936,-325.0,-325.0,-325.0,-325.0,-325.0,-321.8253968253968
8.492063492063492,6.746031746031746,24.206349206349206,24.523809523809522,22.3015873015873,29.6031746031746,32.3015873015873,24.047619047619047,32.460317460317455,15.634920634920634,11.825396825396824,9.444444444444445,0.3968253968253968,4.0476190476190474,33.888888888888886,8.809523809523808,-3.73015873015873,0.07936507936507936,-325.0,-325.0,-325.0,-325.0,-325.0,-321.8253968253968
-1.984126984126984,15.476190476190474,-1.349206349206349,19.76190476190476,-6.428571428571428,20.396825396825395,-4.2063492063492065,5.7936507936507935,-7.3809523809523805,2.142857142857143,8.492063492063492,16.26984126984127,0.873015873015873,3.73015873015873,9.761904761904761,-2.9365079365079363,-3.4126984126984126,0.07936507936507936,-325.0,-325.0,-325.0,-325.0,-325.0,-321.8253968253968
-1.984126984126984,15.476190476190474,-1.349206349206349,19.76190476190476,-6.428571428571428,20.396825396825395,-4.2063492063492065,5.7936507936507935,-7.3809523809523805,2.142857142857143,8.492063492063492,16.26984126984127,0.873015873015873,3.73015873015873,9.761904761904761,-2.9365079365079363,-3.4126984126984126,0.07936507936507936,-325.0,-325.0,-325.0,-325.0,-325.0,-321.8253968253968
-1.349206349206349,3.4126984126984126,-11.507936507936508,0.5555555555555556,-19.444444444444443,-1.984126984126984,-26.11111111111111,-15.317460317460316,-26.26984126984127,-9.920634920634921,3.095238095238095,7.222222222222221,-0.7142857142857142,1.1904761904761905,-15.634920634920634,-11.825396825396824,-3.73015873015873,-0.07936507936507936,-325.0,-325.0,-325.0,-325.0,-325.0,-321.8253968253968
-1.349206349206349,3.4126984126984126,-11.507936507936508,0.5555555555555556,-19.444444444444443,-1.984126984126984,-26.11111111111111,-15.317460317460316,-26.26984126984127,-9.920634920634921,3.095238095238095,7.222222222222221,-0.7142857142857142,1.1904761904761905,-15.634920634920634,-11.825396825396824,-3.73015873015873,-0.07936507936507936,-325.0,-325.0,-325.0,-325.0,-325.0,-321.8253968253968
1.984126984126984,9.285714285714285,0.873015873015873,-3.253968253968254,-2.142857142857143,-1.6666666666666665,-1.6666666666666665,-9.126984126984127,0.873015873015873,0.07936507936507936,13.412698412698411,6.587301587301587,21.03174603174603,4.2063492063492065,-5.7936507936507935,-5.7936507936507935,-4.0476190476190474,0.873015873015873,-325.0,-325.0,-325.0,-325.0,-325.0,-321.8253968253968
1.984126984126984,9.285714285714285,0.873015873015873,-3.253968253968254,-2.142857142857143,-1.6666666666666665,-1.6666666666666665,-9.126984126984127,0.873015873015873,0.07936507936507936,13.412698412698411,6.587301587301587,21.03174603174603,4.2063492063492065,-5.7936507936507935,-5.7936507936507935,-4.0476190476190474,0.873015873015873,-325.0,-325.0,-325.0,-325.0,-325.0,-321.8253968253968
-17.063492063492063,0.07936507936507936,-2.7777777777777777,-1.1904761904761905,3.095238095238095,9.285714285714285,20.07936507936508,15.476190476190474,14.206349206349206,15.476190476190474,-9.920634920634921,0.07936507936507936,-15.95238095238095,3.095238095238095,1.984126984126984,4.523809523809524,-4.841269841269841,0.23809523809523808,-325.0,-325.0,-325.0,-325.0,-325.0,-321.8253968253968
-17.063492063492063,0.07936507936507936,-2.7777777777777777,-1.1904761904761905,3.095238095238095,9.285714285714285,20.07936507936508,15.476190476190474,14.206349206349206,15.476190476190474,-9.920634920634921,0.07936507936507936,-15.95238095238095,3.095238095238095,1.984126984126984,4.523809523809524,-4.841269841269841,0.23809523809523808,-325.0,-325.0,-325.0,-325.0,-325.0,-321.8253968253968
-21.825396825396822,11.666666666666666,-5.317460317460317,14.047619047619047,5.7936507936507935,21.03174603174603,25.952380952380953,29.444444444444443,16.428571428571427,25.0,-23.253968253968253,8.174603174603174,-11.19047619047619,1.0317460317460316,14.523809523809524,8.65079365079365,-4.682539682539682,0.7142857142857142,-325.0,-325.0,-325.0,-325.0,-325.0,-7.5396825396825395
-21.825396825396822,11.666666666666666,-5.317460317460317,14.047619047619047,5.7936507936507935,21.03174603174603,25.952380952380953,29.444444444444443,16.428571428571427,25.0,-23.253968253968253,8.174603174603174,-11.19047619047619,1.0317460317460316,14.523809523809524,8.65079365079365,-4.682539682539682,0.7142857142857142,-325.0,-325.0,-325.0,-325.0,-325.0,-7.5396825396825395
-12.777777777777777,10.714285714285714,-8.174603174603174,11.19047619047619,0.5555555555555556,10.873015873015872,4.0476190476190474,9.920634920634921,-1.6666666666666665,11.666666666666666,-18.96825396825397,3.888888888888889,-5.634920634920634,3.73015873015873,3.571428571428571,2.9365079365079363,-4.2063492063492065,0.873015873015873,-325.0,-325.0,-325.0,-325.0,-325.0,-7.5396825396825395
-12.777777777777777,10.714285714285714,-8.174603174603174,11.19047619047619,0.5555555555555556,10.873015873015872,4.0476190476190474,9.920634920634921,-1.6666666666666665,11.666666666666666,-18.96825396825397,3.888888888888889,-5.634920634920634,3.73015873015873,3.571428571428571,2.9365079365079363,-4.2063492063492065,0.873015873015873,-325.0,-325.0,-325.0,-325.0,-325.0,-7.5396825396825395
-4.523809523809524,18.015873015873016,-9.444444444444445,13.095238095238095,-2.7777777777777777,18.174603174603174,-2.9365079365079363,10.238095238095237,-3.4126984126984126,9.126984126984127,-3.095238095238095,15.317460317460316,17.22222222222222,9.920634920634921,3.571428571428571,6.428571428571428,-4.682539682539682,0.5555555555555556,-325.0,-325.0,-325.0,-325.0,-325.0,-7.5396825396825395
-4.523809523809524,18.015873015873016,-9.444444444444445,13.095238095238095,-2.7777777777777777,18.174603174603174,-2.9365079365079363,10.238095238095237,-3.4126984126984126,9.126984126984127,-3.095238095238095,15.317460317460316,17.22222222222222,9.920634920634921,3.571428571428571,6.428571428571428,-4.682539682539682,0.5555555555555556,-325.0,-325.0,-325.0,-325.0,-325.0,-7.5396825396825395
11.031746031746032,8.015873015873016,4.365079365079365,12.777777777777777,10.396825396825395,20.238095238095237,5.0,1.8253968253968254,7.222222222222221,-4.365079365079365,18.333333333333332,10.238095238095237,22.46031746031746,7.857142857142857,13.571428571428571,0.23809523809523808,-5.476190476190476,0.7142857142857142,-325.0,-325.0,-325.0,-325.0,-325.0,-7.5396825396825395
11.031746031746032,8.015873015873016,4.365079365079365,12.777777777777777,10.396825396825395,20.238095238095237,5.0,1.8253968253968254,7.222222222222221,-4.365079365079365,18.333333333333332,10.238095238095237,22.46031746031746,7.857142857142857,13.571428571428571,0.23809523809523808,-5.476190476190476,0.7142857142857142,-325.0,-325.0,-325.0,-325.0,-325.0,-7.5396825396825395
25.634920634920633,3.095238095238095,9.126984126984127,-1.349206349206349,12.46031746031746,-4.2063492063492065,0.07936507936507936,-9.603174603174603,8.65079365079365,-11.031746031746032,37.38095238095238,1.507936507936508,34.047619047619044,-0.07936507936507936,14.365079365079364,-11.349206349206348,-4.682539682539682,0.3968253968253968,-325.0,-325.0,-325.0,-325.0,-325.0,-7.5396825396825395
25.634920634920633,3.095238095238095,9.126984126984127,-1.349206349206349,12.46031746031746,-4.2063492063492065,0.07936507936507936,-9.603174603174603,8.65079365079365,-11.031746031746032,37.38095238095238,1.507936507936508,34.047619047619044,-0.07936507936507936,14.365079365079364,-11.349206349206348,-4.682539682539682,0.3968253968253968,-325.0,-325.0,-325.0,-325.0,-325.0,-7.5396825396825395
17.38095238095238,16.428571428571427,-5.0,1.1904761904761905,-1.984126984126984,-11.349206349206348,-13.253968253968253,-8.809523809523808,0.07936507936507936,0.873015873015873,25.634920634920633,8.968253968253968,37.857142857142854,9.761904761904761,4.2063492063492065,-2.46031746031746,-4.682539682539682,0.23809523809523808,-325.0,-325.0,-325.0,-325.0,-325.0,-321.8253968253968
17.38095238095238,16.428571428571427,-5.0,1.1904761904761905,-1.984126984126984,-11.349206349206348,-13.253968253968253,-8.809523809523808,0.07936507936507936,0.873015873015873,25.634920634920633,8.968253968253968,37.857142857142854,9.761904761904761,4.2063492063492065,-2.46031746031746,-4.682539682539682,0.23809523809523808,-325.0,-325.0,-325.0,-325.0,-325.0,-321.8253968253968
27.698412698412696,4.682539682539682,10.555555555555555,-2.46031746031746,13.412698412698411,-8.968253968253968,13.412698412698411,-5.476190476190476,20.396825396825395,4.523809523809524,28.49206349206349,2.46031746031746,32.77777777777778,0.23809523809523808,23.41269841269841,0.3968253968253968,-4.365079365079365,0.23809523809523808,-325.0,-325.0,-325.0,-325.0,-325.0,-321.8253968253968
27.698412698412696,4.682539682539682,10.555555555555555,-2.46031746031746,13.412698412698411,-8.968253968253968,13.412698412698411,-5.476190476190476,20.396825396825395,4.523809523809524,28.49206349206349,2.46031746031746,32.77777777777778,0.23809523809523808,23.41269841269841,0.3968253968253968,-4.365079365079365,0.23809523809523808,-325.0,-325.0,-325.0,-325.0,-325.0,-321.8253968253968
6.111111111111111,8.65079365079365,-1.6666666666666665,9.603174603174603,5.158730158730158,12.142857142857142,14.365079365079364,17.857142857142858,18.333333333333332,20.396825396825395,3.4126984126984126,6.746031746031746,3.571428571428571,6.111111111111111,18.49206349206349,12.936507936507935,-4.2063492063492065,0.873015873015873,-325.0,-325.0,-325.0,-325.0,-325.0,-321.8253968253968
6.111111111111111,8.65079365079365,-1.6666666666666665,9.603174603174603,5.158730158730158,12.142857142857142,14.365079365079364,17.857142857142858,18.333333333333332,20.396825396825395,3.4126984126984126,6.746031746031746,3.571428571428571,6.111111111111111,18.49206349206349,12.936507936507935,-4.2063492063492065,0.873015873015873,-325.0,-325.0,-325.0,-325.0,-325.0,-321.8253968253968
20.238095238095237,28.49206349206349,25.0,36.11111111111111,32.14285714285714,35.79365079365079,23.730158730158728,31.825396825396822,19.76190476190476,23.57142857142857,26.428571428571427,20.07936507936508,27.38095238095238,15.476190476190474,22.777777777777775,20.555555555555554,-3.571428571428571,0.3968253968253968,-325.0,-325.0,-325.0,-325.0,-325.0,-321.8253968253968
20.238095238095237,28.49206349206349,25.0,36.11111111111111,32.14285714285714,35.79365079365079,23.730158730158728,31.825396825396822,19.76190476190476,23.57142857142857,26.428571428571427,20.07936507936508,27.38095238095238,15.476190476190474,22.777777777777775,20.555555555555554,-3.571428571428571,0.3968253968253968,-325.0,-325.0,-325.0,-325.0,-325.0,-321.8253968253968
16.26984126984127,28.49206349206349,28.96825396825397,38.01587301587301,30.71428571428571,39.92063492063492,6.904761904761904,28.65079365079365,4.841269841269841,21.825396825396822,22.142857142857142,20.873015873015873,10.714285714285714,7.857142857142857,8.015873015873016,13.888888888888888,-4.0476190476190474,0.23809523809523808,-325.0,-325.0,-325.0,-325.0,-325.0,-321.8253968253968
16.26984126984127,28.49206349206349,28.96825396825397,38.01587301587301,30.71428571428571,39.92063492063492,6.904761904761904,28.65079365079365,4.841269841269841,21.825396825396822,22.142857142857142,20.873015873015873,10.714285714285714,7.857142857142857,8.015873015873016,13.888888888888888,-4.0476190476190474,0.23809523809523808,-325.0,-325.0,-325.0,-325.0,-325.0,-321.8253968253968
16.11111111111111,22.777777777777775,20.396825396825395,36.58730158730159,22.142857142857142,36.269841269841265,2.9365079365079363,20.71428571428571,-1.984126984126984,6.904761904761904,18.96825396825397,21.984126984126984,3.253968253968254,14.047619047619047,3.888888888888889,6.428571428571428,-4.0476190476190474,0.23809523809523808,-325.0,-325.0,-325.0,-325.0,-325.0,-7.5396825396825395
16.11111111111111,22.777777777777775,20.396825396825395,36.58730158730159,22.142857142857142,36.269841269841265,2.9365079365079363,20.71428571428571,-1.984126984126984,6.904761904761904,18.96825396825397,21.984126984126984,3.253968253968254,14.047619047619047,3.888888888888889,6.428571428571428,-4.0476190476190474,0.23809523809523808,-325.0,-325.0,-325.0,-325.0,-325.0,-7.5396825396825395
-16.746031746031743,11.825396825396824,-19.76190476190476,13.888888888888888,-14.047619047619047,20.07936507936508,-13.095238095238095,20.873015873015873,-11.507936507936508,17.857142857142858,-10.079365079365079,14.047619047619047,-15.158730158730158,15.95238095238095,-7.698412698412698,13.253968253968253,-3.888888888888889,0.23809523809523808,-325.0,-325.0,-325.0,-325.0,-325.0,-7.5396825396825395
-16.746031746031743,11.825396825396824,-19.76190476190476,13.888888888888888,-14.047619047619047,20.07936507936508,-13.095238095238095,20.873015873015873,-11.507936507936508,17.857142857142858,-10.079365079365079,14.047619047619047,-15.158730158730158,15.95238095238095,-7.698412698412698,13.253968253968253,-3.888888888888889,0.23809523809523808,-325.0,-325.0,-325.0,-325.0,-325.0,-7.5396825396825395
-16.428571428571427,-2.142857142857143,-34.682539682539684,-6.746031746031746,-29.76190476190476,0.873015873015873,-12.46031746031746,7.222222222222221,-2.9365079365079363,9.603174603174603,-12.46031746031746,2.142857142857143,-2.9365079365079363,10.238095238095237,-3.253968253968254,8.809523809523808,-4.523809523809524,-0.07936507936507936,-325.0,-325.0,-325.0,-325.0,-325.0,-7.5396825396825395
-16.428571428571427,-2.142857142857143,-34.682539682539684,-6.746031746031746,-29.76190476190476,0.873015873015873,-12.46031746031746,7.222222222222221,-2.9365079365079363,9.603174603174603,-12.46031746031746,2.142857142857143,-2.9365079365079363,10.238095238095237,-3.253968253968254,8.809523809523808,-4.523809523809524,-0.07936507936507936,-325.0,-325.0,-325.0,-325.0,-325.0,-7.5396825396825395
-31.349206349206348,-0.23809523809523808,-69.44444444444444,-22.46031746031746,-60.55555555555555,-16.587301587301585,-40.238095238095234,-10.714285714285714,-29.285714285714285,0.07936507936507936,-40.238095238095234,3.4126984126984126,-31.98412698412698,7.222222222222221,-26.11111111111111,0.873015873015873,-4.2063492063492065,0.7142857142857142,-325.0,-325.0,-325.0,-325.0,-325.0,-7.5396825396825395
-31.349206349206348,-0.23809523809523808,-69.44444444444444,-22.46031746031746,-60.55555555555555,-16.587301587301585,-40.238095238095234,-10.714285714285714,-29.285714285714285,0.07936507936507936,-40.238095238095234,3.4126984126984126,-31.98412698412698,7.222222222222221,-26.11111111111111,0.873015873015873,-4.2063492063492065,0.7142857142857142,-325.0,-325.0,-325.0,-325.0,-325.0,-7.5396825396825395
-10.873015873015872,5.317460317460317,-41.03174603174603,-6.111111111111111,-28.65079365079365,-1.8253968253968254,-18.174603174603174,4.841269841269841,-11.19047619047619,10.555555555555555,-25.952380952380953,4.841269841269841,-1.6666666666666665,3.253968253968254,-17.22222222222222,9.444444444444445,-4.365079365079365,0.07936507936507936,-325.0,-325.0,-325.0,-325.0,-325.0,-7.5396825396825395
-10.873015873015872,5.317460317460317,-41.03174603174603,-6.111111111111111,-28.65079365079365,-1.8253968253968254,-18.174603174603174,4.841269841269841,-11.19047619047619,10.555555555555555,-25.952380952380953,4.841269841269841,-1.6666666666666665,3.253968253968254,-17.22222222222222,9.444444444444445,-4.365079365079365,0.07936507936507936,-325.0,-325.0,-325.0,-325.0,-325.0,-7.5396825396825395
-12.142857142857142,10.873015873015872,-23.730158730158728,12.619047619047619,-10.555555555555555,24.84126984126984,-7.698412698412698,28.174603174603174,-15.0,21.666666666666664,-23.730158730158728,11.031746031746032,-26.746031746031743,8.174603174603174,-17.22222222222222,18.65079365079365,-4.682539682539682,0.5555555555555556,-325.0,-325.0,-325.0,-325.0,-325.0,-321.8253968253968
-12.142857142857142,10.873015873015872,-23.730158730158728,12.619047619047619,-10.555555555555555,24.84126984126984,-7.698412698412698,28.174603174603174,-15.0,21.666666666666664,-23.730158730158728,11.031746031746032,-26.746031746031743,8.174603174603174,-17.22222222222222,18.65079365079365,-4.682539682539682,0.5555555555555556,-325.0,-325.0,-325.0,-325.0,-325.0,-321.8253968253968
-13.888888888888888,17.22222222222222,-10.714285714285714,19.285714285714285,0.07936507936507936,25.634920634920633,-1.6666666666666665,31.825396825396822,-8.968253968253968,26.9047619047619,-17.698412698412696,8.809523809523808,-15.793650793650793,9.285714285714285,-11.19047619047619,16.587301587301585,-4.682539682539682,0.3968253968253968,-325.0,-325.0,-325.0,-325.0,-325.0,-321.8253968253968
-13.888888888888888,17.22222222222222,-10.714285714285714,19.285714285714285,0.07936507936507936,25.634920634920633,-1.6666666666666665,31.825396825396822,-8.968253968253968,26.9047619047619,-17.698412698412696,8.809523809523808,-15.793650793650793,9.285714285714285,-11.19047619047619,16.587301587301585,-4.682539682539682,0.3968253968253968,-325.0,-325.0,-325.0,-325.0,-325.0,-321.8253968253968
-7.5396825396825395,29.285714285714285,-1.6666666666666665,33.888888888888886,7.3809523809523805,35.79365079365079,3.4126984126984126,35.0,-0.5555555555555556,30.71428571428571,-5.317460317460317,23.57142857142857,-0.07936507936507936,11.984126984126984,3.571428571428571,21.666666666666664,-4.365079365079365,0.873015873015873,-325.0,-325.0,-325.0,-325.0,-325.0,-321.8253968253968
-7.5396825396825395,29.285714285714285,-1.6666666666666665,33.888888888888886,7.3809523809523805,35.79365079365079,3.4126984126984126,35.0,-0.5555555555555556,30.71428571428571,-5.317460317460317,23.57142857142857,-0.07936507936507936,11.984126984126984,3.571428571428571,21.666666666666664,-4.365079365079365,0.873015873015873,-325.0,-325.0,-325.0,-325.0,-325.0,-321.8253968253968
-8.968253968253968,19.126984126984127,-10.555555555555555,28.49206349206349,-2.3015873015873014,27.857142857142854,2.619047619047619,21.984126984126984,4.2063492063492065,23.253968253968253,-8.65079365079365,16.428571428571427,-10.238095238095237,8.65079365079365,5.317460317460317,20.07936507936508,-4.365079365079365,0.23809523809523808,-325.0,-325.0,-325.0,-325.0,-325.0,-321.8253968253968
-8.968253968253968,19.126984126984127,-10.555555555555555,28.49206349206349,-2.3015873015873014,27.857142857142854,2.619047619047619,21.984126984126984,4.2063492063492065,23.253968253968253,-8.65079365079365,16.428571428571427,-10.238095238095237,8.65079365079365,5.317460317460317,20.07936507936508,-4.365079365079365,0.23809523809523808,-325.0,-325.0,-325.0,-325.0,-325.0,-321.8253968253968
-4.682539682539682,12.777777777777777,-14.206349206349206,10.079365079365079,-8.65079365079365,9.761904761904761,-9.126984126984127,6.26984126984127,-5.158730158730158,7.857142857142857,-2.142857142857143,10.555555555555555,-4.365079365079365,5.317460317460317,-1.6666666666666665,9.126984126984127,-5.158730158730158,0.5555555555555556,-325.0,-325.0,-325.0,-325.0,-325.0,-321.8253968253968
-4.682539682539682,12.777777777777777,-14.206349206349206,10.079365079365079,-8.65079365079365,9.761904761904761,-9.126984126984127,6.26984126984127,-5.158730158730158,7.857142857142857,-2.142857142857143,10.555555555555555,-4.365079365079365,5.317460317460317,-1.6666666666666665,9.126984126984127,-5.158730158730158,0.5555555555555556,-325.0,-325.0,-325.0,-325.0,-325.0,-321.8253968253968
-15.158730158730158,6.26984126984127,-24.68253968253968,0.23809523809523808,-21.825396825396822,-0.7142857142857142,-24.206349206349206,-5.634920634920634,-21.825396825396822,2.9365079365079363,-6.428571428571428,1.1904761904761905,-24.84126984126984,3.253968253968254,-16.428571428571427,1.507936507936508,-4.365079365079365,0.7142857142857142,-325.0,-325.0,-325.0,-325.0,-325.0,-7.5396825396825395
-15.158730158730158,6.26984126984127,-24.68253968253968,0.23809523809523808,-21.825396825396822,-0.7142857142857142,-24.206349206349206,-5.634920634920634,-21.825396825396822,2.9365079365079363,-6.428571428571428,1.1904761904761905,-24.84126984126984,3.253968253968254,-16.428571428571427,1.507936507936508,-4.365079365079365,0.7142857142857142,-325.0,-325.0,-325.0,-325.0,-325.0,-7.5396825396825395
-24.206349206349206,12.936507936507935,-44.047619047619044,-0.873015873015873,-40.39682539682539,-5.158730158730158,-45.476190476190474,-11.349206349206348,-40.238095238095234,-5.476190476190476,-20.07936507936508,8.65079365079365,-30.238095238095237,9.126984126984127,-33.25396825396825,1.8253968253968254,-4.523809523809524,0.873015873015873,-325.0,-325.0,-325.0,-325.0,-325.0,-7.5396825396825395
-24.206349206349206,12.936507936507935,-44.047619047619044,-0.873015873015873,-40.39682539682539,-5.158730158730158,-45.476190476190474,-11.349206349206348,-40.238095238095234,-5.476190476190476,-20.07936507936508,8.65079365079365,-30.238095238095237,9.126984126984127,-33.25396825396825,1.8253968253968254,-4.523809523809524,0.873015873015873,-325.0,-325.0,-325.0,-325.0,-325.0,-7.5396825396825395
-24.047619047619047,0.873015873015873,-48.33333333333333,-4.2063492063492065,-40.39682539682539,-14.523809523809524,-41.82539682539682,-15.793650793650793,-33.73015873015873,-9.126984126984127,-20.396825396825395,-0.7142857142857142,-15.634920634920634,0.5555555555555556,-28.015873015873016,-1.6666666666666665,-5.317460317460317,0.23809523809523808,-325.0,-325.0,-325.0,-325.0,-325.0,-7.5396825396825395
-24.047619047619047,0.873015873015873,-48.33333333333333,-4.2063492063492065,-40.39682539682539,-14.523809523809524,-41.82539682539682,-15.793650793650793,-33.73015873015873,-9.126984126984127,-20.396825396825395,-0.7142857142857142,-15.634920634920634,0.5555555555555556,-28.015873015873016,-1.6666666666666665,-5.317460317460317,0.23809523809523808,-325.0,-325.0,-325.0,-325.0,-325.0,-7.5396825396825395
-36.58730158730159,3.73015873015873,-39.12698412698413,12.3015873015873,-29.285714285714285,8.492063492063492,-20.238095238095237,10.555555555555555,-19.285714285714285,15.0,-31.349206349206348,7.3809523809523805,-20.07936507936508,7.063492063492063,-17.38095238095238,11.031746031746032,-4.365079365079365,0.7142857142857142,-325.0,-325.0,-325.0,-325.0,-325.0,-7.5396825396825395
-36.58730158730159,3.73015873015873,-39.12698412698413,12.3015873015873,-29.285714285714285,8.492063492063492,-20.238095238095237,10.555555555555555,-19.285714285714285,15.0,-31.349206349206348,7.3809523809523805,-20.07936507936508,7.063492063492063,-17.38095238095238,11.031746031746032,-4.365079365079365,0.7142857142857142,-325.0,-325.0,-325.0,-325.0,-325.0,-7.5396825396825395
-8.968253968253968,16.746031746031743,0.873015873015873,25.476190476190474,22.142857142857142,24.68253968253968,51.98412698412698,46.269841269841265,48.01587301587301,53.41269841269841,1.0317460317460316,15.634920634920634,-3.571428571428571,8.809523809523808,44.68253968253968,39.44444444444444,-4.365079365079365,0.3968253968253968,-325.0,-325.0,-325.0,-325.0,-325.0,-7.5396825396825395
-8.968253968253968,16.746031746031743,0.873015873015873,25.476190476190474,22.142857142857142,24.68253968253968,51.98412698412698,46.269841269841265,48.01587301587301,53.41269841269841,1.0317460317460316,15.634920634920634,-3.571428571428571,8.809523809523808,44.68253968253968,39.44444444444444,-4.365079365079365,0.3968253968253968,-325.0,-325.0,-325.0,-325.0,-325.0,-7.5396825396825395
21.825396825396822,10.396825396825395,23.41269841269841,17.698412698412696,31.666666666666664,19.92063492063492,49.12698412698413,33.888888888888886,42.3015873015873,26.428571428571427,19.92063492063492,8.65079365079365,14.365079365079364,9.444444444444445,36.58730158730159,30.555555555555554,-4.841269841269841,0.23809523809523808,-325.0,-325.0,-325.0,-325.0,-325.0,-321.8253968253968
21.825396825396822,10.396825396825395,23.41269841269841,17.698412698412696,31.666666666666664,19.92063492063492,49.12698412698413,33.888888888888886,42.3015873015873,26.428571428571427,19.92063492063492,8.65079365079365,14.365079365079364,9.444444444444445,36.58730158730159,30.555555555555554,-4.841269841269841,0.23809523809523808,-325.0,-325.0,-325.0,-325.0,-325.0,-321.8253968253968
61.666666666666664,32.77777777777778,50.238095238095234,35.317460317460316,40.079365079365076,20.396825396825395,26.428571428571427,11.666666666666666,21.666666666666664,6.26984126984127,47.38095238095238,26.11111111111111,27.539682539682538,18.49206349206349,19.285714285714285,16.428571428571427,-4.365079365079365,0.5555555555555556,-325.0,-325.0,-325.0,-325.0,-325.0,-321.8253968253968
61.666666666666664,32.77777777777778,50.238095238095234,35.317460317460316,40.079365079365076,20.396825396825395,26.428571428571427,11.666666666666666,21.666666666666664,6.26984126984127,47.38095238095238,26.11111111111111,27.539682539682538,18.49206349206349,19.285714285714285,16.428571428571427,-4.365079365079365,0.5555555555555556,-325.0,-325.0,-325.0,-325.0,-325.0,-321.8253968253968
57.53968253968254,26.746031746031743,32.460317460317455,28.333333333333332,25.952380952380953,6.428571428571428,2.9365079365079363,-15.158730158730158,1.6666666666666665,-21.825396825396822,40.714285714285715,27.063492063492063,21.03174603174603,17.698412698412696,2.142857142857143,-5.0,-4.523809523809524,0.873015873015873,-325.0,-325.0,-325.0,-325.0,-325.0,-321.8253968253968
57.53968253968254,26.746031746031743,32.460317460317455,28.333333333333332,25.952380952380953,6.428571428571428,2.9365079365079363,-15.158730158730158,1.6666666666666665,-21.825396825396822,40.714285714285715,27.063492063492063,21.03174603174603,17.698412698412696,2.142857142857143,-5.0,-4.523809523809524,0.873015873015873,-325.0,-325.0,-325.0,-325.0,-325.0,-321.8253968253968
36.11111111111111,17.857142857142858,13.095238095238095,20.71428571428571,11.984126984126984,3.4126984126984126,1.507936507936508,-6.428571428571428,5.634920634920634,-4.0476190476190474,27.857142857142854,18.174603174603174,33.73015873015873,11.984126984126984,5.476190476190476,2.142857142857143,-4.0476190476190474,-0.3968253968253968,-325.0,-325.0,-325.0,-325.0,-325.0,-321.8253968253968
36.11111111111111,17.857142857142858,13.095238095238095,20.71428571428571,11.984126984126984,3.4126984126984126,1.507936507936508,-6.428571428571428,5.634920634920634,-4.0476190476190474,27.857142857142854,18.174603174603174,33.73015873015873,11.984126984126984,5.476190476190476,2.142857142857143,-4.0476190476190474,-0.3968253968253968,-325.0,-325.0,-325.0,-325.0,-325.0,-321.8253968253968
17.698412698412696,5.158730158730158,-9.920634920634921,-1.0317460317460316,-3.253968253968254,-8.65079365079365,3.4126984126984126,-3.571428571428571,10.714285714285714,2.142857142857143,10.396825396825395,8.968253968253968,20.71428571428571,11.666666666666666,12.142857142857142,4.523809523809524,-4.2063492063492065,0.07936507936507936,-325.0,-325.0,-325.0,-325.0,-325.0,-321.8253968253968
17.698412698412696,5.158730158730158,-9.920634920634921,-1.0317460317460316,-3.253968253968254,-8.65079365079365,3.4126984126984126,-3.571428571428571,10.714285714285714,2.142857142857143,10.396825396825395,8.968253968253968,20.71428571428571,11.666666666666666,12.142857142857142,4.523809523809524,-4.2063492063492065,0.07936507936507936,-325.0,-325.0,-325.0,-325.0,-325.0,-321.8253968253968
18.015873015873016,-9.603174603174603,-4.2063492063492065,-21.666666666666664,5.952380952380952,-22.142857142857142,15.793650793650793,-2.9365079365079363,24.523809523809522,8.809523809523808,20.873015873015873,-4.365079365079365,30.555555555555554,1.1904761904761905,29.126984126984127,9.444444444444445,-3.571428571428571,-0.07936507936507936,-325.0,-325.0,-325.0,-325.0,-325.0,-7.5396825396825395
18.015873015873016,-9.603174603174603,-4.2063492063492065,-21.666666666666664,5.952380952380952,-22.142857142857142,15.793650793650793,-2.9365079365079363,24.523809523809522,8.809523809523808,20.873015873015873,-4.365079365079365,30.555555555555554,1.1904761904761905,29.126984126984127,9.444444444444445,-3.571428571428571,-0.07936507936507936,-325.0,-325.0,-325.0,-325.0,-325.0,-7.5396825396825395
6.428571428571428,3.888888888888889,5.158730158730158,3.253968253968254,12.936507936507935,5.0,25.634920634920633,15.634920634920634,21.825396825396822,21.984126984126984,8.809523809523808,1.0317460317460316,-0.3968253968253968,0.3968253968253968,26.587301587301585,14.523809523809524,-4.0476190476190474,0.23809523809523808,-325.0,-325.0,-325.0,-325.0,-325.0,-7.5396825396825395
6.428571428571428,3.888888888888889,5.158730158730158,3.253968253968254,12.936507936507935,5.0,25.634920634920633,15.634920634920634,21.825396825396822,21.984126984126984,8.809523809523808,1.0317460317460316,-0.3968253968253968,0.3968253968253968,26.587301587301585,14.523809523809524,-4.0476190476190474,0.23809523809523808,-325.0,-325.0,-325.0,-325.0,-325.0,-7.5396825396825395
26.9047619047619,25.476190476190474,23.253968253968253,37.53968253968254,26.26984126984127,35.79365079365079,30.87301587301587,47.38095238095238,24.68253968253968,35.95238095238095,9.603174603174603,18.49206349206349,7.698412698412698,12.46031746031746,20.71428571428571,32.61904761904762,-4.523809523809524,0.5555555555555556,-325.0,-325.0,-325.0,-325.0,-325.0,-7.5396825396825395
26.9047619047619,25.476190476190474,23.253968253968253,37.53968253968254,26.26984126984127,35.79365079365079,30.87301587301587,47.38095238095238,24.68253968253968,35.95238095238095,9.603174603174603,18.49206349206349,7.698412698412698,12.46031746031746,20.71428571428571,32.61904761904762,-4.523809523809524,0.5555555555555556,-325.0,-325.0,-325.0,-325.0,-325.0,-7.5396825396825395
35.79365079365079,15.0,31.666666666666664,24.68253968253968,34.36507936507936,26.428571428571427,28.49206349206349,42.77777777777778,28.015873015873016,24.84126984126984,28.333333333333332,10.079365079365079,18.015873015873016,2.619047619047619,22.46031746031746,27.698412698412696,-4.365079365079365,0.5555555555555556,-325.0,-325.0,-325.0,-325.0,-325.0,-7.5396825396825395
35.79365079365079,15.0,31.666666666666664,24.68253968253968,34.36507936507936,26.428571428571427,28.49206349206349,42.77777777777778,28.015873015873016,24.84126984126984,28.333333333333332,10.079365079365079,18.015873015873016,2.619047619047619,22.46031746031746,27.698412698412696,-4.365079365079365,0.5555555555555556,-325.0,-325.0,-325.0,-325.0,-325.0,-7.5396825396825395
17.063492063492063,18.65079365079365,0.873015873015873,20.07936507936508,8.174603174603174,22.777777777777775,-0.5555555555555556,26.428571428571427,-0.23809523809523808,16.746031746031743,12.46031746031746,15.793650793650793,8.968253968253968,7.698412698412698,3.571428571428571,21.03174603174603,-3.888888888888889,0.5555555555555556,-325.0,-325.0,-325.0,-325.0,-325.0,-7.5396825396825395
17.063492063492063,18.65079365079365,0.873015873015873,20.07936507936508,8.174603174603174,22.777777777777775,-0.5555555555555556,26.428571428571427,-0.23809523809523808,16.746031746031743,12.46031746031746,15.793650793650793,8.968253968253968,7.698412698412698,3.571428571428571,21.03174603174603,-3.888888888888889,0.5555555555555556,-325.0,-325.0,-325.0,-325.0,-325.0,-7.5396825396825395
1.0317460317460316,14.523809523809524,-9.285714285714285,11.666666666666666,-7.5396825396825395,5.476190476190476,-12.777777777777777,-4.2063492063492065,-19.126984126984127,-2.46031746031746,-2.619047619047619,15.476190476190474,-2.46031746031746,10.238095238095237,-11.507936507936508,2.142857142857143,-3.888888888888889,0.3968253968253968,-325.0,-325.0,-325.0,-325.0,-325.0,-321.8253968253968
1.0317460317460316,14.523809523809524,-9.285714285714285,11.666666666666666,-7.5396825396825395,5.476190476190476,-12.777777777777777,-4.2063492063492065,-19.126984126984127,-2.46031746031746,-2.619047619047619,15.476190476190474,-2.46031746031746,10.238095238095237,-11.507936507936508,2.142857142857143,-3.888888888888889,0.3968253968253968,-325.0,-325.0,-325.0,-325.0,-325.0,-321.8253968253968
3.095238095238095,16.904761904761905,-12.3015873015873,4.682539682539682,-20.555555555555554,-6.111111111111111,-11.507936507936508,-12.46031746031746,-15.95238095238095,-5.317460317460317,-5.317460317460317,11.19047619047619,-18.96825396825397,7.857142857142857,-9.126984126984127,-1.984126984126984,-3.888888888888889,0.7142857142857142,-325.0,-325.0,-325.0,-325.0,-325.0,-321.8253968253968
3.095238095238095,16.904761904761905,-12.3015873015873,4.682539682539682,-20.555555555555554,-6.111111111111111,-11.507936507936508,-12.46031746031746,-15.95238095238095,-5.317460317460317,-5.317460317460317,11.19047619047619,-18.96825396825397,7.857142857142857,-9.126984126984127,-1.984126984126984,-3.888888888888889,0.7142857142857142,-325.0,-325.0,-325.0,-325.0,-325.0,-321.8253968253968
-7.3809523809523805,2.46031746031746,-26.746031746031743,-14.365079365079364,-26.11111111111111,-18.174603174603174,-8.015873015873016,-18.015873015873016,-15.0,-6.746031746031746,-18.96825396825397,3.095238095238095,-22.936507936507937,9.126984126984127,-11.984126984126984,-3.73015873015873,-4.365079365079365,0.3968253968253968,-325.0,-325.0,-325.0,-325.0,-325.0,-321.8253968253968
-7.3809523809523805,2.46031746031746,-26.746031746031743,-14.365079365079364,-26.11111111111111,-18.174603174603174,-8.015873015873016,-18.015873015873016,-15.0,-6.746031746031746,-18.96825396825397,3.095238095238095,-22.936507936507937,9.126984126984127,-11.984126984126984,-3.73015873015873,-4.365079365079365,0.3968253968253968,-325.0,-325.0,-325.0,-325.0,-325.0,-321.8253968253968
-10.079365079365079,12.3015873015873,-31.98412698412698,8.333333333333332,-26.428571428571427,-2.7777777777777777,-20.396825396825395,-3.095238095238095,-24.523809523809522,7.5396825396825395,-17.857142857142858,12.142857142857142,-31.03174603174603,11.19047619047619,-24.047619047619047,5.476190476190476,-3.571428571428571,0.7142857142857142,-325.0,-325.0,-325.0,-325.0,-325.0,-321.8253968253968
-10.079365079365079,12.3015873015873,-31.98412698412698,8.333333333333332,-26.428571428571427,-2.7777777777777777,-20.396825396825395,-3.095238095238095,-24.523809523809522,7.5396825396825395,-17.857142857142858,12.142857142857142,-31.03174603174603,11.19047619047619,-24.047619047619047,5.476190476190476,-3.571428571428571,0.7142857142857142,-325.0,-325.0,-325.0,-325.0,-325.0,-321.8253968253968
-18.333333333333332,9.285714285714285,-25.476190476190474,15.158730158730158,-19.126984126984127,8.333333333333332,-25.158730158730158,9.126984126984127,-31.825396825396822,8.492063492063492,-18.96825396825397,12.142857142857142,-14.523809523809524,10.238095238095237,-24.84126984126984,12.142857142857142,-3.888888888888889,0.5555555555555556,-325.0,-325.0,-325.0,-325.0,-325.0,-321.8253968253968
-18.333333333333332,9.285714285714285,-25.476190476190474,15.158730158730158,-19.126984126984127,8.333333333333332,-25.158730158730158,9.126984126984127,-31.825396825396822,8.492063492063492,-18.96825396825397,12.142857142857142,-14.523809523809524,10.238095238095237,-24.84126984126984,12.142857142857142,-3.888888888888889,0.5555555555555556,-325.0,-325.0,-325.0,-325.0,-325.0,-321.8253968253968
-36.42857142857142,20.873015873015873,-35.63492063492063,38.49206349206349,-35.317460317460316,36.42857142857142,-40.079365079365076,35.95238095238095,-42.77777777777778,23.730158730158728,-44.36507936507936,21.666666666666664,-32.93650793650794,16.587301587301585,-39.44444444444444,24.523809523809522,-3.73015873015873,0.07936507936507936,-325.0,-325.0,-325.0,-325.0,-325.0,-7.5396825396825395
-36.42857142857142,20.873015873015873,-35.63492063492063,38.49206349206349,-35.317460317460316,36.42857142857142,-40.079365079365076,35.95238095238095,-42.77777777777778,23.730158730158728,-44.36507936507936,21.666666666666664,-32.93650793650794,16.587301587301585,-39.44444444444444,24.523809523809522,-3.73015873015873,0.07936507936507936,-325.0,-325.0,-325.0,-325.0,-325.0,-7.5396825396825395
-40.238095238095234,-3.571428571428571,-32.77777777777778,21.349206349206348,-34.2063492063492,32.14285714285714,-34.52380952380952,36.58730158730159,-32.460317460317455,14.682539682539682,-43.888888888888886,3.4126984126984126,-40.238095238095234,0.3968253968253968,-28.49206349206349,22.142857142857142,-4.365079365079365,0.07936507936507936,-325.0,-325.0,-325.0,-325.0,-325.0,-7.5396825396825395
-40.238095238095234,-3.571428571428571,-32.77777777777778,21.349206349206348,-34.2063492063492,32.14285714285714,-34.52380952380952,36.58730158730159,-32.460317460317455,14.682539682539682,-43.888888888888886,3.4126984126984126,-40.238095238095234,0.3968253968253968,-28.49206349206349,22.142857142857142,-4.365079365079365,0.07936507936507936,-325.0,-325.0,-325.0,-325.0,-325.0,-7.5396825396825395
-43.888888888888886,11.349206349206348,-57.06349206349206,6.587301587301587,-53.57142857142857,12.936507936507935,-52.14285714285714,13.888888888888888,-46.269841269841265,9.126984126984127,-54.36507936507936,10.873015873015872,-48.80952380952381,6.111111111111111,-37.53968253968254,12.619047619047619,-4.0476190476190474,0.5555555555555556,-325.0,-325.0,-325.0,-325.0,-325.0,-7.5396825396825395
-43.888888888888886,11.349206349206348,-57.06349206349206,6.587301587301587,-53.57142857142857,12.936507936507935,-52.14285714285714,13.888888888888888,-46.269841269841265,9.126984126984127,-54.36507936507936,10.873015873015872,-48.80952380952381,6.111111111111111,-37.53968253968254,12.619047619047619,-4.0476190476190474,0.5555555555555556,-325.0,-325.0,-325.0,-325.0,-325.0,-7.5396825396825395
-39.6031746031746,5.476190476190476,-66.26984126984127,0.7142857142857142,-54.52380952380952,-5.634920634920634,-56.269841269841265,-12.619047619047619,-50.87301587301587,-1.1904761904761905,-62.14285714285714,4.682539682539682,-49.285714285714285,7.698412698412698,-46.42857142857142,-5.634920634920634,-4.682539682539682,0.07936507936507936,-325.0,-325.0,-325.0,-325.0,-325.0,-7.5396825396825395
-39.6031746031746,5.476190476190476,-66.26984126984127,0.7142857142857142,-54.52380952380952,-5.634920634920634,-56.269841269841265,-12.619047619047619,-50.87301587301587,-1.1904761904761905,-62.14285714285714,4.682539682539682,-49.285714285714285,7.698412698412698,-46.42857142857142,-5.634920634920634,-4.682539682539682,0.07936507936507936,-325.0,-325.0,-325.0,-325.0,-325.0,-7.5396825396825395
-28.96825396825397,1.349206349206349,-41.507936507936506,-6.111111111111111,-40.079365079365076,-10.079365079365079,-51.666666666666664,-15.95238095238095,-55.63492063492063,-12.142857142857142,-48.01587301587301,4.365079365079365,-51.03174603174603,9.603174603174603,-53.57142857142857,-2.46031746031746,-4.0476190476190474,0.07936507936507936,-325.0,-325.0,-325.0,-325.0,-325.0,-7.5396825396825395
-28.96825396825397,1.349206349206349,-41.507936507936506,-6.111111111111111,-40.079365079365076,-10.079365079365079,-51.666666666666664,-15.95238095238095,-55.63492063492063,-12.142857142857142,-48.01587301587301,4.365079365079365,-51.03174603174603,9.603174603174603,-53.57142857142857,-2.46031746031746,-4.0476190476190474,0.07936507936507936,-325.0,-325.0,-325.0,-325.0,-325.0,-7.5396825396825395
-40.238095238095234,-3.571428571428571,-47.698412698412696,-2.46031746031746,-52.3015873015873,-5.317460317460317,-56.58730158730158,-2.46031746031746,-51.19047619047619,0.5555555555555556,-61.98412698412698,1.984126984126984,-46.74603174603175,2.9365079365079363,-51.98412698412698,5.158730158730158,-4.365079365079365,1.0317460317460316,-325.0,-325.0,-325.0,-325.0,-325.0,-321.8253968253968
-40.238095238095234,-3.571428571428571,-47.698412698412696,-2.46031746031746,-52.3015873015873,-5.317460317460317,-56.58730158730158,-2.46031746031746,-51.19047619047619,0.5555555555555556,-61.98412698412698,1.984126984126984,-46.74603174603175,2.9365079365079363,-51.98412698412698,5.158730158730158,-4.365079365079365,1.0317460317460316,-325.0,-325.0,-325.0,-325.0,-325.0,-321.8253968253968
-32.3015873015873,-0.5555555555555556,-40.55555555555555,-4.523809523809524,-43.57142857142857,-5.7936507936507935,-39.44444444444444,-1.507936507936508,-36.904761904761905,0.5555555555555556,-50.079365079365076,2.142857142857143,-21.03174603174603,5.476190476190476,-28.333333333333332,2.3015873015873014,-4.365079365079365,0.873015873015873,-325.0,-325.0,-325.0,-325.0,-325.0,-321.8253968253968
-32.3015873015873,-0.5555555555555556,-40.55555555555555,-4.523809523809524,-43.57142857142857,-5.7936507936507935,-39.44444444444444,-1.507936507936508,-36.904761904761905,0.5555555555555556,-50.079365079365076,2.142857142857143,-21.03174603174603,5.476190476190476,-28.333333333333332,2.3015873015873014,-4.365079365079365,0.873015873015873,-325.0,-325.0,-325.0,-325.0,-325.0,-321.8253968253968
-24.523809523809522,-0.7142857142857142,-24.68253968253968,-2.46031746031746,-19.92063492063492,0.5555555555555556,-0.5555555555555556,5.634920634920634,-1.6666666666666665,11.666666666666666,-35.317460317460316,-1.6666666666666665,-6.746031746031746,1.507936507936508,7.222222222222221,2.3015873015873014,-4.2063492063492065,0.7142857142857142,-325.0,-325.0,-325.0,-325.0,-325.0,-321.8253968253968
-24.523809523809522,-0.7142857142857142,-24.68253968253968,-2.46031746031746,-19.92063492063492,0.5555555555555556,-0.5555555555555556,5.634920634920634,-1.6666666666666665,11.666666666666666,-35.317460317460316,-1.6666666666666665,-6.746031746031746,1.507936507936508,7.222222222222221,2.3015873015873014,-4.2063492063492065,0.7142857142857142,-325.0,-325.0,-325.0,-325.0,-325.0,-321.8253968253968
-14.206349206349206,5.634920634920634,-4.682539682539682,9.920634920634921,3.095238095238095,11.984126984126984,22.619047619047617,19.76190476190476,14.84126984126984,19.6031746031746,-26.11111111111111,5.158730158730158,-13.571428571428571,-1.507936507936508,14.365079365079364,8.65079365079365,-3.888888888888889,1.0317460317460316,-325.0,-325.0,-325.0,-325.0,-325.0,-321.8253968253968
-14.206349206349206,5.634920634920634,-4.682539682539682,9.920634920634921,3.095238095238095,11.984126984126984,22.619047619047617,19.76190476190476,14.84126984126984,19.6031746031746,-26.11111111111111,5.158730158730158,-13.571428571428571,-1.507936507936508,14.365079365079364,8.65079365079365,-3.888888888888889,1.0317460317460316,-325.0,-325.0,-325.0,-325.0,-325.0,-321.8253968253968
17.063492063492063,8.492063492063492,30.87301587301587,14.206349206349206,23.57142857142857,19.76190476190476,29.444444444444443,28.174603174603174,25.317460317460316,15.317460317460316,2.142857142857143,4.2063492063492065,4.0476190476190474,1.6666666666666665,15.476190476190474,17.698412698412696,-3.571428571428571,0.7142857142857142,-325.0,-325.0,-325.0,-325.0,-325.0,-321.8253968253968
17.063492063492063,8.492063492063492,30.87301587301587,14.206349206349206,23.57142857142857,19.76190476190476,29.444444444444443,28.174603174603174,25.317460317460316,15.317460317460316,2.142857142857143,4.2063492063492065,4.0476190476190474,1.6666666666666665,15.476190476190474,17.698412698412696,-3.571428571428571,0.7142857142857142,-325.0,-325.0,-325.0,-325.0,-325.0,-321.8253968253968
36.904761904761905,14.523809523809524,28.65079365079365,22.619047619047617,20.873015873015873,20.07936507936508,8.015873015873016,8.809523809523808,3.253968253968254,2.46031746031746,26.11111111111111,14.365079365079364,9.285714285714285,7.857142857142857,-0.7142857142857142,9.444444444444445,-3.888888888888889,0.3968253968253968,-325.0,-325.0,-325.0,-325.0,-325.0,-7.5396825396825395
36.904761904761905,14.523809523809524,28.65079365079365,22.619047619047617,20.873015873015873,20.07936507936508,8.015873015873016,8.809523809523808,3.253968253968254,2.46031746031746,26.11111111111111,14.365079365079364,9.285714285714285,7.857142857142857,-0.7142857142857142,9.444444444444445,-3.888888888888889,0.3968253968253968,-325.0,-325.0,-325.0,-325.0,-325.0,-7.5396825396825395
17.063492063492063,-6.428571428571428,-0.07936507936507936,-15.476190476190474,-4.365079365079365,-20.873015873015873,-21.03174603174603,-35.15873015873016,-15.317460317460316,-27.698412698412696,8.65079365079365,-4.2063492063492065,1.1904761904761905,1.8253968253968254,-16.26984126984127,-14.523809523809524,-3.73015873015873,0.7142857142857142,-325.0,-325.0,-325.0,-325.0,-325.0,-7.5396825396825395
17.063492063492063,-6.428571428571428,-0.07936507936507936,-15.476190476190474,-4.365079365079365,-20.873015873015873,-21.03174603174603,-35.15873015873016,-15.317460317460316,-27.698412698412696,8.65079365079365,-4.2063492063492065,1.1904761904761905,1.8253968253968254,-16.26984126984127,-14.523809523809524,-3.73015873015873,0.7142857142857142,-325.0,-325.0,-325.0,-325.0,-325.0,-7.5396825396825395
-4.365079365079365,-13.412698412698411,-3.888888888888889,-11.825396825396824,-1.984126984126984,-12.3015873015873,-5.476190476190476,-26.746031746031743,-3.571428571428571,-15.317460317460316,-1.507936507936508,-5.158730158730158,13.73015873015873,-4.841269841269841,-0.07936507936507936,-10.079365079365079,-3.888888888888889,0.873015873015873,-325.0,-325.0,-325.0,-325.0,-325.0,-7.5396825396825395
-4.365079365079365,-13.412698412698411,-3.888888888888889,-11.825396825396824,-1.984126984126984,-12.3015873015873,-5.476190476190476,-26.746031746031743,-3.571428571428571,-15.317460317460316,-1.507936507936508,-5.158730158730158,13.73015873015873,-4.841269841269841,-0.07936507936507936,-10.079365079365079,-3.888888888888889,0.873015873015873,-325.0,-325.0,-325.0,-325.0,-325.0,-7.5396825396825395
-7.222222222222221,-18.65079365079365,7.222222222222221,-9.126984126984127,11.031746031746032,-9.920634920634921,12.3015873015873,-16.26984126984127,6.26984126984127,-12.619047619047619,-0.5555555555555556,-13.253968253968253,-3.253968253968254,-11.19047619047619,16.746031746031743,-6.746031746031746,-4.2063492063492065,0.5555555555555556,-325.0,-325.0,-325.0,-325.0,-325.0,-7.5396825396825395
-7.222222222222221,-18.65079365079365,7.222222222222221,-9.126984126984127,11.031746031746032,-9.920634920634921,12.3015873015873,-16.26984126984127,6.26984126984127,-12.619047619047619,-0.5555555555555556,-13.253968253968253,-3.253968253968254,-11.19047619047619,16.746031746031743,-6.746031746031746,-4.2063492063492065,0.5555555555555556,-325.0,-325.0,-325.0,-325.0,-325.0,-7.5396825396825395
-17.857142857142858,-5.634920634920634,-4.841269841269841,-6.428571428571428,2.619047619047619,-8.492063492063492,3.4126984126984126,-0.7142857142857142,1.349206349206349,5.317460317460317,-5.158730158730158,-2.46031746031746,7.857142857142857,-4.841269841269841,14.84126984126984,7.698412698412698,-5.0,0.3968253968253968,-325.0,-325.0,-325.0,-325.0,-325.0,-7.5396825396825395
-17.857142857142858,-5.634920634920634,-4.841269841269841,-6.428571428571428,2.619047619047619,-8.492063492063492,3.4126984126984126,-0.7142857142857142,1.349206349206349,5.317460317460317,-5.158730158730158,-2.46031746031746,7.857142857142857,-4.841269841269841,14.84126984126984,7.698412698412698,-5.0,0.3968253968253968,-325.0,-325.0,-325.0,-325.0,-325.0,-7.5396825396825395
1.8253968253968254,-1.984126984126984,-1.1904761904761905,-7.857142857142857,-1.8253968253968254,-6.26984126984127,-4.2063492063492065,4.523809523809524,-4.841269841269841,9.761904761904761,6.904761904761904,-4.523809523809524,0.23809523809523808,-5.634920634920634,-0.873015873015873,2.9365079365079363,-3.888888888888889,1.0317460317460316,-325.0,-325.0,-325.0,-325.0,-325.0,-321.8253968253968
1.8253968253968254,-1.984126984126984,-1.1904761904761905,-7.857142857142857,-1.8253968253968254,-6.26984126984127,-4.2063492063492065,4.523809523809524,-4.841269841269841,9.761904761904761,6.904761904761904,-4.523809523809524,0.23809523809523808,-5.634920634920634,-0.873015873015873,2.9365079365079363,-3.888888888888889,1.0317460317460316,-325.0,-325.0,-325.0,-325.0,-325.0,-321.8253968253968
13.412698412698411,4.365079365079365,16.587301587301585,6.904761904761904,12.936507936507935,19.285714285714285,0.23809523809523808,13.888888888888888,-0.873015873015873,6.26984126984127,18.015873015873016,-3.4126984126984126,9.603174603174603,-8.968253968253968,-8.174603174603174,-3.095238095238095,-3.888888888888889,0.5555555555555556,-325.0,-325.0,-325.0,-325.0,-325.0,-321.8253968253968
13.412698412698411,4.365079365079365,16.587301587301585,6.904761904761904,12.936507936507935,19.285714285714285,0.23809523809523808,13.888888888888888,-0.873015873015873,6.26984126984127,18.015873015873016,-3.4126984126984126,9.603174603174603,-8.968253968253968,-8.174603174603174,-3.095238095238095,-3.888888888888889,0.5555555555555556,-325.0,-325.0,-325.0,-325.0,-325.0,-321.8253968253968
-5.952380952380952,-2.142857142857143,1.507936507936508,8.174603174603174,0.873015873015873,25.634920634920633,-6.587301587301587,19.6031746031746,-9.603174603174603,-2.46031746031746,0.3968253968253968,-0.5555555555555556,-5.317460317460317,-1.984126984126984,-16.746031746031743,-0.3968253968253968,-4.523809523809524,0.873015873015873,-325.0,-325.0,-325.0,-325.0,-325.0,-321.8253968253968
-5.952380952380952,-2.142857142857143,1.507936507936508,8.174603174603174,0.873015873015873,25.634920634920633,-6.587301587301587,19.6031746031746,-9.603174603174603,-2.46031746031746,0.3968253968253968,-0.5555555555555556,-5.317460317460317,-1.984126984126984,-16.746031746031743,-0.3968253968253968,-4.523809523809524,0.873015873015873,-325.0,-325.0,-325.0,-325.0,-325.0,-321.8253968253968
-26.746031746031743,-11.507936507936508,-29.444444444444443,-7.3809523809523805,-26.746031746031743,0.07936507936507936,-24.523809523809522,4.682539682539682,-20.873015873015873,-7.857142857142857,-21.349206349206348,-3.73015873015873,-15.0,-1.507936507936508,-23.730158730158728,-0.3968253968253968,-3.73015873015873,0.3968253968253968,-325.0,-325.0,-325.0,-325.0,-325.0,-321.8253968253968
-26.746031746031743,-11.507936507936508,-29.444444444444443,-7.3809523809523805,-26.746031746031743,0.07936507936507936,-24.523809523809522,4.682539682539682,-20.873015873015873,-7.857142857142857,-21.349206349206348,-3.73015873015873,-15.0,-1.507936507936508,-23.730158730158728,-0.3968253968253968,-3.73015873015873,0.3968253968253968,-325.0,-325.0,-325.0,-325.0,-325.0,-321.8253968253968
-35.0,-8.015873015873016,-36.42857142857142,-20.555555555555554,-30.07936507936508,-23.57142857142857,-21.666666666666664,-21.507936507936506,-15.793650793650793,-14.206349206349206,-24.365079365079364,-6.26984126984127,-8.492063492063492,-4.841269841269841,-11.984126984126984,-11.19047619047619,-3.4126984126984126,0.07936507936507936,-325.0,-325.0,-325.0,-325.0,-325.0,-321.8253968253968
-35.0,-8.015873015873016,-36.42857142857142,-20.555555555555554,-30.07936507936508,-23.57142857142857,-21.666666666666664,-21.507936507936506,-15.793650793650793,-14.206349206349206,-24.365079365079364,-6.26984126984127,-8.492063492063492,-4.841269841269841,-11.984126984126984,-11.19047619047619,-3.4126984126984126,0.07936507936507936,-325.0,-325.0,-325.0,-325.0,-325.0,-321.8253968253968
-41.82539682539682,-17.38095238095238,-36.904761904761905,-25.0,-32.77777777777778,-28.333333333333332,-20.71428571428571,-35.79365079365079,-22.142857142857142,-14.682539682539682,-27.38095238095238,-15.317460317460316,-28.015873015873016,-13.095238095238095,-14.523809523809524,-15.793650793650793,-4.0476190476190474,0.7142857142857142,-325.0,-325.0,-325.0,-325.0,-325.0,-7.5396825396825395
-41.82539682539682,-17.38095238095238,-36.904761904761905,-25.0,-32.77777777777778,-28.333333333333332,-20.71428571428571,-35.79365079365079,-22.142857142857142,-14.682539682539682,-27.38095238095238,-15.317460317460316,-28.015873015873016,-13.095238095238095,-14.523809523809524,-15.793650793650793,-4.0476190476190474,0.7142857142857142,-325.0,-325.0,-325.0,-325.0,-325.0,-7.5396825396825395
-40.55555555555555,-12.936507936507935,-30.07936507936508,-13.888888888888888,-23.730158730158728,-24.365079365079364,3.888888888888889,-12.619047619047619,-3.73015873015873,2.142857142857143,-21.349206349206348,-13.253968253968253,-44.2063492063492,-18.174603174603174,5.0,-4.0476190476190474,-4.682539682539682,0.7142857142857142,-325.0,-325.0,-325.0,-325.0,-325.0,-7.5396825396825395
-40.55555555555555,-12.936507936507935,-30.07936507936508,-13.888888888888888,-23.730158730158728,-24.365079365079364,3.888888888888889,-12.619047619047619,-3.73015873015873,2.142857142857143,-21.349206349206348,-13.253968253968253,-44.2063492063492,-18.174603174603174,5.0,-4.0476190476190474,-4.682539682539682,0.7142857142857142,-325.0,-325.0,-325.0,-325.0,-325.0,-7.5396825396825395
-23.253968253968253,-15.158730158730158,-19.285714285714285,-12.619047619047619,-13.253968253968253,-16.904761904761905,1.349206349206349,2.142857142857143,-1.8253968253968254,6.904761904761904,-15.793650793650793,-16.11111111111111,-18.96825396825397,-18.96825396825397,-3.095238095238095,-0.23809523809523808,-4.0476190476190474,1.349206349206349,-325.0,-325.0,-325.0,-325.0,-325.0,-7.5396825396825395
-23.253968253968253,-15.158730158730158,-19.285714285714285,-12.619047619047619,-13.253968253968253,-16.904761904761905,1.349206349206349,2.142857142857143,-1.8253968253968254,6.904761904761904,-15.793650793650793,-16.11111111111111,-18.96825396825397,-18.96825396825397,-3.095238095238095,-0.23809523809523808,-4.0476190476190474,1.349206349206349,-325.0,-325.0,-325.0,-325.0,-325.0,-7.5396825396825395
-19.285714285714285,-2.46031746031746,-16.587301587301585,1.1904761904761905,-10.555555555555555,1.8253968253968254,-31.03174603174603,7.063492063492063,-29.285714285714285,-1.8253968253968254,-9.920634920634921,-8.65079365079365,-17.857142857142858,-5.7936507936507935,-37.22222222222222,2.7777777777777777,-4.365079365079365,1.349206349206349,-325.0,-325.0,-325.0,-325.0,-325.0,-7.5396825396825395
-19.285714285714285,-2.46031746031746,-16.587301587301585,1.1904761904761905,-10.555555555555555,1.8253968253968254,-31.03174603174603,7.063492063492063,-29.285714285714285,-1.8253968253968254,-9.920634920634921,-8.65079365079365,-17.857142857142858,-5.7936507936507935,-37.22222222222222,2.7777777777777777,-4.365079365079365,1.349206349206349,-325.0,-325.0,-325.0,-325.0,-325.0,-7.5396825396825395
-19.444444444444443,5.7936507936507935,-14.206349206349206,11.031746031746032,-15.476190476190474,9.126984126984127,-47.53968253968254,2.7777777777777777,-40.39682539682539,-13.888888888888888,-3.888888888888889,8.492063492063492,-27.698412698412696,-2.142857142857143,-53.41269841269841,0.23809523809523808,-4.2063492063492065,1.0317460317460316,-325.0,-325.0,-325.0,-325.0,-325.0,-7.5396825396825395
-19.444444444444443,5.7936507936507935,-14.206349206349206,11.031746031746032,-15.476190476190474,9.126984126984127,-47.53968253968254,2.7777777777777777,-40.39682539682539,-13.888888888888888,-3.888888888888889,8.492063492063492,-27.698412698412696,-2.142857142857143,-53.41269841269841,0.23809523809523808,-4.2063492063492065,1.0317460317460316,-325.0,-325.0,-325.0,-325.0,-325.0,-7.5396825396825395
-26.9047619047619,-14.682539682539682,-15.158730158730158,-3.095238095238095,-32.3015873015873,-11.666666666666666,-55.476190476190474,-10.873015873015872,-43.73015873015873,-23.095238095238095,-13.888888888888888,-12.3015873015873,-33.73015873015873,-12.3015873015873,-54.047619047619044,-9.126984126984127,-3.571428571428571,0.7142857142857142,-325.0,-325.0,-325.0,-325.0,-325.0,-321.8253968253968
-26.9047619047619,-14.682539682539682,-15.158730158730158,-3.095238095238095,-32.3015873015873,-11.666666666666666,-55.476190476190474,-10.873015873015872,-43.73015873015873,-23.095238095238095,-13.888888888888888,-12.3015873015873,-33.73015873015873,-12.3015873015873,-54.047619047619044,-9.126984126984127,-3.571428571428571,0.7142857142857142,-325.0,-325.0,-325.0,-325.0,-325.0,-321.8253968253968
-35.317460317460316,-10.079365079365079,-21.825396825396822,-14.365079365079364,-35.476190476190474,-32.3015873015873,-40.87301587301587,-21.349206349206348,-35.15873015873016,-13.73015873015873,-7.063492063492063,-12.936507936507935,-27.38095238095238,-13.888888888888888,-37.38095238095238,-15.158730158730158,-3.4126984126984126,1.1904761904761905,-325.0,-325.0,-325.0,-325.0,-325.0,-321.8253968253968
-35.317460317460316,-10.079365079365079,-21.825396825396822,-14.365079365079364,-35.476190476190474,-32.3015873015873,-40.87301587301587,-21.349206349206348,-35.15873015873016,-13.73015873015873,-7.063492063492063,-12.936507936507935,-27.38095238095238,-13.888888888888888,-37.38095238095238,-15.158730158730158,-3.4126984126984126,1.1904761904761905,-325.0,-325.0,-325.0,-325.0,-325.0,-321.8253968253968
-44.2063492063492,-27.857142857142854,-40.39682539682539,-43.41269841269841,-42.3015873015873,-57.06349206349206,-38.01587301587301,-39.76190476190476,-35.95238095238095,-25.634920634920633,-12.46031746031746,-26.26984126984127,-23.095238095238095,-16.746031746031743,-23.88888888888889,-21.984126984126984,-3.73015873015873,1.0317460317460316,-325.0,-325.0,-325.0,-325.0,-325.0,-321.8253968253968
-44.2063492063492,-27.857142857142854,-40.39682539682539,-43.41269841269841,-42.3015873015873,-57.06349206349206,-38.01587301587301,-39.76190476190476,-35.95238095238095,-25.634920634920633,-12.46031746031746,-26.26984126984127,-23.095238095238095,-16.746031746031743,-23.88888888888889,-21.984126984126984,-3.73015873015873,1.0317460317460316,-325.0,-325.0,-325.0,-325.0,-325.0,-321.8253968253968
-57.53968253968254,-24.206349206349206,-51.98412698412698,-37.22222222222222,-38.80952380952381,-40.238095238095234,-34.047619047619044,-28.96825396825397,-35.476190476190474,-17.857142857142858,-30.396825396825395,-22.142857142857142,-12.3015873015873,-15.476190476190474,-20.873015873015873,-18.49206349206349,-3.4126984126984126,0.5555555555555556,-325.0,-325.0,-325.0,-325.0,-325.0,-321.8253968253968
-57.53968253968254,-24.206349206349206,-51.98412698412698,-37.22222222222222,-38.80952380952381,-40.238095238095234,-34.047619047619044,-28.96825396825397,-35.476190476190474,-17.857142857142858,-30.396825396825395,-22.142857142857142,-12.3015873015873,-15.476190476190474,-20.873015873015873,-18.49206349206349,-3.4126984126984126,0.5555555555555556,-325.0,-325.0,-325.0,-325.0,-325.0,-321.8253968253968
-35.63492063492063,-18.49206349206349,-20.71428571428571,-14.206349206349206,-4.0476190476190474,-6.746031746031746,3.888888888888889,-0.23809523809523808,0.873015873015873,-0.7142857142857142,-17.38095238095238,-14.682539682539682,-9.920634920634921,-20.396825396825395,3.73015873015873,-6.26984126984127,-3.095238095238095,0.23809523809523808,-325.0,-325.0,-325.0,-325.0,-325.0,-321.8253968253968
-35.63492063492063,-18.49206349206349,-20.71428571428571,-14.206349206349206,-4.0476190476190474,-6.746031746031746,3.888888888888889,-0.23809523809523808,0.873015873015873,-0.7142857142857142,-17.38095238095238,-14.682539682539682,-9.920634920634921,-20.396825396825395,3.73015873015873,-6.26984126984127,-3.095238095238095,0.23809523809523808,-325.0,-325.0,-325.0,-325.0,-325.0,-321.8253968253968
-25.158730158730158,-6.904761904761904,-1.507936507936508,1.507936507936508,3.73015873015873,9.285714285714285,14.365079365079364,20.555555555555554,7.5396825396825395,11.031746031746032,-9.920634920634921,-6.428571428571428,-25.79365079365079,-15.476190476190474,3.095238095238095,3.571428571428571,-3.253968253968254,0.07936507936507936,-325.0,-325.0,-325.0,-325.0,-325.0,-7.5396825396825395
-25.158730158730158,-6.904761904761904,-1.507936507936508,1.507936507936508,3.73015873015873,9.285714285714285,14.365079365079364,20.555555555555554,7.5396825396825395,11.031746031746032,-9.920634920634921,-6.428571428571428,-25.79365079365079,-15.476190476190474,3.095238095238095,3.571428571428571,-3.253968253968254,0.07936507936507936,-325.0,-325.0,-325.0,-325.0,-325.0,-7.5396825396825395
-15.95238095238095,-4.523809523809524,11.666666666666666,1.349206349206349,0.07936507936507936,7.063492063492063,-5.7936507936507935,7.3809523809523805,-10.873015873015872,-7.063492063492063,-3.571428571428571,-6.587301587301587,-19.285714285714285,-14.206349206349206,-13.412698412698411,-3.4126984126984126,-3.095238095238095,0.7142857142857142,-325.0,-325.0,-325.0,-325.0,-325.0,-7.5396825396825395
-15.95238095238095,-4.523809523809524,11.666666666666666,1.349206349206349,0.07936507936507936,7.063492063492063,-5.7936507936507935,7.3809523809523805,-10.873015873015872,-7.063492063492063,-3.571428571428571,-6.587301587301587,-19.285714285714285,-14.206349206349206,-13.412698412698411,-3.4126984126984126,-3.095238095238095,0.7142857142857142,-325.0,-325.0,-325.0,-325.0,-325.0,-7.5396825396825395
-14.047619047619047,-16.11111111111111,10.714285714285714,-0.5555555555555556,-1.984126984126984,5.317460317460317,-20.396825396825395,-12.46031746031746,-18.015873015873016,-28.174603174603174,-1.8253968253968254,-14.206349206349206,-26.9047619047619,-17.22222222222222,-19.126984126984127,-17.698412698412696,-3.253968253968254,0.5555555555555556,-325.0,-325.0,-325.0,-325.0,-325.0,-7.5396825396825395
-14.047619047619047,-16.11111111111111,10.714285714285714,-0.5555555555555556,-1.984126984126984,5.317460317460317,-20.396825396825395,-12.46031746031746,-18.015873015873016,-28.174603174603174,-1.8253968253968254,-14.206349206349206,-26.9047619047619,-17.22222222222222,-19.126984126984127,-17.698412698412696,-3.253968253968254,0.5555555555555556,-325.0,-325.0,-325.0,-325.0,-325.0,-7.5396825396825395
-20.07936507936508,-15.476190476190474,-5.0,1.6666666666666665,-8.968253968253968,17.38095238095238,-19.92063492063492,2.142857142857143,-11.031746031746032,-10.396825396825395,-15.634920634920634,-9.444444444444445,-29.76190476190476,-13.888888888888888,-16.428571428571427,-4.841269841269841,-3.253968253968254,0.5555555555555556,-325.0,-325.0,-325.0,-325.0,-325.0,-7.5396825396825395
-20.07936507936508,-15.476190476190474,-5.0,1.6666666666666665,-8.968253968253968,17.38095238095238,-19.92063492063492,2.142857142857143,-11.031746031746032,-10.396825396825395,-15.634920634920634,-9.444444444444445,-29.76190476190476,-13.888888888888888,-16.428571428571427,-4.841269841269841,-3.253968253968254,0.5555555555555556,-325.0,-325.0,-325.0,-325.0,-325.0,-7.5396825396825395
-21.507936507936506,-19.126984126984127,-5.0,-3.73015873015873,-1.0317460317460316,16.428571428571427,-8.333333333333332,7.857142857142857,-3.73015873015873,-5.317460317460317,-6.26984126984127,-15.158730158730158,-12.46031746031746,-20.71428571428571,-6.26984126984127,-2.619047619047619,-3.73015873015873,0.7142857142857142,-325.0,-325.0,-325.0,-325.0,-325.0,-7.5396825396825395
-21.507936507936506,-19.126984126984127,-5.0,-3.73015873015873,-1.0317460317460316,16.428571428571427,-8.333333333333332,7.857142857142857,-3.73015873015873,-5.317460317460317,-6.26984126984127,-15.158730158730158,-12.46031746031746,-20.71428571428571,-6.26984126984127,-2.619047619047619,-3.73015873015873,0.7142857142857142,-325.0,-325.0,-325.0,-325.0,-325.0,-7.5396825396825395
-0.7142857142857142,-15.95238095238095,7.063492063492063,-8.174603174603174,8.174603174603174,11.349206349206348,1.984126984126984,1.1904761904761905,6.428571428571428,-9.761904761904761,14.523809523809524,-18.96825396825397,7.698412698412698,-25.317460317460316,9.126984126984127,-11.825396825396824,-3.571428571428571,0.07936507936507936,-325.0,-325.0,-325.0,-325.0,-325.0,-321.8253968253968
-0.7142857142857142,-15.95238095238095,7.063492063492063,-8.174603174603174,8.174603174603174,11.349206349206348,1.984126984126984,1.1904761904761905,6.428571428571428,-9.761904761904761,14.523809523809524,-18.96825396825397,7.698412698412698,-25.317460317460316,9.126984126984127,-11.825396825396824,-3.571428571428571,0.07936507936507936,-325.0,-325.0,-325.0,-325.0,-325.0,-321.8253968253968
9.444444444444445,-10.396825396825395,14.047619047619047,-9.126984126984127,6.428571428571428,3.4126984126984126,3.253968253968254,-4.523809523809524,13.095238095238095,-11.349206349206348,14.206349206349206,-7.222222222222221,7.222222222222221,-9.920634920634921,9.444444444444445,-7.222222222222221,-3.73015873015873,0.3968253968253968,-325.0,-325.0,-325.0,-325.0,-325.0,-321.8253968253968
9.444444444444445,-10.396825396825395,14.047619047619047,-9.126984126984127,6.428571428571428,3.4126984126984126,3.253968253968254,-4.523809523809524,13.095238095238095,-11.349206349206348,14.206349206349206,-7.222222222222221,7.222222222222221,-9.920634920634921,9.444444444444445,-7.222222222222221,-3.73015873015873,0.3968253968253968,-325.0,-325.0,-325.0,-325.0,-325.0,-321.8253968253968
5.634920634920634,-27.857142857142854,13.412698412698411,-26.746031746031743,13.571428571428571,-11.19047619047619,11.666666666666666,-10.238095238095237,18.333333333333332,-24.206349206349206,2.7777777777777777,-19.6031746031746,0.23809523809523808,-15.476190476190474,9.761904761904761,-8.968253968253968,-4.2063492063492065,0.3968253968253968,-325.0,-325.0,-325.0,-325.0,-325.0,-321.8253968253968
5.634920634920634,-27.857142857142854,13.412698412698411,-26.746031746031743,13.571428571428571,-11.19047619047619,11.666666666666666,-10.238095238095237,18.333333333333332,-24.206349206349206,2.7777777777777777,-19.6031746031746,0.23809523809523808,-15.476190476190474,9.761904761904761,-8.968253968253968,-4.2063492063492065,0.3968253968253968,-325.0,-325.0,-325.0,-325.0,-325.0,-321.8253968253968
21.666666666666664,-19.285714285714285,47.857142857142854,-21.349206349206348,51.666666666666664,-5.476190476190476,62.93650793650793,-10.079365079365079,49.285714285714285,-22.3015873015873,26.26984126984127,-2.619047619047619,40.079365079365076,-3.095238095238095,55.0,-10.555555555555555,-3.73015873015873,0.07936507936507936,-325.0,-325.0,-325.0,-325.0,-325.0,-321.8253968253968
21.666666666666664,-19.285714285714285,47.857142857142854,-21.349206349206348,51.666666666666664,-5.476190476190476,62.93650793650793,-10.079365079365079,49.285714285714285,-22.3015873015873,26.26984126984127,-2.619047619047619,40.079365079365076,-3.095238095238095,55.0,-10.555555555555555,-3.73015873015873,0.07936507936507936,-325.0,-325.0,-325.0,-325.0,-325.0,-321.8253968253968
19.6031746031746,-8.174603174603174,44.52380952380952,-13.73015873015873,46.74603174603175,-17.698412698412696,57.698412698412696,-28.015873015873016,40.39682539682539,-20.238095238095237,25.317460317460316,-3.4126984126984126,38.33333333333333,-6.428571428571428,57.857142857142854,-19.76190476190476,-4.0476190476190474,0.3968253968253968,-325.0,-325.0,-325.0,-325.0,-325.0,-321.8253968253968
19.6031746031746,-8.174603174603174,44.52380952380952,-13.73015873015873,46.74603174603175,-17.698412698412696,57.698412698412696,-28.015873015873016,40.39682539682539,-20.238095238095237,25.317460317460316,-3.4126984126984126,38.33333333333333,-6.428571428571428,57.857142857142854,-19.76190476190476,-4.0476190476190474,0.3968253968253968,-325.0,-325.0,-325.0,-325.0,-325.0,-321.8253968253968
21.03174603174603,6.428571428571428,8.333333333333332,-20.71428571428571,11.984126984126984,-40.87301587301587,-4.2063492063492065,-51.98412698412698,-6.904761904761904,-27.063492063492063,28.65079365079365,-6.746031746031746,26.428571428571427,-14.682539682539682,15.793650793650793,-30.07936507936508,-3.73015873015873,0.5555555555555556,-325.0,-325.0,-325.0,-325.0,-325.0,-7.5396825396825395
21.03174603174603,6.428571428571428,8.333333333333332,-20.71428571428571,11.984126984126984,-40.87301587301587,-4.2063492063492065,-51.98412698412698,-6.904761904761904,-27.063492063492063,28.65079365079365,-6.746031746031746,26.428571428571427,-14.682539682539682,15.793650793650793,-30.07936507936508,-3.73015873015873,0.5555555555555556,-325.0,-325.0,-325.0,-325.0,-325.0,-7.5396825396825395
35.317460317460316,-2.3015873015873014,13.888888888888888,-26.26984126984127,5.634920634920634,-42.93650793650794,-25.952380952380953,-66.58730158730158,-19.444444444444443,-36.269841269841265,44.36507936507936,-15.0,21.825396825396822,-22.619047619047617,-4.523809523809524,-40.55555555555555,-3.888888888888889,0.5555555555555556,-325.0,-325.0,-325.0,-325.0,-325.0,-7.5396825396825395
35.317460317460316,-2.3015873015873014,13.888888888888888,-26.26984126984127,5.634920634920634,-42.93650793650794,-25.952380952380953,-66.58730158730158,-19.444444444444443,-36.269841269841265,44.36507936507936,-15.0,21.825396825396822,-22.619047619047617,-4.523809523809524,-40.55555555555555,-3.888888888888889,0.5555555555555556,-325.0,-325.0,-325.0,-325.0,-325.0,-7.5396825396825395
29.126984126984127,-14.365079365079364,9.920634920634921,-24.68253968253968,11.031746031746032,-31.507936507936506,-8.492063492063492,-55.95238095238095,-8.968253968253968,-36.74603174603175,31.19047619047619,-16.746031746031743,28.333333333333332,-19.444444444444443,0.5555555555555556,-33.095238095238095,-3.4126984126984126,0.07936507936507936,-325.0,-325.0,-325.0,-325.0,-325.0,-7.5396825396825395
29.126984126984127,-14.365079365079364,9.920634920634921,-24.68253968253968,11.031746031746032,-31.507936507936506,-8.492063492063492,-55.95238095238095,-8.968253968253968,-36.74603174603175,31.19047619047619,-16.746031746031743,28.333333333333332,-19.444444444444443,0.5555555555555556,-33.095238095238095,-3.4126984126984126,0.07936507936507936,-325.0,-325.0,-325.0,-325.0,-325.0,-7.5396825396825395
14.682539682539682,-12.777777777777777,13.412698412698411,-17.38095238095238,17.698412698412696,-21.507936507936506,27.539682539682538,-27.22222222222222,18.174603174603174,-25.158730158730158,18.174603174603174,-9.920634920634921,21.825396825396822,-11.825396825396824,23.730158730158728,-18.65079365079365,-2.142857142857143,0.7142857142857142,-325.0,-325.0,-325.0,-325.0,-325.0,-7.5396825396825395
14.682539682539682,-12.777777777777777,13.412698412698411,-17.38095238095238,17.698412698412696,-21.507936507936506,27.539682539682538,-27.22222222222222,18.174603174603174,-25.158730158730158,18.174603174603174,-9.920634920634921,21.825396825396822,-11.825396825396824,23.730158730158728,-18.65079365079365,-2.142857142857143,0.7142857142857142,-325.0,-325.0,-325.0,-325.0,-325.0,-7.5396825396825395
-5.7936507936507935,-8.809523809523808,11.507936507936508,-0.23809523809523808,15.634920634920634,0.23809523809523808,37.22222222222222,5.317460317460317,32.3015873015873,-0.3968253968253968,-0.07936507936507936,-1.349206349206349,24.68253968253968,-7.698412698412698,31.666666666666664,5.952380952380952,-2.3015873015873014,0.7142857142857142,-325.0,-325.0,-325.0,-325.0,-325.0,-7.5396825396825395
-5.7936507936507935,-8.809523809523808,11.507936507936508,-0.23809523809523808,15.634920634920634,0.23809523809523808,37.22222222222222,5.317460317460317,32.3015873015873,-0.3968253968253968,-0.07936507936507936,-1.349206349206349,24.68253968253968,-7.698412698412698,31.666666666666664,5.952380952380952,-2.3015873015873014,0.7142857142857142,-325.0,-325.0,-325.0,-325.0,-325.0,-7.5396825396825395
0.23809523809523808,-15.476190476190474,21.03174603174603,-1.984126984126984,18.015873015873016,3.571428571428571,39.6031746031746,6.904761904761904,34.52380952380952,-3.4126984126984126,3.4126984126984126,-3.571428571428571,25.952380952380953,-6.746031746031746,34.682539682539684,6.746031746031746,-1.984126984126984,0.7142857142857142,-325.0,-325.0,-325.0,-325.0,-325.0,-321.8253968253968
0.23809523809523808,-15.476190476190474,21.03174603174603,-1.984126984126984,18.015873015873016,3.571428571428571,39.6031746031746,6.904761904761904,34.52380952380952,-3.4126984126984126,3.4126984126984126,-3.571428571428571,25.952380952380953,-6.746031746031746,34.682539682539684,6.746031746031746,-1.984126984126984,0.7142857142857142,-325.0,-325.0,-325.0,-325.0,-325.0,-321.8253968253968
5.634920634920634,-3.253968253968254,29.444444444444443,-0.23809523809523808,22.777777777777775,-4.2063492063492065,42.93650793650794,6.746031746031746,23.730158730158728,3.253968253968254,6.26984126984127,-1.1904761904761905,37.53968253968254,-7.222222222222221,41.666666666666664,3.095238095238095,-2.142857142857143,1.349206349206349,-325.0,-325.0,-325.0,-325.0,-325.0,-321.8253968253968
5.634920634920634,-3.253968253968254,29.444444444444443,-0.23809523809523808,22.777777777777775,-4.2063492063492065,42.93650793650794,6.746031746031746,23.730158730158728,3.253968253968254,6.26984126984127,-1.1904761904761905,37.53968253968254,-7.222222222222221,41.666666666666664,3.095238095238095,-2.142857142857143,1.349206349206349,-325.0,-325.0,-325.0,-325.0,-325.0,-321.8253968253968
7.857142857142857,4.682539682539682,36.58730158730159,-4.841269841269841,35.63492063492063,-11.349206349206348,53.25396825396825,-1.349206349206349,21.03174603174603,0.23809523809523808,11.984126984126984,-8.65079365079365,50.39682539682539,-18.174603174603174,45.95238095238095,-8.174603174603174,-1.349206349206349,0.7142857142857142,-325.0,-325.0,-325.0,-325.0,-325.0,-321.8253968253968
7.857142857142857,4.682539682539682,36.58730158730159,-4.841269841269841,35.63492063492063,-11.349206349206348,53.25396825396825,-1.349206349206349,21.03174603174603,0.23809523809523808,11.984126984126984,-8.65079365079365,50.39682539682539,-18.174603174603174,45.95238095238095,-8.174603174603174,-1.349206349206349,0.7142857142857142,-325.0,-325.0,-325.0,-325.0,-325.0,-321.8253968253968
-11.825396825396824,3.571428571428571,-0.7142857142857142,-17.22222222222222,-1.8253968253968254,-19.126984126984127,11.507936507936508,-7.3809523809523805,-5.952380952380952,0.3968253968253968,-13.253968253968253,-8.174603174603174,19.6031746031746,-13.253968253968253,23.88888888888889,-7.5396825396825395,-1.349206349206349,0.7142857142857142,-325.0,-325.0,-325.0,-325.0,-325.0,-321.8253968253968
-11.825396825396824,3.571428571428571,-0.7142857142857142,-17.22222222222222,-1.8253968253968254,-19.126984126984127,11.507936507936508,-7.3809523809523805,-5.952380952380952,0.3968253968253968,-13.253968253968253,-8.174603174603174,19.6031746031746,-13.253968253968253,23.88888888888889,-7.5396825396825395,-1.349206349206349,0.7142857142857142,-325.0,-325.0,-325.0,-325.0,-325.0,-321.8253968253968
-27.539682539682538,2.619047619047619,-34.047619047619044,-18.80952380952381,-25.79365079365079,-22.46031746031746,-16.746031746031743,-10.238095238095237,-10.873015873015872,5.158730158730158,-27.539682539682538,-2.3015873015873014,25.476190476190474,-11.507936507936508,8.968253968253968,-3.73015873015873,-1.507936507936508,1.0317460317460316,-325.0,-325.0,-325.0,-325.0,-325.0,-321.8253968253968
-27.539682539682538,2.619047619047619,-34.047619047619044,-18.80952380952381,-25.79365079365079,-22.46031746031746,-16.746031746031743,-10.238095238095237,-10.873015873015872,5.158730158730158,-27.539682539682538,-2.3015873015873014,25.476190476190474,-11.507936507936508,8.968253968253968,-3.73015873015873,-1.507936507936508,1.0317460317460316,-325.0,-325.0,-325.0,-325.0,-325.0,-321.8253968253968
-34.682539682539684,3.73015873015873,-38.17460317460317,-13.095238095238095,-32.460317460317455,-21.19047619047619,-25.158730158730158,-16.428571428571427,-12.142857142857142,-7.698412698412698,-32.3015873015873,7.222222222222221,11.349206349206348,-3.571428571428571,-12.619047619047619,-7.3809523809523805,-1.507936507936508,1.0317460317460316,-325.0,-325.0,-325.0,-325.0,-325.0,-7.5396825396825395
-34.682539682539684,3.73015873015873,-38.17460317460317,-13.095238095238095,-32.460317460317455,-21.19047619047619,-25.158730158730158,-16.428571428571427,-12.142857142857142,-7.698412698412698,-32.3015873015873,7.222222222222221,11.349206349206348,-3.571428571428571,-12.619047619047619,-7.3809523809523805,-1.507936507936508,1.0317460317460316,-325.0,-325.0,-325.0,-325.0,-325.0,-7.5396825396825395
-39.12698412698413,4.523809523809524,-33.73015873015873,-3.253968253968254,-30.555555555555554,-12.777777777777777,-26.9047619047619,-16.428571428571427,-17.857142857142858,-14.84126984126984,-39.285714285714285,5.317460317460317,-2.3015873015873014,-12.142857142857142,-27.38095238095238,-7.063492063492063,-2.3015873015873014,1.0317460317460316,-325.0,-325.0,-325.0,-325.0,-325.0,-7.5396825396825395
