Fp1[1],Fp2[2],F3[3],F4[4],C3[5],C4[6],P3[7],P4[8],O1[9],O2[10],F7[11],F8[12],T3[13],T4[14],T5[15],T6[16],Fz[17],Pz[18],Cz[19],Pg1[20],Pg2[21],EOGR[22],EOOGL[23],EMG[24]
29.920634920634917,13.888888888888888,17.857142857142858,7.5396825396825395,20.238095238095237,-4.682539682539682,10.714285714285714,2.3015873015873014,22.936507936507937,7.063492063492063,32.14285714285714,2.142857142857143,27.539682539682538,2.7777777777777777,18.49206349206349,4.682539682539682,-3.888888888888889,0.7142857142857142,-325.0,-325.0,-325.0,-325.0,-325.0,-7.5396825396825395
29.920634920634917,13.888888888888888,17.857142857142858,7.5396825396825395,20.238095238095237,-4.682539682539682,10.714285714285714,2.3015873015873014,22.936507936507937,7.063492063492063,32.14285714285714,2.142857142857143,27.539682539682538,2.7777777777777777,18.49206349206349,4.682539682539682,-3.888888888888889,0.7142857142857142,-325.0,-325.0,-325.0,-325.0,-325.0,-7.5396825396825395
58.8095238095238,11.666666666666666,51.82539682539682,14.682539682539682,57.06349206349206,3.4126984126984126,50.238095238095234,12.46031746031746,55.476190476190474,13.412698412698411,61.03174603174603,9.920634920634921,58.650793650793645,8.968253968253968,50.238095238095234,9.285714285714285,-4.523809523809524,0.873015873015873,-325.0,-325.0,-325.0,-325.0,-325.0,-7.5396825396825395
58.8095238095238,11.666666666666666,51.82539682539682,14.682539682539682,57.06349206349206,3.4126984126984126,50.238095238095234,12.46031746031746,55.476190476190474,13.412698412698411,61.03174603174603,9.920634920634921,58.650793650793645,8.968253968253968,50.238095238095234,9.285714285714285,-4.523809523809524,0.873015873015873,-325.0,-325.0,-325.0,-325.0,-325.0,-7.5396825396825395
58.49206349206349,-8.174603174603174,55.63492063492063,3.571428571428571,65.0,7.5396825396825395,58.8095238095238,6.26984126984127,58.33333333333333,-8.65079365079365,65.15873015873015,-3.253968253968254,62.93650793650793,5.317460317460317,56.11111111111111,1.8253968253968254,-4.365079365079365,1.0317460317460316,-325.0,-325.0,-325.0,-325.0,-325.0,-7.5396825396825395
58.49206349206349,-8.174603174603174,55.63492063492063,3.571428571428571,65.0,7.5396825396825395,58.8095238095238,6.26984126984127,58.33333333333333,-8.65079365079365,65.15873015873015,-3.253968253968254,62.93650793650793,5.317460317460317,56.11111111111111,1.8253968253968254,-4.365079365079365,1.0317460317460316,-325.0,-325.0,-325.0,-325.0,-325.0,-7.5396825396825395
49.12698412698413,-8.015873015873016,51.82539682539682,8.492063492063492,61.507936507936506,8.015873015873016,65.31746031746032,12.46031746031746,63.41269841269841,6.587301587301587,55.317460317460316,1.0317460317460316,67.85714285714285,9.761904761904761,60.39682539682539,10.714285714285714,-3.73015873015873,0.3968253968253968,-325.0,-325.0,-325.0,-325.0,-325.0,-7.5396825396825395
49.12698412698413,-8.015873015873016,51.82539682539682,8.492063492063492,61.507936507936506,8.015873015873016,65.31746031746032,12.46031746031746,63.41269841269841,6.587301587301587,55.317460317460316,1.0317460317460316,67.85714285714285,9.761904761904761,60.39682539682539,10.714285714285714,-3.73015873015873,0.3968253968253968,-325.0,-325.0,-325.0,-325.0,-325.0,-7.5396825396825395
55.476190476190474,-0.873015873015873,61.19047619047619,14.84126984126984,68.01587301587301,19.126984126984127,71.82539682539682,19.126984126984127,63.095238095238095,8.968253968253968,57.53968253968254,-0.5555555555555556,76.74603174603175,6.587301587301587,69.12698412698413,12.142857142857142,-3.73015873015873,0.5555555555555556,-325.0,-325.0,-325.0,-325.0,-325.0,-7.5396825396825395
55.476190476190474,-0.873015873015873,61.19047619047619,14.84126984126984,68.01587301587301,19.126984126984127,71.82539682539682,19.126984126984127,63.095238095238095,8.968253968253968,57.53968253968254,-0.5555555555555556,76.74603174603175,6.587301587301587,69.12698412698413,12.142857142857142,-3.73015873015873,0.5555555555555556,-325.0,-325.0,-325.0,-325.0,-325.0,-7.5396825396825395
51.19047619047619,14.047619047619047,57.857142857142854,28.809523809523807,56.269841269841265,32.3015873015873,46.74603174603175,32.77777777777778,43.888888888888886,19.126984126984127,59.12698412698413,3.888888888888889,76.58730158730158,4.523809523809524,55.476190476190474,18.333333333333332,-3.571428571428571,0.7142857142857142,-325.0,-325.0,-325.0,-325.0,-325.0,-321.8253968253968
51.19047619047619,14.047619047619047,57.857142857142854,28.809523809523807,56.269841269841265,32.3015873015873,46.74603174603175,32.77777777777778,43.888888888888886,19.126984126984127,59.12698412698413,3.888888888888889,76.58730158730158,4.523809523809524,55.476190476190474,18.333333333333332,-3.571428571428571,0.7142857142857142,-325.0,-325.0,-325.0,-325.0,-325.0,-321.8253968253968
62.61904761904761,31.349206349206348,42.14285714285714,30.396825396825395,29.285714285714285,14.523809523809524,10.079365079365079,12.936507936507935,17.063492063492063,11.984126984126984,56.269841269841265,14.206349206349206,56.11111111111111,3.73015873015873,15.0,8.968253968253968,-2.9365079365079363,0.5555555555555556,-325.0,-325.0,-325.0,-325.0,-325.0,-321.8253968253968
62.61904761904761,31.349206349206348,42.14285714285714,30.396825396825395,29.285714285714285,14.523809523809524,10.079365079365079,12.936507936507935,17.063492063492063,11.984126984126984,56.269841269841265,14.206349206349206,56.11111111111111,3.73015873015873,15.0,8.968253968253968,-2.9365079365079363,0.5555555555555556,-325.0,-325.0,-325.0,-325.0,-325.0,-321.8253968253968
72.93650793650794,38.49206349206349,37.38095238095238,20.555555555555554,31.03174603174603,10.873015873015872,25.158730158730158,18.65079365079365,36.42857142857142,28.333333333333332,57.38095238095238,19.444444444444443,63.888888888888886,10.238095238095237,39.92063492063492,15.95238095238095,-3.571428571428571,0.5555555555555556,-325.0,-325.0,-325.0,-325.0,-325.0,-321.8253968253968
72.93650793650794,38.49206349206349,37.38095238095238,20.555555555555554,31.03174603174603,10.873015873015872,25.158730158730158,18.65079365079365,36.42857142857142,28.333333333333332,57.38095238095238,19.444444444444443,63.888888888888886,10.238095238095237,39.92063492063492,15.95238095238095,-3.571428571428571,0.5555555555555556,-325.0,-325.0,-325.0,-325.0,-325.0,-321.8253968253968
42.77777777777778,13.571428571428571,16.587301587301585,-4.2063492063492065,15.95238095238095,-14.365079365079364,14.84126984126984,-8.809523809523808,19.444444444444443,-1.8253968253968254,33.25396825396825,-2.142857142857143,43.57142857142857,-4.682539682539682,24.047619047619047,-1.6666666666666665,-2.7777777777777777,0.873015873015873,-325.0,-325.0,-325.0,-325.0,-325.0,-321.8253968253968
42.77777777777778,13.571428571428571,16.587301587301585,-4.2063492063492065,15.95238095238095,-14.365079365079364,14.84126984126984,-8.809523809523808,19.444444444444443,-1.8253968253968254,33.25396825396825,-2.142857142857143,43.57142857142857,-4.682539682539682,24.047619047619047,-1.6666666666666665,-2.7777777777777777,0.873015873015873,-325.0,-325.0,-325.0,-325.0,-325.0,-321.8253968253968
35.0,23.730158730158728,24.047619047619047,13.73015873015873,23.88888888888889,2.142857142857143,26.428571428571427,4.682539682539682,25.317460317460316,6.111111111111111,31.825396825396822,16.587301587301585,35.0,13.253968253968253,21.507936507936506,9.920634920634921,-3.4126984126984126,0.3968253968253968,-325.0,-325.0,-325.0,-325.0,-325.0,-321.8253968253968
35.0,23.730158730158728,24.047619047619047,13.73015873015873,23.88888888888889,2.142857142857143,26.428571428571427,4.682539682539682,25.317460317460316,6.111111111111111,31.825396825396822,16.587301587301585,35.0,13.253968253968253,21.507936507936506,9.920634920634921,-3.4126984126984126,0.3968253968253968,-325.0,-325.0,-325.0,-325.0,-325.0,-321.8253968253968
20.71428571428571,15.158730158730158,16.11111111111111,15.317460317460316,22.46031746031746,4.0476190476190474,41.507936507936506,17.698412698412696,33.73015873015873,19.6031746031746,21.507936507936506,18.65079365079365,30.396825396825395,15.0,37.53968253968254,18.80952380952381,-2.9365079365079363,0.5555555555555556,-325.0,-325.0,-325.0,-325.0,-325.0,-7.5396825396825395
20.71428571428571,15.158730158730158,16.11111111111111,15.317460317460316,22.46031746031746,4.0476190476190474,41.507936507936506,17.698412698412696,33.73015873015873,19.6031746031746,21.507936507936506,18.65079365079365,30.396825396825395,15.0,37.53968253968254,18.80952380952381,-2.9365079365079363,0.5555555555555556,-325.0,-325.0,-325.0,-325.0,-325.0,-7.5396825396825395
12.619047619047619,11.349206349206348,9.444444444444445,14.523809523809524,17.698412698412696,6.111111111111111,55.63492063492063,24.365079365079364,49.285714285714285,30.71428571428571,17.38095238095238,14.84126984126984,33.095238095238095,10.714285714285714,51.507936507936506,22.142857142857142,-3.095238095238095,0.5555555555555556,-325.0,-325.0,-325.0,-325.0,-325.0,-7.5396825396825395
12.619047619047619,11.349206349206348,9.444444444444445,14.523809523809524,17.698412698412696,6.111111111111111,55.63492063492063,24.365079365079364,49.285714285714285,30.71428571428571,17.38095238095238,14.84126984126984,33.095238095238095,10.714285714285714,51.507936507936506,22.142857142857142,-3.095238095238095,0.5555555555555556,-325.0,-325.0,-325.0,-325.0,-325.0,-7.5396825396825395
11.666666666666666,1.1904761904761905,5.0,7.5396825396825395,8.809523809523808,10.873015873015872,35.63492063492063,22.3015873015873,28.49206349206349,25.317460317460316,20.71428571428571,10.079365079365079,28.174603174603174,14.365079365079364,38.80952380952381,24.365079365079364,-3.253968253968254,0.3968253968253968,-325.0,-325.0,-325.0,-325.0,-325.0,-7.5396825396825395
11.666666666666666,1.1904761904761905,5.0,7.5396825396825395,8.809523809523808,10.873015873015872,35.63492063492063,22.3015873015873,28.49206349206349,25.317460317460316,20.71428571428571,10.079365079365079,28.174603174603174,14.365079365079364,38.80952380952381,24.365079365079364,-3.253968253968254,0.3968253968253968,-325.0,-325.0,-325.0,-325.0,-325.0,-7.5396825396825395
12.142857142857142,12.142857142857142,8.174603174603174,9.603174603174603,5.317460317460317,14.206349206349206,12.777777777777777,14.206349206349206,9.444444444444445,20.873015873015873,25.317460317460316,17.698412698412696,28.333333333333332,26.428571428571427,24.206349206349206,22.619047619047617,-3.4126984126984126,0.5555555555555556,-325.0,-325.0,-325.0,-325.0,-325.0,-7.5396825396825395
12.142857142857142,12.142857142857142,8.174603174603174,9.603174603174603,5.317460317460317,14.206349206349206,12.777777777777777,14.206349206349206,9.444444444444445,20.873015873015873,25.317460317460316,17.698412698412696,28.333333333333332,26.428571428571427,24.206349206349206,22.619047619047617,-3.4126984126984126,0.5555555555555556,-325.0,-325.0,-325.0,-325.0,-325.0,-7.5396825396825395
18.80952380952381,11.349206349206348,11.825396825396824,7.698412698412698,7.857142857142857,3.253968253968254,2.142857142857143,-5.476190476190476,1.507936507936508,-3.888888888888889,31.03174603174603,19.76190476190476,18.333333333333332,25.634920634920633,23.57142857142857,7.3809523809523805,-3.095238095238095,0.873015873015873,-325.0,-325.0,-325.0,-325.0,-325.0,-7.5396825396825395
18.80952380952381,11.349206349206348,11.825396825396824,7.698412698412698,7.857142857142857,3.253968253968254,2.142857142857143,-5.476190476190476,1.507936507936508,-3.888888888888889,31.03174603174603,19.76190476190476,18.333333333333332,25.634920634920633,23.57142857142857,7.3809523809523805,-3.095238095238095,0.873015873015873,-325.0,-325.0,-325.0,-325.0,-325.0,-7.5396825396825395
34.682539682539684,32.14285714285714,24.68253968253968,26.428571428571427,15.158730158730158,14.365079365079364,0.23809523809523808,-0.5555555555555556,-1.984126984126984,-8.333333333333332,39.285714285714285,30.396825396825395,18.174603174603174,33.25396825396825,10.873015873015872,2.7777777777777777,-3.4126984126984126,0.873015873015873,-325.0,-325.0,-325.0,-325.0,-325.0,-321.8253968253968
34.682539682539684,32.14285714285714,24.68253968253968,26.428571428571427,15.158730158730158,14.365079365079364,0.23809523809523808,-0.5555555555555556,-1.984126984126984,-8.333333333333332,39.285714285714285,30.396825396825395,18.174603174603174,33.25396825396825,10.873015873015872,2.7777777777777777,-3.4126984126984126,0.873015873015873,-325.0,-325.0,-325.0,-325.0,-325.0,-321.8253968253968
30.07936507936508,29.920634920634917,23.730158730158728,28.015873015873016,14.047619047619047,14.523809523809524,13.253968253968253,11.19047619047619,18.80952380952381,5.317460317460317,28.333333333333332,23.57142857142857,10.238095238095237,21.03174603174603,7.857142857142857,12.46031746031746,-3.253968253968254,0.873015873015873,-325.0,-325.0,-325.0,-325.0,-325.0,-321.8253968253968
30.07936507936508,29.920634920634917,23.730158730158728,28.015873015873016,14.047619047619047,14.523809523809524,13.253968253968253,11.19047619047619,18.80952380952381,5.317460317460317,28.333333333333332,23.57142857142857,10.238095238095237,21.03174603174603,7.857142857142857,12.46031746031746,-3.253968253968254,0.873015873015873,-325.0,-325.0,-325.0,-325.0,-325.0,-321.8253968253968
30.07936507936508,25.952380952380953,15.158730158730158,18.49206349206349,-1.8253968253968254,8.174603174603174,11.031746031746032,21.666666666666664,25.317460317460316,24.047619047619047,24.047619047619047,19.92063492063492,8.65079365079365,12.46031746031746,14.682539682539682,23.730158730158728,-3.888888888888889,0.5555555555555556,-325.0,-325.0,-325.0,-325.0,-325.0,-321.8253968253968
30.07936507936508,25.952380952380953,15.158730158730158,18.49206349206349,-1.8253968253968254,8.174603174603174,11.031746031746032,21.666666666666664,25.317460317460316,24.047619047619047,24.047619047619047,19.92063492063492,8.65079365079365,12.46031746031746,14.682539682539682,23.730158730158728,-3.888888888888889,0.5555555555555556,-325.0,-325.0,-325.0,-325.0,-325.0,-321.8253968253968
38.65079365079365,17.063492063492063,26.9047619047619,12.142857142857142,12.46031746031746,12.619047619047619,34.682539682539684,26.746031746031743,44.84126984126984,27.539682539682538,30.396825396825395,13.095238095238095,26.428571428571427,7.857142857142857,34.682539682539684,28.49206349206349,-3.571428571428571,1.1904761904761905,-325.0,-325.0,-325.0,-325.0,-325.0,-321.8253968253968
38.65079365079365,17.063492063492063,26.9047619047619,12.142857142857142,12.46031746031746,12.619047619047619,34.682539682539684,26.746031746031743,44.84126984126984,27.539682539682538,30.396825396825395,13.095238095238095,26.428571428571427,7.857142857142857,34.682539682539684,28.49206349206349,-3.571428571428571,1.1904761904761905,-325.0,-325.0,-325.0,-325.0,-325.0,-321.8253968253968
39.12698412698413,21.825396825396822,26.11111111111111,23.730158730158728,15.317460317460316,21.825396825396822,28.49206349206349,27.698412698412696,33.57142857142857,24.523809523809522,22.936507936507937,21.19047619047619,20.238095238095237,16.904761904761905,20.396825396825395,31.349206349206348,-3.4126984126984126,1.1904761904761905,-325.0,-325.0,-325.0,-325.0,-325.0,-321.8253968253968
39.12698412698413,21.825396825396822,26.11111111111111,23.730158730158728,15.317460317460316,21.825396825396822,28.49206349206349,27.698412698412696,33.57142857142857,24.523809523809522,22.936507936507937,21.19047619047619,20.238095238095237,16.904761904761905,20.396825396825395,31.349206349206348,-3.4126984126984126,1.1904761904761905,-325.0,-325.0,-325.0,-325.0,-325.0,-321.8253968253968
45.317460317460316,32.77777777777778,43.095238095238095,40.55555555555555,32.460317460317455,46.58730158730158,47.857142857142854,47.22222222222222,49.285714285714285,42.3015873015873,26.9047619047619,37.06349206349206,17.063492063492063,29.444444444444443,40.39682539682539,42.77777777777778,-3.253968253968254,1.1904761904761905,-325.0,-325.0,-325.0,-325.0,-325.0,-7.5396825396825395
45.317460317460316,32.77777777777778,43.095238095238095,40.55555555555555,32.460317460317455,46.58730158730158,47.857142857142854,47.22222222222222,49.285714285714285,42.3015873015873,26.9047619047619,37.06349206349206,17.063492063492063,29.444444444444443,40.39682539682539,42.77777777777778,-3.253968253968254,1.1904761904761905,-325.0,-325.0,-325.0,-325.0,-325.0,-7.5396825396825395
50.55555555555555,9.920634920634921,58.17460317460317,26.9047619047619,51.507936507936506,24.365079365079364,65.15873015873015,28.96825396825397,55.0,17.063492063492063,29.920634920634917,12.46031746031746,17.063492063492063,4.523809523809524,45.15873015873016,18.65079365079365,-2.619047619047619,0.873015873015873,-325.0,-325.0,-325.0,-325.0,-325.0,-7.5396825396825395
50.55555555555555,9.920634920634921,58.17460317460317,26.9047619047619,51.507936507936506,24.365079365079364,65.15873015873015,28.96825396825397,55.0,17.063492063492063,29.920634920634917,12.46031746031746,17.063492063492063,4.523809523809524,45.15873015873016,18.65079365079365,-2.619047619047619,0.873015873015873,-325.0,-325.0,-325.0,-325.0,-325.0,-7.5396825396825395
54.36507936507936,41.19047619047619,67.53968253968253,52.61904761904761,65.15873015873015,46.904761904761905,75.0,43.73015873015873,57.22222222222222,31.349206349206348,31.98412698412698,34.52380952380952,25.634920634920633,14.365079365079364,49.92063492063492,28.015873015873016,-2.9365079365079363,1.1904761904761905,-325.0,-325.0,-325.0,-325.0,-325.0,-7.5396825396825395
54.36507936507936,41.19047619047619,67.53968253968253,52.61904761904761,65.15873015873015,46.904761904761905,75.0,43.73015873015873,57.22222222222222,31.349206349206348,31.98412698412698,34.52380952380952,25.634920634920633,14.365079365079364,49.92063492063492,28.015873015873016,-2.9365079365079363,1.1904761904761905,-325.0,-325.0,-325.0,-325.0,-325.0,-7.5396825396825395
38.01587301587301,49.44444444444444,51.82539682539682,59.12698412698413,44.2063492063492,48.33333333333333,39.6031746031746,30.71428571428571,23.41269841269841,19.6031746031746,13.73015873015873,42.14285714285714,10.238095238095237,20.873015873015873,21.349206349206348,25.158730158730158,-2.619047619047619,1.0317460317460316,-325.0,-325.0,-325.0,-325.0,-325.0,-7.5396825396825395
38.01587301587301,49.44444444444444,51.82539682539682,59.12698412698413,44.2063492063492,48.33333333333333,39.6031746031746,30.71428571428571,23.41269841269841,19.6031746031746,13.73015873015873,42.14285714285714,10.238095238095237,20.873015873015873,21.349206349206348,25.158730158730158,-2.619047619047619,1.0317460317460316,-325.0,-325.0,-325.0,-325.0,-325.0,-7.5396825396825395
36.269841269841265,37.698412698412696,46.269841269841265,41.98412698412698,38.80952380952381,30.396825396825395,25.79365079365079,12.777777777777777,9.126984126984127,2.46031746031746,20.238095238095237,31.19047619047619,23.730158730158728,15.95238095238095,27.698412698412696,12.619047619047619,-2.619047619047619,1.349206349206349,-325.0,-325.0,-325.0,-325.0,-325.0,-7.5396825396825395
36.269841269841265,37.698412698412696,46.269841269841265,41.98412698412698,38.80952380952381,30.396825396825395,25.79365079365079,12.777777777777777,9.126984126984127,2.46031746031746,20.238095238095237,31.19047619047619,23.730158730158728,15.95238095238095,27.698412698412696,12.619047619047619,-2.619047619047619,1.349206349206349,-325.0,-325.0,-325.0,-325.0,-325.0,-7.5396825396825395
5.317460317460317,32.77777777777778,6.746031746031746,20.396825396825395,7.3809523809523805,19.92063492063492,14.047619047619047,15.158730158730158,3.73015873015873,20.873015873015873,2.3015873015873014,25.158730158730158,9.761904761904761,14.682539682539682,21.825396825396822,16.11111111111111,-2.7777777777777777,1.0317460317460316,-325.0,-325.0,-325.0,-325.0,-325.0,-321.8253968253968
5.317460317460317,32.77777777777778,6.746031746031746,20.396825396825395,7.3809523809523805,19.92063492063492,14.047619047619047,15.158730158730158,3.73015873015873,20.873015873015873,2.3015873015873014,25.158730158730158,9.761904761904761,14.682539682539682,21.825396825396822,16.11111111111111,-2.7777777777777777,1.0317460317460316,-325.0,-325.0,-325.0,-325.0,-325.0,-321.8253968253968
-6.111111111111111,2.7777777777777777,-8.809523809523808,-18.96825396825397,-0.873015873015873,-6.587301587301587,19.126984126984127,0.7142857142857142,10.396825396825395,16.746031746031743,-2.46031746031746,0.23809523809523808,14.84126984126984,-1.1904761904761905,32.3015873015873,3.253968253968254,-3.253968253968254,1.0317460317460316,-325.0,-325.0,-325.0,-325.0,-325.0,-321.8253968253968
-6.111111111111111,2.7777777777777777,-8.809523809523808,-18.96825396825397,-0.873015873015873,-6.587301587301587,19.126984126984127,0.7142857142857142,10.396825396825395,16.746031746031743,-2.46031746031746,0.23809523809523808,14.84126984126984,-1.1904761904761905,32.3015873015873,3.253968253968254,-3.253968253968254,1.0317460317460316,-325.0,-325.0,-325.0,-325.0,-325.0,-321.8253968253968
-13.253968253968253,2.3015873015873014,-20.71428571428571,-10.238095238095237,-10.396825396825395,-2.3015873015873014,8.65079365079365,6.904761904761904,1.8253968253968254,28.015873015873016,-10.079365079365079,-1.349206349206349,-2.9365079365079363,-4.682539682539682,16.11111111111111,9.285714285714285,-3.253968253968254,0.5555555555555556,-325.0,-325.0,-325.0,-325.0,-325.0,-321.8253968253968
-13.253968253968253,2.3015873015873014,-20.71428571428571,-10.238095238095237,-10.396825396825395,-2.3015873015873014,8.65079365079365,6.904761904761904,1.8253968253968254,28.015873015873016,-10.079365079365079,-1.349206349206349,-2.9365079365079363,-4.682539682539682,16.11111111111111,9.285714285714285,-3.253968253968254,0.5555555555555556,-325.0,-325.0,-325.0,-325.0,-325.0,-321.8253968253968
2.142857142857143,2.142857142857143,1.1904761904761905,11.349206349206348,7.5396825396825395,11.825396825396824,15.317460317460316,10.555555555555555,5.634920634920634,22.142857142857142,0.5555555555555556,5.952380952380952,13.73015873015873,-1.507936507936508,21.507936507936506,12.619047619047619,-3.4126984126984126,0.7142857142857142,-325.0,-325.0,-325.0,-325.0,-325.0,-321.8253968253968
2.142857142857143,2.142857142857143,1.1904761904761905,11.349206349206348,7.5396825396825395,11.825396825396824,15.317460317460316,10.555555555555555,5.634920634920634,22.142857142857142,0.5555555555555556,5.952380952380952,13.73015873015873,-1.507936507936508,21.507936507936506,12.619047619047619,-3.4126984126984126,0.7142857142857142,-325.0,-325.0,-325.0,-325.0,-325.0,-321.8253968253968
-9.761904761904761,-5.317460317460317,-6.904761904761904,9.761904761904761,-6.26984126984127,20.71428571428571,-9.285714285714285,18.174603174603174,-8.492063492063492,12.142857142857142,-11.349206349206348,7.063492063492063,-13.253968253968253,8.174603174603174,-10.714285714285714,19.92063492063492,-3.73015873015873,0.873015873015873,-325.0,-325.0,-325.0,-325.0,-325.0,-321.8253968253968
-9.761904761904761,-5.317460317460317,-6.904761904761904,9.761904761904761,-6.26984126984127,20.71428571428571,-9.285714285714285,18.174603174603174,-8.492063492063492,12.142857142857142,-11.349206349206348,7.063492063492063,-13.253968253968253,8.174603174603174,-10.714285714285714,19.92063492063492,-3.73015873015873,0.873015873015873,-325.0,-325.0,-325.0,-325.0,-325.0,-321.8253968253968
-19.76190476190476,-3.73015873015873,-21.03174603174603,5.158730158730158,-15.317460317460316,18.80952380952381,-12.777777777777777,19.126984126984127,-9.920634920634921,10.396825396825395,-20.238095238095237,15.0,-25.317460317460316,18.333333333333332,-11.349206349206348,18.174603174603174,-3.73015873015873,0.3968253968253968,-325.0,-325.0,-325.0,-325.0,-325.0,-7.5396825396825395
-19.76190476190476,-3.73015873015873,-21.03174603174603,5.158730158730158,-15.317460317460316,18.80952380952381,-12.777777777777777,19.126984126984127,-9.920634920634921,10.396825396825395,-20.238095238095237,15.0,-25.317460317460316,18.333333333333332,-11.349206349206348,18.174603174603174,-3.73015873015873,0.3968253968253968,-325.0,-325.0,-325.0,-325.0,-325.0,-7.5396825396825395
-18.333333333333332,-2.7777777777777777,-23.095238095238095,-0.5555555555555556,-14.84126984126984,4.365079365079365,-5.634920634920634,6.746031746031746,-4.365079365079365,4.841269841269841,-15.95238095238095,22.46031746031746,-18.174603174603174,22.3015873015873,-7.5396825396825395,10.238095238095237,-3.73015873015873,0.23809523809523808,-325.0,-325.0,-325.0,-325.0,-325.0,-7.5396825396825395
-18.333333333333332,-2.7777777777777777,-23.095238095238095,-0.5555555555555556,-14.84126984126984,4.365079365079365,-5.634920634920634,6.746031746031746,-4.365079365079365,4.841269841269841,-15.95238095238095,22.46031746031746,-18.174603174603174,22.3015873015873,-7.5396825396825395,10.238095238095237,-3.73015873015873,0.23809523809523808,-325.0,-325.0,-325.0,-325.0,-325.0,-7.5396825396825395
-15.793650793650793,14.047619047619047,-29.920634920634917,8.333333333333332,-27.857142857142854,4.2063492063492065,-20.07936507936508,3.253968253968254,-19.444444444444443,-1.0317460317460316,-15.634920634920634,34.52380952380952,-29.285714285714285,29.76190476190476,-22.936507936507937,6.26984126984127,-3.888888888888889,0.873015873015873,-325.0,-325.0,-325.0,-325.0,-325.0,-7.5396825396825395
-15.793650793650793,14.047619047619047,-29.920634920634917,8.333333333333332,-27.857142857142854,4.2063492063492065,-20.07936507936508,3.253968253968254,-19.444444444444443,-1.0317460317460316,-15.634920634920634,34.52380952380952,-29.285714285714285,29.76190476190476,-22.936507936507937,6.26984126984127,-3.888888888888889,0.873015873015873,-325.0,-325.0,-325.0,-325.0,-325.0,-7.5396825396825395
-10.238095238095237,15.317460317460316,-29.920634920634917,9.920634920634921,-29.920634920634917,1.0317460317460316,-38.33333333333333,-10.079365079365079,-31.03174603174603,-15.793650793650793,-15.793650793650793,28.015873015873016,-37.857142857142854,22.777777777777775,-36.269841269841265,-4.0476190476190474,-3.571428571428571,0.873015873015873,-325.0,-325.0,-325.0,-325.0,-325.0,-7.5396825396825395
-10.238095238095237,15.317460317460316,-29.920634920634917,9.920634920634921,-29.920634920634917,1.0317460317460316,-38.33333333333333,-10.079365079365079,-31.03174603174603,-15.793650793650793,-15.793650793650793,28.015873015873016,-37.857142857142854,22.777777777777775,-36.269841269841265,-4.0476190476190474,-3.571428571428571,0.873015873015873,-325.0,-325.0,-325.0,-325.0,-325.0,-7.5396825396825395
-21.666666666666664,5.0,-46.42857142857142,-2.3015873015873014,-37.857142857142854,-0.23809523809523808,-50.238095238095234,-7.5396825396825395,-39.44444444444444,-11.666666666666666,-29.285714285714285,15.634920634920634,-37.38095238095238,14.523809523809524,-44.047619047619044,-0.7142857142857142,-4.0476190476190474,1.0317460317460316,-325.0,-325.0,-325.0,-325.0,-325.0,-7.5396825396825395
-21.666666666666664,5.0,-46.42857142857142,-2.3015873015873014,-37.857142857142854,-0.23809523809523808,-50.238095238095234,-7.5396825396825395,-39.44444444444444,-11.666666666666666,-29.285714285714285,15.634920634920634,-37.38095238095238,14.523809523809524,-44.047619047619044,-0.7142857142857142,-4.0476190476190474,1.0317460317460316,-325.0,-325.0,-325.0,-325.0,-325.0,-7.5396825396825395
-23.730158730158728,8.968253968253968,-43.25396825396825,-1.507936507936508,-27.539682539682538,6.111111111111111,-47.857142857142854,1.349206349206349,-41.03174603174603,-4.682539682539682,-23.730158730158728,14.682539682539682,-33.888888888888886,11.984126984126984,-39.76190476190476,2.46031746031746,-3.095238095238095,1.0317460317460316,-325.0,-325.0,-325.0,-325.0,-325.0,-321.8253968253968
-23.730158730158728,8.968253968253968,-43.25396825396825,-1.507936507936508,-27.539682539682538,6.111111111111111,-47.857142857142854,1.349206349206349,-41.03174603174603,-4.682539682539682,-23.730158730158728,14.682539682539682,-33.888888888888886,11.984126984126984,-39.76190476190476,2.46031746031746,-3.095238095238095,1.0317460317460316,-325.0,-325.0,-325.0,-325.0,-325.0,-321.8253968253968
-21.666666666666664,0.7142857142857142,-40.87301587301587,-16.428571428571427,-30.238095238095237,-16.11111111111111,-40.55555555555555,-6.26984126984127,-27.539682539682538,-1.0317460317460316,-24.523809523809522,-1.349206349206349,-26.9047619047619,-2.3015873015873014,-30.555555555555554,-1.1904761904761905,-3.253968253968254,1.0317460317460316,-325.0,-325.0,-325.0,-325.0,-325.0,-321.8253968253968
-21.666666666666664,0.7142857142857142,-40.87301587301587,-16.428571428571427,-30.238095238095237,-16.11111111111111,-40.55555555555555,-6.26984126984127,-27.539682539682538,-1.0317460317460316,-24.523809523809522,-1.349206349206349,-26.9047619047619,-2.3015873015873014,-30.555555555555554,-1.1904761904761905,-3.253968253968254,1.0317460317460316,-325.0,-325.0,-325.0,-325.0,-325.0,-321.8253968253968
-31.349206349206348,-6.587301587301587,-43.25396825396825,-16.904761904761905,-42.460317460317455,-18.174603174603174,-39.12698412698413,-6.26984126984127,-24.68253968253968,2.619047619047619,-33.41269841269841,-6.26984126984127,-31.98412698412698,-6.587301587301587,-34.047619047619044,1.349206349206349,-3.4126984126984126,1.349206349206349,-325.0,-325.0,-325.0,-325.0,-325.0,-321.8253968253968
-31.349206349206348,-6.587301587301587,-43.25396825396825,-16.904761904761905,-42.460317460317455,-18.174603174603174,-39.12698412698413,-6.26984126984127,-24.68253968253968,2.619047619047619,-33.41269841269841,-6.26984126984127,-31.98412698412698,-6.587301587301587,-34.047619047619044,1.349206349206349,-3.4126984126984126,1.349206349206349,-325.0,-325.0,-325.0,-325.0,-325.0,-321.8253968253968
-33.57142857142857,9.285714285714285,-41.03174603174603,-1.8253968253968254,-48.17460317460317,-12.777777777777777,-48.33333333333333,-2.142857142857143,-35.15873015873016,11.984126984126984,-27.698412698412696,9.285714285714285,-35.317460317460316,3.888888888888889,-38.01587301587301,6.746031746031746,-3.253968253968254,1.1904761904761905,-325.0,-325.0,-325.0,-325.0,-325.0,-321.8253968253968
-33.57142857142857,9.285714285714285,-41.03174603174603,-1.8253968253968254,-48.17460317460317,-12.777777777777777,-48.33333333333333,-2.142857142857143,-35.15873015873016,11.984126984126984,-27.698412698412696,9.285714285714285,-35.317460317460316,3.888888888888889,-38.01587301587301,6.746031746031746,-3.253968253968254,1.1904761904761905,-325.0,-325.0,-325.0,-325.0,-325.0,-321.8253968253968
-21.825396825396822,-13.571428571428571,-23.88888888888889,-13.095238095238095,-41.03174603174603,-15.317460317460316,-48.80952380952381,-11.666666666666666,-24.84126984126984,-3.571428571428571,-14.523809523809524,-5.952380952380952,-29.126984126984127,-6.26984126984127,-37.06349206349206,-2.619047619047619,-3.73015873015873,1.349206349206349,-325.0,-325.0,-325.0,-325.0,-325.0,-321.8253968253968
-21.825396825396822,-13.571428571428571,-23.88888888888889,-13.095238095238095,-41.03174603174603,-15.317460317460316,-48.80952380952381,-11.666666666666666,-24.84126984126984,-3.571428571428571,-14.523809523809524,-5.952380952380952,-29.126984126984127,-6.26984126984127,-37.06349206349206,-2.619047619047619,-3.73015873015873,1.349206349206349,-325.0,-325.0,-325.0,-325.0,-325.0,-321.8253968253968
-13.571428571428571,-9.285714285714285,-3.253968253968254,0.07936507936507936,-16.904761904761905,3.253968253968254,-35.0,4.523809523809524,-19.285714285714285,0.7142857142857142,-9.444444444444445,-1.0317460317460316,-25.952380952380953,0.5555555555555556,-34.2063492063492,10.396825396825395,-3.571428571428571,1.0317460317460316,-325.0,-325.0,-325.0,-325.0,-325.0,-7.5396825396825395
-13.571428571428571,-9.285714285714285,-3.253968253968254,0.07936507936507936,-16.904761904761905,3.253968253968254,-35.0,4.523809523809524,-19.285714285714285,0.7142857142857142,-9.444444444444445,-1.0317460317460316,-25.952380952380953,0.5555555555555556,-34.2063492063492,10.396825396825395,-3.571428571428571,1.0317460317460316,-325.0,-325.0,-325.0,-325.0,-325.0,-7.5396825396825395
-12.46031746031746,-5.476190476190476,9.920634920634921,8.809523809523808,-3.571428571428571,10.873015873015872,-27.857142857142854,8.968253968253968,-21.984126984126984,-0.07936507936507936,-4.0476190476190474,4.2063492063492065,-25.0,3.571428571428571,-38.49206349206349,7.3809523809523805,-4.0476190476190474,1.0317460317460316,-325.0,-325.0,-325.0,-325.0,-325.0,-7.5396825396825395
-12.46031746031746,-5.476190476190476,9.920634920634921,8.809523809523808,-3.571428571428571,10.873015873015872,-27.857142857142854,8.968253968253968,-21.984126984126984,-0.07936507936507936,-4.0476190476190474,4.2063492063492065,-25.0,3.571428571428571,-38.49206349206349,7.3809523809523805,-4.0476190476190474,1.0317460317460316,-325.0,-325.0,-325.0,-325.0,-325.0,-7.5396825396825395
-12.619047619047619,-1.349206349206349,3.571428571428571,14.84126984126984,-7.222222222222221,15.317460317460316,-34.36507936507936,10.714285714285714,-30.71428571428571,-0.7142857142857142,-5.317460317460317,6.26984126984127,-32.3015873015873,1.8253968253968254,-49.12698412698413,4.0476190476190474,-3.888888888888889,1.507936507936508,-325.0,-325.0,-325.0,-325.0,-325.0,-7.5396825396825395
-12.619047619047619,-1.349206349206349,3.571428571428571,14.84126984126984,-7.222222222222221,15.317460317460316,-34.36507936507936,10.714285714285714,-30.71428571428571,-0.7142857142857142,-5.317460317460317,6.26984126984127,-32.3015873015873,1.8253968253968254,-49.12698412698413,4.0476190476190474,-3.888888888888889,1.507936507936508,-325.0,-325.0,-325.0,-325.0,-325.0,-7.5396825396825395
-3.571428571428571,-4.841269841269841,1.6666666666666665,13.095238095238095,-11.825396825396824,6.746031746031746,-38.17460317460317,1.349206349206349,-29.6031746031746,-1.8253968253968254,-2.7777777777777777,3.253968253968254,-25.317460317460316,-3.095238095238095,-48.49206349206349,2.46031746031746,-4.0476190476190474,1.0317460317460316,-325.0,-325.0,-325.0,-325.0,-325.0,-7.5396825396825395
-3.571428571428571,-4.841269841269841,1.6666666666666665,13.095238095238095,-11.825396825396824,6.746031746031746,-38.17460317460317,1.349206349206349,-29.6031746031746,-1.8253968253968254,-2.7777777777777777,3.253968253968254,-25.317460317460316,-3.095238095238095,-48.49206349206349,2.46031746031746,-4.0476190476190474,1.0317460317460316,-325.0,-325.0,-325.0,-325.0,-325.0,-7.5396825396825395
-25.317460317460316,-16.904761904761905,-18.96825396825397,-11.031746031746032,-25.0,-17.38095238095238,-34.047619047619044,-11.349206349206348,-23.730158730158728,-1.507936507936508,-13.888888888888888,-13.095238095238095,-31.19047619047619,-13.73015873015873,-42.77777777777778,-3.73015873015873,-3.095238095238095,1.0317460317460316,-325.0,-325.0,-325.0,-325.0,-325.0,-7.5396825396825395
-25.317460317460316,-16.904761904761905,-18.96825396825397,-11.031746031746032,-25.0,-17.38095238095238,-34.047619047619044,-11.349206349206348,-23.730158730158728,-1.507936507936508,-13.888888888888888,-13.095238095238095,-31.19047619047619,-13.73015873015873,-42.77777777777778,-3.73015873015873,-3.095238095238095,1.0317460317460316,-325.0,-325.0,-325.0,-325.0,-325.0,-7.5396825396825395
-32.77777777777778,-12.46031746031746,-25.0,-3.73015873015873,-28.809523809523807,-1.984126984126984,-29.76190476190476,5.634920634920634,-18.49206349206349,8.015873015873016,-22.619047619047617,-5.7936507936507935,-31.825396825396822,-7.698412698412698,-28.015873015873016,6.746031746031746,-3.253968253968254,1.6666666666666665,-325.0,-325.0,-325.0,-325.0,-325.0,-321.8253968253968
-32.77777777777778,-12.46031746031746,-25.0,-3.73015873015873,-28.809523809523807,-1.984126984126984,-29.76190476190476,5.634920634920634,-18.49206349206349,8.015873015873016,-22.619047619047617,-5.7936507936507935,-31.825396825396822,-7.698412698412698,-28.015873015873016,6.746031746031746,-3.253968253968254,1.6666666666666665,-325.0,-325.0,-325.0,-325.0,-325.0,-321.8253968253968
-28.333333333333332,-19.92063492063492,-14.365079365079364,-6.904761904761904,-15.317460317460316,4.2063492063492065,-21.349206349206348,6.904761904761904,-11.031746031746032,0.23809523809523808,-23.730158730158728,-6.746031746031746,-34.047619047619044,-3.095238095238095,-22.46031746031746,4.682539682539682,-3.4126984126984126,1.1904761904761905,-325.0,-325.0,-325.0,-325.0,-325.0,-321.8253968253968
-28.333333333333332,-19.92063492063492,-14.365079365079364,-6.904761904761904,-15.317460317460316,4.2063492063492065,-21.349206349206348,6.904761904761904,-11.031746031746032,0.23809523809523808,-23.730158730158728,-6.746031746031746,-34.047619047619044,-3.095238095238095,-22.46031746031746,4.682539682539682,-3.4126984126984126,1.1904761904761905,-325.0,-325.0,-325.0,-325.0,-325.0,-321.8253968253968
-19.126984126984127,-7.698412698412698,-0.873015873015873,12.3015873015873,-8.015873015873016,21.984126984126984,-18.174603174603174,17.38095238095238,-9.285714285714285,3.253968253968254,-16.746031746031743,9.761904761904761,-31.19047619047619,9.285714285714285,-30.238095238095237,6.904761904761904,-3.888888888888889,0.873015873015873,-325.0,-325.0,-325.0,-325.0,-325.0,-321.8253968253968
-19.126984126984127,-7.698412698412698,-0.873015873015873,12.3015873015873,-8.015873015873016,21.984126984126984,-18.174603174603174,17.38095238095238,-9.285714285714285,3.253968253968254,-16.746031746031743,9.761904761904761,-31.19047619047619,9.285714285714285,-30.238095238095237,6.904761904761904,-3.888888888888889,0.873015873015873,-325.0,-325.0,-325.0,-325.0,-325.0,-321.8253968253968
-9.126984126984127,-2.46031746031746,3.888888888888889,14.047619047619047,-0.5555555555555556,20.873015873015873,-10.079365079365079,2.7777777777777777,-9.920634920634921,-15.476190476190474,-7.5396825396825395,13.73015873015873,-21.19047619047619,13.73015873015873,-16.587301587301585,-6.428571428571428,-4.0476190476190474,1.1904761904761905,-325.0,-325.0,-325.0,-325.0,-325.0,-321.8253968253968
-9.126984126984127,-2.46031746031746,3.888888888888889,14.047619047619047,-0.5555555555555556,20.873015873015873,-10.079365079365079,2.7777777777777777,-9.920634920634921,-15.476190476190474,-7.5396825396825395,13.73015873015873,-21.19047619047619,13.73015873015873,-16.587301587301585,-6.428571428571428,-4.0476190476190474,1.1904761904761905,-325.0,-325.0,-325.0,-325.0,-325.0,-321.8253968253968
-5.952380952380952,-16.587301587301585,3.4126984126984126,-0.23809523809523808,-7.063492063492063,-2.619047619047619,-23.253968253968253,-19.92063492063492,-17.857142857142858,-27.38095238095238,-2.46031746031746,-9.126984126984127,-14.523809523809524,-7.3809523809523805,-17.38095238095238,-17.22222222222222,-3.888888888888889,0.873015873015873,-325.0,-325.0,-325.0,-325.0,-325.0,-321.8253968253968
-5.952380952380952,-16.587301587301585,3.4126984126984126,-0.23809523809523808,-7.063492063492063,-2.619047619047619,-23.253968253968253,-19.92063492063492,-17.857142857142858,-27.38095238095238,-2.46031746031746,-9.126984126984127,-14.523809523809524,-7.3809523809523805,-17.38095238095238,-17.22222222222222,-3.888888888888889,0.873015873015873,-325.0,-325.0,-325.0,-325.0,-325.0,-321.8253968253968
-20.07936507936508,-22.3015873015873,-15.95238095238095,-20.07936507936508,-24.68253968253968,-20.873015873015873,-39.44444444444444,-26.11111111111111,-22.142857142857142,-18.80952380952381,-7.222222222222221,-17.698412698412696,-11.507936507936508,-17.38095238095238,-27.539682539682538,-17.698412698412696,-3.888888888888889,1.0317460317460316,-325.0,-325.0,-325.0,-325.0,-325.0,-7.5396825396825395
-20.07936507936508,-22.3015873015873,-15.95238095238095,-20.07936507936508,-24.68253968253968,-20.873015873015873,-39.44444444444444,-26.11111111111111,-22.142857142857142,-18.80952380952381,-7.222222222222221,-17.698412698412696,-11.507936507936508,-17.38095238095238,-27.539682539682538,-17.698412698412696,-3.888888888888889,1.0317460317460316,-325.0,-325.0,-325.0,-325.0,-325.0,-7.5396825396825395
-25.317460317460316,-16.904761904761905,-29.285714285714285,-27.063492063492063,-31.19047619047619,-29.285714285714285,-29.6031746031746,-19.6031746031746,-14.365079365079364,-5.158730158730158,-10.238095238095237,-18.174603174603174,-14.365079365079364,-22.46031746031746,-9.444444444444445,-16.428571428571427,-3.888888888888889,1.507936507936508,-325.0,-325.0,-325.0,-325.0,-325.0,-7.5396825396825395
-25.317460317460316,-16.904761904761905,-29.285714285714285,-27.063492063492063,-31.19047619047619,-29.285714285714285,-29.6031746031746,-19.6031746031746,-14.365079365079364,-5.158730158730158,-10.238095238095237,-18.174603174603174,-14.365079365079364,-22.46031746031746,-9.444444444444445,-16.428571428571427,-3.888888888888889,1.507936507936508,-325.0,-325.0,-325.0,-325.0,-325.0,-7.5396825396825395
-34.84126984126984,-21.666666666666664,-35.476190476190474,-20.873015873015873,-32.93650793650794,-17.539682539682538,-26.587301587301585,-7.5396825396825395,-19.444444444444443,-0.07936507936507936,-26.26984126984127,-16.746031746031743,-19.76190476190476,-15.793650793650793,-18.96825396825397,-9.603174603174603,-3.73015873015873,1.507936507936508,-325.0,-325.0,-325.0,-325.0,-325.0,-7.5396825396825395
-34.84126984126984,-21.666666666666664,-35.476190476190474,-20.873015873015873,-32.93650793650794,-17.539682539682538,-26.587301587301585,-7.5396825396825395,-19.444444444444443,-0.07936507936507936,-26.26984126984127,-16.746031746031743,-19.76190476190476,-15.793650793650793,-18.96825396825397,-9.603174603174603,-3.73015873015873,1.507936507936508,-325.0,-325.0,-325.0,-325.0,-325.0,-7.5396825396825395
-30.87301587301587,-24.047619047619047,-36.904761904761905,-22.619047619047617,-36.74603174603175,-18.015873015873016,-29.444444444444443,-9.126984126984127,-19.92063492063492,-8.333333333333332,-27.698412698412696,-13.73015873015873,-14.682539682539682,-13.095238095238095,-13.253968253968253,-7.857142857142857,-3.888888888888889,1.1904761904761905,-325.0,-325.0,-325.0,-325.0,-325.0,-7.5396825396825395
-30.87301587301587,-24.047619047619047,-36.904761904761905,-22.619047619047617,-36.74603174603175,-18.015873015873016,-29.444444444444443,-9.126984126984127,-19.92063492063492,-8.333333333333332,-27.698412698412696,-13.73015873015873,-14.682539682539682,-13.095238095238095,-13.253968253968253,-7.857142857142857,-3.888888888888889,1.1904761904761905,-325.0,-325.0,-325.0,-325.0,-325.0,-7.5396825396825395
-45.79365079365079,-23.41269841269841,-40.238095238095234,-13.888888888888888,-35.476190476190474,-10.079365079365079,-23.88888888888889,-4.2063492063492065,-16.26984126984127,-4.365079365079365,-38.96825396825397,-9.285714285714285,-16.11111111111111,-4.2063492063492065,-14.047619047619047,-9.126984126984127,-4.0476190476190474,1.6666666666666665,-325.0,-325.0,-325.0,-325.0,-325.0,-7.5396825396825395
-45.79365079365079,-23.41269841269841,-40.238095238095234,-13.888888888888888,-35.476190476190474,-10.079365079365079,-23.88888888888889,-4.2063492063492065,-16.26984126984127,-4.365079365079365,-38.96825396825397,-9.285714285714285,-16.11111111111111,-4.2063492063492065,-14.047619047619047,-9.126984126984127,-4.0476190476190474,1.6666666666666665,-325.0,-325.0,-325.0,-325.0,-325.0,-7.5396825396825395
-48.33333333333333,-18.333333333333332,-39.92063492063492,-14.365079365079364,-29.6031746031746,-8.333333333333332,-9.603174603174603,-3.73015873015873,-10.238095238095237,-0.3968253968253968,-39.6031746031746,-8.015873015873016,-15.476190476190474,-4.0476190476190474,-4.2063492063492065,-11.666666666666666,-3.73015873015873,1.0317460317460316,-325.0,-325.0,-325.0,-325.0,-325.0,-321.8253968253968
-48.33333333333333,-18.333333333333332,-39.92063492063492,-14.365079365079364,-29.6031746031746,-8.333333333333332,-9.603174603174603,-3.73015873015873,-10.238095238095237,-0.3968253968253968,-39.6031746031746,-8.015873015873016,-15.476190476190474,-4.0476190476190474,-4.2063492063492065,-11.666666666666666,-3.73015873015873,1.0317460317460316,-325.0,-325.0,-325.0,-325.0,-325.0,-321.8253968253968
-44.84126984126984,-24.206349206349206,-32.61904761904762,-21.19047619047619,-19.6031746031746,-20.873015873015873,-3.73015873015873,-15.95238095238095,-10.238095238095237,-3.253968253968254,-29.920634920634917,-20.07936507936508,4.2063492063492065,-14.206349206349206,10.555555555555555,-14.365079365079364,-4.0476190476190474,1.0317460317460316,-325.0,-325.0,-325.0,-325.0,-325.0,-321.8253968253968
-44.84126984126984,-24.206349206349206,-32.61904761904762,-21.19047619047619,-19.6031746031746,-20.873015873015873,-3.73015873015873,-15.95238095238095,-10.238095238095237,-3.253968253968254,-29.920634920634917,-20.07936507936508,4.2063492063492065,-14.206349206349206,10.555555555555555,-14.365079365079364,-4.0476190476190474,1.0317460317460316,-325.0,-325.0,-325.0,-325.0,-325.0,-321.8253968253968
-31.507936507936506,-38.80952380952381,-9.603174603174603,-34.047619047619044,1.0317460317460316,-35.95238095238095,-3.253968253968254,-38.17460317460317,-22.46031746031746,-33.57142857142857,-17.857142857142858,-36.74603174603175,10.714285714285714,-37.22222222222222,2.619047619047619,-38.17460317460317,-3.888888888888889,1.0317460317460316,-325.0,-325.0,-325.0,-325.0,-325.0,-321.8253968253968
-31.507936507936506,-38.80952380952381,-9.603174603174603,-34.047619047619044,1.0317460317460316,-35.95238095238095,-3.253968253968254,-38.17460317460317,-22.46031746031746,-33.57142857142857,-17.857142857142858,-36.74603174603175,10.714285714285714,-37.22222222222222,2.619047619047619,-38.17460317460317,-3.888888888888889,1.0317460317460316,-325.0,-325.0,-325.0,-325.0,-325.0,-321.8253968253968
-15.634920634920634,-21.349206349206348,11.666666666666666,-17.857142857142858,15.95238095238095,-19.6031746031746,-2.46031746031746,-24.365079365079364,-18.80952380952381,-18.49206349206349,-5.158730158730158,-20.07936507936508,13.888888888888888,-26.428571428571427,-2.9365079365079363,-22.46031746031746,-4.0476190476190474,1.6666666666666665,-325.0,-325.0,-325.0,-325.0,-325.0,-321.8253968253968
-15.634920634920634,-21.349206349206348,11.666666666666666,-17.857142857142858,15.95238095238095,-19.6031746031746,-2.46031746031746,-24.365079365079364,-18.80952380952381,-18.49206349206349,-5.158730158730158,-20.07936507936508,13.888888888888888,-26.428571428571427,-2.9365079365079363,-22.46031746031746,-4.0476190476190474,1.6666666666666665,-325.0,-325.0,-325.0,-325.0,-325.0,-321.8253968253968
-13.095238095238095,-20.873015873015873,11.031746031746032,-11.984126984126984,13.571428571428571,-17.22222222222222,0.7142857142857142,-21.984126984126984,-3.888888888888889,-13.095238095238095,4.365079365079365,-11.031746031746032,28.174603174603174,-18.174603174603174,16.26984126984127,-22.142857142857142,-4.0476190476190474,1.349206349206349,-325.0,-325.0,-325.0,-325.0,-325.0,-321.8253968253968
-13.095238095238095,-20.873015873015873,11.031746031746032,-11.984126984126984,13.571428571428571,-17.22222222222222,0.7142857142857142,-21.984126984126984,-3.888888888888889,-13.095238095238095,4.365079365079365,-11.031746031746032,28.174603174603174,-18.174603174603174,16.26984126984127,-22.142857142857142,-4.0476190476190474,1.349206349206349,-325.0,-325.0,-325.0,-325.0,-325.0,-321.8253968253968
-24.365079365079364,-21.984126984126984,-3.571428571428571,-5.952380952380952,-6.587301587301587,-4.523809523809524,-4.682539682539682,-14.047619047619047,-3.888888888888889,-8.809523809523808,-9.920634920634921,-7.3809523809523805,18.015873015873016,-15.0,-0.873015873015873,-14.206349206349206,-3.888888888888889,1.1904761904761905,-325.0,-325.0,-325.0,-325.0,-325.0,-7.5396825396825395
-24.365079365079364,-21.984126984126984,-3.571428571428571,-5.952380952380952,-6.587301587301587,-4.523809523809524,-4.682539682539682,-14.047619047619047,-3.888888888888889,-8.809523809523808,-9.920634920634921,-7.3809523809523805,18.015873015873016,-15.0,-0.873015873015873,-14.206349206349206,-3.888888888888889,1.1904761904761905,-325.0,-325.0,-325.0,-325.0,-325.0,-7.5396825396825395
-15.793650793650793,-22.777777777777775,-3.4126984126984126,-6.587301587301587,-7.5396825396825395,-0.5555555555555556,8.333333333333332,-9.126984126984127,5.0,-11.031746031746032,-5.158730158730158,-14.682539682539682,18.015873015873016,-13.095238095238095,1.8253968253968254,-15.793650793650793,-4.2063492063492065,0.5555555555555556,-325.0,-325.0,-325.0,-325.0,-325.0,-7.5396825396825395
-15.793650793650793,-22.777777777777775,-3.4126984126984126,-6.587301587301587,-7.5396825396825395,-0.5555555555555556,8.333333333333332,-9.126984126984127,5.0,-11.031746031746032,-5.158730158730158,-14.682539682539682,18.015873015873016,-13.095238095238095,1.8253968253968254,-15.793650793650793,-4.2063492063492065,0.5555555555555556,-325.0,-325.0,-325.0,-325.0,-325.0,-7.5396825396825395
-4.682539682539682,-21.666666666666664,3.095238095238095,-9.761904761904761,-2.7777777777777777,2.7777777777777777,9.920634920634921,2.9365079365079363,9.444444444444445,-6.26984126984127,1.6666666666666665,-18.015873015873016,13.095238095238095,-16.11111111111111,1.0317460317460316,-7.222222222222221,-4.0476190476190474,0.23809523809523808,-325.0,-325.0,-325.0,-325.0,-325.0,-7.5396825396825395
-4.682539682539682,-21.666666666666664,3.095238095238095,-9.761904761904761,-2.7777777777777777,2.7777777777777777,9.920634920634921,2.9365079365079363,9.444444444444445,-6.26984126984127,1.6666666666666665,-18.015873015873016,13.095238095238095,-16.11111111111111,1.0317460317460316,-7.222222222222221,-4.0476190476190474,0.23809523809523808,-325.0,-325.0,-325.0,-325.0,-325.0,-7.5396825396825395
6.904761904761904,-20.873015873015873,9.603174603174603,-13.888888888888888,-0.23809523809523808,-10.238095238095237,-0.873015873015873,-9.285714285714285,1.984126984126984,-11.19047619047619,8.333333333333332,-17.539682539682538,15.793650793650793,-25.476190476190474,-5.476190476190476,-12.936507936507935,-3.888888888888889,0.7142857142857142,-325.0,-325.0,-325.0,-325.0,-325.0,-7.5396825396825395
6.904761904761904,-20.873015873015873,9.603174603174603,-13.888888888888888,-0.23809523809523808,-10.238095238095237,-0.873015873015873,-9.285714285714285,1.984126984126984,-11.19047619047619,8.333333333333332,-17.539682539682538,15.793650793650793,-25.476190476190474,-5.476190476190476,-12.936507936507935,-3.888888888888889,0.7142857142857142,-325.0,-325.0,-325.0,-325.0,-325.0,-7.5396825396825395
6.428571428571428,-16.26984126984127,4.523809523809524,-19.444444444444443,0.23809523809523808,-15.634920634920634,-6.746031746031746,-15.158730158730158,-2.9365079365079363,-9.126984126984127,13.095238095238095,-19.6031746031746,4.365079365079365,-26.9047619047619,-7.857142857142857,-13.095238095238095,-3.888888888888889,0.873015873015873,-325.0,-325.0,-325.0,-325.0,-325.0,-7.5396825396825395
6.428571428571428,-16.26984126984127,4.523809523809524,-19.444444444444443,0.23809523809523808,-15.634920634920634,-6.746031746031746,-15.158730158730158,-2.9365079365079363,-9.126984126984127,13.095238095238095,-19.6031746031746,4.365079365079365,-26.9047619047619,-7.857142857142857,-13.095238095238095,-3.888888888888889,0.873015873015873,-325.0,-325.0,-325.0,-325.0,-325.0,-7.5396825396825395
7.222222222222221,-11.349206349206348,7.063492063492063,-19.285714285714285,3.571428571428571,-19.76190476190476,-2.142857142857143,-29.76190476190476,-4.2063492063492065,-21.507936507936506,12.619047619047619,-11.666666666666666,6.26984126984127,-18.96825396825397,7.063492063492063,-23.88888888888889,-3.73015873015873,0.3968253968253968,-325.0,-325.0,-325.0,-325.0,-325.0,-321.8253968253968
7.222222222222221,-11.349206349206348,7.063492063492063,-19.285714285714285,3.571428571428571,-19.76190476190476,-2.142857142857143,-29.76190476190476,-4.2063492063492065,-21.507936507936506,12.619047619047619,-11.666666666666666,6.26984126984127,-18.96825396825397,7.063492063492063,-23.88888888888889,-3.73015873015873,0.3968253968253968,-325.0,-325.0,-325.0,-325.0,-325.0,-321.8253968253968
6.111111111111111,-5.476190476190476,19.285714285714285,2.142857142857143,14.84126984126984,3.4126984126984126,4.365079365079365,-11.507936507936508,1.8253968253968254,-10.555555555555555,15.793650793650793,1.0317460317460316,5.0,-6.111111111111111,-0.3968253968253968,-12.936507936507935,-3.571428571428571,0.3968253968253968,-325.0,-325.0,-325.0,-325.0,-325.0,-321.8253968253968
6.111111111111111,-5.476190476190476,19.285714285714285,2.142857142857143,14.84126984126984,3.4126984126984126,4.365079365079365,-11.507936507936508,1.8253968253968254,-10.555555555555555,15.793650793650793,1.0317460317460316,5.0,-6.111111111111111,-0.3968253968253968,-12.936507936507935,-3.571428571428571,0.3968253968253968,-325.0,-325.0,-325.0,-325.0,-325.0,-321.8253968253968
4.365079365079365,-11.507936507936508,18.015873015873016,-4.523809523809524,11.666666666666666,6.111111111111111,9.285714285714285,-0.7142857142857142,8.492063492063492,-9.285714285714285,8.65079365079365,-5.0,-9.761904761904761,-3.571428571428571,2.46031746031746,-6.428571428571428,-3.4126984126984126,0.873015873015873,-325.0,-325.0,-325.0,-325.0,-325.0,-321.8253968253968
4.365079365079365,-11.507936507936508,18.015873015873016,-4.523809523809524,11.666666666666666,6.111111111111111,9.285714285714285,-0.7142857142857142,8.492063492063492,-9.285714285714285,8.65079365079365,-5.0,-9.761904761904761,-3.571428571428571,2.46031746031746,-6.428571428571428,-3.4126984126984126,0.873015873015873,-325.0,-325.0,-325.0,-325.0,-325.0,-321.8253968253968
8.492063492063492,-16.26984126984127,17.857142857142858,-15.317460317460316,13.888888888888888,-5.0,14.682539682539682,-4.365079365079365,13.412698412698411,-10.873015873015872,5.0,-13.412698412698411,-11.349206349206348,-13.73015873015873,7.857142857142857,-7.3809523809523805,-3.73015873015873,0.3968253968253968,-325.0,-325.0,-325.0,-325.0,-325.0,-321.8253968253968
8.492063492063492,-16.26984126984127,17.857142857142858,-15.317460317460316,13.888888888888888,-5.0,14.682539682539682,-4.365079365079365,13.412698412698411,-10.873015873015872,5.0,-13.412698412698411,-11.349206349206348,-13.73015873015873,7.857142857142857,-7.3809523809523805,-3.73015873015873,0.3968253968253968,-325.0,-325.0,-325.0,-325.0,-325.0,-321.8253968253968
2.3015873015873014,-4.365079365079365,3.888888888888889,-6.587301587301587,1.6666666666666665,-0.873015873015873,5.0,3.095238095238095,3.253968253968254,3.4126984126984126,-6.587301587301587,-9.603174603174603,-24.365079365079364,-17.063492063492063,-12.936507936507935,1.6666666666666665,-3.4126984126984126,0.23809523809523808,-325.0,-325.0,-325.0,-325.0,-325.0,-321.8253968253968
2.3015873015873014,-4.365079365079365,3.888888888888889,-6.587301587301587,1.6666666666666665,-0.873015873015873,5.0,3.095238095238095,3.253968253968254,3.4126984126984126,-6.587301587301587,-9.603174603174603,-24.365079365079364,-17.063492063492063,-12.936507936507935,1.6666666666666665,-3.4126984126984126,0.23809523809523808,-325.0,-325.0,-325.0,-325.0,-325.0,-321.8253968253968
-3.253968253968254,-17.063492063492063,-6.587301587301587,-20.555555555555554,-0.3968253968253968,-12.3015873015873,6.26984126984127,-5.317460317460317,6.587301587301587,-6.428571428571428,-7.063492063492063,-21.19047619047619,-29.126984126984127,-27.698412698412696,6.587301587301587,-6.428571428571428,-3.095238095238095,0.7142857142857142,-325.0,-325.0,-325.0,-325.0,-325.0,-7.5396825396825395
-3.253968253968254,-17.063492063492063,-6.587301587301587,-20.555555555555554,-0.3968253968253968,-12.3015873015873,6.26984126984127,-5.317460317460317,6.587301587301587,-6.428571428571428,-7.063492063492063,-21.19047619047619,-29.126984126984127,-27.698412698412696,6.587301587301587,-6.428571428571428,-3.095238095238095,0.7142857142857142,-325.0,-325.0,-325.0,-325.0,-325.0,-7.5396825396825395
-0.873015873015873,-9.285714285714285,2.619047619047619,-8.65079365079365,1.984126984126984,-4.2063492063492065,3.888888888888889,-8.015873015873016,4.682539682539682,-11.984126984126984,-6.904761904761904,-11.984126984126984,-16.26984126984127,-21.984126984126984,-6.111111111111111,-12.777777777777777,-3.4126984126984126,0.23809523809523808,-325.0,-325.0,-325.0,-325.0,-325.0,-7.5396825396825395
-0.873015873015873,-9.285714285714285,2.619047619047619,-8.65079365079365,1.984126984126984,-4.2063492063492065,3.888888888888889,-8.015873015873016,4.682539682539682,-11.984126984126984,-6.904761904761904,-11.984126984126984,-16.26984126984127,-21.984126984126984,-6.111111111111111,-12.777777777777777,-3.4126984126984126,0.23809523809523808,-325.0,-325.0,-325.0,-325.0,-325.0,-7.5396825396825395
-4.841269841269841,-2.3015873015873014,5.0,7.063492063492063,10.555555555555555,7.698412698412698,17.063492063492063,-5.0,6.587301587301587,-11.031746031746032,-6.746031746031746,4.682539682539682,-9.603174603174603,-6.746031746031746,11.666666666666666,-8.333333333333332,-3.888888888888889,0.5555555555555556,-325.0,-325.0,-325.0,-325.0,-325.0,-7.5396825396825395
-4.841269841269841,-2.3015873015873014,5.0,7.063492063492063,10.555555555555555,7.698412698412698,17.063492063492063,-5.0,6.587301587301587,-11.031746031746032,-6.746031746031746,4.682539682539682,-9.603174603174603,-6.746031746031746,11.666666666666666,-8.333333333333332,-3.888888888888889,0.5555555555555556,-325.0,-325.0,-325.0,-325.0,-325.0,-7.5396825396825395
-1.1904761904761905,3.095238095238095,8.65079365079365,-7.063492063492063,11.825396825396824,-2.46031746031746,20.07936507936508,-6.746031746031746,7.857142857142857,-12.777777777777777,-3.888888888888889,5.476190476190476,-0.5555555555555556,-1.0317460317460316,7.5396825396825395,-12.619047619047619,-4.2063492063492065,0.3968253968253968,-325.0,-325.0,-325.0,-325.0,-325.0,-7.5396825396825395
-1.1904761904761905,3.095238095238095,8.65079365079365,-7.063492063492063,11.825396825396824,-2.46031746031746,20.07936507936508,-6.746031746031746,7.857142857142857,-12.777777777777777,-3.888888888888889,5.476190476190476,-0.5555555555555556,-1.0317460317460316,7.5396825396825395,-12.619047619047619,-4.2063492063492065,0.3968253968253968,-325.0,-325.0,-325.0,-325.0,-325.0,-7.5396825396825395
19.6031746031746,11.349206349206348,20.555555555555554,7.3809523809523805,12.619047619047619,2.9365079365079363,12.619047619047619,-5.7936507936507935,9.444444444444445,-8.809523809523808,10.396825396825395,9.126984126984127,3.253968253968254,1.507936507936508,17.857142857142858,-10.238095238095237,-4.2063492063492065,1.0317460317460316,-325.0,-325.0,-325.0,-325.0,-325.0,-7.5396825396825395
19.6031746031746,11.349206349206348,20.555555555555554,7.3809523809523805,12.619047619047619,2.9365079365079363,12.619047619047619,-5.7936507936507935,9.444444444444445,-8.809523809523808,10.396825396825395,9.126984126984127,3.253968253968254,1.507936507936508,17.857142857142858,-10.238095238095237,-4.2063492063492065,1.0317460317460316,-325.0,-325.0,-325.0,-325.0,-325.0,-7.5396825396825395
9.285714285714285,-16.26984126984127,10.873015873015872,-22.619047619047617,-0.5555555555555556,-24.047619047619047,-3.095238095238095,-24.365079365079364,1.984126984126984,-20.396825396825395,8.809523809523808,-22.3015873015873,-2.619047619047619,-33.25396825396825,3.095238095238095,-25.634920634920633,-4.2063492063492065,1.1904761904761905,-325.0,-325.0,-325.0,-325.0,-325.0,-321.8253968253968
9.285714285714285,-16.26984126984127,10.873015873015872,-22.619047619047617,-0.5555555555555556,-24.047619047619047,-3.095238095238095,-24.365079365079364,1.984126984126984,-20.396825396825395,8.809523809523808,-22.3015873015873,-2.619047619047619,-33.25396825396825,3.095238095238095,-25.634920634920633,-4.2063492063492065,1.1904761904761905,-325.0,-325.0,-325.0,-325.0,-325.0,-321.8253968253968
3.888888888888889,-6.746031746031746,-0.07936507936507936,-19.76190476190476,-5.952380952380952,-18.49206349206349,-6.111111111111111,-8.809523809523808,5.634920634920634,1.984126984126984,5.317460317460317,-15.793650793650793,2.7777777777777777,-22.619047619047617,3.253968253968254,-9.920634920634921,-4.2063492063492065,1.0317460317460316,-325.0,-325.0,-325.0,-325.0,-325.0,-321.8253968253968
3.888888888888889,-6.746031746031746,-0.07936507936507936,-19.76190476190476,-5.952380952380952,-18.49206349206349,-6.111111111111111,-8.809523809523808,5.634920634920634,1.984126984126984,5.317460317460317,-15.793650793650793,2.7777777777777777,-22.619047619047617,3.253968253968254,-9.920634920634921,-4.2063492063492065,1.0317460317460316,-325.0,-325.0,-325.0,-325.0,-325.0,-321.8253968253968
3.888888888888889,-5.317460317460317,0.23809523809523808,-6.428571428571428,-0.5555555555555556,-5.158730158730158,0.873015873015873,-5.634920634920634,10.079365079365079,-0.07936507936507936,-0.7142857142857142,-10.238095238095237,-12.777777777777777,-13.095238095238095,7.698412698412698,-3.4126984126984126,-5.0,1.349206349206349,-325.0,-325.0,-325.0,-325.0,-325.0,-321.8253968253968
3.888888888888889,-5.317460317460317,0.23809523809523808,-6.428571428571428,-0.5555555555555556,-5.158730158730158,0.873015873015873,-5.634920634920634,10.079365079365079,-0.07936507936507936,-0.7142857142857142,-10.238095238095237,-12.777777777777777,-13.095238095238095,7.698412698412698,-3.4126984126984126,-5.0,1.349206349206349,-325.0,-325.0,-325.0,-325.0,-325.0,-321.8253968253968
-1.6666666666666665,2.9365079365079363,2.3015873015873014,2.9365079365079363,2.7777777777777777,-3.253968253968254,3.095238095238095,-4.0476190476190474,8.492063492063492,1.1904761904761905,-3.4126984126984126,0.873015873015873,-22.619047619047617,-4.365079365079365,-3.73015873015873,1.507936507936508,-4.523809523809524,1.507936507936508,-325.0,-325.0,-325.0,-325.0,-325.0,-321.8253968253968
-1.6666666666666665,2.9365079365079363,2.3015873015873014,2.9365079365079363,2.7777777777777777,-3.253968253968254,3.095238095238095,-4.0476190476190474,8.492063492063492,1.1904761904761905,-3.4126984126984126,0.873015873015873,-22.619047619047617,-4.365079365079365,-3.73015873015873,1.507936507936508,-4.523809523809524,1.507936507936508,-325.0,-325.0,-325.0,-325.0,-325.0,-321.8253968253968
-2.142857142857143,10.396825396825395,8.333333333333332,9.761904761904761,11.507936507936508,7.063492063492063,13.253968253968253,6.428571428571428,13.888888888888888,5.317460317460317,-3.253968253968254,13.412698412698411,-6.904761904761904,6.428571428571428,14.365079365079364,5.317460317460317,-4.365079365079365,1.6666666666666665,-325.0,-325.0,-325.0,-325.0,-325.0,-321.8253968253968
-2.142857142857143,10.396825396825395,8.333333333333332,9.761904761904761,11.507936507936508,7.063492063492063,13.253968253968253,6.428571428571428,13.888888888888888,5.317460317460317,-3.253968253968254,13.412698412698411,-6.904761904761904,6.428571428571428,14.365079365079364,5.317460317460317,-4.365079365079365,1.6666666666666665,-325.0,-325.0,-325.0,-325.0,-325.0,-321.8253968253968
10.396825396825395,0.23809523809523808,16.746031746031743,-1.0317460317460316,17.063492063492063,2.142857142857143,13.888888888888888,5.7936507936507935,5.7936507936507935,-5.158730158730158,12.46031746031746,7.698412698412698,15.634920634920634,7.857142857142857,14.047619047619047,1.1904761904761905,-4.365079365079365,1.1904761904761905,-325.0,-325.0,-325.0,-325.0,-325.0,-7.5396825396825395
10.396825396825395,0.23809523809523808,16.746031746031743,-1.0317460317460316,17.063492063492063,2.142857142857143,13.888888888888888,5.7936507936507935,5.7936507936507935,-5.158730158730158,12.46031746031746,7.698412698412698,15.634920634920634,7.857142857142857,14.047619047619047,1.1904761904761905,-4.365079365079365,1.1904761904761905,-325.0,-325.0,-325.0,-325.0,-325.0,-7.5396825396825395
21.825396825396822,7.222222222222221,24.68253968253968,10.873015873015872,12.777777777777777,9.444444444444445,13.412698412698411,7.698412698412698,7.3809523809523805,-4.841269841269841,18.65079365079365,6.587301587301587,7.222222222222221,5.476190476190476,7.698412698412698,0.5555555555555556,-3.73015873015873,0.873015873015873,-325.0,-325.0,-325.0,-325.0,-325.0,-7.5396825396825395
21.825396825396822,7.222222222222221,24.68253968253968,10.873015873015872,12.777777777777777,9.444444444444445,13.412698412698411,7.698412698412698,7.3809523809523805,-4.841269841269841,18.65079365079365,6.587301587301587,7.222222222222221,5.476190476190476,7.698412698412698,0.5555555555555556,-3.73015873015873,0.873015873015873,-325.0,-325.0,-325.0,-325.0,-325.0,-7.5396825396825395
21.825396825396822,26.587301587301585,18.015873015873016,18.015873015873016,-1.349206349206349,13.253968253968253,-5.634920634920634,1.349206349206349,-10.873015873015872,-5.158730158730158,19.76190476190476,15.793650793650793,1.984126984126984,7.857142857142857,0.5555555555555556,-4.365079365079365,-3.73015873015873,1.1904761904761905,-325.0,-325.0,-325.0,-325.0,-325.0,-7.5396825396825395
21.825396825396822,26.587301587301585,18.015873015873016,18.015873015873016,-1.349206349206349,13.253968253968253,-5.634920634920634,1.349206349206349,-10.873015873015872,-5.158730158730158,19.76190476190476,15.793650793650793,1.984126984126984,7.857142857142857,0.5555555555555556,-4.365079365079365,-3.73015873015873,1.1904761904761905,-325.0,-325.0,-325.0,-325.0,-325.0,-7.5396825396825395
23.57142857142857,9.603174603174603,19.92063492063492,6.428571428571428,6.111111111111111,-4.523809523809524,-3.888888888888889,-16.26984126984127,-7.3809523809523805,-16.746031746031743,19.6031746031746,-4.841269841269841,2.7777777777777777,-5.952380952380952,6.587301587301587,-18.174603174603174,-4.0476190476190474,1.349206349206349,-325.0,-325.0,-325.0,-325.0,-325.0,-7.5396825396825395
23.57142857142857,9.603174603174603,19.92063492063492,6.428571428571428,6.111111111111111,-4.523809523809524,-3.888888888888889,-16.26984126984127,-7.3809523809523805,-16.746031746031743,19.6031746031746,-4.841269841269841,2.7777777777777777,-5.952380952380952,6.587301587301587,-18.174603174603174,-4.0476190476190474,1.349206349206349,-325.0,-325.0,-325.0,-325.0,-325.0,-7.5396825396825395
-2.7777777777777777,18.174603174603174,-6.904761904761904,18.80952380952381,-3.253968253968254,15.476190476190474,-2.46031746031746,10.238095238095237,-2.142857142857143,5.7936507936507935,-0.5555555555555556,8.333333333333332,-2.9365079365079363,1.984126984126984,-3.571428571428571,2.142857142857143,-3.888888888888889,1.507936507936508,-325.0,-325.0,-325.0,-325.0,-325.0,-7.5396825396825395
-2.7777777777777777,18.174603174603174,-6.904761904761904,18.80952380952381,-3.253968253968254,15.476190476190474,-2.46031746031746,10.238095238095237,-2.142857142857143,5.7936507936507935,-0.5555555555555556,8.333333333333332,-2.9365079365079363,1.984126984126984,-3.571428571428571,2.142857142857143,-3.888888888888889,1.507936507936508,-325.0,-325.0,-325.0,-325.0,-325.0,-7.5396825396825395
-1.349206349206349,7.063492063492063,3.095238095238095,2.619047619047619,13.571428571428571,0.873015873015873,13.095238095238095,6.428571428571428,14.365079365079364,1.6666666666666665,1.1904761904761905,0.7142857142857142,10.555555555555555,-3.571428571428571,13.412698412698411,-5.476190476190476,-4.2063492063492065,1.507936507936508,-325.0,-325.0,-325.0,-325.0,-325.0,-321.8253968253968
-1.349206349206349,7.063492063492063,3.095238095238095,2.619047619047619,13.571428571428571,0.873015873015873,13.095238095238095,6.428571428571428,14.365079365079364,1.6666666666666665,1.1904761904761905,0.7142857142857142,10.555555555555555,-3.571428571428571,13.412698412698411,-5.476190476190476,-4.2063492063492065,1.507936507936508,-325.0,-325.0,-325.0,-325.0,-325.0,-321.8253968253968
-14.047619047619047,-2.9365079365079363,-8.333333333333332,-3.73015873015873,-1.6666666666666665,-4.523809523809524,-2.3015873015873014,-1.349206349206349,-5.7936507936507935,-10.714285714285714,-11.19047619047619,-1.8253968253968254,1.8253968253968254,-2.9365079365079363,-13.095238095238095,-13.888888888888888,-4.365079365079365,1.507936507936508,-325.0,-325.0,-325.0,-325.0,-325.0,-321.8253968253968
-14.047619047619047,-2.9365079365079363,-8.333333333333332,-3.73015873015873,-1.6666666666666665,-4.523809523809524,-2.3015873015873014,-1.349206349206349,-5.7936507936507935,-10.714285714285714,-11.19047619047619,-1.8253968253968254,1.8253968253968254,-2.9365079365079363,-13.095238095238095,-13.888888888888888,-4.365079365079365,1.507936507936508,-325.0,-325.0,-325.0,-325.0,-325.0,-321.8253968253968
-10.555555555555555,12.936507936507935,5.634920634920634,12.46031746031746,9.285714285714285,10.873015873015872,2.3015873015873014,4.523809523809524,-6.904761904761904,-0.873015873015873,-7.222222222222221,12.3015873015873,8.492063492063492,-0.3968253968253968,1.507936507936508,-5.634920634920634,-4.523809523809524,1.1904761904761905,-325.0,-325.0,-325.0,-325.0,-325.0,-321.8253968253968
-10.555555555555555,12.936507936507935,5.634920634920634,12.46031746031746,9.285714285714285,10.873015873015872,2.3015873015873014,4.523809523809524,-6.904761904761904,-0.873015873015873,-7.222222222222221,12.3015873015873,8.492063492063492,-0.3968253968253968,1.507936507936508,-5.634920634920634,-4.523809523809524,1.1904761904761905,-325.0,-325.0,-325.0,-325.0,-325.0,-321.8253968253968
-22.619047619047617,8.015873015873016,2.3015873015873014,12.142857142857142,7.698412698412698,17.38095238095238,14.047619047619047,16.904761904761905,3.253968253968254,17.38095238095238,-10.396825396825395,9.285714285714285,6.428571428571428,-4.0476190476190474,11.984126984126984,5.158730158730158,-4.841269841269841,0.873015873015873,-325.0,-325.0,-325.0,-325.0,-325.0,-321.8253968253968
-22.619047619047617,8.015873015873016,2.3015873015873014,12.142857142857142,7.698412698412698,17.38095238095238,14.047619047619047,16.904761904761905,3.253968253968254,17.38095238095238,-10.396825396825395,9.285714285714285,6.428571428571428,-4.0476190476190474,11.984126984126984,5.158730158730158,-4.841269841269841,0.873015873015873,-325.0,-325.0,-325.0,-325.0,-325.0,-321.8253968253968
-27.857142857142854,-20.396825396825395,-5.158730158730158,-17.698412698412696,-0.07936507936507936,-8.65079365079365,16.904761904761905,-0.7142857142857142,13.888888888888888,3.095238095238095,-8.809523809523808,-18.174603174603174,5.317460317460317,-28.49206349206349,17.857142857142858,-10.714285714285714,-4.365079365079365,0.7142857142857142,-325.0,-325.0,-325.0,-325.0,-325.0,-321.8253968253968
-27.857142857142854,-20.396825396825395,-5.158730158730158,-17.698412698412696,-0.07936507936507936,-8.65079365079365,16.904761904761905,-0.7142857142857142,13.888888888888888,3.095238095238095,-8.809523809523808,-18.174603174603174,5.317460317460317,-28.49206349206349,17.857142857142858,-10.714285714285714,-4.365079365079365,0.7142857142857142,-325.0,-325.0,-325.0,-325.0,-325.0,-321.8253968253968
-17.698412698412696,-12.619047619047619,3.095238095238095,-8.968253968253968,6.746031746031746,-5.0,18.96825396825397,-6.428571428571428,12.777777777777777,-2.142857142857143,-3.095238095238095,-8.809523809523808,6.26984126984127,-23.253968253968253,15.317460317460316,-10.396825396825395,-4.365079365079365,1.0317460317460316,-325.0,-325.0,-325.0,-325.0,-325.0,-7.5396825396825395
-17.698412698412696,-12.619047619047619,3.095238095238095,-8.968253968253968,6.746031746031746,-5.0,18.96825396825397,-6.428571428571428,12.777777777777777,-2.142857142857143,-3.095238095238095,-8.809523809523808,6.26984126984127,-23.253968253968253,15.317460317460316,-10.396825396825395,-4.365079365079365,1.0317460317460316,-325.0,-325.0,-325.0,-325.0,-325.0,-7.5396825396825395
0.07936507936507936,8.333333333333332,7.063492063492063,-1.507936507936508,6.111111111111111,-12.936507936507935,8.015873015873016,-15.317460317460316,4.682539682539682,-10.873015873015872,5.7936507936507935,3.73015873015873,4.0476190476190474,-7.063492063492063,13.095238095238095,-15.95238095238095,-4.0476190476190474,0.3968253968253968,-325.0,-325.0,-325.0,-325.0,-325.0,-7.5396825396825395
0.07936507936507936,8.333333333333332,7.063492063492063,-1.507936507936508,6.111111111111111,-12.936507936507935,8.015873015873016,-15.317460317460316,4.682539682539682,-10.873015873015872,5.7936507936507935,3.73015873015873,4.0476190476190474,-7.063492063492063,13.095238095238095,-15.95238095238095,-4.0476190476190474,0.3968253968253968,-325.0,-325.0,-325.0,-325.0,-325.0,-7.5396825396825395
2.9365079365079363,11.507936507936508,11.507936507936508,6.904761904761904,10.555555555555555,-6.428571428571428,2.142857142857143,-12.46031746031746,-1.6666666666666665,-8.015873015873016,9.761904761904761,8.65079365079365,6.587301587301587,-2.9365079365079363,5.952380952380952,-11.825396825396824,-4.0476190476190474,0.5555555555555556,-325.0,-325.0,-325.0,-325.0,-325.0,-7.5396825396825395
2.9365079365079363,11.507936507936508,11.507936507936508,6.904761904761904,10.555555555555555,-6.428571428571428,2.142857142857143,-12.46031746031746,-1.6666666666666665,-8.015873015873016,9.761904761904761,8.65079365079365,6.587301587301587,-2.9365079365079363,5.952380952380952,-11.825396825396824,-4.0476190476190474,0.5555555555555556,-325.0,-325.0,-325.0,-325.0,-325.0,-7.5396825396825395
-0.07936507936507936,6.428571428571428,8.492063492063492,4.682539682539682,10.079365079365079,0.07936507936507936,5.7936507936507935,-10.079365079365079,0.3968253968253968,-7.222222222222221,7.222222222222221,3.095238095238095,5.317460317460317,-11.19047619047619,3.571428571428571,-8.333333333333332,-3.888888888888889,0.7142857142857142,-325.0,-325.0,-325.0,-325.0,-325.0,-7.5396825396825395
-0.07936507936507936,6.428571428571428,8.492063492063492,4.682539682539682,10.079365079365079,0.07936507936507936,5.7936507936507935,-10.079365079365079,0.3968253968253968,-7.222222222222221,7.222222222222221,3.095238095238095,5.317460317460317,-11.19047619047619,3.571428571428571,-8.333333333333332,-3.888888888888889,0.7142857142857142,-325.0,-325.0,-325.0,-325.0,-325.0,-7.5396825396825395
-5.7936507936507935,-5.158730158730158,0.7142857142857142,0.07936507936507936,4.365079365079365,2.9365079365079363,1.6666666666666665,3.888888888888889,8.015873015873016,12.619047619047619,-0.3968253968253968,1.349206349206349,5.952380952380952,-10.396825396825395,13.412698412698411,5.7936507936507935,-3.888888888888889,0.7142857142857142,-325.0,-325.0,-325.0,-325.0,-325.0,-7.5396825396825395
-5.7936507936507935,-5.158730158730158,0.7142857142857142,0.07936507936507936,4.365079365079365,2.9365079365079363,1.6666666666666665,3.888888888888889,8.015873015873016,12.619047619047619,-0.3968253968253968,1.349206349206349,5.952380952380952,-10.396825396825395,13.412698412698411,5.7936507936507935,-3.888888888888889,0.7142857142857142,-325.0,-325.0,-325.0,-325.0,-325.0,-7.5396825396825395
2.46031746031746,-11.349206349206348,2.46031746031746,-9.285714285714285,1.1904761904761905,-9.603174603174603,4.523809523809524,-7.222222222222221,10.714285714285714,-3.73015873015873,-5.476190476190476,-3.888888888888889,-2.142857142857143,-8.65079365079365,14.365079365079364,-0.873015873015873,-3.253968253968254,0.873015873015873,-325.0,-325.0,-325.0,-325.0,-325.0,-321.8253968253968
2.46031746031746,-11.349206349206348,2.46031746031746,-9.285714285714285,1.1904761904761905,-9.603174603174603,4.523809523809524,-7.222222222222221,10.714285714285714,-3.73015873015873,-5.476190476190476,-3.888888888888889,-2.142857142857143,-8.65079365079365,14.365079365079364,-0.873015873015873,-3.253968253968254,0.873015873015873,-325.0,-325.0,-325.0,-325.0,-325.0,-321.8253968253968
2.46031746031746,-12.777777777777777,-5.0,-12.777777777777777,-2.9365079365079363,-11.666666666666666,-1.507936507936508,-8.809523809523808,8.492063492063492,-5.952380952380952,-4.523809523809524,-8.333333333333332,-5.7936507936507935,-7.3809523809523805,-7.222222222222221,-3.095238095238095,-3.888888888888889,1.0317460317460316,-325.0,-325.0,-325.0,-325.0,-325.0,-321.8253968253968
2.46031746031746,-12.777777777777777,-5.0,-12.777777777777777,-2.9365079365079363,-11.666666666666666,-1.507936507936508,-8.809523809523808,8.492063492063492,-5.952380952380952,-4.523809523809524,-8.333333333333332,-5.7936507936507935,-7.3809523809523805,-7.222222222222221,-3.095238095238095,-3.888888888888889,1.0317460317460316,-325.0,-325.0,-325.0,-325.0,-325.0,-321.8253968253968
11.507936507936508,2.9365079365079363,-5.0,5.317460317460317,-5.952380952380952,-4.523809523809524,-7.222222222222221,-7.857142857142857,2.142857142857143,-10.714285714285714,3.4126984126984126,12.142857142857142,-6.111111111111111,9.761904761904761,-0.873015873015873,-2.7777777777777777,-4.0476190476190474,1.507936507936508,-325.0,-325.0,-325.0,-325.0,-325.0,-321.8253968253968
11.507936507936508,2.9365079365079363,-5.0,5.317460317460317,-5.952380952380952,-4.523809523809524,-7.222222222222221,-7.857142857142857,2.142857142857143,-10.714285714285714,3.4126984126984126,12.142857142857142,-6.111111111111111,9.761904761904761,-0.873015873015873,-2.7777777777777777,-4.0476190476190474,1.507936507936508,-325.0,-325.0,-325.0,-325.0,-325.0,-321.8253968253968
24.84126984126984,5.7936507936507935,5.158730158730158,-3.571428571428571,8.015873015873016,-4.523809523809524,6.587301587301587,-11.825396825396824,8.174603174603174,-22.3015873015873,27.063492063492063,11.031746031746032,11.984126984126984,10.873015873015872,2.9365079365079363,-9.920634920634921,-4.0476190476190474,1.349206349206349,-325.0,-325.0,-325.0,-325.0,-325.0,-321.8253968253968
24.84126984126984,5.7936507936507935,5.158730158730158,-3.571428571428571,8.015873015873016,-4.523809523809524,6.587301587301587,-11.825396825396824,8.174603174603174,-22.3015873015873,27.063492063492063,11.031746031746032,11.984126984126984,10.873015873015872,2.9365079365079363,-9.920634920634921,-4.0476190476190474,1.349206349206349,-325.0,-325.0,-325.0,-325.0,-325.0,-321.8253968253968
15.158730158730158,8.333333333333332,-0.07936507936507936,-6.428571428571428,1.349206349206349,-7.698412698412698,7.222222222222221,-13.253968253968253,4.2063492063492065,-18.96825396825397,20.07936507936508,6.746031746031746,8.333333333333332,15.158730158730158,5.317460317460317,-8.492063492063492,-3.888888888888889,1.349206349206349,-325.0,-325.0,-325.0,-325.0,-325.0,-321.8253968253968
15.158730158730158,8.333333333333332,-0.07936507936507936,-6.428571428571428,1.349206349206349,-7.698412698412698,7.222222222222221,-13.253968253968253,4.2063492063492065,-18.96825396825397,20.07936507936508,6.746031746031746,8.333333333333332,15.158730158730158,5.317460317460317,-8.492063492063492,-3.888888888888889,1.349206349206349,-325.0,-325.0,-325.0,-325.0,-325.0,-321.8253968253968
7.222222222222221,4.365079365079365,-0.5555555555555556,-8.333333333333332,1.507936507936508,-9.603174603174603,7.5396825396825395,-14.047619047619047,3.4126984126984126,-10.555555555555555,9.285714285714285,-4.365079365079365,2.9365079365079363,-0.23809523809523808,5.7936507936507935,-11.19047619047619,-3.095238095238095,1.6666666666666665,-325.0,-325.0,-325.0,-325.0,-325.0,-7.5396825396825395
7.222222222222221,4.365079365079365,-0.5555555555555556,-8.333333333333332,1.507936507936508,-9.603174603174603,7.5396825396825395,-14.047619047619047,3.4126984126984126,-10.555555555555555,9.285714285714285,-4.365079365079365,2.9365079365079363,-0.23809523809523808,5.7936507936507935,-11.19047619047619,-3.095238095238095,1.6666666666666665,-325.0,-325.0,-325.0,-325.0,-325.0,-7.5396825396825395
9.126984126984127,-6.587301587301587,7.5396825396825395,-14.682539682539682,11.984126984126984,-19.92063492063492,20.71428571428571,-21.984126984126984,15.0,-9.920634920634921,10.714285714285714,-21.03174603174603,22.936507936507937,-17.857142857142858,21.825396825396822,-18.015873015873016,-3.888888888888889,1.0317460317460316,-325.0,-325.0,-325.0,-325.0,-325.0,-7.5396825396825395
9.126984126984127,-6.587301587301587,7.5396825396825395,-14.682539682539682,11.984126984126984,-19.92063492063492,20.71428571428571,-21.984126984126984,15.0,-9.920634920634921,10.714285714285714,-21.03174603174603,22.936507936507937,-17.857142857142858,21.825396825396822,-18.015873015873016,-3.888888888888889,1.0317460317460316,-325.0,-325.0,-325.0,-325.0,-325.0,-7.5396825396825395
8.174603174603174,-5.158730158730158,8.492063492063492,-11.349206349206348,19.444444444444443,-13.412698412698411,25.476190476190474,-12.3015873015873,17.22222222222222,-4.2063492063492065,10.873015873015872,-18.80952380952381,27.698412698412696,-16.11111111111111,25.317460317460316,-10.238095238095237,-3.571428571428571,1.349206349206349,-325.0,-325.0,-325.0,-325.0,-325.0,-7.5396825396825395
8.174603174603174,-5.158730158730158,8.492063492063492,-11.349206349206348,19.444444444444443,-13.412698412698411,25.476190476190474,-12.3015873015873,17.22222222222222,-4.2063492063492065,10.873015873015872,-18.80952380952381,27.698412698412696,-16.11111111111111,25.317460317460316,-10.238095238095237,-3.571428571428571,1.349206349206349,-325.0,-325.0,-325.0,-325.0,-325.0,-7.5396825396825395
-0.7142857142857142,15.158730158730158,2.7777777777777777,9.126984126984127,16.428571428571427,10.238095238095237,15.476190476190474,11.666666666666666,15.317460317460316,21.19047619047619,8.015873015873016,2.7777777777777777,19.76190476190476,0.23809523809523808,17.857142857142858,7.3809523809523805,-3.571428571428571,1.8253968253968254,-325.0,-325.0,-325.0,-325.0,-325.0,-7.5396825396825395
-0.7142857142857142,15.158730158730158,2.7777777777777777,9.126984126984127,16.428571428571427,10.238095238095237,15.476190476190474,11.666666666666666,15.317460317460316,21.19047619047619,8.015873015873016,2.7777777777777777,19.76190476190476,0.23809523809523808,17.857142857142858,7.3809523809523805,-3.571428571428571,1.8253968253968254,-325.0,-325.0,-325.0,-325.0,-325.0,-7.5396825396825395
8.809523809523808,-3.095238095238095,3.888888888888889,-8.968253968253968,14.047619047619047,-4.682539682539682,11.349206349206348,-4.2063492063492065,14.206349206349206,-1.1904761904761905,15.158730158730158,-8.492063492063492,25.79365079365079,-11.666666666666666,7.5396825396825395,-7.3809523809523805,-4.0476190476190474,0.7142857142857142,-325.0,-325.0,-325.0,-325.0,-325.0,-7.5396825396825395
8.809523809523808,-3.095238095238095,3.888888888888889,-8.968253968253968,14.047619047619047,-4.682539682539682,11.349206349206348,-4.2063492063492065,14.206349206349206,-1.1904761904761905,15.158730158730158,-8.492063492063492,25.79365079365079,-11.666666666666666,7.5396825396825395,-7.3809523809523805,-4.0476190476190474,0.7142857142857142,-325.0,-325.0,-325.0,-325.0,-325.0,-7.5396825396825395
18.333333333333332,-2.9365079365079363,4.365079365079365,-8.174603174603174,6.111111111111111,-7.698412698412698,10.555555555555555,-9.285714285714285,9.444444444444445,-9.920634920634921,21.03174603174603,-6.904761904761904,21.825396825396822,-6.746031746031746,14.365079365079364,-6.111111111111111,-4.0476190476190474,1.349206349206349,-325.0,-325.0,-325.0,-325.0,-325.0,-321.8253968253968
18.333333333333332,-2.9365079365079363,4.365079365079365,-8.174603174603174,6.111111111111111,-7.698412698412698,10.555555555555555,-9.285714285714285,9.444444444444445,-9.920634920634921,21.03174603174603,-6.904761904761904,21.825396825396822,-6.746031746031746,14.365079365079364,-6.111111111111111,-4.0476190476190474,1.349206349206349,-325.0,-325.0,-325.0,-325.0,-325.0,-321.8253968253968
21.825396825396822,1.1904761904761905,27.063492063492063,4.682539682539682,23.730158730158728,9.761904761904761,26.428571428571427,5.158730158730158,14.365079365079364,-4.841269841269841,27.698412698412696,-5.476190476190476,23.88888888888889,-4.523809523809524,13.253968253968253,-1.349206349206349,-3.73015873015873,1.507936507936508,-325.0,-325.0,-325.0,-325.0,-325.0,-321.8253968253968
21.825396825396822,1.1904761904761905,27.063492063492063,4.682539682539682,23.730158730158728,9.761904761904761,26.428571428571427,5.158730158730158,14.365079365079364,-4.841269841269841,27.698412698412696,-5.476190476190476,23.88888888888889,-4.523809523809524,13.253968253968253,-1.349206349206349,-3.73015873015873,1.507936507936508,-325.0,-325.0,-325.0,-325.0,-325.0,-321.8253968253968
23.253968253968253,3.888888888888889,24.84126984126984,12.619047619047619,22.142857142857142,21.507936507936506,30.555555555555554,19.126984126984127,18.333333333333332,9.603174603174603,27.539682539682538,2.142857142857143,20.396825396825395,2.3015873015873014,30.396825396825395,8.333333333333332,-3.73015873015873,1.0317460317460316,-325.0,-325.0,-325.0,-325.0,-325.0,-321.8253968253968
23.253968253968253,3.888888888888889,24.84126984126984,12.619047619047619,22.142857142857142,21.507936507936506,30.555555555555554,19.126984126984127,18.333333333333332,9.603174603174603,27.539682539682538,2.142857142857143,20.396825396825395,2.3015873015873014,30.396825396825395,8.333333333333332,-3.73015873015873,1.0317460317460316,-325.0,-325.0,-325.0,-325.0,-325.0,-321.8253968253968
10.396825396825395,0.3968253968253968,9.603174603174603,16.587301587301585,9.761904761904761,22.142857142857142,14.365079365079364,16.904761904761905,9.761904761904761,10.238095238095237,17.22222222222222,-1.349206349206349,2.619047619047619,1.984126984126984,16.11111111111111,10.396825396825395,-4.0476190476190474,0.873015873015873,-325.0,-325.0,-325.0,-325.0,-325.0,-321.8253968253968
10.396825396825395,0.3968253968253968,9.603174603174603,16.587301587301585,9.761904761904761,22.142857142857142,14.365079365079364,16.904761904761905,9.761904761904761,10.238095238095237,17.22222222222222,-1.349206349206349,2.619047619047619,1.984126984126984,16.11111111111111,10.396825396825395,-4.0476190476190474,0.873015873015873,-325.0,-325.0,-325.0,-325.0,-325.0,-321.8253968253968
17.857142857142858,-3.888888888888889,11.825396825396824,8.492063492063492,9.920634920634921,13.253968253968253,10.079365079365079,7.857142857142857,13.73015873015873,8.809523809523808,17.857142857142858,-10.396825396825395,0.873015873015873,-9.126984126984127,10.873015873015872,5.0,-3.4126984126984126,0.5555555555555556,-325.0,-325.0,-325.0,-325.0,-325.0,-321.8253968253968
17.857142857142858,-3.888888888888889,11.825396825396824,8.492063492063492,9.920634920634921,13.253968253968253,10.079365079365079,7.857142857142857,13.73015873015873,8.809523809523808,17.857142857142858,-10.396825396825395,0.873015873015873,-9.126984126984127,10.873015873015872,5.0,-3.4126984126984126,0.5555555555555556,-325.0,-325.0,-325.0,-325.0,-325.0,-321.8253968253968
9.761904761904761,-0.7142857142857142,6.904761904761904,7.5396825396825395,5.634920634920634,-0.7142857142857142,-6.428571428571428,-4.682539682539682,1.6666666666666665,3.253968253968254,10.873015873015872,-5.317460317460317,-7.5396825396825395,-2.142857142857143,1.0317460317460316,0.7142857142857142,-4.0476190476190474,0.873015873015873,-325.0,-325.0,-325.0,-325.0,-325.0,-7.5396825396825395
9.761904761904761,-0.7142857142857142,6.904761904761904,7.5396825396825395,5.634920634920634,-0.7142857142857142,-6.428571428571428,-4.682539682539682,1.6666666666666665,3.253968253968254,10.873015873015872,-5.317460317460317,-7.5396825396825395,-2.142857142857143,1.0317460317460316,0.7142857142857142,-4.0476190476190474,0.873015873015873,-325.0,-325.0,-325.0,-325.0,-325.0,-7.5396825396825395
18.65079365079365,9.444444444444445,8.492063492063492,5.7936507936507935,9.444444444444445,-6.111111111111111,-5.317460317460317,-5.317460317460317,2.619047619047619,-3.253968253968254,15.317460317460316,-1.6666666666666665,-1.507936507936508,0.07936507936507936,-9.285714285714285,-3.73015873015873,-3.571428571428571,0.873015873015873,-325.0,-325.0,-325.0,-325.0,-325.0,-7.5396825396825395
18.65079365079365,9.444444444444445,8.492063492063492,5.7936507936507935,9.444444444444445,-6.111111111111111,-5.317460317460317,-5.317460317460317,2.619047619047619,-3.253968253968254,15.317460317460316,-1.6666666666666665,-1.507936507936508,0.07936507936507936,-9.285714285714285,-3.73015873015873,-3.571428571428571,0.873015873015873,-325.0,-325.0,-325.0,-325.0,-325.0,-7.5396825396825395
15.0,16.428571428571427,10.555555555555555,11.349206349206348,9.603174603174603,3.4126984126984126,-5.476190476190476,4.0476190476190474,0.873015873015873,0.23809523809523808,12.142857142857142,2.3015873015873014,-9.126984126984127,9.285714285714285,-7.5396825396825395,5.634920634920634,-3.571428571428571,1.0317460317460316,-325.0,-325.0,-325.0,-325.0,-325.0,-7.5396825396825395
15.0,16.428571428571427,10.555555555555555,11.349206349206348,9.603174603174603,3.4126984126984126,-5.476190476190476,4.0476190476190474,0.873015873015873,0.23809523809523808,12.142857142857142,2.3015873015873014,-9.126984126984127,9.285714285714285,-7.5396825396825395,5.634920634920634,-3.571428571428571,1.0317460317460316,-325.0,-325.0,-325.0,-325.0,-325.0,-7.5396825396825395
10.238095238095237,21.349206349206348,8.809523809523808,21.666666666666664,14.523809523809524,20.555555555555554,7.222222222222221,21.03174603174603,16.746031746031743,14.047619047619047,3.73015873015873,15.158730158730158,4.841269841269841,17.698412698412696,5.476190476190476,21.19047619047619,-3.571428571428571,0.873015873015873,-325.0,-325.0,-325.0,-325.0,-325.0,-7.5396825396825395
10.238095238095237,21.349206349206348,8.809523809523808,21.666666666666664,14.523809523809524,20.555555555555554,7.222222222222221,21.03174603174603,16.746031746031743,14.047619047619047,3.73015873015873,15.158730158730158,4.841269841269841,17.698412698412696,5.476190476190476,21.19047619047619,-3.571428571428571,0.873015873015873,-325.0,-325.0,-325.0,-325.0,-325.0,-7.5396825396825395
-3.253968253968254,4.365079365079365,-5.634920634920634,8.65079365079365,6.587301587301587,12.46031746031746,11.19047619047619,12.936507936507935,16.26984126984127,7.063492063492063,-2.46031746031746,4.2063492063492065,0.7142857142857142,4.0476190476190474,15.476190476190474,16.746031746031743,-3.095238095238095,0.873015873015873,-325.0,-325.0,-325.0,-325.0,-325.0,-7.5396825396825395
-3.253968253968254,4.365079365079365,-5.634920634920634,8.65079365079365,6.587301587301587,12.46031746031746,11.19047619047619,12.936507936507935,16.26984126984127,7.063492063492063,-2.46031746031746,4.2063492063492065,0.7142857142857142,4.0476190476190474,15.476190476190474,16.746031746031743,-3.095238095238095,0.873015873015873,-325.0,-325.0,-325.0,-325.0,-325.0,-7.5396825396825395
-0.873015873015873,8.809523809523808,6.428571428571428,11.666666666666666,18.49206349206349,15.634920634920634,36.74603174603175,19.76190476190476,27.857142857142854,16.587301587301585,-0.7142857142857142,1.6666666666666665,6.587301587301587,6.587301587301587,32.14285714285714,17.698412698412696,-2.7777777777777777,0.7142857142857142,-325.0,-325.0,-325.0,-325.0,-325.0,-321.8253968253968
-0.873015873015873,8.809523809523808,6.428571428571428,11.666666666666666,18.49206349206349,15.634920634920634,36.74603174603175,19.76190476190476,27.857142857142854,16.587301587301585,-0.7142857142857142,1.6666666666666665,6.587301587301587,6.587301587301587,32.14285714285714,17.698412698412696,-2.7777777777777777,0.7142857142857142,-325.0,-325.0,-325.0,-325.0,-325.0,-321.8253968253968
11.031746031746032,15.634920634920634,19.92063492063492,21.03174603174603,33.57142857142857,18.96825396825397,47.38095238095238,20.396825396825395,29.444444444444443,16.904761904761905,11.825396825396824,3.4126984126984126,22.142857142857142,5.0,35.79365079365079,11.666666666666666,-3.571428571428571,1.0317460317460316,-325.0,-325.0,-325.0,-325.0,-325.0,-321.8253968253968
11.031746031746032,15.634920634920634,19.92063492063492,21.03174603174603,33.57142857142857,18.96825396825397,47.38095238095238,20.396825396825395,29.444444444444443,16.904761904761905,11.825396825396824,3.4126984126984126,22.142857142857142,5.0,35.79365079365079,11.666666666666666,-3.571428571428571,1.0317460317460316,-325.0,-325.0,-325.0,-325.0,-325.0,-321.8253968253968
18.80952380952381,21.03174603174603,27.698412698412696,35.476190476190474,34.52380952380952,33.41269841269841,38.01587301587301,21.984126984126984,16.587301587301585,13.73015873015873,18.96825396825397,11.666666666666666,26.428571428571427,11.666666666666666,33.41269841269841,13.253968253968253,-2.7777777777777777,1.0317460317460316,-325.0,-325.0,-325.0,-325.0,-325.0,-321.8253968253968
18.80952380952381,21.03174603174603,27.698412698412696,35.476190476190474,34.52380952380952,33.41269841269841,38.01587301587301,21.984126984126984,16.587301587301585,13.73015873015873,18.96825396825397,11.666666666666666,26.428571428571427,11.666666666666666,33.41269841269841,13.253968253968253,-2.7777777777777777,1.0317460317460316,-325.0,-325.0,-325.0,-325.0,-325.0,-321.8253968253968
36.42857142857142,18.80952380952381,43.57142857142857,29.126984126984127,42.77777777777778,28.809523809523807,37.22222222222222,13.253968253968253,16.26984126984127,5.952380952380952,33.25396825396825,7.3809523809523805,33.73015873015873,8.809523809523808,27.38095238095238,7.5396825396825395,-2.7777777777777777,0.5555555555555556,-325.0,-325.0,-325.0,-325.0,-325.0,-321.8253968253968
36.42857142857142,18.80952380952381,43.57142857142857,29.126984126984127,42.77777777777778,28.809523809523807,37.22222222222222,13.253968253968253,16.26984126984127,5.952380952380952,33.25396825396825,7.3809523809523805,33.73015873015873,8.809523809523808,27.38095238095238,7.5396825396825395,-2.7777777777777777,0.5555555555555556,-325.0,-325.0,-325.0,-325.0,-325.0,-321.8253968253968
26.746031746031743,26.587301587301585,25.158730158730158,28.015873015873016,22.3015873015873,26.9047619047619,18.49206349206349,13.888888888888888,3.253968253968254,7.3809523809523805,24.206349206349206,15.634920634920634,21.349206349206348,9.444444444444445,9.920634920634921,6.587301587301587,-2.619047619047619,0.873015873015873,-325.0,-325.0,-325.0,-325.0,-325.0,-321.8253968253968
26.746031746031743,26.587301587301585,25.158730158730158,28.015873015873016,22.3015873015873,26.9047619047619,18.49206349206349,13.888888888888888,3.253968253968254,7.3809523809523805,24.206349206349206,15.634920634920634,21.349206349206348,9.444444444444445,9.920634920634921,6.587301587301587,-2.619047619047619,0.873015873015873,-325.0,-325.0,-325.0,-325.0,-325.0,-321.8253968253968
19.92063492063492,17.539682539682538,7.3809523809523805,9.444444444444445,-2.3015873015873014,-4.2063492063492065,-0.5555555555555556,-4.365079365079365,-10.873015873015872,-0.5555555555555556,23.095238095238095,1.507936507936508,19.6031746031746,-2.619047619047619,3.73015873015873,-3.253968253968254,-3.095238095238095,0.873015873015873,-325.0,-325.0,-325.0,-325.0,-325.0,-7.5396825396825395
19.92063492063492,17.539682539682538,7.3809523809523805,9.444444444444445,-2.3015873015873014,-4.2063492063492065,-0.5555555555555556,-4.365079365079365,-10.873015873015872,-0.5555555555555556,23.095238095238095,1.507936507936508,19.6031746031746,-2.619047619047619,3.73015873015873,-3.253968253968254,-3.095238095238095,0.873015873015873,-325.0,-325.0,-325.0,-325.0,-325.0,-7.5396825396825395
10.238095238095237,8.968253968253968,-5.317460317460317,1.6666666666666665,-7.698412698412698,-5.952380952380952,-1.1904761904761905,-2.3015873015873014,-8.809523809523808,6.111111111111111,8.809523809523808,-2.7777777777777777,8.809523809523808,-2.9365079365079363,0.3968253968253968,-0.5555555555555556,-2.619047619047619,0.5555555555555556,-325.0,-325.0,-325.0,-325.0,-325.0,-7.5396825396825395
10.238095238095237,8.968253968253968,-5.317460317460317,1.6666666666666665,-7.698412698412698,-5.952380952380952,-1.1904761904761905,-2.3015873015873014,-8.809523809523808,6.111111111111111,8.809523809523808,-2.7777777777777777,8.809523809523808,-2.9365079365079363,0.3968253968253968,-0.5555555555555556,-2.619047619047619,0.5555555555555556,-325.0,-325.0,-325.0,-325.0,-325.0,-7.5396825396825395
-1.8253968253968254,8.809523809523808,-17.38095238095238,-2.619047619047619,-20.396825396825395,-3.095238095238095,-8.65079365079365,3.253968253968254,-10.079365079365079,10.555555555555555,-1.507936507936508,-0.873015873015873,4.523809523809524,-1.984126984126984,-0.7142857142857142,7.222222222222221,-3.253968253968254,-0.23809523809523808,-325.0,-325.0,-325.0,-325.0,-325.0,-7.5396825396825395
-1.8253968253968254,8.809523809523808,-17.38095238095238,-2.619047619047619,-20.396825396825395,-3.095238095238095,-8.65079365079365,3.253968253968254,-10.079365079365079,10.555555555555555,-1.507936507936508,-0.873015873015873,4.523809523809524,-1.984126984126984,-0.7142857142857142,7.222222222222221,-3.253968253968254,-0.23809523809523808,-325.0,-325.0,-325.0,-325.0,-325.0,-7.5396825396825395
-9.285714285714285,-0.07936507936507936,-30.87301587301587,-11.031746031746032,-24.365079365079364,2.3015873015873014,-1.984126984126984,13.73015873015873,1.1904761904761905,21.984126984126984,-12.46031746031746,0.873015873015873,-5.7936507936507935,9.126984126984127,-3.888888888888889,18.49206349206349,-3.4126984126984126,0.3968253968253968,-325.0,-325.0,-325.0,-325.0,-325.0,-7.5396825396825395
-9.285714285714285,-0.07936507936507936,-30.87301587301587,-11.031746031746032,-24.365079365079364,2.3015873015873014,-1.984126984126984,13.73015873015873,1.1904761904761905,21.984126984126984,-12.46031746031746,0.873015873015873,-5.7936507936507935,9.126984126984127,-3.888888888888889,18.49206349206349,-3.4126984126984126,0.3968253968253968,-325.0,-325.0,-325.0,-325.0,-325.0,-7.5396825396825395
-12.3015873015873,-2.142857142857143,-34.682539682539684,-13.253968253968253,-25.158730158730158,-1.8253968253968254,1.1904761904761905,11.031746031746032,1.507936507936508,15.476190476190474,-12.777777777777777,1.8253968253968254,-2.142857142857143,7.857142857142857,6.26984126984127,17.857142857142858,-3.095238095238095,0.23809523809523808,-325.0,-325.0,-325.0,-325.0,-325.0,-7.5396825396825395
-12.3015873015873,-2.142857142857143,-34.682539682539684,-13.253968253968253,-25.158730158730158,-1.8253968253968254,1.1904761904761905,11.031746031746032,1.507936507936508,15.476190476190474,-12.777777777777777,1.8253968253968254,-2.142857142857143,7.857142857142857,6.26984126984127,17.857142857142858,-3.095238095238095,0.23809523809523808,-325.0,-325.0,-325.0,-325.0,-325.0,-7.5396825396825395
-6.904761904761904,4.0476190476190474,-28.015873015873016,-2.46031746031746,-18.333333333333332,-1.8253968253968254,-5.317460317460317,3.4126984126984126,-6.26984126984127,6.26984126984127,-2.619047619047619,7.222222222222221,-1.349206349206349,8.968253968253968,-5.476190476190476,8.174603174603174,-3.095238095238095,0.23809523809523808,-325.0,-325.0,-325.0,-325.0,-325.0,-321.8253968253968
-6.904761904761904,4.0476190476190474,-28.015873015873016,-2.46031746031746,-18.333333333333332,-1.8253968253968254,-5.317460317460317,3.4126984126984126,-6.26984126984127,6.26984126984127,-2.619047619047619,7.222222222222221,-1.349206349206349,8.968253968253968,-5.476190476190476,8.174603174603174,-3.095238095238095,0.23809523809523808,-325.0,-325.0,-325.0,-325.0,-325.0,-321.8253968253968
-12.777777777777777,24.047619047619047,-36.904761904761905,14.365079365079364,-28.65079365079365,5.0,-23.253968253968253,5.7936507936507935,-16.904761904761905,11.984126984126984,-8.809523809523808,21.03174603174603,-8.65079365079365,19.92063492063492,-8.492063492063492,10.714285714285714,-3.888888888888889,0.3968253968253968,-325.0,-325.0,-325.0,-325.0,-325.0,-321.8253968253968
-12.777777777777777,24.047619047619047,-36.904761904761905,14.365079365079364,-28.65079365079365,5.0,-23.253968253968253,5.7936507936507935,-16.904761904761905,11.984126984126984,-8.809523809523808,21.03174603174603,-8.65079365079365,19.92063492063492,-8.492063492063492,10.714285714285714,-3.888888888888889,0.3968253968253968,-325.0,-325.0,-325.0,-325.0,-325.0,-321.8253968253968
-11.349206349206348,10.873015873015872,-31.825396825396822,11.349206349206348,-26.428571428571427,1.0317460317460316,-28.333333333333332,-4.365079365079365,-19.126984126984127,-0.873015873015873,-8.174603174603174,15.476190476190474,-11.19047619047619,15.476190476190474,-21.19047619047619,3.253968253968254,-3.253968253968254,0.23809523809523808,-325.0,-325.0,-325.0,-325.0,-325.0,-321.8253968253968
-11.349206349206348,10.873015873015872,-31.825396825396822,11.349206349206348,-26.428571428571427,1.0317460317460316,-28.333333333333332,-4.365079365079365,-19.126984126984127,-0.873015873015873,-8.174603174603174,15.476190476190474,-11.19047619047619,15.476190476190474,-21.19047619047619,3.253968253968254,-3.253968253968254,0.23809523809523808,-325.0,-325.0,-325.0,-325.0,-325.0,-321.8253968253968
-18.49206349206349,3.253968253968254,-47.857142857142854,2.142857142857143,-36.11111111111111,-4.2063492063492065,-34.682539682539684,-3.4126984126984126,-22.142857142857142,-5.952380952380952,-21.825396825396822,11.031746031746032,-21.825396825396822,9.920634920634921,-22.142857142857142,2.9365079365079363,-3.095238095238095,0.23809523809523808,-325.0,-325.0,-325.0,-325.0,-325.0,-321.8253968253968
-18.49206349206349,3.253968253968254,-47.857142857142854,2.142857142857143,-36.11111111111111,-4.2063492063492065,-34.682539682539684,-3.4126984126984126,-22.142857142857142,-5.952380952380952,-21.825396825396822,11.031746031746032,-21.825396825396822,9.920634920634921,-22.142857142857142,2.9365079365079363,-3.095238095238095,0.23809523809523808,-325.0,-325.0,-325.0,-325.0,-325.0,-321.8253968253968
-22.777777777777775,10.238095238095237,-49.76190476190476,5.952380952380952,-30.238095238095237,8.65079365079365,-25.476190476190474,18.80952380952381,-14.047619047619047,14.682539682539682,-27.22222222222222,20.396825396825395,-23.41269841269841,20.396825396825395,-23.88888888888889,20.396825396825395,-3.4126984126984126,0.07936507936507936,-325.0,-325.0,-325.0,-325.0,-325.0,-321.8253968253968
-22.777777777777775,10.238095238095237,-49.76190476190476,5.952380952380952,-30.238095238095237,8.65079365079365,-25.476190476190474,18.80952380952381,-14.047619047619047,14.682539682539682,-27.22222222222222,20.396825396825395,-23.41269841269841,20.396825396825395,-23.88888888888889,20.396825396825395,-3.4126984126984126,0.07936507936507936,-325.0,-325.0,-325.0,-325.0,-325.0,-321.8253968253968
-27.22222222222222,1.0317460317460316,-44.52380952380952,0.23809523809523808,-24.206349206349206,0.873015873015873,-17.22222222222222,12.936507936507935,-7.063492063492063,12.142857142857142,-29.6031746031746,11.507936507936508,-28.333333333333332,10.714285714285714,-14.523809523809524,12.142857142857142,-3.4126984126984126,0.23809523809523808,-325.0,-325.0,-325.0,-325.0,-325.0,-7.5396825396825395
-27.22222222222222,1.0317460317460316,-44.52380952380952,0.23809523809523808,-24.206349206349206,0.873015873015873,-17.22222222222222,12.936507936507935,-7.063492063492063,12.142857142857142,-29.6031746031746,11.507936507936508,-28.333333333333332,10.714285714285714,-14.523809523809524,12.142857142857142,-3.4126984126984126,0.23809523809523808,-325.0,-325.0,-325.0,-325.0,-325.0,-7.5396825396825395
-28.809523809523807,15.95238095238095,-50.238095238095234,12.3015873015873,-38.01587301587301,3.888888888888889,-26.746031746031743,17.698412698412696,-17.38095238095238,23.095238095238095,-26.587301587301585,19.92063492063492,-31.19047619047619,12.3015873015873,-20.873015873015873,16.11111111111111,-3.253968253968254,-0.5555555555555556,-325.0,-325.0,-325.0,-325.0,-325.0,-7.5396825396825395
-28.809523809523807,15.95238095238095,-50.238095238095234,12.3015873015873,-38.01587301587301,3.888888888888889,-26.746031746031743,17.698412698412696,-17.38095238095238,23.095238095238095,-26.587301587301585,19.92063492063492,-31.19047619047619,12.3015873015873,-20.873015873015873,16.11111111111111,-3.253968253968254,-0.5555555555555556,-325.0,-325.0,-325.0,-325.0,-325.0,-7.5396825396825395
-14.047619047619047,7.063492063492063,-29.6031746031746,1.984126984126984,-21.19047619047619,-5.476190476190476,-18.96825396825397,-2.46031746031746,-14.84126984126984,3.253968253968254,-12.46031746031746,5.952380952380952,-12.777777777777777,5.0,-9.603174603174603,4.523809523809524,-3.253968253968254,-0.873015873015873,-325.0,-325.0,-325.0,-325.0,-325.0,-7.5396825396825395
-14.047619047619047,7.063492063492063,-29.6031746031746,1.984126984126984,-21.19047619047619,-5.476190476190476,-18.96825396825397,-2.46031746031746,-14.84126984126984,3.253968253968254,-12.46031746031746,5.952380952380952,-12.777777777777777,5.0,-9.603174603174603,4.523809523809524,-3.253968253968254,-0.873015873015873,-325.0,-325.0,-325.0,-325.0,-325.0,-7.5396825396825395
-10.079365079365079,16.428571428571427,-18.49206349206349,12.46031746031746,-14.206349206349206,8.492063492063492,-20.07936507936508,4.841269841269841,-17.063492063492063,5.634920634920634,-6.746031746031746,10.238095238095237,-14.365079365079364,7.3809523809523805,-17.857142857142858,7.063492063492063,-3.253968253968254,-0.07936507936507936,-325.0,-325.0,-325.0,-325.0,-325.0,-7.5396825396825395
-10.079365079365079,16.428571428571427,-18.49206349206349,12.46031746031746,-14.206349206349206,8.492063492063492,-20.07936507936508,4.841269841269841,-17.063492063492063,5.634920634920634,-6.746031746031746,10.238095238095237,-14.365079365079364,7.3809523809523805,-17.857142857142858,7.063492063492063,-3.253968253968254,-0.07936507936507936,-325.0,-325.0,-325.0,-325.0,-325.0,-7.5396825396825395
-4.523809523809524,23.41269841269841,-8.65079365079365,21.349206349206348,-9.920634920634921,20.71428571428571,-22.777777777777775,17.857142857142858,-18.49206349206349,12.619047619047619,-0.07936507936507936,17.063492063492063,-17.22222222222222,11.031746031746032,-24.365079365079364,11.825396825396824,-4.0476190476190474,0.07936507936507936,-325.0,-325.0,-325.0,-325.0,-325.0,-7.5396825396825395
-4.523809523809524,23.41269841269841,-8.65079365079365,21.349206349206348,-9.920634920634921,20.71428571428571,-22.777777777777775,17.857142857142858,-18.49206349206349,12.619047619047619,-0.07936507936507936,17.063492063492063,-17.22222222222222,11.031746031746032,-24.365079365079364,11.825396825396824,-4.0476190476190474,0.07936507936507936,-325.0,-325.0,-325.0,-325.0,-325.0,-7.5396825396825395
-8.015873015873016,14.365079365079364,-11.825396825396824,17.22222222222222,-11.031746031746032,19.6031746031746,-22.142857142857142,25.158730158730158,-12.936507936507935,17.063492063492063,-3.095238095238095,11.507936507936508,-23.41269841269841,12.936507936507935,-26.587301587301585,19.285714285714285,-3.571428571428571,0.3968253968253968,-325.0,-325.0,-325.0,-325.0,-325.0,-321.8253968253968
-8.015873015873016,14.365079365079364,-11.825396825396824,17.22222222222222,-11.031746031746032,19.6031746031746,-22.142857142857142,25.158730158730158,-12.936507936507935,17.063492063492063,-3.095238095238095,11.507936507936508,-23.41269841269841,12.936507936507935,-26.587301587301585,19.285714285714285,-3.571428571428571,0.3968253968253968,-325.0,-325.0,-325.0,-325.0,-325.0,-321.8253968253968
-16.904761904761905,15.634920634920634,-23.095238095238095,13.412698412698411,-29.126984126984127,11.666666666666666,-40.238095238095234,19.126984126984127,-23.57142857142857,18.333333333333332,-13.095238095238095,19.76190476190476,-28.333333333333332,19.92063492063492,-39.285714285714285,18.015873015873016,-2.619047619047619,0.23809523809523808,-325.0,-325.0,-325.0,-325.0,-325.0,-321.8253968253968
-16.904761904761905,15.634920634920634,-23.095238095238095,13.412698412698411,-29.126984126984127,11.666666666666666,-40.238095238095234,19.126984126984127,-23.57142857142857,18.333333333333332,-13.095238095238095,19.76190476190476,-28.333333333333332,19.92063492063492,-39.285714285714285,18.015873015873016,-2.619047619047619,0.23809523809523808,-325.0,-325.0,-325.0,-325.0,-325.0,-321.8253968253968
-24.523809523809522,8.968253968253968,-32.93650793650794,5.7936507936507935,-29.6031746031746,0.7142857142857142,-44.2063492063492,0.873015873015873,-30.87301587301587,1.0317460317460316,-20.07936507936508,17.22222222222222,-33.25396825396825,13.571428571428571,-42.3015873015873,5.7936507936507935,-2.9365079365079363,0.23809523809523808,-325.0,-325.0,-325.0,-325.0,-325.0,-321.8253968253968
-24.523809523809522,8.968253968253968,-32.93650793650794,5.7936507936507935,-29.6031746031746,0.7142857142857142,-44.2063492063492,0.873015873015873,-30.87301587301587,1.0317460317460316,-20.07936507936508,17.22222222222222,-33.25396825396825,13.571428571428571,-42.3015873015873,5.7936507936507935,-2.9365079365079363,0.23809523809523808,-325.0,-325.0,-325.0,-325.0,-325.0,-321.8253968253968
-19.6031746031746,11.349206349206348,-21.03174603174603,8.968253968253968,-17.698412698412696,7.3809523809523805,-36.74603174603175,4.841269841269841,-29.6031746031746,-6.26984126984127,-24.365079365079364,20.07936507936508,-36.42857142857142,19.126984126984127,-35.317460317460316,10.714285714285714,-2.7777777777777777,0.5555555555555556,-325.0,-325.0,-325.0,-325.0,-325.0,-321.8253968253968
-19.6031746031746,11.349206349206348,-21.03174603174603,8.968253968253968,-17.698412698412696,7.3809523809523805,-36.74603174603175,4.841269841269841,-29.6031746031746,-6.26984126984127,-24.365079365079364,20.07936507936508,-36.42857142857142,19.126984126984127,-35.317460317460316,10.714285714285714,-2.7777777777777777,0.5555555555555556,-325.0,-325.0,-325.0,-325.0,-325.0,-321.8253968253968
-4.0476190476190474,25.0,0.7142857142857142,20.238095238095237,3.095238095238095,19.92063492063492,-12.619047619047619,15.0,-10.714285714285714,-2.3015873015873014,-14.682539682539682,29.76190476190476,-34.36507936507936,26.587301587301585,-25.952380952380953,12.3015873015873,-2.9365079365079363,0.5555555555555556,-325.0,-325.0,-325.0,-325.0,-325.0,-321.8253968253968
-4.0476190476190474,25.0,0.7142857142857142,20.238095238095237,3.095238095238095,19.92063492063492,-12.619047619047619,15.0,-10.714285714285714,-2.3015873015873014,-14.682539682539682,29.76190476190476,-34.36507936507936,26.587301587301585,-25.952380952380953,12.3015873015873,-2.9365079365079363,0.5555555555555556,-325.0,-325.0,-325.0,-325.0,-325.0,-321.8253968253968
-1.349206349206349,35.317460317460316,17.063492063492063,39.12698412698413,17.38095238095238,42.61904761904761,15.95238095238095,35.15873015873016,7.222222222222221,16.746031746031743,-5.634920634920634,35.476190476190474,-29.76190476190476,18.96825396825397,10.555555555555555,25.0,-3.888888888888889,0.3968253968253968,-325.0,-325.0,-325.0,-325.0,-325.0,-7.5396825396825395
-1.349206349206349,35.317460317460316,17.063492063492063,39.12698412698413,17.38095238095238,42.61904761904761,15.95238095238095,35.15873015873016,7.222222222222221,16.746031746031743,-5.634920634920634,35.476190476190474,-29.76190476190476,18.96825396825397,10.555555555555555,25.0,-3.888888888888889,0.3968253968253968,-325.0,-325.0,-325.0,-325.0,-325.0,-7.5396825396825395
-1.0317460317460316,23.730158730158728,11.825396825396824,36.42857142857142,9.761904761904761,32.3015873015873,15.317460317460316,28.015873015873016,11.666666666666666,16.11111111111111,-8.174603174603174,19.444444444444443,-24.206349206349206,3.253968253968254,9.126984126984127,19.126984126984127,-4.0476190476190474,0.07936507936507936,-325.0,-325.0,-325.0,-325.0,-325.0,-7.5396825396825395
-1.0317460317460316,23.730158730158728,11.825396825396824,36.42857142857142,9.761904761904761,32.3015873015873,15.317460317460316,28.015873015873016,11.666666666666666,16.11111111111111,-8.174603174603174,19.444444444444443,-24.206349206349206,3.253968253968254,9.126984126984127,19.126984126984127,-4.0476190476190474,0.07936507936507936,-325.0,-325.0,-325.0,-325.0,-325.0,-7.5396825396825395
-1.0317460317460316,14.206349206349206,8.809523809523808,21.19047619047619,2.619047619047619,12.777777777777777,7.857142857142857,8.968253968253968,1.349206349206349,11.349206349206348,-8.174603174603174,8.968253968253968,-22.936507936507937,-6.904761904761904,5.952380952380952,10.396825396825395,-3.571428571428571,0.873015873015873,-325.0,-325.0,-325.0,-325.0,-325.0,-7.5396825396825395
-1.0317460317460316,14.206349206349206,8.809523809523808,21.19047619047619,2.619047619047619,12.777777777777777,7.857142857142857,8.968253968253968,1.349206349206349,11.349206349206348,-8.174603174603174,8.968253968253968,-22.936507936507937,-6.904761904761904,5.952380952380952,10.396825396825395,-3.571428571428571,0.873015873015873,-325.0,-325.0,-325.0,-325.0,-325.0,-7.5396825396825395
-14.206349206349206,1.0317460317460316,-11.507936507936508,5.317460317460317,-13.73015873015873,-0.5555555555555556,-7.222222222222221,3.73015873015873,-11.349206349206348,12.777777777777777,-13.888888888888888,3.253968253968254,-26.26984126984127,-4.841269841269841,-0.23809523809523808,10.873015873015872,-3.888888888888889,1.1904761904761905,-325.0,-325.0,-325.0,-325.0,-325.0,-7.5396825396825395
-14.206349206349206,1.0317460317460316,-11.507936507936508,5.317460317460317,-13.73015873015873,-0.5555555555555556,-7.222222222222221,3.73015873015873,-11.349206349206348,12.777777777777777,-13.888888888888888,3.253968253968254,-26.26984126984127,-4.841269841269841,-0.23809523809523808,10.873015873015872,-3.888888888888889,1.1904761904761905,-325.0,-325.0,-325.0,-325.0,-325.0,-7.5396825396825395
-17.38095238095238,-6.111111111111111,-9.920634920634921,7.5396825396825395,-9.444444444444445,7.222222222222221,-4.0476190476190474,11.984126984126984,-5.952380952380952,21.03174603174603,-13.412698412698411,7.3809523809523805,-23.88888888888889,3.253968253968254,-2.619047619047619,14.84126984126984,-3.73015873015873,1.349206349206349,-325.0,-325.0,-325.0,-325.0,-325.0,-7.5396825396825395
-17.38095238095238,-6.111111111111111,-9.920634920634921,7.5396825396825395,-9.444444444444445,7.222222222222221,-4.0476190476190474,11.984126984126984,-5.952380952380952,21.03174603174603,-13.412698412698411,7.3809523809523805,-23.88888888888889,3.253968253968254,-2.619047619047619,14.84126984126984,-3.73015873015873,1.349206349206349,-325.0,-325.0,-325.0,-325.0,-325.0,-7.5396825396825395
-20.555555555555554,-14.84126984126984,-11.031746031746032,1.6666666666666665,-5.952380952380952,10.079365079365079,-4.0476190476190474,10.714285714285714,-7.063492063492063,7.698412698412698,-14.84126984126984,3.095238095238095,-33.41269841269841,1.984126984126984,-9.761904761904761,9.603174603174603,-3.73015873015873,0.7142857142857142,-325.0,-325.0,-325.0,-325.0,-325.0,-321.8253968253968
-20.555555555555554,-14.84126984126984,-11.031746031746032,1.6666666666666665,-5.952380952380952,10.079365079365079,-4.0476190476190474,10.714285714285714,-7.063492063492063,7.698412698412698,-14.84126984126984,3.095238095238095,-33.41269841269841,1.984126984126984,-9.761904761904761,9.603174603174603,-3.73015873015873,0.7142857142857142,-325.0,-325.0,-325.0,-325.0,-325.0,-321.8253968253968
-13.888888888888888,-8.492063492063492,-6.904761904761904,12.777777777777777,-1.6666666666666665,21.03174603174603,-9.603174603174603,16.904761904761905,-10.238095238095237,10.079365079365079,-9.920634920634921,11.666666666666666,-32.93650793650794,8.174603174603174,-4.523809523809524,9.126984126984127,-3.4126984126984126,0.873015873015873,-325.0,-325.0,-325.0,-325.0,-325.0,-321.8253968253968
-13.888888888888888,-8.492063492063492,-6.904761904761904,12.777777777777777,-1.6666666666666665,21.03174603174603,-9.603174603174603,16.904761904761905,-10.238095238095237,10.079365079365079,-9.920634920634921,11.666666666666666,-32.93650793650794,8.174603174603174,-4.523809523809524,9.126984126984127,-3.4126984126984126,0.873015873015873,-325.0,-325.0,-325.0,-325.0,-325.0,-321.8253968253968
-8.968253968253968,-6.26984126984127,-9.126984126984127,14.84126984126984,-8.809523809523808,13.73015873015873,-23.41269841269841,9.126984126984127,-18.96825396825397,-0.5555555555555556,-8.968253968253968,6.587301587301587,-29.126984126984127,8.333333333333332,-12.619047619047619,3.888888888888889,-3.888888888888889,0.873015873015873,-325.0,-325.0,-325.0,-325.0,-325.0,-321.8253968253968
-8.968253968253968,-6.26984126984127,-9.126984126984127,14.84126984126984,-8.809523809523808,13.73015873015873,-23.41269841269841,9.126984126984127,-18.96825396825397,-0.5555555555555556,-8.968253968253968,6.587301587301587,-29.126984126984127,8.333333333333332,-12.619047619047619,3.888888888888889,-3.888888888888889,0.873015873015873,-325.0,-325.0,-325.0,-325.0,-325.0,-321.8253968253968
-17.698412698412696,-4.2063492063492065,-30.71428571428571,1.6666666666666665,-29.6031746031746,0.3968253968253968,-28.333333333333332,1.1904761904761905,-20.396825396825395,-1.984126984126984,-16.11111111111111,1.8253968253968254,-26.587301587301585,3.253968253968254,-15.0,5.952380952380952,-3.73015873015873,0.7142857142857142,-325.0,-325.0,-325.0,-325.0,-325.0,-321.8253968253968
-17.698412698412696,-4.2063492063492065,-30.71428571428571,1.6666666666666665,-29.6031746031746,0.3968253968253968,-28.333333333333332,1.1904761904761905,-20.396825396825395,-1.984126984126984,-16.11111111111111,1.8253968253968254,-26.587301587301585,3.253968253968254,-15.0,5.952380952380952,-3.73015873015873,0.7142857142857142,-325.0,-325.0,-325.0,-325.0,-325.0,-321.8253968253968
-18.015873015873016,-2.46031746031746,-41.19047619047619,0.873015873015873,-38.65079365079365,-0.5555555555555556,-32.61904761904762,0.5555555555555556,-15.634920634920634,0.3968253968253968,-22.3015873015873,6.111111111111111,-15.158730158730158,6.587301587301587,-22.777777777777775,4.523809523809524,-3.73015873015873,0.23809523809523808,-325.0,-325.0,-325.0,-325.0,-325.0,-321.8253968253968
-18.015873015873016,-2.46031746031746,-41.19047619047619,0.873015873015873,-38.65079365079365,-0.5555555555555556,-32.61904761904762,0.5555555555555556,-15.634920634920634,0.3968253968253968,-22.3015873015873,6.111111111111111,-15.158730158730158,6.587301587301587,-22.777777777777775,4.523809523809524,-3.73015873015873,0.23809523809523808,-325.0,-325.0,-325.0,-325.0,-325.0,-321.8253968253968
-29.285714285714285,-4.682539682539682,-42.61904761904761,2.46031746031746,-39.92063492063492,7.063492063492063,-33.25396825396825,10.555555555555555,-17.22222222222222,9.603174603174603,-25.952380952380953,5.0,-13.253968253968253,8.015873015873016,-28.809523809523807,10.714285714285714,-4.682539682539682,0.5555555555555556,-325.0,-325.0,-325.0,-325.0,-325.0,-7.5396825396825395
-29.285714285714285,-4.682539682539682,-42.61904761904761,2.46031746031746,-39.92063492063492,7.063492063492063,-33.25396825396825,10.555555555555555,-17.22222222222222,9.603174603174603,-25.952380952380953,5.0,-13.253968253968253,8.015873015873016,-28.809523809523807,10.714285714285714,-4.682539682539682,0.5555555555555556,-325.0,-325.0,-325.0,-325.0,-325.0,-7.5396825396825395
-26.9047619047619,6.428571428571428,-38.17460317460317,-4.2063492063492065,-28.015873015873016,1.0317460317460316,-25.952380952380953,5.0,-24.047619047619047,2.142857142857143,-22.142857142857142,6.428571428571428,-9.285714285714285,5.158730158730158,-17.857142857142858,5.7936507936507935,-4.841269841269841,0.873015873015873,-325.0,-325.0,-325.0,-325.0,-325.0,-7.5396825396825395
-26.9047619047619,6.428571428571428,-38.17460317460317,-4.2063492063492065,-28.015873015873016,1.0317460317460316,-25.952380952380953,5.0,-24.047619047619047,2.142857142857143,-22.142857142857142,6.428571428571428,-9.285714285714285,5.158730158730158,-17.857142857142858,5.7936507936507935,-4.841269841269841,0.873015873015873,-325.0,-325.0,-325.0,-325.0,-325.0,-7.5396825396825395
-10.238095238095237,1.507936507936508,-21.03174603174603,1.349206349206349,-15.0,-6.26984126984127,-23.41269841269841,-2.3015873015873014,-16.11111111111111,-0.873015873015873,-16.11111111111111,7.222222222222221,-8.015873015873016,6.428571428571428,-27.698412698412696,3.4126984126984126,-4.2063492063492065,0.873015873015873,-325.0,-325.0,-325.0,-325.0,-325.0,-7.5396825396825395
-10.238095238095237,1.507936507936508,-21.03174603174603,1.349206349206349,-15.0,-6.26984126984127,-23.41269841269841,-2.3015873015873014,-16.11111111111111,-0.873015873015873,-16.11111111111111,7.222222222222221,-8.015873015873016,6.428571428571428,-27.698412698412696,3.4126984126984126,-4.2063492063492065,0.873015873015873,-325.0,-325.0,-325.0,-325.0,-325.0,-7.5396825396825395
