Fp1[1],Fp2[2],F3[3],F4[4],C3[5],C4[6],P3[7],P4[8],O1[9],O2[10],F7[11],F8[12],T3[13],T4[14],T5[15],T6[16],Fz[17],Pz[18],Cz[19],Pg1[20],Pg2[21],EOGR[22],EOOGL[23],EMG[24]
-0.3968253968253968,-27.38095238095238,-0.23809523809523808,-18.96825396825397,-18.174603174603174,-3.73015873015873,-7.857142857142857,-9.761904761904761,10.873015873015872,-2.9365079365079363,3.095238095238095,-22.936507936507937,-26.746031746031743,-11.031746031746032,-5.158730158730158,8.492063492063492,-3.095238095238095,0.23809523809523808,-325.0,-325.0,-325.0,-325.0,-325.0,-7.5396825396825395
-0.3968253968253968,-27.38095238095238,-0.23809523809523808,-18.96825396825397,-18.174603174603174,-3.73015873015873,-7.857142857142857,-9.761904761904761,10.873015873015872,-2.9365079365079363,3.095238095238095,-22.936507936507937,-26.746031746031743,-11.031746031746032,-5.158730158730158,8.492063492063492,-3.095238095238095,0.23809523809523808,-325.0,-325.0,-325.0,-325.0,-325.0,-7.5396825396825395
6.587301587301587,-44.68253968253968,-7.5396825396825395,-25.0,-26.11111111111111,-15.476190476190474,-13.73015873015873,-25.79365079365079,-1.0317460317460316,-22.46031746031746,-5.7936507936507935,-68.65079365079364,-19.285714285714285,-25.952380952380953,-8.174603174603174,-9.126984126984127,-3.4126984126984126,0.7142857142857142,-325.0,-325.0,-325.0,-325.0,-325.0,-7.5396825396825395
6.587301587301587,-44.68253968253968,-7.5396825396825395,-25.0,-26.11111111111111,-15.476190476190474,-13.73015873015873,-25.79365079365079,-1.0317460317460316,-22.46031746031746,-5.7936507936507935,-68.65079365079364,-19.285714285714285,-25.952380952380953,-8.174603174603174,-9.126984126984127,-3.4126984126984126,0.7142857142857142,-325.0,-325.0,-325.0,-325.0,-325.0,-7.5396825396825395
16.746031746031743,-48.17460317460317,-7.222222222222221,-9.603174603174603,-23.88888888888889,-7.3809523809523805,-13.888888888888888,-10.714285714285714,-13.888888888888888,-8.968253968253968,-3.4126984126984126,-69.12698412698413,-6.746031746031746,-19.126984126984127,-4.2063492063492065,-4.523809523809524,-3.253968253968254,0.23809523809523808,-325.0,-325.0,-325.0,-325.0,-325.0,-7.5396825396825395
16.746031746031743,-48.17460317460317,-7.222222222222221,-9.603174603174603,-23.88888888888889,-7.3809523809523805,-13.888888888888888,-10.714285714285714,-13.888888888888888,-8.968253968253968,-3.4126984126984126,-69.12698412698413,-6.746031746031746,-19.126984126984127,-4.2063492063492065,-4.523809523809524,-3.253968253968254,0.23809523809523808,-325.0,-325.0,-325.0,-325.0,-325.0,-7.5396825396825395
29.126984126984127,-42.14285714285714,-6.428571428571428,0.23809523809523808,-16.587301587301585,1.8253968253968254,-15.634920634920634,-11.984126984126984,-26.11111111111111,-11.349206349206348,1.6666666666666665,-64.52380952380952,3.095238095238095,-14.206349206349206,-15.476190476190474,-8.333333333333332,-3.73015873015873,0.5555555555555556,-325.0,-325.0,-325.0,-325.0,-325.0,-7.5396825396825395
29.126984126984127,-42.14285714285714,-6.428571428571428,0.23809523809523808,-16.587301587301585,1.8253968253968254,-15.634920634920634,-11.984126984126984,-26.11111111111111,-11.349206349206348,1.6666666666666665,-64.52380952380952,3.095238095238095,-14.206349206349206,-15.476190476190474,-8.333333333333332,-3.73015873015873,0.5555555555555556,-325.0,-325.0,-325.0,-325.0,-325.0,-7.5396825396825395
36.74603174603175,-48.650793650793645,-4.682539682539682,-12.777777777777777,-10.714285714285714,0.07936507936507936,-14.682539682539682,-7.063492063492063,-18.015873015873016,-11.19047619047619,7.222222222222221,-69.76190476190476,15.476190476190474,-7.698412698412698,-6.587301587301587,0.07936507936507936,-4.0476190476190474,0.23809523809523808,-325.0,-325.0,-325.0,-325.0,-325.0,-7.5396825396825395
36.74603174603175,-48.650793650793645,-4.682539682539682,-12.777777777777777,-10.714285714285714,0.07936507936507936,-14.682539682539682,-7.063492063492063,-18.015873015873016,-11.19047619047619,7.222222222222221,-69.76190476190476,15.476190476190474,-7.698412698412698,-6.587301587301587,0.07936507936507936,-4.0476190476190474,0.23809523809523808,-325.0,-325.0,-325.0,-325.0,-325.0,-7.5396825396825395
28.49206349206349,-58.01587301587301,-26.428571428571427,-21.825396825396822,-12.777777777777777,-12.936507936507935,-10.079365079365079,-12.142857142857142,-1.349206349206349,-7.222222222222221,3.4126984126984126,-78.01587301587301,13.888888888888888,-11.349206349206348,-5.317460317460317,0.5555555555555556,-2.9365079365079363,0.3968253968253968,-325.0,-325.0,-325.0,-325.0,-325.0,-321.8253968253968
28.49206349206349,-58.01587301587301,-26.428571428571427,-21.825396825396822,-12.777777777777777,-12.936507936507935,-10.079365079365079,-12.142857142857142,-1.349206349206349,-7.222222222222221,3.4126984126984126,-78.01587301587301,13.888888888888888,-11.349206349206348,-5.317460317460317,0.5555555555555556,-2.9365079365079363,0.3968253968253968,-325.0,-325.0,-325.0,-325.0,-325.0,-321.8253968253968
30.238095238095237,-57.22222222222222,-31.349206349206348,-28.809523809523807,-12.777777777777777,-17.063492063492063,-5.634920634920634,-11.349206349206348,5.7936507936507935,-6.428571428571428,-1.1904761904761905,-77.53968253968253,-0.07936507936507936,-12.936507936507935,-1.984126984126984,1.1904761904761905,-2.9365079365079363,0.5555555555555556,-325.0,-325.0,-325.0,-325.0,-325.0,-321.8253968253968
30.238095238095237,-57.22222222222222,-31.349206349206348,-28.809523809523807,-12.777777777777777,-17.063492063492063,-5.634920634920634,-11.349206349206348,5.7936507936507935,-6.428571428571428,-1.1904761904761905,-77.53968253968253,-0.07936507936507936,-12.936507936507935,-1.984126984126984,1.1904761904761905,-2.9365079365079363,0.5555555555555556,-325.0,-325.0,-325.0,-325.0,-325.0,-321.8253968253968
25.158730158730158,-45.0,-27.698412698412696,-15.476190476190474,-5.476190476190476,-6.587301587301587,-1.6666666666666665,-5.7936507936507935,2.619047619047619,-10.714285714285714,-0.3968253968253968,-62.93650793650793,0.23809523809523808,-7.222222222222221,6.587301587301587,1.507936507936508,-3.4126984126984126,0.07936507936507936,-325.0,-325.0,-325.0,-325.0,-325.0,-321.8253968253968
25.158730158730158,-45.0,-27.698412698412696,-15.476190476190474,-5.476190476190476,-6.587301587301587,-1.6666666666666665,-5.7936507936507935,2.619047619047619,-10.714285714285714,-0.3968253968253968,-62.93650793650793,0.23809523809523808,-7.222222222222221,6.587301587301587,1.507936507936508,-3.4126984126984126,0.07936507936507936,-325.0,-325.0,-325.0,-325.0,-325.0,-321.8253968253968
17.539682539682538,-40.238095238095234,-10.396825396825395,-3.095238095238095,4.365079365079365,9.444444444444445,3.888888888888889,6.111111111111111,8.65079365079365,1.984126984126984,-4.2063492063492065,-56.42857142857142,3.73015873015873,-7.222222222222221,3.4126984126984126,10.873015873015872,-3.888888888888889,0.3968253968253968,-325.0,-325.0,-325.0,-325.0,-325.0,-321.8253968253968
17.539682539682538,-40.238095238095234,-10.396825396825395,-3.095238095238095,4.365079365079365,9.444444444444445,3.888888888888889,6.111111111111111,8.65079365079365,1.984126984126984,-4.2063492063492065,-56.42857142857142,3.73015873015873,-7.222222222222221,3.4126984126984126,10.873015873015872,-3.888888888888889,0.3968253968253968,-325.0,-325.0,-325.0,-325.0,-325.0,-321.8253968253968
28.174603174603174,-23.88888888888889,13.095238095238095,9.444444444444445,18.174603174603174,14.365079365079364,10.555555555555555,7.063492063492063,9.126984126984127,5.0,8.492063492063492,-47.38095238095238,15.476190476190474,-6.428571428571428,17.539682539682538,14.047619047619047,-3.095238095238095,-0.07936507936507936,-325.0,-325.0,-325.0,-325.0,-325.0,-321.8253968253968
28.174603174603174,-23.88888888888889,13.095238095238095,9.444444444444445,18.174603174603174,14.365079365079364,10.555555555555555,7.063492063492063,9.126984126984127,5.0,8.492063492063492,-47.38095238095238,15.476190476190474,-6.428571428571428,17.539682539682538,14.047619047619047,-3.095238095238095,-0.07936507936507936,-325.0,-325.0,-325.0,-325.0,-325.0,-321.8253968253968
16.746031746031743,-12.3015873015873,7.5396825396825395,5.7936507936507935,26.428571428571427,7.222222222222221,9.603174603174603,2.7777777777777777,1.8253968253968254,5.0,-2.142857142857143,-44.84126984126984,4.523809523809524,-12.936507936507935,5.317460317460317,14.365079365079364,-3.095238095238095,0.23809523809523808,-325.0,-325.0,-325.0,-325.0,-325.0,-7.5396825396825395
16.746031746031743,-12.3015873015873,7.5396825396825395,5.7936507936507935,26.428571428571427,7.222222222222221,9.603174603174603,2.7777777777777777,1.8253968253968254,5.0,-2.142857142857143,-44.84126984126984,4.523809523809524,-12.936507936507935,5.317460317460317,14.365079365079364,-3.095238095238095,0.23809523809523808,-325.0,-325.0,-325.0,-325.0,-325.0,-7.5396825396825395
34.52380952380952,-8.015873015873016,16.11111111111111,-4.0476190476190474,32.93650793650794,-9.444444444444445,11.507936507936508,-9.761904761904761,5.476190476190476,-1.984126984126984,10.079365079365079,-36.269841269841265,-0.5555555555555556,-15.476190476190474,8.333333333333332,7.063492063492063,-2.46031746031746,0.3968253968253968,-325.0,-325.0,-325.0,-325.0,-325.0,-7.5396825396825395
34.52380952380952,-8.015873015873016,16.11111111111111,-4.0476190476190474,32.93650793650794,-9.444444444444445,11.507936507936508,-9.761904761904761,5.476190476190476,-1.984126984126984,10.079365079365079,-36.269841269841265,-0.5555555555555556,-15.476190476190474,8.333333333333332,7.063492063492063,-2.46031746031746,0.3968253968253968,-325.0,-325.0,-325.0,-325.0,-325.0,-7.5396825396825395
37.38095238095238,7.222222222222221,3.888888888888889,-6.428571428571428,16.904761904761905,-14.365079365079364,1.349206349206349,-12.777777777777777,8.968253968253968,-3.571428571428571,7.698412698412698,-21.666666666666664,-10.079365079365079,-6.904761904761904,0.7142857142857142,6.26984126984127,-2.7777777777777777,0.7142857142857142,-325.0,-325.0,-325.0,-325.0,-325.0,-7.5396825396825395
37.38095238095238,7.222222222222221,3.888888888888889,-6.428571428571428,16.904761904761905,-14.365079365079364,1.349206349206349,-12.777777777777777,8.968253968253968,-3.571428571428571,7.698412698412698,-21.666666666666664,-10.079365079365079,-6.904761904761904,0.7142857142857142,6.26984126984127,-2.7777777777777777,0.7142857142857142,-325.0,-325.0,-325.0,-325.0,-325.0,-7.5396825396825395
4.682539682539682,0.23809523809523808,-20.396825396825395,-7.5396825396825395,-13.888888888888888,-16.26984126984127,-14.523809523809524,-18.015873015873016,-7.222222222222221,-7.222222222222221,-15.0,-11.984126984126984,-27.857142857142854,0.5555555555555556,-15.0,3.888888888888889,-2.7777777777777777,-0.3968253968253968,-325.0,-325.0,-325.0,-325.0,-325.0,-7.5396825396825395
4.682539682539682,0.23809523809523808,-20.396825396825395,-7.5396825396825395,-13.888888888888888,-16.26984126984127,-14.523809523809524,-18.015873015873016,-7.222222222222221,-7.222222222222221,-15.0,-11.984126984126984,-27.857142857142854,0.5555555555555556,-15.0,3.888888888888889,-2.7777777777777777,-0.3968253968253968,-325.0,-325.0,-325.0,-325.0,-325.0,-7.5396825396825395
-11.349206349206348,-0.3968253968253968,-28.174603174603174,-7.063492063492063,-20.07936507936508,-4.841269841269841,-5.0,-6.746031746031746,-12.142857142857142,-5.0,-25.634920634920633,-4.523809523809524,-22.619047619047617,0.7142857142857142,-4.2063492063492065,8.968253968253968,-3.571428571428571,0.23809523809523808,-325.0,-325.0,-325.0,-325.0,-325.0,-7.5396825396825395
-11.349206349206348,-0.3968253968253968,-28.174603174603174,-7.063492063492063,-20.07936507936508,-4.841269841269841,-5.0,-6.746031746031746,-12.142857142857142,-5.0,-25.634920634920633,-4.523809523809524,-22.619047619047617,0.7142857142857142,-4.2063492063492065,8.968253968253968,-3.571428571428571,0.23809523809523808,-325.0,-325.0,-325.0,-325.0,-325.0,-7.5396825396825395
-40.238095238095234,-17.22222222222222,-39.44444444444444,-17.539682539682538,-30.71428571428571,-5.952380952380952,-14.682539682539682,1.0317460317460316,-13.412698412698411,8.333333333333332,-40.55555555555555,-17.38095238095238,-19.444444444444443,-11.507936507936508,-14.682539682539682,14.365079365079364,-3.253968253968254,0.3968253968253968,-325.0,-325.0,-325.0,-325.0,-325.0,-321.8253968253968
-40.238095238095234,-17.22222222222222,-39.44444444444444,-17.539682539682538,-30.71428571428571,-5.952380952380952,-14.682539682539682,1.0317460317460316,-13.412698412698411,8.333333333333332,-40.55555555555555,-17.38095238095238,-19.444444444444443,-11.507936507936508,-14.682539682539682,14.365079365079364,-3.253968253968254,0.3968253968253968,-325.0,-325.0,-325.0,-325.0,-325.0,-321.8253968253968
-28.65079365079365,-7.5396825396825395,-23.253968253968253,-17.698412698412696,-20.71428571428571,-8.333333333333332,-14.682539682539682,-1.8253968253968254,-11.031746031746032,5.7936507936507935,-18.96825396825397,-15.317460317460316,8.809523809523808,-15.317460317460316,4.523809523809524,9.285714285714285,-3.095238095238095,0.07936507936507936,-325.0,-325.0,-325.0,-325.0,-325.0,-321.8253968253968
-28.65079365079365,-7.5396825396825395,-23.253968253968253,-17.698412698412696,-20.71428571428571,-8.333333333333332,-14.682539682539682,-1.8253968253968254,-11.031746031746032,5.7936507936507935,-18.96825396825397,-15.317460317460316,8.809523809523808,-15.317460317460316,4.523809523809524,9.285714285714285,-3.095238095238095,0.07936507936507936,-325.0,-325.0,-325.0,-325.0,-325.0,-321.8253968253968
-8.492063492063492,12.777777777777777,-3.253968253968254,-4.2063492063492065,-4.841269841269841,0.3968253968253968,-14.365079365079364,1.8253968253968254,-10.714285714285714,5.952380952380952,-4.523809523809524,-8.174603174603174,15.0,-15.634920634920634,-1.8253968253968254,9.126984126984127,-3.095238095238095,0.23809523809523808,-325.0,-325.0,-325.0,-325.0,-325.0,-321.8253968253968
-8.492063492063492,12.777777777777777,-3.253968253968254,-4.2063492063492065,-4.841269841269841,0.3968253968253968,-14.365079365079364,1.8253968253968254,-10.714285714285714,5.952380952380952,-4.523809523809524,-8.174603174603174,15.0,-15.634920634920634,-1.8253968253968254,9.126984126984127,-3.095238095238095,0.23809523809523808,-325.0,-325.0,-325.0,-325.0,-325.0,-321.8253968253968
-12.936507936507935,11.507936507936508,2.46031746031746,-9.444444444444445,1.507936507936508,-11.666666666666666,-8.65079365079365,-7.698412698412698,-6.587301587301587,2.46031746031746,1.0317460317460316,-0.873015873015873,21.19047619047619,-11.507936507936508,3.253968253968254,6.428571428571428,-2.9365079365079363,0.07936507936507936,-325.0,-325.0,-325.0,-325.0,-325.0,-321.8253968253968
-12.936507936507935,11.507936507936508,2.46031746031746,-9.444444444444445,1.507936507936508,-11.666666666666666,-8.65079365079365,-7.698412698412698,-6.587301587301587,2.46031746031746,1.0317460317460316,-0.873015873015873,21.19047619047619,-11.507936507936508,3.253968253968254,6.428571428571428,-2.9365079365079363,0.07936507936507936,-325.0,-325.0,-325.0,-325.0,-325.0,-321.8253968253968
-15.476190476190474,15.634920634920634,-9.285714285714285,-14.365079365079364,1.0317460317460316,-16.904761904761905,-3.888888888888889,-9.761904761904761,-7.222222222222221,2.142857142857143,-4.841269841269841,5.476190476190476,14.365079365079364,-8.333333333333332,7.698412698412698,6.587301587301587,-3.4126984126984126,0.07936507936507936,-325.0,-325.0,-325.0,-325.0,-325.0,-321.8253968253968
-15.476190476190474,15.634920634920634,-9.285714285714285,-14.365079365079364,1.0317460317460316,-16.904761904761905,-3.888888888888889,-9.761904761904761,-7.222222222222221,2.142857142857143,-4.841269841269841,5.476190476190476,14.365079365079364,-8.333333333333332,7.698412698412698,6.587301587301587,-3.4126984126984126,0.07936507936507936,-325.0,-325.0,-325.0,-325.0,-325.0,-321.8253968253968
-8.65079365079365,18.333333333333332,1.984126984126984,-14.206349206349206,17.063492063492063,-14.206349206349206,21.19047619047619,-6.111111111111111,16.746031746031743,3.4126984126984126,3.888888888888889,9.761904761904761,10.873015873015872,-6.26984126984127,9.126984126984127,4.841269841269841,-3.571428571428571,0.07936507936507936,-325.0,-325.0,-325.0,-325.0,-325.0,-7.5396825396825395
-8.65079365079365,18.333333333333332,1.984126984126984,-14.206349206349206,17.063492063492063,-14.206349206349206,21.19047619047619,-6.111111111111111,16.746031746031743,3.4126984126984126,3.888888888888889,9.761904761904761,10.873015873015872,-6.26984126984127,9.126984126984127,4.841269841269841,-3.571428571428571,0.07936507936507936,-325.0,-325.0,-325.0,-325.0,-325.0,-7.5396825396825395
4.365079365079365,28.333333333333332,23.41269841269841,-1.6666666666666665,30.238095238095237,-1.8253968253968254,37.698412698412696,3.888888888888889,28.96825396825397,6.587301587301587,12.619047619047619,21.825396825396822,13.412698412698411,1.6666666666666665,25.79365079365079,9.444444444444445,-3.73015873015873,0.07936507936507936,-325.0,-325.0,-325.0,-325.0,-325.0,-7.5396825396825395
4.365079365079365,28.333333333333332,23.41269841269841,-1.6666666666666665,30.238095238095237,-1.8253968253968254,37.698412698412696,3.888888888888889,28.96825396825397,6.587301587301587,12.619047619047619,21.825396825396822,13.412698412698411,1.6666666666666665,25.79365079365079,9.444444444444445,-3.73015873015873,0.07936507936507936,-325.0,-325.0,-325.0,-325.0,-325.0,-7.5396825396825395
2.619047619047619,19.126984126984127,19.285714285714285,-3.095238095238095,18.174603174603174,-1.1904761904761905,20.873015873015873,-2.619047619047619,19.126984126984127,-0.7142857142857142,9.920634920634921,11.349206349206348,8.174603174603174,-5.158730158730158,10.396825396825395,5.317460317460317,-3.4126984126984126,0.23809523809523808,-325.0,-325.0,-325.0,-325.0,-325.0,-7.5396825396825395
2.619047619047619,19.126984126984127,19.285714285714285,-3.095238095238095,18.174603174603174,-1.1904761904761905,20.873015873015873,-2.619047619047619,19.126984126984127,-0.7142857142857142,9.920634920634921,11.349206349206348,8.174603174603174,-5.158730158730158,10.396825396825395,5.317460317460317,-3.4126984126984126,0.23809523809523808,-325.0,-325.0,-325.0,-325.0,-325.0,-7.5396825396825395
3.73015873015873,14.682539682539682,20.71428571428571,-5.0,18.015873015873016,1.349206349206349,5.158730158730158,-3.571428571428571,8.65079365079365,-7.857142857142857,13.571428571428571,8.809523809523808,15.158730158730158,-0.5555555555555556,15.476190476190474,6.111111111111111,-4.2063492063492065,0.07936507936507936,-325.0,-325.0,-325.0,-325.0,-325.0,-7.5396825396825395
3.73015873015873,14.682539682539682,20.71428571428571,-5.0,18.015873015873016,1.349206349206349,5.158730158730158,-3.571428571428571,8.65079365079365,-7.857142857142857,13.571428571428571,8.809523809523808,15.158730158730158,-0.5555555555555556,15.476190476190474,6.111111111111111,-4.2063492063492065,0.07936507936507936,-325.0,-325.0,-325.0,-325.0,-325.0,-7.5396825396825395
-8.015873015873016,4.365079365079365,12.619047619047619,-9.920634920634921,9.603174603174603,2.46031746031746,9.285714285714285,3.571428571428571,14.365079365079364,0.873015873015873,3.888888888888889,-3.4126984126984126,9.444444444444445,-9.285714285714285,16.587301587301585,10.555555555555555,-3.571428571428571,0.07936507936507936,-325.0,-325.0,-325.0,-325.0,-325.0,-7.5396825396825395
-8.015873015873016,4.365079365079365,12.619047619047619,-9.920634920634921,9.603174603174603,2.46031746031746,9.285714285714285,3.571428571428571,14.365079365079364,0.873015873015873,3.888888888888889,-3.4126984126984126,9.444444444444445,-9.285714285714285,16.587301587301585,10.555555555555555,-3.571428571428571,0.07936507936507936,-325.0,-325.0,-325.0,-325.0,-325.0,-7.5396825396825395
-14.682539682539682,14.523809523809524,9.761904761904761,-2.142857142857143,-1.349206349206349,5.0,11.19047619047619,8.65079365079365,11.349206349206348,10.079365079365079,0.07936507936507936,3.571428571428571,10.079365079365079,-8.492063492063492,5.0,12.142857142857142,-3.888888888888889,0.3968253968253968,-325.0,-325.0,-325.0,-325.0,-325.0,-321.8253968253968
-14.682539682539682,14.523809523809524,9.761904761904761,-2.142857142857143,-1.349206349206349,5.0,11.19047619047619,8.65079365079365,11.349206349206348,10.079365079365079,0.07936507936507936,3.571428571428571,10.079365079365079,-8.492063492063492,5.0,12.142857142857142,-3.888888888888889,0.3968253968253968,-325.0,-325.0,-325.0,-325.0,-325.0,-321.8253968253968
-14.84126984126984,14.682539682539682,2.619047619047619,-6.904761904761904,4.2063492063492065,4.0476190476190474,2.9365079365079363,8.333333333333332,11.666666666666666,10.714285714285714,3.095238095238095,10.396825396825395,8.015873015873016,-2.46031746031746,4.682539682539682,11.349206349206348,-3.571428571428571,0.23809523809523808,-325.0,-325.0,-325.0,-325.0,-325.0,-321.8253968253968
-14.84126984126984,14.682539682539682,2.619047619047619,-6.904761904761904,4.2063492063492065,4.0476190476190474,2.9365079365079363,8.333333333333332,11.666666666666666,10.714285714285714,3.095238095238095,10.396825396825395,8.015873015873016,-2.46031746031746,4.682539682539682,11.349206349206348,-3.571428571428571,0.23809523809523808,-325.0,-325.0,-325.0,-325.0,-325.0,-321.8253968253968
-9.920634920634921,19.444444444444443,-8.968253968253968,-8.333333333333332,5.317460317460317,-1.6666666666666665,-7.3809523809523805,2.9365079365079363,6.26984126984127,2.142857142857143,-3.73015873015873,21.03174603174603,-5.634920634920634,7.857142857142857,-0.5555555555555556,4.365079365079365,-3.4126984126984126,0.23809523809523808,-325.0,-325.0,-325.0,-325.0,-325.0,-321.8253968253968
-9.920634920634921,19.444444444444443,-8.968253968253968,-8.333333333333332,5.317460317460317,-1.6666666666666665,-7.3809523809523805,2.9365079365079363,6.26984126984127,2.142857142857143,-3.73015873015873,21.03174603174603,-5.634920634920634,7.857142857142857,-0.5555555555555556,4.365079365079365,-3.4126984126984126,0.23809523809523808,-325.0,-325.0,-325.0,-325.0,-325.0,-321.8253968253968
-1.984126984126984,33.57142857142857,-9.761904761904761,2.9365079365079363,2.3015873015873014,-0.5555555555555556,-13.412698412698411,-2.46031746031746,-3.888888888888889,-2.142857142857143,-9.285714285714285,34.84126984126984,-16.11111111111111,12.777777777777777,-10.079365079365079,2.46031746031746,-3.571428571428571,0.7142857142857142,-325.0,-325.0,-325.0,-325.0,-325.0,-321.8253968253968
-1.984126984126984,33.57142857142857,-9.761904761904761,2.9365079365079363,2.3015873015873014,-0.5555555555555556,-13.412698412698411,-2.46031746031746,-3.888888888888889,-2.142857142857143,-9.285714285714285,34.84126984126984,-16.11111111111111,12.777777777777777,-10.079365079365079,2.46031746031746,-3.571428571428571,0.7142857142857142,-325.0,-325.0,-325.0,-325.0,-325.0,-321.8253968253968
-10.873015873015872,26.9047619047619,-8.65079365079365,7.222222222222221,5.952380952380952,3.888888888888889,-12.3015873015873,4.2063492063492065,-2.3015873015873014,11.825396825396824,-11.984126984126984,31.349206349206348,-24.365079365079364,10.079365079365079,-1.984126984126984,11.507936507936508,-3.571428571428571,0.3968253968253968,-325.0,-325.0,-325.0,-325.0,-325.0,-321.8253968253968
-10.873015873015872,26.9047619047619,-8.65079365079365,7.222222222222221,5.952380952380952,3.888888888888889,-12.3015873015873,4.2063492063492065,-2.3015873015873014,11.825396825396824,-11.984126984126984,31.349206349206348,-24.365079365079364,10.079365079365079,-1.984126984126984,11.507936507936508,-3.571428571428571,0.3968253968253968,-325.0,-325.0,-325.0,-325.0,-325.0,-321.8253968253968
-7.5396825396825395,18.174603174603174,2.3015873015873014,-5.634920634920634,16.746031746031743,-8.809523809523808,1.0317460317460316,-7.5396825396825395,6.587301587301587,-0.3968253968253968,-14.365079365079364,14.047619047619047,-31.507936507936506,-5.952380952380952,1.349206349206349,-0.5555555555555556,-3.4126984126984126,0.5555555555555556,-325.0,-325.0,-325.0,-325.0,-325.0,-7.5396825396825395
-7.5396825396825395,18.174603174603174,2.3015873015873014,-5.634920634920634,16.746031746031743,-8.809523809523808,1.0317460317460316,-7.5396825396825395,6.587301587301587,-0.3968253968253968,-14.365079365079364,14.047619047619047,-31.507936507936506,-5.952380952380952,1.349206349206349,-0.5555555555555556,-3.4126984126984126,0.5555555555555556,-325.0,-325.0,-325.0,-325.0,-325.0,-7.5396825396825395
-2.9365079365079363,30.87301587301587,18.174603174603174,16.26984126984127,26.11111111111111,13.095238095238095,13.73015873015873,9.444444444444445,10.396825396825395,7.3809523809523805,-9.761904761904761,27.857142857142854,-22.777777777777775,3.095238095238095,-1.1904761904761905,6.587301587301587,-4.0476190476190474,0.3968253968253968,-325.0,-325.0,-325.0,-325.0,-325.0,-7.5396825396825395
-2.9365079365079363,30.87301587301587,18.174603174603174,16.26984126984127,26.11111111111111,13.095238095238095,13.73015873015873,9.444444444444445,10.396825396825395,7.3809523809523805,-9.761904761904761,27.857142857142854,-22.777777777777775,3.095238095238095,-1.1904761904761905,6.587301587301587,-4.0476190476190474,0.3968253968253968,-325.0,-325.0,-325.0,-325.0,-325.0,-7.5396825396825395
1.6666666666666665,41.19047619047619,22.3015873015873,19.444444444444443,20.238095238095237,18.333333333333332,12.777777777777777,13.095238095238095,7.5396825396825395,12.142857142857142,-1.984126984126984,40.079365079365076,-16.904761904761905,11.349206349206348,4.841269841269841,12.936507936507935,-3.73015873015873,0.23809523809523808,-325.0,-325.0,-325.0,-325.0,-325.0,-7.5396825396825395
1.6666666666666665,41.19047619047619,22.3015873015873,19.444444444444443,20.238095238095237,18.333333333333332,12.777777777777777,13.095238095238095,7.5396825396825395,12.142857142857142,-1.984126984126984,40.079365079365076,-16.904761904761905,11.349206349206348,4.841269841269841,12.936507936507935,-3.73015873015873,0.23809523809523808,-325.0,-325.0,-325.0,-325.0,-325.0,-7.5396825396825395
7.5396825396825395,37.22222222222222,21.19047619047619,23.41269841269841,10.396825396825395,20.71428571428571,1.6666666666666665,13.73015873015873,2.619047619047619,12.936507936507935,12.619047619047619,41.34920634920635,-8.174603174603174,11.19047619047619,-12.3015873015873,11.507936507936508,-3.253968253968254,-0.23809523809523808,-325.0,-325.0,-325.0,-325.0,-325.0,-7.5396825396825395
7.5396825396825395,37.22222222222222,21.19047619047619,23.41269841269841,10.396825396825395,20.71428571428571,1.6666666666666665,13.73015873015873,2.619047619047619,12.936507936507935,12.619047619047619,41.34920634920635,-8.174603174603174,11.19047619047619,-12.3015873015873,11.507936507936508,-3.253968253968254,-0.23809523809523808,-325.0,-325.0,-325.0,-325.0,-325.0,-7.5396825396825395
-2.619047619047619,44.68253968253968,4.2063492063492065,15.476190476190474,-0.3968253968253968,12.936507936507935,-4.841269841269841,9.285714285714285,-7.857142857142857,10.714285714285714,13.73015873015873,42.61904761904761,5.0,8.492063492063492,-8.65079365079365,5.634920634920634,-3.253968253968254,-0.07936507936507936,-325.0,-325.0,-325.0,-325.0,-325.0,-7.5396825396825395
-2.619047619047619,44.68253968253968,4.2063492063492065,15.476190476190474,-0.3968253968253968,12.936507936507935,-4.841269841269841,9.285714285714285,-7.857142857142857,10.714285714285714,13.73015873015873,42.61904761904761,5.0,8.492063492063492,-8.65079365079365,5.634920634920634,-3.253968253968254,-0.07936507936507936,-325.0,-325.0,-325.0,-325.0,-325.0,-7.5396825396825395
-18.174603174603174,34.047619047619044,-8.333333333333332,8.333333333333332,4.523809523809524,6.587301587301587,-1.984126984126984,-0.5555555555555556,-7.063492063492063,7.5396825396825395,-1.0317460317460316,40.238095238095234,10.873015873015872,8.174603174603174,4.523809523809524,-4.2063492063492065,-3.4126984126984126,0.07936507936507936,-325.0,-325.0,-325.0,-325.0,-325.0,-321.8253968253968
-18.174603174603174,34.047619047619044,-8.333333333333332,8.333333333333332,4.523809523809524,6.587301587301587,-1.984126984126984,-0.5555555555555556,-7.063492063492063,7.5396825396825395,-1.0317460317460316,40.238095238095234,10.873015873015872,8.174603174603174,4.523809523809524,-4.2063492063492065,-3.4126984126984126,0.07936507936507936,-325.0,-325.0,-325.0,-325.0,-325.0,-321.8253968253968
-12.777777777777777,16.587301587301585,0.7142857142857142,7.3809523809523805,19.126984126984127,7.5396825396825395,10.396825396825395,-3.095238095238095,1.1904761904761905,-1.0317460317460316,0.23809523809523808,31.19047619047619,18.49206349206349,3.73015873015873,17.38095238095238,-7.222222222222221,-3.4126984126984126,0.23809523809523808,-325.0,-325.0,-325.0,-325.0,-325.0,-321.8253968253968
-12.777777777777777,16.587301587301585,0.7142857142857142,7.3809523809523805,19.126984126984127,7.5396825396825395,10.396825396825395,-3.095238095238095,1.1904761904761905,-1.0317460317460316,0.23809523809523808,31.19047619047619,18.49206349206349,3.73015873015873,17.38095238095238,-7.222222222222221,-3.4126984126984126,0.23809523809523808,-325.0,-325.0,-325.0,-325.0,-325.0,-321.8253968253968
-7.5396825396825395,8.492063492063492,3.4126984126984126,-1.6666666666666665,24.047619047619047,6.26984126984127,13.571428571428571,3.888888888888889,2.9365079365079363,-4.365079365079365,8.174603174603174,22.142857142857142,14.365079365079364,4.2063492063492065,9.285714285714285,-4.0476190476190474,-3.4126984126984126,0.3968253968253968,-325.0,-325.0,-325.0,-325.0,-325.0,-321.8253968253968
-7.5396825396825395,8.492063492063492,3.4126984126984126,-1.6666666666666665,24.047619047619047,6.26984126984127,13.571428571428571,3.888888888888889,2.9365079365079363,-4.365079365079365,8.174603174603174,22.142857142857142,14.365079365079364,4.2063492063492065,9.285714285714285,-4.0476190476190474,-3.4126984126984126,0.3968253968253968,-325.0,-325.0,-325.0,-325.0,-325.0,-321.8253968253968
2.46031746031746,21.507936507936506,0.7142857142857142,-4.2063492063492065,15.158730158730158,7.5396825396825395,14.682539682539682,14.206349206349206,15.793650793650793,13.253968253968253,9.761904761904761,28.65079365079365,4.523809523809524,7.3809523809523805,8.015873015873016,4.682539682539682,-3.095238095238095,0.23809523809523808,-325.0,-325.0,-325.0,-325.0,-325.0,-321.8253968253968
2.46031746031746,21.507936507936506,0.7142857142857142,-4.2063492063492065,15.158730158730158,7.5396825396825395,14.682539682539682,14.206349206349206,15.793650793650793,13.253968253968253,9.761904761904761,28.65079365079365,4.523809523809524,7.3809523809523805,8.015873015873016,4.682539682539682,-3.095238095238095,0.23809523809523808,-325.0,-325.0,-325.0,-325.0,-325.0,-321.8253968253968
7.5396825396825395,26.9047619047619,3.253968253968254,8.968253968253968,13.412698412698411,10.079365079365079,3.253968253968254,9.285714285714285,5.634920634920634,16.428571428571427,12.142857142857142,33.57142857142857,-2.3015873015873014,6.428571428571428,7.857142857142857,1.8253968253968254,-2.9365079365079363,0.7142857142857142,-325.0,-325.0,-325.0,-325.0,-325.0,-321.8253968253968
7.5396825396825395,26.9047619047619,3.253968253968254,8.968253968253968,13.412698412698411,10.079365079365079,3.253968253968254,9.285714285714285,5.634920634920634,16.428571428571427,12.142857142857142,33.57142857142857,-2.3015873015873014,6.428571428571428,7.857142857142857,1.8253968253968254,-2.9365079365079363,0.7142857142857142,-325.0,-325.0,-325.0,-325.0,-325.0,-321.8253968253968
5.952380952380952,26.26984126984127,-2.142857142857143,-1.6666666666666665,4.523809523809524,-2.142857142857143,-6.746031746031746,-0.07936507936507936,-2.46031746031746,5.634920634920634,10.079365079365079,35.317460317460316,-5.634920634920634,7.698412698412698,2.46031746031746,-6.746031746031746,-3.571428571428571,0.7142857142857142,-325.0,-325.0,-325.0,-325.0,-325.0,-7.5396825396825395
5.952380952380952,26.26984126984127,-2.142857142857143,-1.6666666666666665,4.523809523809524,-2.142857142857143,-6.746031746031746,-0.07936507936507936,-2.46031746031746,5.634920634920634,10.079365079365079,35.317460317460316,-5.634920634920634,7.698412698412698,2.46031746031746,-6.746031746031746,-3.571428571428571,0.7142857142857142,-325.0,-325.0,-325.0,-325.0,-325.0,-7.5396825396825395
-0.07936507936507936,16.746031746031743,-6.904761904761904,-0.7142857142857142,2.46031746031746,-0.23809523809523808,-11.825396825396824,0.07936507936507936,-9.285714285714285,-5.0,4.841269841269841,33.41269841269841,-15.634920634920634,10.873015873015872,-3.4126984126984126,-11.666666666666666,-3.4126984126984126,0.873015873015873,-325.0,-325.0,-325.0,-325.0,-325.0,-7.5396825396825395
-0.07936507936507936,16.746031746031743,-6.904761904761904,-0.7142857142857142,2.46031746031746,-0.23809523809523808,-11.825396825396824,0.07936507936507936,-9.285714285714285,-5.0,4.841269841269841,33.41269841269841,-15.634920634920634,10.873015873015872,-3.4126984126984126,-11.666666666666666,-3.4126984126984126,0.873015873015873,-325.0,-325.0,-325.0,-325.0,-325.0,-7.5396825396825395
-3.4126984126984126,16.587301587301585,-10.555555555555555,13.888888888888888,2.9365079365079363,11.349206349206348,0.07936507936507936,7.3809523809523805,-0.5555555555555556,2.3015873015873014,-2.9365079365079363,38.01587301587301,-4.523809523809524,14.84126984126984,11.031746031746032,-1.349206349206349,-3.4126984126984126,1.0317460317460316,-325.0,-325.0,-325.0,-325.0,-325.0,-7.5396825396825395
-3.4126984126984126,16.587301587301585,-10.555555555555555,13.888888888888888,2.9365079365079363,11.349206349206348,0.07936507936507936,7.3809523809523805,-0.5555555555555556,2.3015873015873014,-2.9365079365079363,38.01587301587301,-4.523809523809524,14.84126984126984,11.031746031746032,-1.349206349206349,-3.4126984126984126,1.0317460317460316,-325.0,-325.0,-325.0,-325.0,-325.0,-7.5396825396825395
-12.3015873015873,23.57142857142857,-10.714285714285714,19.285714285714285,2.3015873015873014,14.047619047619047,13.888888888888888,17.539682539682538,15.317460317460316,22.3015873015873,-2.619047619047619,39.92063492063492,-3.095238095238095,14.523809523809524,13.888888888888888,8.968253968253968,-3.253968253968254,1.1904761904761905,-325.0,-325.0,-325.0,-325.0,-325.0,-7.5396825396825395
-12.3015873015873,23.57142857142857,-10.714285714285714,19.285714285714285,2.3015873015873014,14.047619047619047,13.888888888888888,17.539682539682538,15.317460317460316,22.3015873015873,-2.619047619047619,39.92063492063492,-3.095238095238095,14.523809523809524,13.888888888888888,8.968253968253968,-3.253968253968254,1.1904761904761905,-325.0,-325.0,-325.0,-325.0,-325.0,-7.5396825396825395
5.0,23.57142857142857,0.3968253968253968,7.698412698412698,14.84126984126984,4.841269841269841,21.19047619047619,14.365079365079364,23.730158730158728,18.333333333333332,5.0,30.396825396825395,2.46031746031746,3.888888888888889,8.809523809523808,7.5396825396825395,-3.253968253968254,1.1904761904761905,-325.0,-325.0,-325.0,-325.0,-325.0,-7.5396825396825395
5.0,23.57142857142857,0.3968253968253968,7.698412698412698,14.84126984126984,4.841269841269841,21.19047619047619,14.365079365079364,23.730158730158728,18.333333333333332,5.0,30.396825396825395,2.46031746031746,3.888888888888889,8.809523809523808,7.5396825396825395,-3.253968253968254,1.1904761904761905,-325.0,-325.0,-325.0,-325.0,-325.0,-7.5396825396825395
0.5555555555555556,18.015873015873016,-5.7936507936507935,5.952380952380952,5.634920634920634,1.984126984126984,10.079365079365079,15.317460317460316,17.22222222222222,19.6031746031746,5.7936507936507935,27.22222222222222,7.857142857142857,8.333333333333332,18.015873015873016,11.825396825396824,-3.253968253968254,0.7142857142857142,-325.0,-325.0,-325.0,-325.0,-325.0,-321.8253968253968
0.5555555555555556,18.015873015873016,-5.7936507936507935,5.952380952380952,5.634920634920634,1.984126984126984,10.079365079365079,15.317460317460316,17.22222222222222,19.6031746031746,5.7936507936507935,27.22222222222222,7.857142857142857,8.333333333333332,18.015873015873016,11.825396825396824,-3.253968253968254,0.7142857142857142,-325.0,-325.0,-325.0,-325.0,-325.0,-321.8253968253968
3.888888888888889,18.96825396825397,-2.9365079365079363,9.444444444444445,5.317460317460317,-1.349206349206349,-2.619047619047619,4.841269841269841,-0.23809523809523808,7.3809523809523805,7.063492063492063,27.063492063492063,4.682539682539682,11.507936507936508,3.571428571428571,2.3015873015873014,-3.4126984126984126,0.5555555555555556,-325.0,-325.0,-325.0,-325.0,-325.0,-321.8253968253968
3.888888888888889,18.96825396825397,-2.9365079365079363,9.444444444444445,5.317460317460317,-1.349206349206349,-2.619047619047619,4.841269841269841,-0.23809523809523808,7.3809523809523805,7.063492063492063,27.063492063492063,4.682539682539682,11.507936507936508,3.571428571428571,2.3015873015873014,-3.4126984126984126,0.5555555555555556,-325.0,-325.0,-325.0,-325.0,-325.0,-321.8253968253968
2.46031746031746,18.80952380952381,2.9365079365079363,12.936507936507935,6.26984126984127,1.984126984126984,-11.984126984126984,3.571428571428571,-8.333333333333332,1.6666666666666665,8.65079365079365,33.41269841269841,12.936507936507935,16.746031746031743,-4.365079365079365,-0.07936507936507936,-3.253968253968254,1.1904761904761905,-325.0,-325.0,-325.0,-325.0,-325.0,-321.8253968253968
2.46031746031746,18.80952380952381,2.9365079365079363,12.936507936507935,6.26984126984127,1.984126984126984,-11.984126984126984,3.571428571428571,-8.333333333333332,1.6666666666666665,8.65079365079365,33.41269841269841,12.936507936507935,16.746031746031743,-4.365079365079365,-0.07936507936507936,-3.253968253968254,1.1904761904761905,-325.0,-325.0,-325.0,-325.0,-325.0,-321.8253968253968
-5.317460317460317,23.57142857142857,1.349206349206349,18.80952380952381,1.0317460317460316,8.333333333333332,-8.809523809523808,7.698412698412698,-7.222222222222221,4.523809523809524,1.984126984126984,28.015873015873016,10.555555555555555,8.809523809523808,-1.6666666666666665,-1.984126984126984,-3.888888888888889,0.7142857142857142,-325.0,-325.0,-325.0,-325.0,-325.0,-321.8253968253968
-5.317460317460317,23.57142857142857,1.349206349206349,18.80952380952381,1.0317460317460316,8.333333333333332,-8.809523809523808,7.698412698412698,-7.222222222222221,4.523809523809524,1.984126984126984,28.015873015873016,10.555555555555555,8.809523809523808,-1.6666666666666665,-1.984126984126984,-3.888888888888889,0.7142857142857142,-325.0,-325.0,-325.0,-325.0,-325.0,-321.8253968253968
-21.349206349206348,15.634920634920634,-19.6031746031746,14.365079365079364,-3.73015873015873,11.031746031746032,7.3809523809523805,17.857142857142858,5.158730158730158,18.49206349206349,-16.587301587301585,25.476190476190474,11.19047619047619,5.158730158730158,13.571428571428571,6.746031746031746,-4.0476190476190474,0.23809523809523808,-325.0,-325.0,-325.0,-325.0,-325.0,-321.8253968253968
-21.349206349206348,15.634920634920634,-19.6031746031746,14.365079365079364,-3.73015873015873,11.031746031746032,7.3809523809523805,17.857142857142858,5.158730158730158,18.49206349206349,-16.587301587301585,25.476190476190474,11.19047619047619,5.158730158730158,13.571428571428571,6.746031746031746,-4.0476190476190474,0.23809523809523808,-325.0,-325.0,-325.0,-325.0,-325.0,-321.8253968253968
-24.365079365079364,21.984126984126984,-23.730158730158728,6.587301587301587,-1.8253968253968254,9.285714285714285,15.317460317460316,18.65079365079365,6.587301587301587,15.158730158730158,-14.523809523809524,25.158730158730158,12.777777777777777,12.142857142857142,20.71428571428571,13.571428571428571,-3.888888888888889,0.7142857142857142,-325.0,-325.0,-325.0,-325.0,-325.0,-7.5396825396825395
-24.365079365079364,21.984126984126984,-23.730158730158728,6.587301587301587,-1.8253968253968254,9.285714285714285,15.317460317460316,18.65079365079365,6.587301587301587,15.158730158730158,-14.523809523809524,25.158730158730158,12.777777777777777,12.142857142857142,20.71428571428571,13.571428571428571,-3.888888888888889,0.7142857142857142,-325.0,-325.0,-325.0,-325.0,-325.0,-7.5396825396825395
-14.365079365079364,13.571428571428571,-20.71428571428571,3.571428571428571,-1.349206349206349,6.26984126984127,14.682539682539682,13.571428571428571,9.444444444444445,8.809523809523808,-7.063492063492063,16.746031746031743,15.476190476190474,8.174603174603174,19.76190476190476,6.904761904761904,-4.2063492063492065,0.7142857142857142,-325.0,-325.0,-325.0,-325.0,-325.0,-7.5396825396825395
-14.365079365079364,13.571428571428571,-20.71428571428571,3.571428571428571,-1.349206349206349,6.26984126984127,14.682539682539682,13.571428571428571,9.444444444444445,8.809523809523808,-7.063492063492063,16.746031746031743,15.476190476190474,8.174603174603174,19.76190476190476,6.904761904761904,-4.2063492063492065,0.7142857142857142,-325.0,-325.0,-325.0,-325.0,-325.0,-7.5396825396825395
-5.158730158730158,13.73015873015873,1.0317460317460316,16.11111111111111,15.0,18.015873015873016,19.6031746031746,28.333333333333332,22.777777777777775,24.365079365079364,9.920634920634921,23.88888888888889,22.777777777777775,12.142857142857142,23.730158730158728,17.698412698412696,-3.73015873015873,0.5555555555555556,-325.0,-325.0,-325.0,-325.0,-325.0,-7.5396825396825395
-5.158730158730158,13.73015873015873,1.0317460317460316,16.11111111111111,15.0,18.015873015873016,19.6031746031746,28.333333333333332,22.777777777777775,24.365079365079364,9.920634920634921,23.88888888888889,22.777777777777775,12.142857142857142,23.730158730158728,17.698412698412696,-3.73015873015873,0.5555555555555556,-325.0,-325.0,-325.0,-325.0,-325.0,-7.5396825396825395
9.603174603174603,22.777777777777775,11.19047619047619,14.523809523809524,13.253968253968253,5.0,7.222222222222221,15.793650793650793,8.492063492063492,13.412698412698411,20.873015873015873,23.88888888888889,17.698412698412696,5.317460317460317,13.095238095238095,8.65079365079365,-3.571428571428571,0.7142857142857142,-325.0,-325.0,-325.0,-325.0,-325.0,-7.5396825396825395
9.603174603174603,22.777777777777775,11.19047619047619,14.523809523809524,13.253968253968253,5.0,7.222222222222221,15.793650793650793,8.492063492063492,13.412698412698411,20.873015873015873,23.88888888888889,17.698412698412696,5.317460317460317,13.095238095238095,8.65079365079365,-3.571428571428571,0.7142857142857142,-325.0,-325.0,-325.0,-325.0,-325.0,-7.5396825396825395
20.396825396825395,31.19047619047619,27.539682539682538,18.333333333333332,24.84126984126984,12.3015873015873,21.349206349206348,17.063492063492063,17.857142857142858,19.285714285714285,26.587301587301585,27.38095238095238,19.76190476190476,7.222222222222221,26.9047619047619,11.19047619047619,-4.2063492063492065,0.873015873015873,-325.0,-325.0,-325.0,-325.0,-325.0,-7.5396825396825395
20.396825396825395,31.19047619047619,27.539682539682538,18.333333333333332,24.84126984126984,12.3015873015873,21.349206349206348,17.063492063492063,17.857142857142858,19.285714285714285,26.587301587301585,27.38095238095238,19.76190476190476,7.222222222222221,26.9047619047619,11.19047619047619,-4.2063492063492065,0.873015873015873,-325.0,-325.0,-325.0,-325.0,-325.0,-7.5396825396825395
28.015873015873016,26.428571428571427,31.507936507936506,15.0,25.476190476190474,7.5396825396825395,18.333333333333332,7.5396825396825395,15.793650793650793,6.746031746031746,25.952380952380953,30.555555555555554,19.92063492063492,16.904761904761905,17.857142857142858,6.746031746031746,-3.888888888888889,0.7142857142857142,-325.0,-325.0,-325.0,-325.0,-325.0,-321.8253968253968
28.015873015873016,26.428571428571427,31.507936507936506,15.0,25.476190476190474,7.5396825396825395,18.333333333333332,7.5396825396825395,15.793650793650793,6.746031746031746,25.952380952380953,30.555555555555554,19.92063492063492,16.904761904761905,17.857142857142858,6.746031746031746,-3.888888888888889,0.7142857142857142,-325.0,-325.0,-325.0,-325.0,-325.0,-321.8253968253968
23.88888888888889,18.96825396825397,15.95238095238095,14.523809523809524,17.22222222222222,7.222222222222221,22.777777777777775,5.634920634920634,17.063492063492063,4.682539682539682,23.41269841269841,27.22222222222222,19.126984126984127,21.349206349206348,18.333333333333332,11.349206349206348,-3.4126984126984126,0.23809523809523808,-325.0,-325.0,-325.0,-325.0,-325.0,-321.8253968253968
23.88888888888889,18.96825396825397,15.95238095238095,14.523809523809524,17.22222222222222,7.222222222222221,22.777777777777775,5.634920634920634,17.063492063492063,4.682539682539682,23.41269841269841,27.22222222222222,19.126984126984127,21.349206349206348,18.333333333333332,11.349206349206348,-3.4126984126984126,0.23809523809523808,-325.0,-325.0,-325.0,-325.0,-325.0,-321.8253968253968
23.88888888888889,24.84126984126984,12.46031746031746,17.22222222222222,7.222222222222221,5.634920634920634,11.825396825396824,6.428571428571428,11.031746031746032,5.634920634920634,26.9047619047619,28.65079365079365,16.746031746031743,16.11111111111111,3.73015873015873,14.047619047619047,-3.253968253968254,0.3968253968253968,-325.0,-325.0,-325.0,-325.0,-325.0,-321.8253968253968
23.88888888888889,24.84126984126984,12.46031746031746,17.22222222222222,7.222222222222221,5.634920634920634,11.825396825396824,6.428571428571428,11.031746031746032,5.634920634920634,26.9047619047619,28.65079365079365,16.746031746031743,16.11111111111111,3.73015873015873,14.047619047619047,-3.253968253968254,0.3968253968253968,-325.0,-325.0,-325.0,-325.0,-325.0,-321.8253968253968
23.88888888888889,18.174603174603174,10.238095238095237,11.031746031746032,3.888888888888889,1.0317460317460316,5.952380952380952,7.222222222222221,14.047619047619047,12.619047619047619,29.444444444444443,20.238095238095237,25.158730158730158,8.968253968253968,15.0,12.46031746031746,-3.253968253968254,0.7142857142857142,-325.0,-325.0,-325.0,-325.0,-325.0,-321.8253968253968
23.88888888888889,18.174603174603174,10.238095238095237,11.031746031746032,3.888888888888889,1.0317460317460316,5.952380952380952,7.222222222222221,14.047619047619047,12.619047619047619,29.444444444444443,20.238095238095237,25.158730158730158,8.968253968253968,15.0,12.46031746031746,-3.253968253968254,0.7142857142857142,-325.0,-325.0,-325.0,-325.0,-325.0,-321.8253968253968
18.80952380952381,14.523809523809524,9.285714285714285,19.444444444444443,1.507936507936508,14.206349206349206,-2.46031746031746,18.174603174603174,5.317460317460317,19.126984126984127,24.365079365079364,16.428571428571427,14.523809523809524,6.746031746031746,6.746031746031746,13.095238095238095,-3.4126984126984126,1.0317460317460316,-325.0,-325.0,-325.0,-325.0,-325.0,-321.8253968253968
18.80952380952381,14.523809523809524,9.285714285714285,19.444444444444443,1.507936507936508,14.206349206349206,-2.46031746031746,18.174603174603174,5.317460317460317,19.126984126984127,24.365079365079364,16.428571428571427,14.523809523809524,6.746031746031746,6.746031746031746,13.095238095238095,-3.4126984126984126,1.0317460317460316,-325.0,-325.0,-325.0,-325.0,-325.0,-321.8253968253968
20.238095238095237,15.793650793650793,10.079365079365079,11.984126984126984,6.26984126984127,12.142857142857142,6.587301587301587,17.857142857142858,18.65079365079365,18.333333333333332,22.619047619047617,23.730158730158728,9.603174603174603,13.571428571428571,17.22222222222222,12.142857142857142,-3.571428571428571,1.349206349206349,-325.0,-325.0,-325.0,-325.0,-325.0,-7.5396825396825395
20.238095238095237,15.793650793650793,10.079365079365079,11.984126984126984,6.26984126984127,12.142857142857142,6.587301587301587,17.857142857142858,18.65079365079365,18.333333333333332,22.619047619047617,23.730158730158728,9.603174603174603,13.571428571428571,17.22222222222222,12.142857142857142,-3.571428571428571,1.349206349206349,-325.0,-325.0,-325.0,-325.0,-325.0,-7.5396825396825395
27.22222222222222,17.063492063492063,23.57142857142857,26.9047619047619,15.634920634920634,19.76190476190476,10.714285714285714,21.19047619047619,17.698412698412696,11.984126984126984,31.507936507936506,30.555555555555554,8.015873015873016,26.11111111111111,9.285714285714285,14.206349206349206,-3.095238095238095,1.1904761904761905,-325.0,-325.0,-325.0,-325.0,-325.0,-7.5396825396825395
27.22222222222222,17.063492063492063,23.57142857142857,26.9047619047619,15.634920634920634,19.76190476190476,10.714285714285714,21.19047619047619,17.698412698412696,11.984126984126984,31.507936507936506,30.555555555555554,8.015873015873016,26.11111111111111,9.285714285714285,14.206349206349206,-3.095238095238095,1.1904761904761905,-325.0,-325.0,-325.0,-325.0,-325.0,-7.5396825396825395
41.34920634920635,19.92063492063492,33.888888888888886,19.92063492063492,27.857142857142854,2.619047619047619,17.857142857142858,4.523809523809524,15.95238095238095,-5.476190476190476,31.19047619047619,26.587301587301585,6.587301587301587,17.063492063492063,11.984126984126984,2.619047619047619,-2.9365079365079363,0.7142857142857142,-325.0,-325.0,-325.0,-325.0,-325.0,-7.5396825396825395
41.34920634920635,19.92063492063492,33.888888888888886,19.92063492063492,27.857142857142854,2.619047619047619,17.857142857142858,4.523809523809524,15.95238095238095,-5.476190476190476,31.19047619047619,26.587301587301585,6.587301587301587,17.063492063492063,11.984126984126984,2.619047619047619,-2.9365079365079363,0.7142857142857142,-325.0,-325.0,-325.0,-325.0,-325.0,-7.5396825396825395
22.777777777777775,8.015873015873016,21.03174603174603,9.920634920634921,23.253968253968253,-3.73015873015873,19.285714285714285,1.349206349206349,25.79365079365079,1.349206349206349,18.96825396825397,23.41269841269841,9.285714285714285,14.206349206349206,17.857142857142858,7.5396825396825395,-2.9365079365079363,0.3968253968253968,-325.0,-325.0,-325.0,-325.0,-325.0,-7.5396825396825395
22.777777777777775,8.015873015873016,21.03174603174603,9.920634920634921,23.253968253968253,-3.73015873015873,19.285714285714285,1.349206349206349,25.79365079365079,1.349206349206349,18.96825396825397,23.41269841269841,9.285714285714285,14.206349206349206,17.857142857142858,7.5396825396825395,-2.9365079365079363,0.3968253968253968,-325.0,-325.0,-325.0,-325.0,-325.0,-7.5396825396825395
3.888888888888889,6.26984126984127,-2.7777777777777777,12.142857142857142,0.3968253968253968,5.158730158730158,2.9365079365079363,1.984126984126984,4.523809523809524,1.984126984126984,7.857142857142857,19.6031746031746,12.777777777777777,11.031746031746032,10.079365079365079,5.317460317460317,-2.7777777777777777,0.5555555555555556,-325.0,-325.0,-325.0,-325.0,-325.0,-7.5396825396825395
3.888888888888889,6.26984126984127,-2.7777777777777777,12.142857142857142,0.3968253968253968,5.158730158730158,2.9365079365079363,1.984126984126984,4.523809523809524,1.984126984126984,7.857142857142857,19.6031746031746,12.777777777777777,11.031746031746032,10.079365079365079,5.317460317460317,-2.7777777777777777,0.5555555555555556,-325.0,-325.0,-325.0,-325.0,-325.0,-7.5396825396825395
-8.809523809523808,-0.23809523809523808,-12.3015873015873,10.714285714285714,-9.285714285714285,10.555555555555555,5.0,12.777777777777777,3.253968253968254,10.873015873015872,1.984126984126984,13.095238095238095,12.619047619047619,9.126984126984127,11.666666666666666,11.031746031746032,-2.619047619047619,0.873015873015873,-325.0,-325.0,-325.0,-325.0,-325.0,-321.8253968253968
-8.809523809523808,-0.23809523809523808,-12.3015873015873,10.714285714285714,-9.285714285714285,10.555555555555555,5.0,12.777777777777777,3.253968253968254,10.873015873015872,1.984126984126984,13.095238095238095,12.619047619047619,9.126984126984127,11.666666666666666,11.031746031746032,-2.619047619047619,0.873015873015873,-325.0,-325.0,-325.0,-325.0,-325.0,-321.8253968253968
-2.9365079365079363,5.634920634920634,-8.968253968253968,16.26984126984127,-2.3015873015873014,27.22222222222222,7.3809523809523805,30.71428571428571,5.952380952380952,19.126984126984127,2.7777777777777777,18.80952380952381,8.333333333333332,14.682539682539682,18.65079365079365,19.444444444444443,-2.46031746031746,0.5555555555555556,-325.0,-325.0,-325.0,-325.0,-325.0,-321.8253968253968
-2.9365079365079363,5.634920634920634,-8.968253968253968,16.26984126984127,-2.3015873015873014,27.22222222222222,7.3809523809523805,30.71428571428571,5.952380952380952,19.126984126984127,2.7777777777777777,18.80952380952381,8.333333333333332,14.682539682539682,18.65079365079365,19.444444444444443,-2.46031746031746,0.5555555555555556,-325.0,-325.0,-325.0,-325.0,-325.0,-321.8253968253968
-28.809523809523807,-25.634920634920633,1.507936507936508,17.38095238095238,2.142857142857143,23.57142857142857,-1.1904761904761905,24.047619047619047,1.8253968253968254,8.333333333333332,10.873015873015872,11.825396825396824,1.984126984126984,14.365079365079364,1.6666666666666665,15.95238095238095,-2.9365079365079363,0.7142857142857142,-325.0,-325.0,-325.0,-325.0,-325.0,-321.8253968253968
-28.809523809523807,-25.634920634920633,1.507936507936508,17.38095238095238,2.142857142857143,23.57142857142857,-1.1904761904761905,24.047619047619047,1.8253968253968254,8.333333333333332,10.873015873015872,11.825396825396824,1.984126984126984,14.365079365079364,1.6666666666666665,15.95238095238095,-2.9365079365079363,0.7142857142857142,-325.0,-325.0,-325.0,-325.0,-325.0,-321.8253968253968
-20.71428571428571,-30.07936507936508,21.825396825396822,12.619047619047619,16.26984126984127,3.4126984126984126,6.428571428571428,3.253968253968254,6.904761904761904,-4.2063492063492065,17.22222222222222,13.095238095238095,7.222222222222221,11.666666666666666,11.984126984126984,1.984126984126984,-2.619047619047619,0.23809523809523808,-325.0,-325.0,-325.0,-325.0,-325.0,-321.8253968253968
-20.71428571428571,-30.07936507936508,21.825396825396822,12.619047619047619,16.26984126984127,3.4126984126984126,6.428571428571428,3.253968253968254,6.904761904761904,-4.2063492063492065,17.22222222222222,13.095238095238095,7.222222222222221,11.666666666666666,11.984126984126984,1.984126984126984,-2.619047619047619,0.23809523809523808,-325.0,-325.0,-325.0,-325.0,-325.0,-321.8253968253968
-7.063492063492063,-18.174603174603174,30.71428571428571,2.46031746031746,23.57142857142857,-4.523809523809524,18.49206349206349,-3.73015873015873,12.3015873015873,-7.857142857142857,17.698412698412696,5.158730158730158,13.571428571428571,8.809523809523808,13.571428571428571,-5.0,-2.619047619047619,0.7142857142857142,-325.0,-325.0,-325.0,-325.0,-325.0,-321.8253968253968
-7.063492063492063,-18.174603174603174,30.71428571428571,2.46031746031746,23.57142857142857,-4.523809523809524,18.49206349206349,-3.73015873015873,12.3015873015873,-7.857142857142857,17.698412698412696,5.158730158730158,13.571428571428571,8.809523809523808,13.571428571428571,-5.0,-2.619047619047619,0.7142857142857142,-325.0,-325.0,-325.0,-325.0,-325.0,-321.8253968253968
-11.349206349206348,-16.587301587301585,15.158730158730158,-5.158730158730158,4.365079365079365,-6.428571428571428,1.507936507936508,-5.952380952380952,-1.0317460317460316,-5.476190476190476,8.015873015873016,3.095238095238095,15.0,7.5396825396825395,4.365079365079365,-1.507936507936508,-2.9365079365079363,0.5555555555555556,-325.0,-325.0,-325.0,-325.0,-325.0,-7.5396825396825395
-11.349206349206348,-16.587301587301585,15.158730158730158,-5.158730158730158,4.365079365079365,-6.428571428571428,1.507936507936508,-5.952380952380952,-1.0317460317460316,-5.476190476190476,8.015873015873016,3.095238095238095,15.0,7.5396825396825395,4.365079365079365,-1.507936507936508,-2.9365079365079363,0.5555555555555556,-325.0,-325.0,-325.0,-325.0,-325.0,-7.5396825396825395
-9.761904761904761,-19.92063492063492,-2.3015873015873014,-12.142857142857142,-0.7142857142857142,-14.206349206349206,-3.571428571428571,-8.809523809523808,1.8253968253968254,1.984126984126984,9.126984126984127,1.1904761904761905,15.634920634920634,4.682539682539682,7.222222222222221,-0.7142857142857142,-2.9365079365079363,0.7142857142857142,-325.0,-325.0,-325.0,-325.0,-325.0,-7.5396825396825395
-9.761904761904761,-19.92063492063492,-2.3015873015873014,-12.142857142857142,-0.7142857142857142,-14.206349206349206,-3.571428571428571,-8.809523809523808,1.8253968253968254,1.984126984126984,9.126984126984127,1.1904761904761905,15.634920634920634,4.682539682539682,7.222222222222221,-0.7142857142857142,-2.9365079365079363,0.7142857142857142,-325.0,-325.0,-325.0,-325.0,-325.0,-7.5396825396825395
-5.317460317460317,-18.015873015873016,-16.11111111111111,-11.666666666666666,-13.412698412698411,-12.142857142857142,-3.095238095238095,-4.2063492063492065,0.7142857142857142,3.253968253968254,10.238095238095237,0.7142857142857142,11.666666666666666,1.349206349206349,22.3015873015873,-2.142857142857143,-2.619047619047619,1.349206349206349,-325.0,-325.0,-325.0,-325.0,-325.0,-7.5396825396825395
-5.317460317460317,-18.015873015873016,-16.11111111111111,-11.666666666666666,-13.412698412698411,-12.142857142857142,-3.095238095238095,-4.2063492063492065,0.7142857142857142,3.253968253968254,10.238095238095237,0.7142857142857142,11.666666666666666,1.349206349206349,22.3015873015873,-2.142857142857143,-2.619047619047619,1.349206349206349,-325.0,-325.0,-325.0,-325.0,-325.0,-7.5396825396825395
4.0476190476190474,-9.761904761904761,-5.634920634920634,1.349206349206349,2.142857142857143,8.968253968253968,5.476190476190476,14.682539682539682,12.777777777777777,15.158730158730158,10.873015873015872,2.3015873015873014,14.682539682539682,-0.3968253968253968,19.6031746031746,10.555555555555555,-3.4126984126984126,1.0317460317460316,-325.0,-325.0,-325.0,-325.0,-325.0,-7.5396825396825395
4.0476190476190474,-9.761904761904761,-5.634920634920634,1.349206349206349,2.142857142857143,8.968253968253968,5.476190476190476,14.682539682539682,12.777777777777777,15.158730158730158,10.873015873015872,2.3015873015873014,14.682539682539682,-0.3968253968253968,19.6031746031746,10.555555555555555,-3.4126984126984126,1.0317460317460316,-325.0,-325.0,-325.0,-325.0,-325.0,-7.5396825396825395
17.063492063492063,1.6666666666666665,18.96825396825397,13.888888888888888,19.92063492063492,18.65079365079365,19.76190476190476,23.730158730158728,26.9047619047619,19.92063492063492,20.07936507936508,6.746031746031746,22.936507936507937,0.873015873015873,29.285714285714285,17.698412698412696,-2.9365079365079363,1.349206349206349,-325.0,-325.0,-325.0,-325.0,-325.0,-7.5396825396825395
17.063492063492063,1.6666666666666665,18.96825396825397,13.888888888888888,19.92063492063492,18.65079365079365,19.76190476190476,23.730158730158728,26.9047619047619,19.92063492063492,20.07936507936508,6.746031746031746,22.936507936507937,0.873015873015873,29.285714285714285,17.698412698412696,-2.9365079365079363,1.349206349206349,-325.0,-325.0,-325.0,-325.0,-325.0,-7.5396825396825395
33.73015873015873,24.68253968253968,36.904761904761905,20.873015873015873,31.03174603174603,20.238095238095237,33.25396825396825,19.285714285714285,29.285714285714285,11.666666666666666,24.047619047619047,18.49206349206349,35.0,7.698412698412698,29.6031746031746,12.142857142857142,-3.253968253968254,1.349206349206349,-325.0,-325.0,-325.0,-325.0,-325.0,-321.8253968253968
33.73015873015873,24.68253968253968,36.904761904761905,20.873015873015873,31.03174603174603,20.238095238095237,33.25396825396825,19.285714285714285,29.285714285714285,11.666666666666666,24.047619047619047,18.49206349206349,35.0,7.698412698412698,29.6031746031746,12.142857142857142,-3.253968253968254,1.349206349206349,-325.0,-325.0,-325.0,-325.0,-325.0,-321.8253968253968
27.063492063492063,25.79365079365079,41.19047619047619,21.825396825396822,33.888888888888886,10.079365079365079,38.65079365079365,6.111111111111111,33.41269841269841,5.7936507936507935,26.9047619047619,18.174603174603174,49.44444444444444,7.222222222222221,35.476190476190474,2.46031746031746,-3.4126984126984126,1.507936507936508,-325.0,-325.0,-325.0,-325.0,-325.0,-321.8253968253968
27.063492063492063,25.79365079365079,41.19047619047619,21.825396825396822,33.888888888888886,10.079365079365079,38.65079365079365,6.111111111111111,33.41269841269841,5.7936507936507935,26.9047619047619,18.174603174603174,49.44444444444444,7.222222222222221,35.476190476190474,2.46031746031746,-3.4126984126984126,1.507936507936508,-325.0,-325.0,-325.0,-325.0,-325.0,-321.8253968253968
18.015873015873016,26.9047619047619,31.19047619047619,16.587301587301585,28.333333333333332,9.761904761904761,22.777777777777775,0.5555555555555556,13.253968253968253,-4.365079365079365,16.26984126984127,18.174603174603174,46.11111111111111,9.444444444444445,31.825396825396822,-0.3968253968253968,-3.571428571428571,0.873015873015873,-325.0,-325.0,-325.0,-325.0,-325.0,-321.8253968253968
18.015873015873016,26.9047619047619,31.19047619047619,16.587301587301585,28.333333333333332,9.761904761904761,22.777777777777775,0.5555555555555556,13.253968253968253,-4.365079365079365,16.26984126984127,18.174603174603174,46.11111111111111,9.444444444444445,31.825396825396822,-0.3968253968253968,-3.571428571428571,0.873015873015873,-325.0,-325.0,-325.0,-325.0,-325.0,-321.8253968253968
28.174603174603174,19.6031746031746,41.34920634920635,18.333333333333332,35.79365079365079,1.8253968253968254,13.095238095238095,-7.857142857142857,9.603174603174603,-8.333333333333332,22.46031746031746,12.619047619047619,42.61904761904761,7.698412698412698,20.238095238095237,-1.507936507936508,-3.888888888888889,1.0317460317460316,-325.0,-325.0,-325.0,-325.0,-325.0,-321.8253968253968
28.174603174603174,19.6031746031746,41.34920634920635,18.333333333333332,35.79365079365079,1.8253968253968254,13.095238095238095,-7.857142857142857,9.603174603174603,-8.333333333333332,22.46031746031746,12.619047619047619,42.61904761904761,7.698412698412698,20.238095238095237,-1.507936507936508,-3.888888888888889,1.0317460317460316,-325.0,-325.0,-325.0,-325.0,-325.0,-321.8253968253968
38.01587301587301,23.88888888888889,42.14285714285714,18.015873015873016,39.12698412698413,9.126984126984127,15.793650793650793,0.873015873015873,13.095238095238095,-8.809523809523808,35.0,13.412698412698411,44.36507936507936,6.904761904761904,18.49206349206349,0.7142857142857142,-3.73015873015873,1.349206349206349,-325.0,-325.0,-325.0,-325.0,-325.0,-321.8253968253968
38.01587301587301,23.88888888888889,42.14285714285714,18.015873015873016,39.12698412698413,9.126984126984127,15.793650793650793,0.873015873015873,13.095238095238095,-8.809523809523808,35.0,13.412698412698411,44.36507936507936,6.904761904761904,18.49206349206349,0.7142857142857142,-3.73015873015873,1.349206349206349,-325.0,-325.0,-325.0,-325.0,-325.0,-321.8253968253968
35.63492063492063,9.603174603174603,37.38095238095238,16.746031746031743,36.58730158730159,13.571428571428571,26.587301587301585,9.603174603174603,28.96825396825397,2.619047619047619,41.19047619047619,7.698412698412698,44.047619047619044,4.682539682539682,20.396825396825395,5.317460317460317,-2.9365079365079363,1.1904761904761905,-325.0,-325.0,-325.0,-325.0,-325.0,-7.5396825396825395
35.63492063492063,9.603174603174603,37.38095238095238,16.746031746031743,36.58730158730159,13.571428571428571,26.587301587301585,9.603174603174603,28.96825396825397,2.619047619047619,41.19047619047619,7.698412698412698,44.047619047619044,4.682539682539682,20.396825396825395,5.317460317460317,-2.9365079365079363,1.1904761904761905,-325.0,-325.0,-325.0,-325.0,-325.0,-7.5396825396825395
31.03174603174603,6.587301587301587,29.444444444444443,11.984126984126984,25.952380952380953,18.49206349206349,31.825396825396822,17.063492063492063,30.71428571428571,13.095238095238095,29.444444444444443,6.26984126984127,34.682539682539684,1.984126984126984,35.317460317460316,9.285714285714285,-2.9365079365079363,1.0317460317460316,-325.0,-325.0,-325.0,-325.0,-325.0,-7.5396825396825395
31.03174603174603,6.587301587301587,29.444444444444443,11.984126984126984,25.952380952380953,18.49206349206349,31.825396825396822,17.063492063492063,30.71428571428571,13.095238095238095,29.444444444444443,6.26984126984127,34.682539682539684,1.984126984126984,35.317460317460316,9.285714285714285,-2.9365079365079363,1.0317460317460316,-325.0,-325.0,-325.0,-325.0,-325.0,-7.5396825396825395
16.904761904761905,6.111111111111111,19.444444444444443,12.142857142857142,20.873015873015873,14.047619047619047,31.03174603174603,20.873015873015873,30.555555555555554,16.428571428571427,20.396825396825395,3.4126984126984126,25.0,-3.4126984126984126,33.888888888888886,6.746031746031746,-2.7777777777777777,1.0317460317460316,-325.0,-325.0,-325.0,-325.0,-325.0,-7.5396825396825395
16.904761904761905,6.111111111111111,19.444444444444443,12.142857142857142,20.873015873015873,14.047619047619047,31.03174603174603,20.873015873015873,30.555555555555554,16.428571428571427,20.396825396825395,3.4126984126984126,25.0,-3.4126984126984126,33.888888888888886,6.746031746031746,-2.7777777777777777,1.0317460317460316,-325.0,-325.0,-325.0,-325.0,-325.0,-7.5396825396825395
19.92063492063492,-4.365079365079365,12.936507936507935,-12.3015873015873,14.206349206349206,-9.761904761904761,19.92063492063492,4.523809523809524,23.57142857142857,6.746031746031746,21.19047619047619,-7.857142857142857,17.22222222222222,-11.825396825396824,28.809523809523807,-0.873015873015873,-2.9365079365079363,1.349206349206349,-325.0,-325.0,-325.0,-325.0,-325.0,-7.5396825396825395
19.92063492063492,-4.365079365079365,12.936507936507935,-12.3015873015873,14.206349206349206,-9.761904761904761,19.92063492063492,4.523809523809524,23.57142857142857,6.746031746031746,21.19047619047619,-7.857142857142857,17.22222222222222,-11.825396825396824,28.809523809523807,-0.873015873015873,-2.9365079365079363,1.349206349206349,-325.0,-325.0,-325.0,-325.0,-325.0,-7.5396825396825395
19.6031746031746,-8.174603174603174,3.4126984126984126,-9.920634920634921,5.476190476190476,-13.095238095238095,-1.0317460317460316,-3.73015873015873,6.904761904761904,2.7777777777777777,14.523809523809524,-8.174603174603174,3.095238095238095,-11.031746031746032,-0.873015873015873,-5.7936507936507935,-3.095238095238095,1.1904761904761905,-325.0,-325.0,-325.0,-325.0,-325.0,-7.5396825396825395
19.6031746031746,-8.174603174603174,3.4126984126984126,-9.920634920634921,5.476190476190476,-13.095238095238095,-1.0317460317460316,-3.73015873015873,6.904761904761904,2.7777777777777777,14.523809523809524,-8.174603174603174,3.095238095238095,-11.031746031746032,-0.873015873015873,-5.7936507936507935,-3.095238095238095,1.1904761904761905,-325.0,-325.0,-325.0,-325.0,-325.0,-7.5396825396825395
16.428571428571427,-8.492063492063492,13.095238095238095,-11.666666666666666,10.396825396825395,-10.079365079365079,1.507936507936508,-1.8253968253968254,8.015873015873016,0.7142857142857142,16.904761904761905,-5.634920634920634,3.4126984126984126,-5.317460317460317,7.063492063492063,0.23809523809523808,-2.142857142857143,1.349206349206349,-325.0,-325.0,-325.0,-325.0,-325.0,-321.8253968253968
16.428571428571427,-8.492063492063492,13.095238095238095,-11.666666666666666,10.396825396825395,-10.079365079365079,1.507936507936508,-1.8253968253968254,8.015873015873016,0.7142857142857142,16.904761904761905,-5.634920634920634,3.4126984126984126,-5.317460317460317,7.063492063492063,0.23809523809523808,-2.142857142857143,1.349206349206349,-325.0,-325.0,-325.0,-325.0,-325.0,-321.8253968253968
25.476190476190474,-15.476190476190474,20.07936507936508,-10.079365079365079,18.80952380952381,-3.73015873015873,17.539682539682538,3.253968253968254,25.634920634920633,-0.873015873015873,17.063492063492063,-10.714285714285714,8.492063492063492,-7.5396825396825395,15.95238095238095,1.0317460317460316,-3.095238095238095,1.0317460317460316,-325.0,-325.0,-325.0,-325.0,-325.0,-321.8253968253968
25.476190476190474,-15.476190476190474,20.07936507936508,-10.079365079365079,18.80952380952381,-3.73015873015873,17.539682539682538,3.253968253968254,25.634920634920633,-0.873015873015873,17.063492063492063,-10.714285714285714,8.492063492063492,-7.5396825396825395,15.95238095238095,1.0317460317460316,-3.095238095238095,1.0317460317460316,-325.0,-325.0,-325.0,-325.0,-325.0,-321.8253968253968
31.19047619047619,-13.412698412698411,29.126984126984127,3.4126984126984126,25.952380952380953,15.158730158730158,35.476190476190474,18.333333333333332,36.904761904761905,12.777777777777777,18.65079365079365,-8.65079365079365,7.063492063492063,-6.587301587301587,23.88888888888889,11.031746031746032,-3.253968253968254,1.349206349206349,-325.0,-325.0,-325.0,-325.0,-325.0,-321.8253968253968
31.19047619047619,-13.412698412698411,29.126984126984127,3.4126984126984126,25.952380952380953,15.158730158730158,35.476190476190474,18.333333333333332,36.904761904761905,12.777777777777777,18.65079365079365,-8.65079365079365,7.063492063492063,-6.587301587301587,23.88888888888889,11.031746031746032,-3.253968253968254,1.349206349206349,-325.0,-325.0,-325.0,-325.0,-325.0,-321.8253968253968
32.93650793650794,5.952380952380952,38.33333333333333,21.825396825396822,33.095238095238095,28.174603174603174,46.42857142857142,27.857142857142854,41.507936507936506,19.6031746031746,24.84126984126984,-1.6666666666666665,15.0,-8.333333333333332,32.61904761904762,11.825396825396824,-3.253968253968254,1.349206349206349,-325.0,-325.0,-325.0,-325.0,-325.0,-321.8253968253968
32.93650793650794,5.952380952380952,38.33333333333333,21.825396825396822,33.095238095238095,28.174603174603174,46.42857142857142,27.857142857142854,41.507936507936506,19.6031746031746,24.84126984126984,-1.6666666666666665,15.0,-8.333333333333332,32.61904761904762,11.825396825396824,-3.253968253968254,1.349206349206349,-325.0,-325.0,-325.0,-325.0,-325.0,-321.8253968253968
29.6031746031746,15.95238095238095,29.6031746031746,27.857142857142854,12.46031746031746,20.555555555555554,11.507936507936508,12.936507936507935,12.619047619047619,4.365079365079365,14.365079365079364,6.428571428571428,2.3015873015873014,-8.65079365079365,19.126984126984127,0.5555555555555556,-2.9365079365079363,1.1904761904761905,-325.0,-325.0,-325.0,-325.0,-325.0,-321.8253968253968
29.6031746031746,15.95238095238095,29.6031746031746,27.857142857142854,12.46031746031746,20.555555555555554,11.507936507936508,12.936507936507935,12.619047619047619,4.365079365079365,14.365079365079364,6.428571428571428,2.3015873015873014,-8.65079365079365,19.126984126984127,0.5555555555555556,-2.9365079365079363,1.1904761904761905,-325.0,-325.0,-325.0,-325.0,-325.0,-321.8253968253968
22.777777777777775,14.365079365079364,15.476190476190474,20.238095238095237,-3.73015873015873,15.793650793650793,-10.079365079365079,7.857142857142857,2.7777777777777777,1.349206349206349,10.396825396825395,11.349206349206348,-5.952380952380952,-2.619047619047619,-3.095238095238095,-0.07936507936507936,-2.7777777777777777,1.349206349206349,-325.0,-325.0,-325.0,-325.0,-325.0,-7.5396825396825395
22.777777777777775,14.365079365079364,15.476190476190474,20.238095238095237,-3.73015873015873,15.793650793650793,-10.079365079365079,7.857142857142857,2.7777777777777777,1.349206349206349,10.396825396825395,11.349206349206348,-5.952380952380952,-2.619047619047619,-3.095238095238095,-0.07936507936507936,-2.7777777777777777,1.349206349206349,-325.0,-325.0,-325.0,-325.0,-325.0,-7.5396825396825395
25.317460317460316,-1.507936507936508,3.4126984126984126,-6.26984126984127,-13.253968253968253,-8.333333333333332,-15.476190476190474,-7.5396825396825395,-3.4126984126984126,-13.888888888888888,7.698412698412698,2.142857142857143,-14.523809523809524,-2.7777777777777777,-20.873015873015873,-11.19047619047619,-2.619047619047619,1.6666666666666665,-325.0,-325.0,-325.0,-325.0,-325.0,-7.5396825396825395
25.317460317460316,-1.507936507936508,3.4126984126984126,-6.26984126984127,-13.253968253968253,-8.333333333333332,-15.476190476190474,-7.5396825396825395,-3.4126984126984126,-13.888888888888888,7.698412698412698,2.142857142857143,-14.523809523809524,-2.7777777777777777,-20.873015873015873,-11.19047619047619,-2.619047619047619,1.6666666666666665,-325.0,-325.0,-325.0,-325.0,-325.0,-7.5396825396825395
11.19047619047619,-18.015873015873016,1.984126984126984,-18.96825396825397,-6.746031746031746,-20.396825396825395,-4.523809523809524,-15.158730158730158,7.3809523809523805,-12.46031746031746,4.365079365079365,-5.7936507936507935,-15.317460317460316,-4.0476190476190474,-0.3968253968253968,-11.984126984126984,-2.619047619047619,1.1904761904761905,-325.0,-325.0,-325.0,-325.0,-325.0,-7.5396825396825395
11.19047619047619,-18.015873015873016,1.984126984126984,-18.96825396825397,-6.746031746031746,-20.396825396825395,-4.523809523809524,-15.158730158730158,7.3809523809523805,-12.46031746031746,4.365079365079365,-5.7936507936507935,-15.317460317460316,-4.0476190476190474,-0.3968253968253968,-11.984126984126984,-2.619047619047619,1.1904761904761905,-325.0,-325.0,-325.0,-325.0,-325.0,-7.5396825396825395
0.873015873015873,-27.698412698412696,4.365079365079365,-25.0,1.984126984126984,-23.730158730158728,4.0476190476190474,-21.19047619047619,3.4126984126984126,-15.95238095238095,-1.507936507936508,-13.571428571428571,-15.476190476190474,-9.285714285714285,2.3015873015873014,-13.888888888888888,-3.095238095238095,1.349206349206349,-325.0,-325.0,-325.0,-325.0,-325.0,-7.5396825396825395
0.873015873015873,-27.698412698412696,4.365079365079365,-25.0,1.984126984126984,-23.730158730158728,4.0476190476190474,-21.19047619047619,3.4126984126984126,-15.95238095238095,-1.507936507936508,-13.571428571428571,-15.476190476190474,-9.285714285714285,2.3015873015873014,-13.888888888888888,-3.095238095238095,1.349206349206349,-325.0,-325.0,-325.0,-325.0,-325.0,-7.5396825396825395
-7.698412698412698,-29.126984126984127,-0.7142857142857142,-27.063492063492063,2.9365079365079363,-25.476190476190474,6.904761904761904,-18.49206349206349,-1.6666666666666665,-12.936507936507935,-12.142857142857142,-15.95238095238095,-15.476190476190474,-18.80952380952381,7.3809523809523805,-14.365079365079364,-2.7777777777777777,1.1904761904761905,-325.0,-325.0,-325.0,-325.0,-325.0,-7.5396825396825395
-7.698412698412698,-29.126984126984127,-0.7142857142857142,-27.063492063492063,2.9365079365079363,-25.476190476190474,6.904761904761904,-18.49206349206349,-1.6666666666666665,-12.936507936507935,-12.142857142857142,-15.95238095238095,-15.476190476190474,-18.80952380952381,7.3809523809523805,-14.365079365079364,-2.7777777777777777,1.1904761904761905,-325.0,-325.0,-325.0,-325.0,-325.0,-7.5396825396825395
0.5555555555555556,-8.174603174603174,5.634920634920634,-4.841269841269841,6.26984126984127,0.873015873015873,3.4126984126984126,-1.984126984126984,-0.3968253968253968,-6.428571428571428,-12.936507936507935,-6.26984126984127,-7.857142857142857,-13.095238095238095,18.65079365079365,-4.0476190476190474,-2.619047619047619,1.507936507936508,-325.0,-325.0,-325.0,-325.0,-325.0,-321.8253968253968
0.5555555555555556,-8.174603174603174,5.634920634920634,-4.841269841269841,6.26984126984127,0.873015873015873,3.4126984126984126,-1.984126984126984,-0.3968253968253968,-6.428571428571428,-12.936507936507935,-6.26984126984127,-7.857142857142857,-13.095238095238095,18.65079365079365,-4.0476190476190474,-2.619047619047619,1.507936507936508,-325.0,-325.0,-325.0,-325.0,-325.0,-321.8253968253968
28.174603174603174,10.238095238095237,10.873015873015872,7.5396825396825395,4.682539682539682,20.07936507936508,-3.4126984126984126,12.777777777777777,2.46031746031746,-0.5555555555555556,-1.984126984126984,1.6666666666666665,-13.73015873015873,-4.2063492063492065,1.984126984126984,6.587301587301587,-2.619047619047619,1.349206349206349,-325.0,-325.0,-325.0,-325.0,-325.0,-321.8253968253968
28.174603174603174,10.238095238095237,10.873015873015872,7.5396825396825395,4.682539682539682,20.07936507936508,-3.4126984126984126,12.777777777777777,2.46031746031746,-0.5555555555555556,-1.984126984126984,1.6666666666666665,-13.73015873015873,-4.2063492063492065,1.984126984126984,6.587301587301587,-2.619047619047619,1.349206349206349,-325.0,-325.0,-325.0,-325.0,-325.0,-321.8253968253968
54.68253968253968,21.19047619047619,18.333333333333332,13.095238095238095,10.396825396825395,23.253968253968253,1.984126984126984,10.396825396825395,8.492063492063492,-11.507936507936508,10.396825396825395,5.0,-16.428571428571427,-3.571428571428571,-5.7936507936507935,3.73015873015873,-2.7777777777777777,1.507936507936508,-325.0,-325.0,-325.0,-325.0,-325.0,-321.8253968253968
54.68253968253968,21.19047619047619,18.333333333333332,13.095238095238095,10.396825396825395,23.253968253968253,1.984126984126984,10.396825396825395,8.492063492063492,-11.507936507936508,10.396825396825395,5.0,-16.428571428571427,-3.571428571428571,-5.7936507936507935,3.73015873015873,-2.7777777777777777,1.507936507936508,-325.0,-325.0,-325.0,-325.0,-325.0,-321.8253968253968
52.460317460317455,21.507936507936506,20.555555555555554,9.761904761904761,14.365079365079364,17.698412698412696,14.84126984126984,15.793650793650793,19.285714285714285,2.9365079365079363,15.95238095238095,4.523809523809524,-11.507936507936508,-5.317460317460317,5.476190476190476,8.65079365079365,-2.7777777777777777,1.349206349206349,-325.0,-325.0,-325.0,-325.0,-325.0,-321.8253968253968
52.460317460317455,21.507936507936506,20.555555555555554,9.761904761904761,14.365079365079364,17.698412698412696,14.84126984126984,15.793650793650793,19.285714285714285,2.9365079365079363,15.95238095238095,4.523809523809524,-11.507936507936508,-5.317460317460317,5.476190476190476,8.65079365079365,-2.7777777777777777,1.349206349206349,-325.0,-325.0,-325.0,-325.0,-325.0,-321.8253968253968
32.93650793650794,18.333333333333332,16.11111111111111,1.507936507936508,14.047619047619047,3.571428571428571,15.317460317460316,5.476190476190476,12.46031746031746,4.523809523809524,13.095238095238095,0.7142857142857142,-1.6666666666666665,-10.238095238095237,11.349206349206348,1.8253968253968254,-3.253968253968254,1.507936507936508,-325.0,-325.0,-325.0,-325.0,-325.0,-321.8253968253968
32.93650793650794,18.333333333333332,16.11111111111111,1.507936507936508,14.047619047619047,3.571428571428571,15.317460317460316,5.476190476190476,12.46031746031746,4.523809523809524,13.095238095238095,0.7142857142857142,-1.6666666666666665,-10.238095238095237,11.349206349206348,1.8253968253968254,-3.253968253968254,1.507936507936508,-325.0,-325.0,-325.0,-325.0,-325.0,-321.8253968253968
23.88888888888889,5.158730158730158,13.73015873015873,-11.19047619047619,6.746031746031746,-6.111111111111111,8.492063492063492,-10.555555555555555,1.6666666666666665,-4.0476190476190474,1.984126984126984,-7.3809523809523805,1.349206349206349,-20.396825396825395,12.619047619047619,-9.920634920634921,-3.571428571428571,1.984126984126984,-325.0,-325.0,-325.0,-325.0,-325.0,-7.5396825396825395
23.88888888888889,5.158730158730158,13.73015873015873,-11.19047619047619,6.746031746031746,-6.111111111111111,8.492063492063492,-10.555555555555555,1.6666666666666665,-4.0476190476190474,1.984126984126984,-7.3809523809523805,1.349206349206349,-20.396825396825395,12.619047619047619,-9.920634920634921,-3.571428571428571,1.984126984126984,-325.0,-325.0,-325.0,-325.0,-325.0,-7.5396825396825395
16.587301587301585,7.698412698412698,9.126984126984127,-8.174603174603174,1.349206349206349,-11.825396825396824,-5.634920634920634,-20.238095238095237,-7.857142857142857,-10.714285714285714,-2.3015873015873014,-6.904761904761904,12.777777777777777,-15.634920634920634,6.587301587301587,-20.873015873015873,-3.571428571428571,1.1904761904761905,-325.0,-325.0,-325.0,-325.0,-325.0,-7.5396825396825395
16.587301587301585,7.698412698412698,9.126984126984127,-8.174603174603174,1.349206349206349,-11.825396825396824,-5.634920634920634,-20.238095238095237,-7.857142857142857,-10.714285714285714,-2.3015873015873014,-6.904761904761904,12.777777777777777,-15.634920634920634,6.587301587301587,-20.873015873015873,-3.571428571428571,1.1904761904761905,-325.0,-325.0,-325.0,-325.0,-325.0,-7.5396825396825395
22.3015873015873,14.047619047619047,8.65079365079365,-8.968253968253968,2.619047619047619,-12.46031746031746,-13.888888888888888,-19.444444444444443,-10.079365079365079,-16.746031746031743,4.841269841269841,3.571428571428571,18.015873015873016,-2.9365079365079363,-2.9365079365079363,-17.22222222222222,-3.095238095238095,1.1904761904761905,-325.0,-325.0,-325.0,-325.0,-325.0,-7.5396825396825395
22.3015873015873,14.047619047619047,8.65079365079365,-8.968253968253968,2.619047619047619,-12.46031746031746,-13.888888888888888,-19.444444444444443,-10.079365079365079,-16.746031746031743,4.841269841269841,3.571428571428571,18.015873015873016,-2.9365079365079363,-2.9365079365079363,-17.22222222222222,-3.095238095238095,1.1904761904761905,-325.0,-325.0,-325.0,-325.0,-325.0,-7.5396825396825395
25.0,12.142857142857142,7.063492063492063,-5.158730158730158,4.2063492063492065,-8.968253968253968,-5.476190476190476,-15.634920634920634,1.1904761904761905,-12.777777777777777,3.571428571428571,-2.142857142857143,11.507936507936508,-4.841269841269841,-3.571428571428571,-16.746031746031743,-3.095238095238095,1.1904761904761905,-325.0,-325.0,-325.0,-325.0,-325.0,-7.5396825396825395
25.0,12.142857142857142,7.063492063492063,-5.158730158730158,4.2063492063492065,-8.968253968253968,-5.476190476190476,-15.634920634920634,1.1904761904761905,-12.777777777777777,3.571428571428571,-2.142857142857143,11.507936507936508,-4.841269841269841,-3.571428571428571,-16.746031746031743,-3.095238095238095,1.1904761904761905,-325.0,-325.0,-325.0,-325.0,-325.0,-7.5396825396825395
14.365079365079364,0.23809523809523808,-7.5396825396825395,-11.031746031746032,-5.634920634920634,-13.095238095238095,-4.523809523809524,-11.507936507936508,4.841269841269841,-5.317460317460317,-3.4126984126984126,-5.952380952380952,6.111111111111111,-11.507936507936508,-4.841269841269841,-8.65079365079365,-2.9365079365079363,1.1904761904761905,-325.0,-325.0,-325.0,-325.0,-325.0,-7.5396825396825395
14.365079365079364,0.23809523809523808,-7.5396825396825395,-11.031746031746032,-5.634920634920634,-13.095238095238095,-4.523809523809524,-11.507936507936508,4.841269841269841,-5.317460317460317,-3.4126984126984126,-5.952380952380952,6.111111111111111,-11.507936507936508,-4.841269841269841,-8.65079365079365,-2.9365079365079363,1.1904761904761905,-325.0,-325.0,-325.0,-325.0,-325.0,-7.5396825396825395
16.428571428571427,-7.063492063492063,-1.349206349206349,-7.698412698412698,-1.6666666666666665,-4.682539682539682,8.333333333333332,1.507936507936508,18.49206349206349,6.587301587301587,0.07936507936507936,-9.920634920634921,5.7936507936507935,-13.253968253968253,15.634920634920634,0.3968253968253968,-3.095238095238095,1.507936507936508,-325.0,-325.0,-325.0,-325.0,-325.0,-321.8253968253968
16.428571428571427,-7.063492063492063,-1.349206349206349,-7.698412698412698,-1.6666666666666665,-4.682539682539682,8.333333333333332,1.507936507936508,18.49206349206349,6.587301587301587,0.07936507936507936,-9.920634920634921,5.7936507936507935,-13.253968253968253,15.634920634920634,0.3968253968253968,-3.095238095238095,1.507936507936508,-325.0,-325.0,-325.0,-325.0,-325.0,-321.8253968253968
13.571428571428571,-7.5396825396825395,-3.095238095238095,-4.841269841269841,-4.841269841269841,5.317460317460317,6.587301587301587,10.714285714285714,14.047619047619047,9.761904761904761,1.984126984126984,-3.4126984126984126,-4.2063492063492065,-10.079365079365079,7.698412698412698,4.2063492063492065,-2.9365079365079363,1.349206349206349,-325.0,-325.0,-325.0,-325.0,-325.0,-321.8253968253968
13.571428571428571,-7.5396825396825395,-3.095238095238095,-4.841269841269841,-4.841269841269841,5.317460317460317,6.587301587301587,10.714285714285714,14.047619047619047,9.761904761904761,1.984126984126984,-3.4126984126984126,-4.2063492063492065,-10.079365079365079,7.698412698412698,4.2063492063492065,-2.9365079365079363,1.349206349206349,-325.0,-325.0,-325.0,-325.0,-325.0,-321.8253968253968
5.476190476190476,-18.49206349206349,3.571428571428571,-19.126984126984127,-5.476190476190476,-12.46031746031746,-2.7777777777777777,-6.904761904761904,4.841269841269841,-9.603174603174603,7.698412698412698,-7.063492063492063,-5.634920634920634,-10.238095238095237,-3.571428571428571,-7.857142857142857,-3.4126984126984126,1.1904761904761905,-325.0,-325.0,-325.0,-325.0,-325.0,-321.8253968253968
5.476190476190476,-18.49206349206349,3.571428571428571,-19.126984126984127,-5.476190476190476,-12.46031746031746,-2.7777777777777777,-6.904761904761904,4.841269841269841,-9.603174603174603,7.698412698412698,-7.063492063492063,-5.634920634920634,-10.238095238095237,-3.571428571428571,-7.857142857142857,-3.4126984126984126,1.1904761904761905,-325.0,-325.0,-325.0,-325.0,-325.0,-321.8253968253968
16.26984126984127,-6.111111111111111,17.857142857142858,-4.841269841269841,7.063492063492063,-18.80952380952381,-4.523809523809524,-20.238095238095237,0.7142857142857142,-18.174603174603174,19.444444444444443,-4.365079365079365,-3.571428571428571,-14.365079365079364,1.8253968253968254,-18.174603174603174,-3.73015873015873,1.6666666666666665,-325.0,-325.0,-325.0,-325.0,-325.0,-321.8253968253968
16.26984126984127,-6.111111111111111,17.857142857142858,-4.841269841269841,7.063492063492063,-18.80952380952381,-4.523809523809524,-20.238095238095237,0.7142857142857142,-18.174603174603174,19.444444444444443,-4.365079365079365,-3.571428571428571,-14.365079365079364,1.8253968253968254,-18.174603174603174,-3.73015873015873,1.6666666666666665,-325.0,-325.0,-325.0,-325.0,-325.0,-321.8253968253968
19.444444444444443,-3.095238095238095,16.428571428571427,-8.492063492063492,-3.095238095238095,-29.6031746031746,-16.11111111111111,-35.15873015873016,-15.0,-29.126984126984127,17.857142857142858,-1.507936507936508,-8.809523809523808,-14.682539682539682,-17.38095238095238,-31.19047619047619,-4.0476190476190474,1.507936507936508,-325.0,-325.0,-325.0,-325.0,-325.0,-321.8253968253968
19.444444444444443,-3.095238095238095,16.428571428571427,-8.492063492063492,-3.095238095238095,-29.6031746031746,-16.11111111111111,-35.15873015873016,-15.0,-29.126984126984127,17.857142857142858,-1.507936507936508,-8.809523809523808,-14.682539682539682,-17.38095238095238,-31.19047619047619,-4.0476190476190474,1.507936507936508,-325.0,-325.0,-325.0,-325.0,-325.0,-321.8253968253968
10.714285714285714,-3.095238095238095,8.174603174603174,-11.825396825396824,-6.26984126984127,-27.698412698412696,-14.84126984126984,-30.396825396825395,-9.126984126984127,-19.6031746031746,8.968253968253968,-2.46031746031746,-19.6031746031746,-17.698412698412696,-16.746031746031743,-32.93650793650794,-3.571428571428571,1.507936507936508,-325.0,-325.0,-325.0,-325.0,-325.0,-7.5396825396825395
10.714285714285714,-3.095238095238095,8.174603174603174,-11.825396825396824,-6.26984126984127,-27.698412698412696,-14.84126984126984,-30.396825396825395,-9.126984126984127,-19.6031746031746,8.968253968253968,-2.46031746031746,-19.6031746031746,-17.698412698412696,-16.746031746031743,-32.93650793650794,-3.571428571428571,1.507936507936508,-325.0,-325.0,-325.0,-325.0,-325.0,-7.5396825396825395
12.142857142857142,-14.365079365079364,12.777777777777777,3.571428571428571,8.492063492063492,3.571428571428571,1.349206349206349,-2.46031746031746,5.158730158730158,-3.888888888888889,11.825396825396824,-3.095238095238095,-12.619047619047619,-15.0,-2.7777777777777777,-15.476190476190474,-3.4126984126984126,1.0317460317460316,-325.0,-325.0,-325.0,-325.0,-325.0,-7.5396825396825395
12.142857142857142,-14.365079365079364,12.777777777777777,3.571428571428571,8.492063492063492,3.571428571428571,1.349206349206349,-2.46031746031746,5.158730158730158,-3.888888888888889,11.825396825396824,-3.095238095238095,-12.619047619047619,-15.0,-2.7777777777777777,-15.476190476190474,-3.4126984126984126,1.0317460317460316,-325.0,-325.0,-325.0,-325.0,-325.0,-7.5396825396825395
3.888888888888889,-15.95238095238095,6.746031746031746,10.396825396825395,8.174603174603174,21.19047619047619,3.888888888888889,11.666666666666666,2.46031746031746,-3.571428571428571,7.5396825396825395,0.873015873015873,-14.365079365079364,-9.444444444444445,-5.0,-8.492063492063492,-3.571428571428571,0.873015873015873,-325.0,-325.0,-325.0,-325.0,-325.0,-7.5396825396825395
3.888888888888889,-15.95238095238095,6.746031746031746,10.396825396825395,8.174603174603174,21.19047619047619,3.888888888888889,11.666666666666666,2.46031746031746,-3.571428571428571,7.5396825396825395,0.873015873015873,-14.365079365079364,-9.444444444444445,-5.0,-8.492063492063492,-3.571428571428571,0.873015873015873,-325.0,-325.0,-325.0,-325.0,-325.0,-7.5396825396825395
-23.095238095238095,-40.714285714285715,-5.476190476190476,-6.26984126984127,-7.857142857142857,7.222222222222221,-1.984126984126984,11.19047619047619,4.2063492063492065,1.8253968253968254,-11.507936507936508,-8.968253968253968,-17.38095238095238,-14.523809523809524,-7.5396825396825395,-7.3809523809523805,-2.619047619047619,1.0317460317460316,-325.0,-325.0,-325.0,-325.0,-325.0,-7.5396825396825395
-23.095238095238095,-40.714285714285715,-5.476190476190476,-6.26984126984127,-7.857142857142857,7.222222222222221,-1.984126984126984,11.19047619047619,4.2063492063492065,1.8253968253968254,-11.507936507936508,-8.968253968253968,-17.38095238095238,-14.523809523809524,-7.5396825396825395,-7.3809523809523805,-2.619047619047619,1.0317460317460316,-325.0,-325.0,-325.0,-325.0,-325.0,-7.5396825396825395
-49.76190476190476,-56.42857142857142,-10.079365079365079,-12.619047619047619,-15.158730158730158,-11.031746031746032,-7.857142857142857,-9.285714285714285,-3.73015873015873,-10.396825396825395,-13.253968253968253,-12.46031746031746,-11.984126984126984,-23.41269841269841,-0.873015873015873,-19.76190476190476,-2.7777777777777777,0.5555555555555556,-325.0,-325.0,-325.0,-325.0,-325.0,-7.5396825396825395
-49.76190476190476,-56.42857142857142,-10.079365079365079,-12.619047619047619,-15.158730158730158,-11.031746031746032,-7.857142857142857,-9.285714285714285,-3.73015873015873,-10.396825396825395,-13.253968253968253,-12.46031746031746,-11.984126984126984,-23.41269841269841,-0.873015873015873,-19.76190476190476,-2.7777777777777777,0.5555555555555556,-325.0,-325.0,-325.0,-325.0,-325.0,-7.5396825396825395
-80.55555555555556,-86.74603174603175,-10.396825396825395,-32.3015873015873,-17.38095238095238,-23.253968253968253,-15.793650793650793,-27.063492063492063,-15.95238095238095,-26.428571428571427,-13.253968253968253,-16.26984126984127,-14.523809523809524,-20.07936507936508,-21.825396825396822,-31.666666666666664,-2.619047619047619,0.5555555555555556,-325.0,-325.0,-325.0,-325.0,-325.0,-321.8253968253968
-80.55555555555556,-86.74603174603175,-10.396825396825395,-32.3015873015873,-17.38095238095238,-23.253968253968253,-15.793650793650793,-27.063492063492063,-15.95238095238095,-26.428571428571427,-13.253968253968253,-16.26984126984127,-14.523809523809524,-20.07936507936508,-21.825396825396822,-31.666666666666664,-2.619047619047619,0.5555555555555556,-325.0,-325.0,-325.0,-325.0,-325.0,-321.8253968253968
-95.0,-99.92063492063491,-13.571428571428571,-34.52380952380952,-18.333333333333332,-28.96825396825397,-31.19047619047619,-34.36507936507936,-28.015873015873016,-32.93650793650794,-10.714285714285714,-8.968253968253968,-17.38095238095238,-12.936507936507935,-26.746031746031743,-33.73015873015873,-2.619047619047619,-0.23809523809523808,-325.0,-325.0,-325.0,-325.0,-325.0,-321.8253968253968
-95.0,-99.92063492063491,-13.571428571428571,-34.52380952380952,-18.333333333333332,-28.96825396825397,-31.19047619047619,-34.36507936507936,-28.015873015873016,-32.93650793650794,-10.714285714285714,-8.968253968253968,-17.38095238095238,-12.936507936507935,-26.746031746031743,-33.73015873015873,-2.619047619047619,-0.23809523809523808,-325.0,-325.0,-325.0,-325.0,-325.0,-321.8253968253968
-79.12698412698413,-99.76190476190476,-27.063492063492063,-45.79365079365079,-26.26984126984127,-39.44444444444444,-40.55555555555555,-37.22222222222222,-30.07936507936508,-32.14285714285714,-9.603174603174603,-8.333333333333332,-11.19047619047619,-14.047619047619047,-28.015873015873016,-31.19047619047619,-2.7777777777777777,-0.07936507936507936,-325.0,-325.0,-325.0,-325.0,-325.0,-321.8253968253968
-79.12698412698413,-99.76190476190476,-27.063492063492063,-45.79365079365079,-26.26984126984127,-39.44444444444444,-40.55555555555555,-37.22222222222222,-30.07936507936508,-32.14285714285714,-9.603174603174603,-8.333333333333332,-11.19047619047619,-14.047619047619047,-28.015873015873016,-31.19047619047619,-2.7777777777777777,-0.07936507936507936,-325.0,-325.0,-325.0,-325.0,-325.0,-321.8253968253968
-45.79365079365079,-61.666666666666664,-26.11111111111111,-40.55555555555555,-29.285714285714285,-39.44444444444444,-35.15873015873016,-31.507936507936506,-25.634920634920633,-25.79365079365079,-13.73015873015873,-0.3968253968253968,-18.96825396825397,-12.46031746031746,-27.38095238095238,-25.634920634920633,-1.984126984126984,0.3968253968253968,-325.0,-325.0,-325.0,-325.0,-325.0,-321.8253968253968
-45.79365079365079,-61.666666666666664,-26.11111111111111,-40.55555555555555,-29.285714285714285,-39.44444444444444,-35.15873015873016,-31.507936507936506,-25.634920634920633,-25.79365079365079,-13.73015873015873,-0.3968253968253968,-18.96825396825397,-12.46031746031746,-27.38095238095238,-25.634920634920633,-1.984126984126984,0.3968253968253968,-325.0,-325.0,-325.0,-325.0,-325.0,-321.8253968253968
-22.936507936507937,-27.22222222222222,-21.825396825396822,-23.095238095238095,-23.095238095238095,-20.71428571428571,-15.0,-12.3015873015873,-10.873015873015872,-8.968253968253968,-12.3015873015873,5.158730158730158,-20.873015873015873,-15.95238095238095,-5.317460317460317,-13.095238095238095,-2.9365079365079363,0.23809523809523808,-325.0,-325.0,-325.0,-325.0,-325.0,-321.8253968253968
-22.936507936507937,-27.22222222222222,-21.825396825396822,-23.095238095238095,-23.095238095238095,-20.71428571428571,-15.0,-12.3015873015873,-10.873015873015872,-8.968253968253968,-12.3015873015873,5.158730158730158,-20.873015873015873,-15.95238095238095,-5.317460317460317,-13.095238095238095,-2.9365079365079363,0.23809523809523808,-325.0,-325.0,-325.0,-325.0,-325.0,-321.8253968253968
0.5555555555555556,1.0317460317460316,-8.492063492063492,-5.952380952380952,-10.555555555555555,-3.571428571428571,0.7142857142857142,6.26984126984127,5.0,5.317460317460317,-6.587301587301587,19.76190476190476,-15.95238095238095,-16.904761904761905,-2.619047619047619,-0.07936507936507936,-2.9365079365079363,0.07936507936507936,-325.0,-325.0,-325.0,-325.0,-325.0,-7.5396825396825395
0.5555555555555556,1.0317460317460316,-8.492063492063492,-5.952380952380952,-10.555555555555555,-3.571428571428571,0.7142857142857142,6.26984126984127,5.0,5.317460317460317,-6.587301587301587,19.76190476190476,-15.95238095238095,-16.904761904761905,-2.619047619047619,-0.07936507936507936,-2.9365079365079363,0.07936507936507936,-325.0,-325.0,-325.0,-325.0,-325.0,-7.5396825396825395
19.92063492063492,25.634920634920633,2.7777777777777777,0.873015873015873,4.2063492063492065,-0.23809523809523808,8.492063492063492,7.3809523809523805,6.587301587301587,4.0476190476190474,-1.1904761904761905,31.666666666666664,-7.222222222222221,-11.349206349206348,2.7777777777777777,3.888888888888889,-2.46031746031746,0.3968253968253968,-325.0,-325.0,-325.0,-325.0,-325.0,-7.5396825396825395
19.92063492063492,25.634920634920633,2.7777777777777777,0.873015873015873,4.2063492063492065,-0.23809523809523808,8.492063492063492,7.3809523809523805,6.587301587301587,4.0476190476190474,-1.1904761904761905,31.666666666666664,-7.222222222222221,-11.349206349206348,2.7777777777777777,3.888888888888889,-2.46031746031746,0.3968253968253968,-325.0,-325.0,-325.0,-325.0,-325.0,-7.5396825396825395
40.238095238095234,41.03174603174603,11.19047619047619,-0.23809523809523808,7.857142857142857,-6.746031746031746,5.952380952380952,-14.047619047619047,-1.8253968253968254,-11.825396825396824,4.841269841269841,36.42857142857142,11.984126984126984,-5.317460317460317,1.984126984126984,-10.396825396825395,-3.253968253968254,0.873015873015873,-325.0,-325.0,-325.0,-325.0,-325.0,-7.5396825396825395
40.238095238095234,41.03174603174603,11.19047619047619,-0.23809523809523808,7.857142857142857,-6.746031746031746,5.952380952380952,-14.047619047619047,-1.8253968253968254,-11.825396825396824,4.841269841269841,36.42857142857142,11.984126984126984,-5.317460317460317,1.984126984126984,-10.396825396825395,-3.253968253968254,0.873015873015873,-325.0,-325.0,-325.0,-325.0,-325.0,-7.5396825396825395
37.22222222222222,39.12698412698413,12.142857142857142,3.095238095238095,3.4126984126984126,-11.507936507936508,-6.428571428571428,-28.333333333333332,-10.873015873015872,-19.92063492063492,0.23809523809523808,35.63492063492063,13.571428571428571,-1.507936507936508,-7.857142857142857,-18.80952380952381,-2.619047619047619,1.349206349206349,-325.0,-325.0,-325.0,-325.0,-325.0,-7.5396825396825395
37.22222222222222,39.12698412698413,12.142857142857142,3.095238095238095,3.4126984126984126,-11.507936507936508,-6.428571428571428,-28.333333333333332,-10.873015873015872,-19.92063492063492,0.23809523809523808,35.63492063492063,13.571428571428571,-1.507936507936508,-7.857142857142857,-18.80952380952381,-2.619047619047619,1.349206349206349,-325.0,-325.0,-325.0,-325.0,-325.0,-7.5396825396825395
28.015873015873016,42.3015873015873,15.634920634920634,4.2063492063492065,5.317460317460317,-10.555555555555555,-1.0317460317460316,-30.07936507936508,-13.571428571428571,-21.19047619047619,1.1904761904761905,27.539682539682538,22.142857142857142,-4.841269841269841,7.5396825396825395,-20.71428571428571,-1.507936507936508,0.7142857142857142,-325.0,-325.0,-325.0,-325.0,-325.0,-7.5396825396825395
28.015873015873016,42.3015873015873,15.634920634920634,4.2063492063492065,5.317460317460317,-10.555555555555555,-1.0317460317460316,-30.07936507936508,-13.571428571428571,-21.19047619047619,1.1904761904761905,27.539682539682538,22.142857142857142,-4.841269841269841,7.5396825396825395,-20.71428571428571,-1.507936507936508,0.7142857142857142,-325.0,-325.0,-325.0,-325.0,-325.0,-7.5396825396825395
18.96825396825397,21.825396825396822,11.031746031746032,-2.142857142857143,2.142857142857143,-12.936507936507935,5.952380952380952,-22.936507936507937,-1.6666666666666665,-17.063492063492063,-4.523809523809524,13.571428571428571,16.428571428571427,-13.73015873015873,13.095238095238095,-17.698412698412696,-2.3015873015873014,0.7142857142857142,-325.0,-325.0,-325.0,-325.0,-325.0,-321.8253968253968
18.96825396825397,21.825396825396822,11.031746031746032,-2.142857142857143,2.142857142857143,-12.936507936507935,5.952380952380952,-22.936507936507937,-1.6666666666666665,-17.063492063492063,-4.523809523809524,13.571428571428571,16.428571428571427,-13.73015873015873,13.095238095238095,-17.698412698412696,-2.3015873015873014,0.7142857142857142,-325.0,-325.0,-325.0,-325.0,-325.0,-321.8253968253968
7.3809523809523805,20.71428571428571,-1.8253968253968254,-2.619047619047619,-1.1904761904761905,-8.333333333333332,2.3015873015873014,-9.761904761904761,-0.5555555555555556,-10.873015873015872,-8.65079365079365,7.222222222222221,20.396825396825395,-18.49206349206349,-0.23809523809523808,-13.412698412698411,-2.619047619047619,1.1904761904761905,-325.0,-325.0,-325.0,-325.0,-325.0,-321.8253968253968
7.3809523809523805,20.71428571428571,-1.8253968253968254,-2.619047619047619,-1.1904761904761905,-8.333333333333332,2.3015873015873014,-9.761904761904761,-0.5555555555555556,-10.873015873015872,-8.65079365079365,7.222222222222221,20.396825396825395,-18.49206349206349,-0.23809523809523808,-13.412698412698411,-2.619047619047619,1.1904761904761905,-325.0,-325.0,-325.0,-325.0,-325.0,-321.8253968253968
-6.746031746031746,11.507936507936508,-5.952380952380952,-0.7142857142857142,4.365079365079365,7.857142857142857,-0.5555555555555556,7.5396825396825395,-1.0317460317460316,0.873015873015873,-7.857142857142857,0.7142857142857142,15.95238095238095,-18.174603174603174,0.3968253968253968,-1.1904761904761905,-2.619047619047619,1.349206349206349,-325.0,-325.0,-325.0,-325.0,-325.0,-321.8253968253968
-6.746031746031746,11.507936507936508,-5.952380952380952,-0.7142857142857142,4.365079365079365,7.857142857142857,-0.5555555555555556,7.5396825396825395,-1.0317460317460316,0.873015873015873,-7.857142857142857,0.7142857142857142,15.95238095238095,-18.174603174603174,0.3968253968253968,-1.1904761904761905,-2.619047619047619,1.349206349206349,-325.0,-325.0,-325.0,-325.0,-325.0,-321.8253968253968
-4.682539682539682,2.619047619047619,-12.936507936507935,-8.968253968253968,-0.5555555555555556,5.634920634920634,0.3968253968253968,17.063492063492063,5.634920634920634,11.031746031746032,-9.444444444444445,-5.317460317460317,12.46031746031746,-15.0,-3.571428571428571,12.3015873015873,-1.984126984126984,1.507936507936508,-325.0,-325.0,-325.0,-325.0,-325.0,-321.8253968253968
-4.682539682539682,2.619047619047619,-12.936507936507935,-8.968253968253968,-0.5555555555555556,5.634920634920634,0.3968253968253968,17.063492063492063,5.634920634920634,11.031746031746032,-9.444444444444445,-5.317460317460317,12.46031746031746,-15.0,-3.571428571428571,12.3015873015873,-1.984126984126984,1.507936507936508,-325.0,-325.0,-325.0,-325.0,-325.0,-321.8253968253968
-8.015873015873016,4.0476190476190474,-15.793650793650793,-13.412698412698411,-5.476190476190476,-2.3015873015873014,0.7142857142857142,11.984126984126984,1.349206349206349,9.920634920634921,-10.714285714285714,-11.825396825396824,9.920634920634921,-19.126984126984127,-2.619047619047619,9.761904761904761,-1.507936507936508,1.507936507936508,-325.0,-325.0,-325.0,-325.0,-325.0,-321.8253968253968
-8.015873015873016,4.0476190476190474,-15.793650793650793,-13.412698412698411,-5.476190476190476,-2.3015873015873014,0.7142857142857142,11.984126984126984,1.349206349206349,9.920634920634921,-10.714285714285714,-11.825396825396824,9.920634920634921,-19.126984126984127,-2.619047619047619,9.761904761904761,-1.507936507936508,1.507936507936508,-325.0,-325.0,-325.0,-325.0,-325.0,-321.8253968253968
-1.984126984126984,-0.7142857142857142,-16.26984126984127,-23.88888888888889,-8.809523809523808,-20.238095238095237,-0.7142857142857142,-3.4126984126984126,-0.07936507936507936,10.079365079365079,-4.365079365079365,-14.365079365079364,9.285714285714285,-19.285714285714285,10.396825396825395,3.571428571428571,-1.1904761904761905,1.349206349206349,-325.0,-325.0,-325.0,-325.0,-325.0,-7.5396825396825395
-1.984126984126984,-0.7142857142857142,-16.26984126984127,-23.88888888888889,-8.809523809523808,-20.238095238095237,-0.7142857142857142,-3.4126984126984126,-0.07936507936507936,10.079365079365079,-4.365079365079365,-14.365079365079364,9.285714285714285,-19.285714285714285,10.396825396825395,3.571428571428571,-1.1904761904761905,1.349206349206349,-325.0,-325.0,-325.0,-325.0,-325.0,-7.5396825396825395
-4.365079365079365,-5.0,-18.96825396825397,-25.476190476190474,-19.126984126984127,-18.96825396825397,-10.714285714285714,-13.095238095238095,-8.015873015873016,2.142857142857143,-8.65079365079365,-14.206349206349206,1.507936507936508,-15.793650793650793,-1.984126984126984,-3.571428571428571,-1.349206349206349,1.1904761904761905,-325.0,-325.0,-325.0,-325.0,-325.0,-7.5396825396825395
-4.365079365079365,-5.0,-18.96825396825397,-25.476190476190474,-19.126984126984127,-18.96825396825397,-10.714285714285714,-13.095238095238095,-8.015873015873016,2.142857142857143,-8.65079365079365,-14.206349206349206,1.507936507936508,-15.793650793650793,-1.984126984126984,-3.571428571428571,-1.349206349206349,1.1904761904761905,-325.0,-325.0,-325.0,-325.0,-325.0,-7.5396825396825395
9.285714285714285,4.682539682539682,4.682539682539682,-2.46031746031746,-1.1904761904761905,-11.825396825396824,-1.8253968253968254,-30.07936507936508,-9.285714285714285,-24.206349206349206,-3.571428571428571,-4.0476190476190474,0.873015873015873,-4.0476190476190474,-1.507936507936508,-16.26984126984127,-2.3015873015873014,1.0317460317460316,-325.0,-325.0,-325.0,-325.0,-325.0,-7.5396825396825395
9.285714285714285,4.682539682539682,4.682539682539682,-2.46031746031746,-1.1904761904761905,-11.825396825396824,-1.8253968253968254,-30.07936507936508,-9.285714285714285,-24.206349206349206,-3.571428571428571,-4.0476190476190474,0.873015873015873,-4.0476190476190474,-1.507936507936508,-16.26984126984127,-2.3015873015873014,1.0317460317460316,-325.0,-325.0,-325.0,-325.0,-325.0,-7.5396825396825395
14.206349206349206,7.3809523809523805,15.476190476190474,6.746031746031746,7.857142857142857,-5.634920634920634,-2.9365079365079363,-31.19047619047619,-4.841269841269841,-30.71428571428571,3.888888888888889,-4.365079365079365,-3.4126984126984126,0.5555555555555556,-5.317460317460317,-28.333333333333332,-2.619047619047619,1.349206349206349,-325.0,-325.0,-325.0,-325.0,-325.0,-7.5396825396825395
14.206349206349206,7.3809523809523805,15.476190476190474,6.746031746031746,7.857142857142857,-5.634920634920634,-2.9365079365079363,-31.19047619047619,-4.841269841269841,-30.71428571428571,3.888888888888889,-4.365079365079365,-3.4126984126984126,0.5555555555555556,-5.317460317460317,-28.333333333333332,-2.619047619047619,1.349206349206349,-325.0,-325.0,-325.0,-325.0,-325.0,-7.5396825396825395
6.26984126984127,5.158730158730158,14.682539682539682,13.412698412698411,10.873015873015872,8.65079365079365,-9.920634920634921,-18.49206349206349,-10.873015873015872,-23.57142857142857,2.3015873015873014,-6.26984126984127,-12.3015873015873,-3.4126984126984126,-13.888888888888888,-23.57142857142857,-1.984126984126984,1.349206349206349,-325.0,-325.0,-325.0,-325.0,-325.0,-7.5396825396825395
6.26984126984127,5.158730158730158,14.682539682539682,13.412698412698411,10.873015873015872,8.65079365079365,-9.920634920634921,-18.49206349206349,-10.873015873015872,-23.57142857142857,2.3015873015873014,-6.26984126984127,-12.3015873015873,-3.4126984126984126,-13.888888888888888,-23.57142857142857,-1.984126984126984,1.349206349206349,-325.0,-325.0,-325.0,-325.0,-325.0,-7.5396825396825395
11.19047619047619,16.587301587301585,17.22222222222222,15.158730158730158,6.904761904761904,9.761904761904761,0.07936507936507936,0.07936507936507936,2.46031746031746,-9.285714285714285,8.65079365079365,-10.714285714285714,-10.714285714285714,-13.73015873015873,-3.4126984126984126,-16.904761904761905,-1.349206349206349,1.349206349206349,-325.0,-325.0,-325.0,-325.0,-325.0,-321.8253968253968
11.19047619047619,16.587301587301585,17.22222222222222,15.158730158730158,6.904761904761904,9.761904761904761,0.07936507936507936,0.07936507936507936,2.46031746031746,-9.285714285714285,8.65079365079365,-10.714285714285714,-10.714285714285714,-13.73015873015873,-3.4126984126984126,-16.904761904761905,-1.349206349206349,1.349206349206349,-325.0,-325.0,-325.0,-325.0,-325.0,-321.8253968253968
0.3968253968253968,4.523809523809524,10.238095238095237,5.0,4.682539682539682,7.3809523809523805,18.96825396825397,18.49206349206349,18.65079365079365,12.936507936507935,10.555555555555555,-19.126984126984127,-14.365079365079364,-18.49206349206349,8.968253968253968,-0.873015873015873,-1.349206349206349,1.6666666666666665,-325.0,-325.0,-325.0,-325.0,-325.0,-321.8253968253968
0.3968253968253968,4.523809523809524,10.238095238095237,5.0,4.682539682539682,7.3809523809523805,18.96825396825397,18.49206349206349,18.65079365079365,12.936507936507935,10.555555555555555,-19.126984126984127,-14.365079365079364,-18.49206349206349,8.968253968253968,-0.873015873015873,-1.349206349206349,1.6666666666666665,-325.0,-325.0,-325.0,-325.0,-325.0,-321.8253968253968
2.142857142857143,-6.904761904761904,10.714285714285714,0.07936507936507936,7.3809523809523805,12.46031746031746,22.619047619047617,21.507936507936506,19.444444444444443,7.698412698412698,10.714285714285714,-20.07936507936508,-11.825396825396824,-10.396825396825395,4.523809523809524,-0.07936507936507936,-1.6666666666666665,1.6666666666666665,-325.0,-325.0,-325.0,-325.0,-325.0,-321.8253968253968
2.142857142857143,-6.904761904761904,10.714285714285714,0.07936507936507936,7.3809523809523805,12.46031746031746,22.619047619047617,21.507936507936506,19.444444444444443,7.698412698412698,10.714285714285714,-20.07936507936508,-11.825396825396824,-10.396825396825395,4.523809523809524,-0.07936507936507936,-1.6666666666666665,1.6666666666666665,-325.0,-325.0,-325.0,-325.0,-325.0,-321.8253968253968
-12.619047619047619,-25.0,-2.46031746031746,-4.2063492063492065,-4.841269841269841,-0.07936507936507936,-2.619047619047619,-14.84126984126984,-3.095238095238095,-16.904761904761905,10.238095238095237,-19.126984126984127,-12.619047619047619,-1.349206349206349,-3.4126984126984126,-21.03174603174603,-1.349206349206349,1.507936507936508,-325.0,-325.0,-325.0,-325.0,-325.0,-321.8253968253968
-12.619047619047619,-25.0,-2.46031746031746,-4.2063492063492065,-4.841269841269841,-0.07936507936507936,-2.619047619047619,-14.84126984126984,-3.095238095238095,-16.904761904761905,10.238095238095237,-19.126984126984127,-12.619047619047619,-1.349206349206349,-3.4126984126984126,-21.03174603174603,-1.349206349206349,1.507936507936508,-325.0,-325.0,-325.0,-325.0,-325.0,-321.8253968253968
-6.587301587301587,-11.349206349206348,-18.333333333333332,-6.746031746031746,-19.76190476190476,-24.047619047619047,-26.11111111111111,-48.49206349206349,-19.76190476190476,-32.77777777777778,1.8253968253968254,-14.047619047619047,-15.0,4.2063492063492065,-18.174603174603174,-34.2063492063492,-2.619047619047619,1.0317460317460316,-325.0,-325.0,-325.0,-325.0,-325.0,-321.8253968253968
-6.587301587301587,-11.349206349206348,-18.333333333333332,-6.746031746031746,-19.76190476190476,-24.047619047619047,-26.11111111111111,-48.49206349206349,-19.76190476190476,-32.77777777777778,1.8253968253968254,-14.047619047619047,-15.0,4.2063492063492065,-18.174603174603174,-34.2063492063492,-2.619047619047619,1.0317460317460316,-325.0,-325.0,-325.0,-325.0,-325.0,-321.8253968253968
-2.7777777777777777,-18.80952380952381,-15.0,-28.96825396825397,-23.253968253968253,-48.49206349206349,-35.476190476190474,-73.57142857142857,-26.746031746031743,-55.63492063492063,1.0317460317460316,-23.41269841269841,-12.619047619047619,1.6666666666666665,-14.365079365079364,-45.15873015873016,-1.984126984126984,1.1904761904761905,-325.0,-325.0,-325.0,-325.0,-325.0,-7.5396825396825395
-2.7777777777777777,-18.80952380952381,-15.0,-28.96825396825397,-23.253968253968253,-48.49206349206349,-35.476190476190474,-73.57142857142857,-26.746031746031743,-55.63492063492063,1.0317460317460316,-23.41269841269841,-12.619047619047619,1.6666666666666665,-14.365079365079364,-45.15873015873016,-1.984126984126984,1.1904761904761905,-325.0,-325.0,-325.0,-325.0,-325.0,-7.5396825396825395
6.111111111111111,-14.047619047619047,-3.73015873015873,-21.666666666666664,-9.761904761904761,-41.666666666666664,-33.25396825396825,-63.25396825396825,-24.523809523809522,-50.079365079365076,0.07936507936507936,-22.142857142857142,-21.19047619047619,3.888888888888889,-21.19047619047619,-36.269841269841265,-2.3015873015873014,1.0317460317460316,-325.0,-325.0,-325.0,-325.0,-325.0,-7.5396825396825395
6.111111111111111,-14.047619047619047,-3.73015873015873,-21.666666666666664,-9.761904761904761,-41.666666666666664,-33.25396825396825,-63.25396825396825,-24.523809523809522,-50.079365079365076,0.07936507936507936,-22.142857142857142,-21.19047619047619,3.888888888888889,-21.19047619047619,-36.269841269841265,-2.3015873015873014,1.0317460317460316,-325.0,-325.0,-325.0,-325.0,-325.0,-7.5396825396825395
-3.253968253968254,-16.746031746031743,-7.063492063492063,-26.587301587301585,-2.619047619047619,-30.555555555555554,-23.57142857142857,-35.63492063492063,-13.412698412698411,-29.76190476190476,-6.428571428571428,-32.61904761904762,-26.26984126984127,-3.4126984126984126,-23.88888888888889,-17.063492063492063,-1.6666666666666665,1.6666666666666665,-325.0,-325.0,-325.0,-325.0,-325.0,-7.5396825396825395
-3.253968253968254,-16.746031746031743,-7.063492063492063,-26.587301587301585,-2.619047619047619,-30.555555555555554,-23.57142857142857,-35.63492063492063,-13.412698412698411,-29.76190476190476,-6.428571428571428,-32.61904761904762,-26.26984126984127,-3.4126984126984126,-23.88888888888889,-17.063492063492063,-1.6666666666666665,1.6666666666666665,-325.0,-325.0,-325.0,-325.0,-325.0,-7.5396825396825395
-1.349206349206349,-28.015873015873016,5.317460317460317,-19.76190476190476,17.539682539682538,-11.19047619047619,4.523809523809524,-7.857142857142857,8.492063492063492,-12.936507936507935,0.23809523809523808,-43.57142857142857,-12.3015873015873,-15.0,1.8253968253968254,-4.365079365079365,-1.8253968253968254,1.1904761904761905,-325.0,-325.0,-325.0,-325.0,-325.0,-7.5396825396825395
-1.349206349206349,-28.015873015873016,5.317460317460317,-19.76190476190476,17.539682539682538,-11.19047619047619,4.523809523809524,-7.857142857142857,8.492063492063492,-12.936507936507935,0.23809523809523808,-43.57142857142857,-12.3015873015873,-15.0,1.8253968253968254,-4.365079365079365,-1.8253968253968254,1.1904761904761905,-325.0,-325.0,-325.0,-325.0,-325.0,-7.5396825396825395
3.4126984126984126,-9.126984126984127,8.492063492063492,0.23809523809523808,25.79365079365079,13.888888888888888,30.07936507936508,22.777777777777775,28.96825396825397,9.761904761904761,1.0317460317460316,-28.49206349206349,-7.857142857142857,-12.777777777777777,16.428571428571427,11.825396825396824,-2.619047619047619,0.873015873015873,-325.0,-325.0,-325.0,-325.0,-325.0,-7.5396825396825395
3.4126984126984126,-9.126984126984127,8.492063492063492,0.23809523809523808,25.79365079365079,13.888888888888888,30.07936507936508,22.777777777777775,28.96825396825397,9.761904761904761,1.0317460317460316,-28.49206349206349,-7.857142857142857,-12.777777777777777,16.428571428571427,11.825396825396824,-2.619047619047619,0.873015873015873,-325.0,-325.0,-325.0,-325.0,-325.0,-7.5396825396825395
2.619047619047619,6.26984126984127,18.96825396825397,14.206349206349206,29.444444444444443,23.88888888888889,40.39682539682539,30.87301587301587,38.01587301587301,17.38095238095238,5.952380952380952,-16.26984126984127,-5.634920634920634,-3.253968253968254,20.555555555555554,26.26984126984127,-2.619047619047619,0.873015873015873,-325.0,-325.0,-325.0,-325.0,-325.0,-321.8253968253968
2.619047619047619,6.26984126984127,18.96825396825397,14.206349206349206,29.444444444444443,23.88888888888889,40.39682539682539,30.87301587301587,38.01587301587301,17.38095238095238,5.952380952380952,-16.26984126984127,-5.634920634920634,-3.253968253968254,20.555555555555554,26.26984126984127,-2.619047619047619,0.873015873015873,-325.0,-325.0,-325.0,-325.0,-325.0,-321.8253968253968
0.3968253968253968,2.7777777777777777,22.46031746031746,18.80952380952381,16.904761904761905,23.57142857142857,23.88888888888889,19.6031746031746,20.71428571428571,1.6666666666666665,2.3015873015873014,-12.46031746031746,-8.174603174603174,-0.3968253968253968,14.365079365079364,20.555555555555554,-2.619047619047619,1.349206349206349,-325.0,-325.0,-325.0,-325.0,-325.0,-321.8253968253968
0.3968253968253968,2.7777777777777777,22.46031746031746,18.80952380952381,16.904761904761905,23.57142857142857,23.88888888888889,19.6031746031746,20.71428571428571,1.6666666666666665,2.3015873015873014,-12.46031746031746,-8.174603174603174,-0.3968253968253968,14.365079365079364,20.555555555555554,-2.619047619047619,1.349206349206349,-325.0,-325.0,-325.0,-325.0,-325.0,-321.8253968253968
-3.4126984126984126,14.523809523809524,25.476190476190474,23.41269841269841,7.222222222222221,28.333333333333332,15.95238095238095,30.396825396825395,17.22222222222222,9.603174603174603,0.873015873015873,-5.634920634920634,-12.619047619047619,4.0476190476190474,12.936507936507935,23.57142857142857,-2.46031746031746,1.6666666666666665,-325.0,-325.0,-325.0,-325.0,-325.0,-321.8253968253968
-3.4126984126984126,14.523809523809524,25.476190476190474,23.41269841269841,7.222222222222221,28.333333333333332,15.95238095238095,30.396825396825395,17.22222222222222,9.603174603174603,0.873015873015873,-5.634920634920634,-12.619047619047619,4.0476190476190474,12.936507936507935,23.57142857142857,-2.46031746031746,1.6666666666666665,-325.0,-325.0,-325.0,-325.0,-325.0,-321.8253968253968
-7.222222222222221,18.333333333333332,15.476190476190474,18.65079365079365,-0.23809523809523808,20.238095238095237,7.5396825396825395,15.0,7.5396825396825395,1.8253968253968254,-8.65079365079365,-2.142857142857143,-23.41269841269841,8.015873015873016,-0.07936507936507936,12.46031746031746,-2.142857142857143,1.1904761904761905,-325.0,-325.0,-325.0,-325.0,-325.0,-321.8253968253968
-7.222222222222221,18.333333333333332,15.476190476190474,18.65079365079365,-0.23809523809523808,20.238095238095237,7.5396825396825395,15.0,7.5396825396825395,1.8253968253968254,-8.65079365079365,-2.142857142857143,-23.41269841269841,8.015873015873016,-0.07936507936507936,12.46031746031746,-2.142857142857143,1.1904761904761905,-325.0,-325.0,-325.0,-325.0,-325.0,-321.8253968253968
11.031746031746032,21.666666666666664,7.3809523809523805,7.063492063492063,-4.523809523809524,-9.444444444444445,-9.761904761904761,-21.825396825396822,-11.19047619047619,-20.07936507936508,-1.1904761904761905,-8.174603174603174,-16.11111111111111,6.111111111111111,-20.873015873015873,-9.761904761904761,-2.142857142857143,0.3968253968253968,-325.0,-325.0,-325.0,-325.0,-325.0,-321.8253968253968
11.031746031746032,21.666666666666664,7.3809523809523805,7.063492063492063,-4.523809523809524,-9.444444444444445,-9.761904761904761,-21.825396825396822,-11.19047619047619,-20.07936507936508,-1.1904761904761905,-8.174603174603174,-16.11111111111111,6.111111111111111,-20.873015873015873,-9.761904761904761,-2.142857142857143,0.3968253968253968,-325.0,-325.0,-325.0,-325.0,-325.0,-321.8253968253968
9.920634920634921,17.539682539682538,-2.619047619047619,-2.619047619047619,-12.3015873015873,-21.666666666666664,-19.126984126984127,-29.6031746031746,-21.19047619047619,-20.396825396825395,-2.46031746031746,-14.047619047619047,-16.746031746031743,-6.428571428571428,-15.95238095238095,-18.015873015873016,-2.142857142857143,0.873015873015873,-325.0,-325.0,-325.0,-325.0,-325.0,-7.5396825396825395
9.920634920634921,17.539682539682538,-2.619047619047619,-2.619047619047619,-12.3015873015873,-21.666666666666664,-19.126984126984127,-29.6031746031746,-21.19047619047619,-20.396825396825395,-2.46031746031746,-14.047619047619047,-16.746031746031743,-6.428571428571428,-15.95238095238095,-18.015873015873016,-2.142857142857143,0.873015873015873,-325.0,-325.0,-325.0,-325.0,-325.0,-7.5396825396825395
1.0317460317460316,21.507936507936506,-17.063492063492063,7.857142857142857,-26.26984126984127,-8.65079365079365,-31.349206349206348,-17.22222222222222,-23.57142857142857,7.3809523809523805,-6.904761904761904,-14.682539682539682,-21.19047619047619,-12.142857142857142,-19.92063492063492,-0.7142857142857142,-2.3015873015873014,0.873015873015873,-325.0,-325.0,-325.0,-325.0,-325.0,-7.5396825396825395
1.0317460317460316,21.507936507936506,-17.063492063492063,7.857142857142857,-26.26984126984127,-8.65079365079365,-31.349206349206348,-17.22222222222222,-23.57142857142857,7.3809523809523805,-6.904761904761904,-14.682539682539682,-21.19047619047619,-12.142857142857142,-19.92063492063492,-0.7142857142857142,-2.3015873015873014,0.873015873015873,-325.0,-325.0,-325.0,-325.0,-325.0,-7.5396825396825395
-2.619047619047619,0.5555555555555556,-16.746031746031743,-10.396825396825395,-25.634920634920633,-22.3015873015873,-25.0,-24.206349206349206,-22.142857142857142,-3.73015873015873,-5.317460317460317,-32.3015873015873,-14.84126984126984,-23.41269841269841,-9.126984126984127,-2.7777777777777777,-2.142857142857143,0.5555555555555556,-325.0,-325.0,-325.0,-325.0,-325.0,-7.5396825396825395
-2.619047619047619,0.5555555555555556,-16.746031746031743,-10.396825396825395,-25.634920634920633,-22.3015873015873,-25.0,-24.206349206349206,-22.142857142857142,-3.73015873015873,-5.317460317460317,-32.3015873015873,-14.84126984126984,-23.41269841269841,-9.126984126984127,-2.7777777777777777,-2.142857142857143,0.5555555555555556,-325.0,-325.0,-325.0,-325.0,-325.0,-7.5396825396825395
