Fp1[1],Fp2[2],F3[3],F4[4],C3[5],C4[6],P3[7],P4[8],O1[9],O2[10],F7[11],F8[12],T3[13],T4[14],T5[15],T6[16],Fz[17],Pz[18],Cz[19],Pg1[20],Pg2[21],EOGR[22],EOOGL[23],EMG[24]
11.19047619047619,1.8253968253968254,-1.6666666666666665,-22.3015873015873,18.333333333333332,-35.63492063492063,-21.507936507936506,-11.349206349206348,-8.65079365079365,-3.095238095238095,24.047619047619047,-20.873015873015873,-7.222222222222221,0.5555555555555556,-13.095238095238095,-5.317460317460317,-2.9365079365079363,1.507936507936508,-325.0,-325.0,-325.0,-325.0,-325.0,-7.5396825396825395
11.19047619047619,1.8253968253968254,-1.6666666666666665,-22.3015873015873,18.333333333333332,-35.63492063492063,-21.507936507936506,-11.349206349206348,-8.65079365079365,-3.095238095238095,24.047619047619047,-20.873015873015873,-7.222222222222221,0.5555555555555556,-13.095238095238095,-5.317460317460317,-2.9365079365079363,1.507936507936508,-325.0,-325.0,-325.0,-325.0,-325.0,-7.5396825396825395
21.984126984126984,18.49206349206349,16.587301587301585,5.158730158730158,29.6031746031746,-5.952380952380952,-5.634920634920634,6.746031746031746,7.5396825396825395,8.65079365079365,27.22222222222222,-4.841269841269841,3.73015873015873,5.7936507936507935,2.3015873015873014,7.222222222222221,-2.619047619047619,1.1904761904761905,-325.0,-325.0,-325.0,-325.0,-325.0,-7.5396825396825395
21.984126984126984,18.49206349206349,16.587301587301585,5.158730158730158,29.6031746031746,-5.952380952380952,-5.634920634920634,6.746031746031746,7.5396825396825395,8.65079365079365,27.22222222222222,-4.841269841269841,3.73015873015873,5.7936507936507935,2.3015873015873014,7.222222222222221,-2.619047619047619,1.1904761904761905,-325.0,-325.0,-325.0,-325.0,-325.0,-7.5396825396825395
7.3809523809523805,21.507936507936506,12.46031746031746,28.96825396825397,29.920634920634917,28.809523809523807,2.7777777777777777,31.825396825396822,5.634920634920634,21.666666666666664,11.666666666666666,-3.73015873015873,-2.3015873015873014,4.682539682539682,0.07936507936507936,19.285714285714285,-2.619047619047619,1.349206349206349,-325.0,-325.0,-325.0,-325.0,-325.0,-7.5396825396825395
7.3809523809523805,21.507936507936506,12.46031746031746,28.96825396825397,29.920634920634917,28.809523809523807,2.7777777777777777,31.825396825396822,5.634920634920634,21.666666666666664,11.666666666666666,-3.73015873015873,-2.3015873015873014,4.682539682539682,0.07936507936507936,19.285714285714285,-2.619047619047619,1.349206349206349,-325.0,-325.0,-325.0,-325.0,-325.0,-7.5396825396825395
16.428571428571427,23.41269841269841,23.57142857142857,37.857142857142854,41.19047619047619,38.33333333333333,25.634920634920633,43.888888888888886,18.015873015873016,18.96825396825397,8.174603174603174,-14.365079365079364,-1.0317460317460316,-3.095238095238095,13.73015873015873,17.857142857142858,-3.095238095238095,1.0317460317460316,-325.0,-325.0,-325.0,-325.0,-325.0,-7.5396825396825395
16.428571428571427,23.41269841269841,23.57142857142857,37.857142857142854,41.19047619047619,38.33333333333333,25.634920634920633,43.888888888888886,18.015873015873016,18.96825396825397,8.174603174603174,-14.365079365079364,-1.0317460317460316,-3.095238095238095,13.73015873015873,17.857142857142858,-3.095238095238095,1.0317460317460316,-325.0,-325.0,-325.0,-325.0,-325.0,-7.5396825396825395
29.444444444444443,-1.507936507936508,33.095238095238095,6.428571428571428,51.507936507936506,7.063492063492063,37.53968253968254,10.079365079365079,21.03174603174603,-20.07936507936508,7.857142857142857,-42.93650793650794,15.793650793650793,-33.25396825396825,30.07936507936508,-8.968253968253968,-2.619047619047619,1.507936507936508,-325.0,-325.0,-325.0,-325.0,-325.0,-7.5396825396825395
29.444444444444443,-1.507936507936508,33.095238095238095,6.428571428571428,51.507936507936506,7.063492063492063,37.53968253968254,10.079365079365079,21.03174603174603,-20.07936507936508,7.857142857142857,-42.93650793650794,15.793650793650793,-33.25396825396825,30.07936507936508,-8.968253968253968,-2.619047619047619,1.507936507936508,-325.0,-325.0,-325.0,-325.0,-325.0,-7.5396825396825395
26.26984126984127,-11.19047619047619,29.76190476190476,-11.666666666666666,53.888888888888886,-13.571428571428571,28.96825396825397,-11.666666666666666,17.063492063492063,-34.047619047619044,0.873015873015873,-55.95238095238095,3.253968253968254,-43.41269841269841,11.19047619047619,-22.3015873015873,-3.095238095238095,1.1904761904761905,-325.0,-325.0,-325.0,-325.0,-325.0,-321.8253968253968
26.26984126984127,-11.19047619047619,29.76190476190476,-11.666666666666666,53.888888888888886,-13.571428571428571,28.96825396825397,-11.666666666666666,17.063492063492063,-34.047619047619044,0.873015873015873,-55.95238095238095,3.253968253968254,-43.41269841269841,11.19047619047619,-22.3015873015873,-3.095238095238095,1.1904761904761905,-325.0,-325.0,-325.0,-325.0,-325.0,-321.8253968253968
21.507936507936506,-11.825396825396824,12.46031746031746,-19.126984126984127,37.698412698412696,-27.38095238095238,12.3015873015873,-25.317460317460316,1.1904761904761905,-39.92063492063492,10.714285714285714,-48.01587301587301,12.46031746031746,-31.666666666666664,8.174603174603174,-26.428571428571427,-2.619047619047619,1.0317460317460316,-325.0,-325.0,-325.0,-325.0,-325.0,-321.8253968253968
21.507936507936506,-11.825396825396824,12.46031746031746,-19.126984126984127,37.698412698412696,-27.38095238095238,12.3015873015873,-25.317460317460316,1.1904761904761905,-39.92063492063492,10.714285714285714,-48.01587301587301,12.46031746031746,-31.666666666666664,8.174603174603174,-26.428571428571427,-2.619047619047619,1.0317460317460316,-325.0,-325.0,-325.0,-325.0,-325.0,-321.8253968253968
7.222222222222221,-20.07936507936508,-9.444444444444445,-41.82539682539682,17.38095238095238,-51.34920634920635,-7.698412698412698,-49.12698412698413,-11.349206349206348,-51.19047619047619,-2.619047619047619,-45.0,10.873015873015872,-23.095238095238095,-9.126984126984127,-39.285714285714285,-2.9365079365079363,0.873015873015873,-325.0,-325.0,-325.0,-325.0,-325.0,-321.8253968253968
7.222222222222221,-20.07936507936508,-9.444444444444445,-41.82539682539682,17.38095238095238,-51.34920634920635,-7.698412698412698,-49.12698412698413,-11.349206349206348,-51.19047619047619,-2.619047619047619,-45.0,10.873015873015872,-23.095238095238095,-9.126984126984127,-39.285714285714285,-2.9365079365079363,0.873015873015873,-325.0,-325.0,-325.0,-325.0,-325.0,-321.8253968253968
11.825396825396824,-33.73015873015873,-1.984126984126984,-56.58730158730158,26.587301587301585,-63.25396825396825,3.888888888888889,-56.74603174603174,1.349206349206349,-51.19047619047619,6.26984126984127,-47.38095238095238,17.063492063492063,-24.206349206349206,16.11111111111111,-49.12698412698413,-2.7777777777777777,0.873015873015873,-325.0,-325.0,-325.0,-325.0,-325.0,-321.8253968253968
11.825396825396824,-33.73015873015873,-1.984126984126984,-56.58730158730158,26.587301587301585,-63.25396825396825,3.888888888888889,-56.74603174603174,1.349206349206349,-51.19047619047619,6.26984126984127,-47.38095238095238,17.063492063492063,-24.206349206349206,16.11111111111111,-49.12698412698413,-2.7777777777777777,0.873015873015873,-325.0,-325.0,-325.0,-325.0,-325.0,-321.8253968253968
8.968253968253968,-36.11111111111111,0.7142857142857142,-53.095238095238095,34.2063492063492,-55.95238095238095,9.444444444444445,-46.11111111111111,2.46031746031746,-40.87301587301587,9.603174603174603,-45.95238095238095,24.047619047619047,-30.238095238095237,16.26984126984127,-44.84126984126984,-2.46031746031746,0.873015873015873,-325.0,-325.0,-325.0,-325.0,-325.0,-321.8253968253968
8.968253968253968,-36.11111111111111,0.7142857142857142,-53.095238095238095,34.2063492063492,-55.95238095238095,9.444444444444445,-46.11111111111111,2.46031746031746,-40.87301587301587,9.603174603174603,-45.95238095238095,24.047619047619047,-30.238095238095237,16.26984126984127,-44.84126984126984,-2.46031746031746,0.873015873015873,-325.0,-325.0,-325.0,-325.0,-325.0,-321.8253968253968
12.619047619047619,-28.96825396825397,3.4126984126984126,-42.3015873015873,34.36507936507936,-44.2063492063492,-1.8253968253968254,-29.126984126984127,-3.73015873015873,-25.79365079365079,19.126984126984127,-35.0,18.65079365079365,-29.126984126984127,12.619047619047619,-34.047619047619044,-2.9365079365079363,0.873015873015873,-325.0,-325.0,-325.0,-325.0,-325.0,-7.5396825396825395
12.619047619047619,-28.96825396825397,3.4126984126984126,-42.3015873015873,34.36507936507936,-44.2063492063492,-1.8253968253968254,-29.126984126984127,-3.73015873015873,-25.79365079365079,19.126984126984127,-35.0,18.65079365079365,-29.126984126984127,12.619047619047619,-34.047619047619044,-2.9365079365079363,0.873015873015873,-325.0,-325.0,-325.0,-325.0,-325.0,-7.5396825396825395
6.746031746031746,-20.07936507936508,-2.9365079365079363,-31.03174603174603,29.76190476190476,-30.71428571428571,-4.365079365079365,-9.761904761904761,-4.682539682539682,-9.285714285714285,15.95238095238095,-26.11111111111111,11.031746031746032,-18.333333333333332,5.317460317460317,-21.19047619047619,-3.095238095238095,1.0317460317460316,-325.0,-325.0,-325.0,-325.0,-325.0,-7.5396825396825395
6.746031746031746,-20.07936507936508,-2.9365079365079363,-31.03174603174603,29.76190476190476,-30.71428571428571,-4.365079365079365,-9.761904761904761,-4.682539682539682,-9.285714285714285,15.95238095238095,-26.11111111111111,11.031746031746032,-18.333333333333332,5.317460317460317,-21.19047619047619,-3.095238095238095,1.0317460317460316,-325.0,-325.0,-325.0,-325.0,-325.0,-7.5396825396825395
-1.1904761904761905,-23.095238095238095,-12.936507936507935,-33.095238095238095,22.3015873015873,-31.349206349206348,-8.015873015873016,-11.349206349206348,-7.3809523809523805,-12.777777777777777,11.984126984126984,-23.57142857142857,6.746031746031746,-15.95238095238095,-4.682539682539682,-14.84126984126984,-3.4126984126984126,0.873015873015873,-325.0,-325.0,-325.0,-325.0,-325.0,-7.5396825396825395
-1.1904761904761905,-23.095238095238095,-12.936507936507935,-33.095238095238095,22.3015873015873,-31.349206349206348,-8.015873015873016,-11.349206349206348,-7.3809523809523805,-12.777777777777777,11.984126984126984,-23.57142857142857,6.746031746031746,-15.95238095238095,-4.682539682539682,-14.84126984126984,-3.4126984126984126,0.873015873015873,-325.0,-325.0,-325.0,-325.0,-325.0,-7.5396825396825395
-9.920634920634921,-22.46031746031746,-16.587301587301585,-33.888888888888886,16.904761904761905,-36.904761904761905,-8.809523809523808,-21.19047619047619,-7.222222222222221,-15.317460317460316,4.365079365079365,-23.095238095238095,-0.873015873015873,-18.96825396825397,5.952380952380952,-22.619047619047617,-3.4126984126984126,1.0317460317460316,-325.0,-325.0,-325.0,-325.0,-325.0,-7.5396825396825395
-9.920634920634921,-22.46031746031746,-16.587301587301585,-33.888888888888886,16.904761904761905,-36.904761904761905,-8.809523809523808,-21.19047619047619,-7.222222222222221,-15.317460317460316,4.365079365079365,-23.095238095238095,-0.873015873015873,-18.96825396825397,5.952380952380952,-22.619047619047617,-3.4126984126984126,1.0317460317460316,-325.0,-325.0,-325.0,-325.0,-325.0,-7.5396825396825395
-5.7936507936507935,-26.9047619047619,-23.88888888888889,-45.63492063492063,11.507936507936508,-51.19047619047619,-22.3015873015873,-37.698412698412696,-14.206349206349206,-27.38095238095238,4.841269841269841,-27.857142857142854,-6.904761904761904,-16.11111111111111,-8.174603174603174,-32.14285714285714,-3.253968253968254,1.507936507936508,-325.0,-325.0,-325.0,-325.0,-325.0,-7.5396825396825395
-5.7936507936507935,-26.9047619047619,-23.88888888888889,-45.63492063492063,11.507936507936508,-51.19047619047619,-22.3015873015873,-37.698412698412696,-14.206349206349206,-27.38095238095238,4.841269841269841,-27.857142857142854,-6.904761904761904,-16.11111111111111,-8.174603174603174,-32.14285714285714,-3.253968253968254,1.507936507936508,-325.0,-325.0,-325.0,-325.0,-325.0,-7.5396825396825395
-5.158730158730158,-41.19047619047619,-24.206349206349206,-56.74603174603174,6.26984126984127,-54.047619047619044,-33.73015873015873,-51.98412698412698,-26.11111111111111,-39.92063492063492,2.46031746031746,-41.507936507936506,-10.555555555555555,-25.476190476190474,-21.507936507936506,-43.25396825396825,-2.7777777777777777,1.507936507936508,-325.0,-325.0,-325.0,-325.0,-325.0,-321.8253968253968
-5.158730158730158,-41.19047619047619,-24.206349206349206,-56.74603174603174,6.26984126984127,-54.047619047619044,-33.73015873015873,-51.98412698412698,-26.11111111111111,-39.92063492063492,2.46031746031746,-41.507936507936506,-10.555555555555555,-25.476190476190474,-21.507936507936506,-43.25396825396825,-2.7777777777777777,1.507936507936508,-325.0,-325.0,-325.0,-325.0,-325.0,-321.8253968253968
-7.698412698412698,-38.65079365079365,-28.015873015873016,-53.57142857142857,-2.9365079365079363,-54.52380952380952,-32.3015873015873,-48.80952380952381,-29.126984126984127,-34.2063492063492,2.619047619047619,-40.714285714285715,-8.015873015873016,-31.507936507936506,-19.126984126984127,-39.44444444444444,-3.095238095238095,1.1904761904761905,-325.0,-325.0,-325.0,-325.0,-325.0,-321.8253968253968
-7.698412698412698,-38.65079365079365,-28.015873015873016,-53.57142857142857,-2.9365079365079363,-54.52380952380952,-32.3015873015873,-48.80952380952381,-29.126984126984127,-34.2063492063492,2.619047619047619,-40.714285714285715,-8.015873015873016,-31.507936507936506,-19.126984126984127,-39.44444444444444,-3.095238095238095,1.1904761904761905,-325.0,-325.0,-325.0,-325.0,-325.0,-321.8253968253968
-7.5396825396825395,-31.03174603174603,-17.857142857142858,-38.80952380952381,1.0317460317460316,-43.25396825396825,-20.873015873015873,-28.333333333333332,-17.22222222222222,-11.349206349206348,-3.888888888888889,-32.93650793650794,-12.619047619047619,-31.666666666666664,-15.634920634920634,-25.317460317460316,-2.7777777777777777,1.507936507936508,-325.0,-325.0,-325.0,-325.0,-325.0,-321.8253968253968
-7.5396825396825395,-31.03174603174603,-17.857142857142858,-38.80952380952381,1.0317460317460316,-43.25396825396825,-20.873015873015873,-28.333333333333332,-17.22222222222222,-11.349206349206348,-3.888888888888889,-32.93650793650794,-12.619047619047619,-31.666666666666664,-15.634920634920634,-25.317460317460316,-2.7777777777777777,1.507936507936508,-325.0,-325.0,-325.0,-325.0,-325.0,-321.8253968253968
-0.873015873015873,-27.22222222222222,-2.46031746031746,-22.3015873015873,8.492063492063492,-21.19047619047619,-7.857142857142857,-5.634920634920634,-0.07936507936507936,-1.0317460317460316,-9.126984126984127,-25.952380952380953,-24.047619047619047,-29.126984126984127,-19.285714285714285,-9.285714285714285,-3.095238095238095,0.873015873015873,-325.0,-325.0,-325.0,-325.0,-325.0,-321.8253968253968
-0.873015873015873,-27.22222222222222,-2.46031746031746,-22.3015873015873,8.492063492063492,-21.19047619047619,-7.857142857142857,-5.634920634920634,-0.07936507936507936,-1.0317460317460316,-9.126984126984127,-25.952380952380953,-24.047619047619047,-29.126984126984127,-19.285714285714285,-9.285714285714285,-3.095238095238095,0.873015873015873,-325.0,-325.0,-325.0,-325.0,-325.0,-321.8253968253968
9.285714285714285,-32.3015873015873,18.96825396825397,-22.3015873015873,14.84126984126984,-20.555555555555554,6.746031746031746,-8.492063492063492,7.063492063492063,-13.571428571428571,-0.7142857142857142,-25.952380952380953,-15.317460317460316,-25.317460317460316,0.7142857142857142,-15.634920634920634,-3.095238095238095,1.0317460317460316,-325.0,-325.0,-325.0,-325.0,-325.0,-321.8253968253968
9.285714285714285,-32.3015873015873,18.96825396825397,-22.3015873015873,14.84126984126984,-20.555555555555554,6.746031746031746,-8.492063492063492,7.063492063492063,-13.571428571428571,-0.7142857142857142,-25.952380952380953,-15.317460317460316,-25.317460317460316,0.7142857142857142,-15.634920634920634,-3.095238095238095,1.0317460317460316,-325.0,-325.0,-325.0,-325.0,-325.0,-321.8253968253968
13.412698412698411,-30.71428571428571,18.96825396825397,-24.84126984126984,5.0,-20.71428571428571,0.873015873015873,-8.015873015873016,1.984126984126984,-16.587301587301585,3.73015873015873,-27.38095238095238,-19.92063492063492,-21.03174603174603,-8.65079365079365,-10.555555555555555,-3.571428571428571,1.1904761904761905,-325.0,-325.0,-325.0,-325.0,-325.0,-7.5396825396825395
13.412698412698411,-30.71428571428571,18.96825396825397,-24.84126984126984,5.0,-20.71428571428571,0.873015873015873,-8.015873015873016,1.984126984126984,-16.587301587301585,3.73015873015873,-27.38095238095238,-19.92063492063492,-21.03174603174603,-8.65079365079365,-10.555555555555555,-3.571428571428571,1.1904761904761905,-325.0,-325.0,-325.0,-325.0,-325.0,-7.5396825396825395
18.174603174603174,-25.79365079365079,13.888888888888888,-16.11111111111111,-1.984126984126984,-19.285714285714285,-22.142857142857142,-17.857142857142858,-12.619047619047619,-22.936507936507937,1.8253968253968254,-25.0,-20.71428571428571,-14.206349206349206,-27.38095238095238,-7.5396825396825395,-3.571428571428571,0.873015873015873,-325.0,-325.0,-325.0,-325.0,-325.0,-7.5396825396825395
18.174603174603174,-25.79365079365079,13.888888888888888,-16.11111111111111,-1.984126984126984,-19.285714285714285,-22.142857142857142,-17.857142857142858,-12.619047619047619,-22.936507936507937,1.8253968253968254,-25.0,-20.71428571428571,-14.206349206349206,-27.38095238095238,-7.5396825396825395,-3.571428571428571,0.873015873015873,-325.0,-325.0,-325.0,-325.0,-325.0,-7.5396825396825395
20.555555555555554,-37.53968253968254,7.5396825396825395,-35.15873015873016,-8.174603174603174,-44.2063492063492,-39.285714285714285,-53.888888888888886,-21.666666666666664,-40.238095238095234,5.952380952380952,-36.11111111111111,-16.26984126984127,-23.88888888888889,-38.01587301587301,-25.476190476190474,-3.095238095238095,1.0317460317460316,-325.0,-325.0,-325.0,-325.0,-325.0,-7.5396825396825395
20.555555555555554,-37.53968253968254,7.5396825396825395,-35.15873015873016,-8.174603174603174,-44.2063492063492,-39.285714285714285,-53.888888888888886,-21.666666666666664,-40.238095238095234,5.952380952380952,-36.11111111111111,-16.26984126984127,-23.88888888888889,-38.01587301587301,-25.476190476190474,-3.095238095238095,1.0317460317460316,-325.0,-325.0,-325.0,-325.0,-325.0,-7.5396825396825395
14.047619047619047,-36.74603174603175,8.809523809523808,-43.888888888888886,-6.26984126984127,-53.888888888888886,-25.0,-55.0,-17.22222222222222,-31.98412698412698,5.7936507936507935,-30.71428571428571,0.7142857142857142,-27.38095238095238,-16.26984126984127,-29.6031746031746,-3.4126984126984126,0.873015873015873,-325.0,-325.0,-325.0,-325.0,-325.0,-7.5396825396825395
14.047619047619047,-36.74603174603175,8.809523809523808,-43.888888888888886,-6.26984126984127,-53.888888888888886,-25.0,-55.0,-17.22222222222222,-31.98412698412698,5.7936507936507935,-30.71428571428571,0.7142857142857142,-27.38095238095238,-16.26984126984127,-29.6031746031746,-3.4126984126984126,0.873015873015873,-325.0,-325.0,-325.0,-325.0,-325.0,-7.5396825396825395
-5.476190476190476,-38.01587301587301,1.984126984126984,-35.15873015873016,-7.698412698412698,-36.269841269841265,-12.3015873015873,-35.79365079365079,-7.3809523809523805,-14.682539682539682,-8.968253968253968,-26.11111111111111,-3.888888888888889,-24.84126984126984,-9.761904761904761,-21.507936507936506,-3.73015873015873,0.873015873015873,-325.0,-325.0,-325.0,-325.0,-325.0,-7.5396825396825395
-5.476190476190476,-38.01587301587301,1.984126984126984,-35.15873015873016,-7.698412698412698,-36.269841269841265,-12.3015873015873,-35.79365079365079,-7.3809523809523805,-14.682539682539682,-8.968253968253968,-26.11111111111111,-3.888888888888889,-24.84126984126984,-9.761904761904761,-21.507936507936506,-3.73015873015873,0.873015873015873,-325.0,-325.0,-325.0,-325.0,-325.0,-7.5396825396825395
-20.07936507936508,-35.79365079365079,1.349206349206349,-17.22222222222222,-4.841269841269841,-14.682539682539682,11.825396825396824,-4.365079365079365,12.777777777777777,5.158730158730158,-15.95238095238095,-16.587301587301585,-3.095238095238095,-14.682539682539682,-3.888888888888889,-1.507936507936508,-3.73015873015873,1.1904761904761905,-325.0,-325.0,-325.0,-325.0,-325.0,-321.8253968253968
-20.07936507936508,-35.79365079365079,1.349206349206349,-17.22222222222222,-4.841269841269841,-14.682539682539682,11.825396825396824,-4.365079365079365,12.777777777777777,5.158730158730158,-15.95238095238095,-16.587301587301585,-3.095238095238095,-14.682539682539682,-3.888888888888889,-1.507936507936508,-3.73015873015873,1.1904761904761905,-325.0,-325.0,-325.0,-325.0,-325.0,-321.8253968253968
-8.333333333333332,-21.19047619047619,33.095238095238095,9.285714285714285,19.76190476190476,15.95238095238095,45.15873015873016,25.79365079365079,36.269841269841265,22.46031746031746,6.904761904761904,-5.952380952380952,-5.952380952380952,-10.238095238095237,27.857142857142854,12.777777777777777,-3.253968253968254,1.349206349206349,-325.0,-325.0,-325.0,-325.0,-325.0,-321.8253968253968
-8.333333333333332,-21.19047619047619,33.095238095238095,9.285714285714285,19.76190476190476,15.95238095238095,45.15873015873016,25.79365079365079,36.269841269841265,22.46031746031746,6.904761904761904,-5.952380952380952,-5.952380952380952,-10.238095238095237,27.857142857142854,12.777777777777777,-3.253968253968254,1.349206349206349,-325.0,-325.0,-325.0,-325.0,-325.0,-321.8253968253968
1.0317460317460316,-21.984126984126984,48.49206349206349,11.507936507936508,24.68253968253968,12.3015873015873,44.68253968253968,22.142857142857142,28.174603174603174,9.603174603174603,20.07936507936508,-13.571428571428571,-12.3015873015873,-17.698412698412696,22.777777777777775,5.158730158730158,-2.7777777777777777,1.507936507936508,-325.0,-325.0,-325.0,-325.0,-325.0,-321.8253968253968
1.0317460317460316,-21.984126984126984,48.49206349206349,11.507936507936508,24.68253968253968,12.3015873015873,44.68253968253968,22.142857142857142,28.174603174603174,9.603174603174603,20.07936507936508,-13.571428571428571,-12.3015873015873,-17.698412698412696,22.777777777777775,5.158730158730158,-2.7777777777777777,1.507936507936508,-325.0,-325.0,-325.0,-325.0,-325.0,-321.8253968253968
-10.396825396825395,-21.984126984126984,48.650793650793645,27.22222222222222,22.936507936507937,25.158730158730158,32.14285714285714,22.936507936507937,17.698412698412696,7.222222222222221,18.015873015873016,-6.587301587301587,-15.95238095238095,-6.111111111111111,8.65079365079365,3.73015873015873,-2.9365079365079363,1.507936507936508,-325.0,-325.0,-325.0,-325.0,-325.0,-321.8253968253968
-10.396825396825395,-21.984126984126984,48.650793650793645,27.22222222222222,22.936507936507937,25.158730158730158,32.14285714285714,22.936507936507937,17.698412698412696,7.222222222222221,18.015873015873016,-6.587301587301587,-15.95238095238095,-6.111111111111111,8.65079365079365,3.73015873015873,-2.9365079365079363,1.507936507936508,-325.0,-325.0,-325.0,-325.0,-325.0,-321.8253968253968
-69.92063492063491,-71.82539682539682,10.873015873015872,-6.587301587301587,-0.873015873015873,-2.9365079365079363,1.8253968253968254,3.095238095238095,1.984126984126984,-3.888888888888889,-1.8253968253968254,-23.095238095238095,-20.396825396825395,-7.222222222222221,-15.0,-0.5555555555555556,-3.095238095238095,1.1904761904761905,-325.0,-325.0,-325.0,-325.0,-325.0,-321.8253968253968
-69.92063492063491,-71.82539682539682,10.873015873015872,-6.587301587301587,-0.873015873015873,-2.9365079365079363,1.8253968253968254,3.095238095238095,1.984126984126984,-3.888888888888889,-1.8253968253968254,-23.095238095238095,-20.396825396825395,-7.222222222222221,-15.0,-0.5555555555555556,-3.095238095238095,1.1904761904761905,-325.0,-325.0,-325.0,-325.0,-325.0,-321.8253968253968
-117.38095238095238,-95.63492063492063,-33.73015873015873,-32.93650793650794,-37.857142857142854,-29.76190476190476,-37.857142857142854,-16.587301587301585,-20.238095238095237,-8.492063492063492,-32.3015873015873,-23.88888888888889,-31.507936507936506,-3.4126984126984126,-26.26984126984127,-7.857142857142857,-2.3015873015873014,1.1904761904761905,-325.0,-325.0,-325.0,-325.0,-325.0,-7.5396825396825395
-117.38095238095238,-95.63492063492063,-33.73015873015873,-32.93650793650794,-37.857142857142854,-29.76190476190476,-37.857142857142854,-16.587301587301585,-20.238095238095237,-8.492063492063492,-32.3015873015873,-23.88888888888889,-31.507936507936506,-3.4126984126984126,-26.26984126984127,-7.857142857142857,-2.3015873015873014,1.1904761904761905,-325.0,-325.0,-325.0,-325.0,-325.0,-7.5396825396825395
-105.15873015873015,-77.38095238095238,-58.17460317460317,-35.0,-70.39682539682539,-45.15873015873016,-68.80952380952381,-38.49206349206349,-43.888888888888886,-21.825396825396822,-47.38095238095238,-15.317460317460316,-33.25396825396825,-2.9365079365079363,-43.57142857142857,-19.126984126984127,-2.619047619047619,0.7142857142857142,-325.0,-325.0,-325.0,-325.0,-325.0,-7.5396825396825395
-105.15873015873015,-77.38095238095238,-58.17460317460317,-35.0,-70.39682539682539,-45.15873015873016,-68.80952380952381,-38.49206349206349,-43.888888888888886,-21.825396825396822,-47.38095238095238,-15.317460317460316,-33.25396825396825,-2.9365079365079363,-43.57142857142857,-19.126984126984127,-2.619047619047619,0.7142857142857142,-325.0,-325.0,-325.0,-325.0,-325.0,-7.5396825396825395
-55.317460317460316,-37.698412698412696,-36.42857142857142,-15.158730158730158,-47.698412698412696,-26.587301587301585,-43.57142857142857,-28.174603174603174,-24.84126984126984,-14.206349206349206,-36.904761904761905,0.07936507936507936,-33.25396825396825,9.761904761904761,-33.25396825396825,-7.063492063492063,-2.46031746031746,0.7142857142857142,-325.0,-325.0,-325.0,-325.0,-325.0,-7.5396825396825395
-55.317460317460316,-37.698412698412696,-36.42857142857142,-15.158730158730158,-47.698412698412696,-26.587301587301585,-43.57142857142857,-28.174603174603174,-24.84126984126984,-14.206349206349206,-36.904761904761905,0.07936507936507936,-33.25396825396825,9.761904761904761,-33.25396825396825,-7.063492063492063,-2.46031746031746,0.7142857142857142,-325.0,-325.0,-325.0,-325.0,-325.0,-7.5396825396825395
-4.2063492063492065,0.7142857142857142,18.174603174603174,20.873015873015873,0.23809523809523808,12.777777777777777,-2.3015873015873014,-11.031746031746032,-8.968253968253968,-19.285714285714285,-13.095238095238095,4.841269841269841,-23.41269841269841,8.809523809523808,-7.222222222222221,-4.0476190476190474,-2.46031746031746,0.5555555555555556,-325.0,-325.0,-325.0,-325.0,-325.0,-7.5396825396825395
-4.2063492063492065,0.7142857142857142,18.174603174603174,20.873015873015873,0.23809523809523808,12.777777777777777,-2.3015873015873014,-11.031746031746032,-8.968253968253968,-19.285714285714285,-13.095238095238095,4.841269841269841,-23.41269841269841,8.809523809523808,-7.222222222222221,-4.0476190476190474,-2.46031746031746,0.5555555555555556,-325.0,-325.0,-325.0,-325.0,-325.0,-7.5396825396825395
32.14285714285714,26.428571428571427,50.39682539682539,46.74603174603175,25.476190476190474,39.6031746031746,26.26984126984127,14.84126984126984,12.777777777777777,-5.952380952380952,1.0317460317460316,3.888888888888889,-16.11111111111111,4.365079365079365,7.063492063492063,6.428571428571428,-2.142857142857143,1.0317460317460316,-325.0,-325.0,-325.0,-325.0,-325.0,-7.5396825396825395
32.14285714285714,26.428571428571427,50.39682539682539,46.74603174603175,25.476190476190474,39.6031746031746,26.26984126984127,14.84126984126984,12.777777777777777,-5.952380952380952,1.0317460317460316,3.888888888888889,-16.11111111111111,4.365079365079365,7.063492063492063,6.428571428571428,-2.142857142857143,1.0317460317460316,-325.0,-325.0,-325.0,-325.0,-325.0,-7.5396825396825395
46.58730158730158,33.888888888888886,59.44444444444444,48.17460317460317,29.920634920634917,40.079365079365076,38.80952380952381,25.158730158730158,21.349206349206348,-1.984126984126984,7.063492063492063,-1.1904761904761905,-11.984126984126984,1.0317460317460316,16.11111111111111,7.063492063492063,-2.142857142857143,0.873015873015873,-325.0,-325.0,-325.0,-325.0,-325.0,-321.8253968253968
46.58730158730158,33.888888888888886,59.44444444444444,48.17460317460317,29.920634920634917,40.079365079365076,38.80952380952381,25.158730158730158,21.349206349206348,-1.984126984126984,7.063492063492063,-1.1904761904761905,-11.984126984126984,1.0317460317460316,16.11111111111111,7.063492063492063,-2.142857142857143,0.873015873015873,-325.0,-325.0,-325.0,-325.0,-325.0,-321.8253968253968
47.22222222222222,34.047619047619044,43.73015873015873,32.61904761904762,18.96825396825397,16.746031746031743,36.74603174603175,14.047619047619047,14.047619047619047,-8.65079365079365,2.7777777777777777,-6.587301587301587,-5.317460317460317,-9.285714285714285,24.206349206349206,-4.523809523809524,-2.3015873015873014,1.0317460317460316,-325.0,-325.0,-325.0,-325.0,-325.0,-321.8253968253968
47.22222222222222,34.047619047619044,43.73015873015873,32.61904761904762,18.96825396825397,16.746031746031743,36.74603174603175,14.047619047619047,14.047619047619047,-8.65079365079365,2.7777777777777777,-6.587301587301587,-5.317460317460317,-9.285714285714285,24.206349206349206,-4.523809523809524,-2.3015873015873014,1.0317460317460316,-325.0,-325.0,-325.0,-325.0,-325.0,-321.8253968253968
36.11111111111111,37.698412698412696,23.41269841269841,20.238095238095237,6.746031746031746,7.222222222222221,16.746031746031743,0.873015873015873,-5.952380952380952,-17.063492063492063,-4.841269841269841,-7.698412698412698,-1.6666666666666665,-12.619047619047619,14.682539682539682,-15.0,-2.9365079365079363,1.0317460317460316,-325.0,-325.0,-325.0,-325.0,-325.0,-321.8253968253968
36.11111111111111,37.698412698412696,23.41269841269841,20.238095238095237,6.746031746031746,7.222222222222221,16.746031746031743,0.873015873015873,-5.952380952380952,-17.063492063492063,-4.841269841269841,-7.698412698412698,-1.6666666666666665,-12.619047619047619,14.682539682539682,-15.0,-2.9365079365079363,1.0317460317460316,-325.0,-325.0,-325.0,-325.0,-325.0,-321.8253968253968
29.76190476190476,33.73015873015873,13.571428571428571,13.888888888888888,-4.523809523809524,0.23809523809523808,-2.619047619047619,-14.682539682539682,-17.539682539682538,-32.93650793650794,-3.73015873015873,-11.031746031746032,2.7777777777777777,-21.666666666666664,-3.253968253968254,-29.920634920634917,-2.46031746031746,0.873015873015873,-325.0,-325.0,-325.0,-325.0,-325.0,-321.8253968253968
29.76190476190476,33.73015873015873,13.571428571428571,13.888888888888888,-4.523809523809524,0.23809523809523808,-2.619047619047619,-14.682539682539682,-17.539682539682538,-32.93650793650794,-3.73015873015873,-11.031746031746032,2.7777777777777777,-21.666666666666664,-3.253968253968254,-29.920634920634917,-2.46031746031746,0.873015873015873,-325.0,-325.0,-325.0,-325.0,-325.0,-321.8253968253968
26.746031746031743,33.41269841269841,5.158730158730158,12.777777777777777,-15.793650793650793,5.0,-7.5396825396825395,-13.095238095238095,-16.428571428571427,-30.07936507936508,0.23809523809523808,-3.095238095238095,17.857142857142858,-14.682539682539682,-5.7936507936507935,-22.619047619047617,-2.142857142857143,1.349206349206349,-325.0,-325.0,-325.0,-325.0,-325.0,-321.8253968253968
26.746031746031743,33.41269841269841,5.158730158730158,12.777777777777777,-15.793650793650793,5.0,-7.5396825396825395,-13.095238095238095,-16.428571428571427,-30.07936507936508,0.23809523809523808,-3.095238095238095,17.857142857142858,-14.682539682539682,-5.7936507936507935,-22.619047619047617,-2.142857142857143,1.349206349206349,-325.0,-325.0,-325.0,-325.0,-325.0,-321.8253968253968
24.365079365079364,27.063492063492063,1.0317460317460316,-2.3015873015873014,-17.063492063492063,-5.317460317460317,0.07936507936507936,-12.46031746031746,-5.0,-21.349206349206348,3.73015873015873,-3.253968253968254,19.76190476190476,-20.396825396825395,-4.0476190476190474,-19.444444444444443,-2.46031746031746,0.873015873015873,-325.0,-325.0,-325.0,-325.0,-325.0,-7.5396825396825395
24.365079365079364,27.063492063492063,1.0317460317460316,-2.3015873015873014,-17.063492063492063,-5.317460317460317,0.07936507936507936,-12.46031746031746,-5.0,-21.349206349206348,3.73015873015873,-3.253968253968254,19.76190476190476,-20.396825396825395,-4.0476190476190474,-19.444444444444443,-2.46031746031746,0.873015873015873,-325.0,-325.0,-325.0,-325.0,-325.0,-7.5396825396825395
2.619047619047619,4.2063492063492065,-19.126984126984127,-35.79365079365079,-31.825396825396822,-31.19047619047619,-3.571428571428571,-21.825396825396822,-4.841269841269841,-16.904761904761905,-6.587301587301587,-21.03174603174603,2.142857142857143,-33.25396825396825,-3.888888888888889,-21.825396825396822,-2.9365079365079363,1.1904761904761905,-325.0,-325.0,-325.0,-325.0,-325.0,-7.5396825396825395
2.619047619047619,4.2063492063492065,-19.126984126984127,-35.79365079365079,-31.825396825396822,-31.19047619047619,-3.571428571428571,-21.825396825396822,-4.841269841269841,-16.904761904761905,-6.587301587301587,-21.03174603174603,2.142857142857143,-33.25396825396825,-3.888888888888889,-21.825396825396822,-2.9365079365079363,1.1904761904761905,-325.0,-325.0,-325.0,-325.0,-325.0,-7.5396825396825395
-7.222222222222221,-8.968253968253968,-20.07936507936508,-37.53968253968254,-26.9047619047619,-31.825396825396822,-0.873015873015873,-24.68253968253968,-3.4126984126984126,-7.222222222222221,-9.285714285714285,-23.41269841269841,8.809523809523808,-32.460317460317455,12.142857142857142,-20.555555555555554,-2.619047619047619,0.873015873015873,-325.0,-325.0,-325.0,-325.0,-325.0,-7.5396825396825395
-7.222222222222221,-8.968253968253968,-20.07936507936508,-37.53968253968254,-26.9047619047619,-31.825396825396822,-0.873015873015873,-24.68253968253968,-3.4126984126984126,-7.222222222222221,-9.285714285714285,-23.41269841269841,8.809523809523808,-32.460317460317455,12.142857142857142,-20.555555555555554,-2.619047619047619,0.873015873015873,-325.0,-325.0,-325.0,-325.0,-325.0,-7.5396825396825395
-4.523809523809524,-6.904761904761904,-19.6031746031746,-30.555555555555554,-27.38095238095238,-26.746031746031743,-11.666666666666666,-29.444444444444443,-15.158730158730158,-9.761904761904761,-8.333333333333332,-18.015873015873016,9.285714285714285,-29.920634920634917,-0.5555555555555556,-24.84126984126984,-3.095238095238095,1.1904761904761905,-325.0,-325.0,-325.0,-325.0,-325.0,-7.5396825396825395
-4.523809523809524,-6.904761904761904,-19.6031746031746,-30.555555555555554,-27.38095238095238,-26.746031746031743,-11.666666666666666,-29.444444444444443,-15.158730158730158,-9.761904761904761,-8.333333333333332,-18.015873015873016,9.285714285714285,-29.920634920634917,-0.5555555555555556,-24.84126984126984,-3.095238095238095,1.1904761904761905,-325.0,-325.0,-325.0,-325.0,-325.0,-7.5396825396825395
15.0,8.968253968253968,-2.46031746031746,-6.746031746031746,-14.365079365079364,-3.888888888888889,-8.492063492063492,-22.46031746031746,-15.95238095238095,-9.761904761904761,10.079365079365079,-0.23809523809523808,17.38095238095238,-13.412698412698411,-2.9365079365079363,-16.26984126984127,-3.253968253968254,0.873015873015873,-325.0,-325.0,-325.0,-325.0,-325.0,-7.5396825396825395
15.0,8.968253968253968,-2.46031746031746,-6.746031746031746,-14.365079365079364,-3.888888888888889,-8.492063492063492,-22.46031746031746,-15.95238095238095,-9.761904761904761,10.079365079365079,-0.23809523809523808,17.38095238095238,-13.412698412698411,-2.9365079365079363,-16.26984126984127,-3.253968253968254,0.873015873015873,-325.0,-325.0,-325.0,-325.0,-325.0,-7.5396825396825395
25.634920634920633,25.0,4.682539682539682,8.65079365079365,-15.0,10.238095238095237,-17.698412698412696,-9.444444444444445,-14.84126984126984,-7.857142857142857,14.047619047619047,13.095238095238095,14.682539682539682,6.26984126984127,-1.0317460317460316,-1.0317460317460316,-3.4126984126984126,1.0317460317460316,-325.0,-325.0,-325.0,-325.0,-325.0,-321.8253968253968
25.634920634920633,25.0,4.682539682539682,8.65079365079365,-15.0,10.238095238095237,-17.698412698412696,-9.444444444444445,-14.84126984126984,-7.857142857142857,14.047619047619047,13.095238095238095,14.682539682539682,6.26984126984127,-1.0317460317460316,-1.0317460317460316,-3.4126984126984126,1.0317460317460316,-325.0,-325.0,-325.0,-325.0,-325.0,-321.8253968253968
15.0,33.25396825396825,-6.587301587301587,22.142857142857142,-27.698412698412696,19.92063492063492,-33.888888888888886,3.571428571428571,-23.88888888888889,-9.920634920634921,7.063492063492063,21.666666666666664,5.476190476190476,13.571428571428571,-21.507936507936506,1.507936507936508,-3.888888888888889,0.873015873015873,-325.0,-325.0,-325.0,-325.0,-325.0,-321.8253968253968
15.0,33.25396825396825,-6.587301587301587,22.142857142857142,-27.698412698412696,19.92063492063492,-33.888888888888886,3.571428571428571,-23.88888888888889,-9.920634920634921,7.063492063492063,21.666666666666664,5.476190476190476,13.571428571428571,-21.507936507936506,1.507936507936508,-3.888888888888889,0.873015873015873,-325.0,-325.0,-325.0,-325.0,-325.0,-321.8253968253968
7.857142857142857,32.460317460317455,-16.428571428571427,25.158730158730158,-33.25396825396825,17.22222222222222,-35.317460317460316,5.952380952380952,-17.857142857142858,-16.11111111111111,-3.571428571428571,20.555555555555554,-11.666666666666666,7.698412698412698,-21.825396825396822,4.523809523809524,-3.73015873015873,1.0317460317460316,-325.0,-325.0,-325.0,-325.0,-325.0,-321.8253968253968
7.857142857142857,32.460317460317455,-16.428571428571427,25.158730158730158,-33.25396825396825,17.22222222222222,-35.317460317460316,5.952380952380952,-17.857142857142858,-16.11111111111111,-3.571428571428571,20.555555555555554,-11.666666666666666,7.698412698412698,-21.825396825396822,4.523809523809524,-3.73015873015873,1.0317460317460316,-325.0,-325.0,-325.0,-325.0,-325.0,-321.8253968253968
-0.07936507936507936,16.587301587301585,-24.68253968253968,17.857142857142858,-39.92063492063492,0.873015873015873,-39.285714285714285,-14.047619047619047,-15.476190476190474,-28.015873015873016,-19.6031746031746,7.222222222222221,-19.92063492063492,-12.142857142857142,-32.61904761904762,-13.412698412698411,-3.571428571428571,1.0317460317460316,-325.0,-325.0,-325.0,-325.0,-325.0,-321.8253968253968
-0.07936507936507936,16.587301587301585,-24.68253968253968,17.857142857142858,-39.92063492063492,0.873015873015873,-39.285714285714285,-14.047619047619047,-15.476190476190474,-28.015873015873016,-19.6031746031746,7.222222222222221,-19.92063492063492,-12.142857142857142,-32.61904761904762,-13.412698412698411,-3.571428571428571,1.0317460317460316,-325.0,-325.0,-325.0,-325.0,-325.0,-321.8253968253968
-1.507936507936508,12.777777777777777,-15.95238095238095,14.682539682539682,-37.38095238095238,-10.396825396825395,-41.666666666666664,-33.41269841269841,-22.142857142857142,-37.06349206349206,-21.825396825396822,7.063492063492063,-24.68253968253968,-12.777777777777777,-42.460317460317455,-30.555555555555554,-3.73015873015873,1.1904761904761905,-325.0,-325.0,-325.0,-325.0,-325.0,-321.8253968253968
-1.507936507936508,12.777777777777777,-15.95238095238095,14.682539682539682,-37.38095238095238,-10.396825396825395,-41.666666666666664,-33.41269841269841,-22.142857142857142,-37.06349206349206,-21.825396825396822,7.063492063492063,-24.68253968253968,-12.777777777777777,-42.460317460317455,-30.555555555555554,-3.73015873015873,1.1904761904761905,-325.0,-325.0,-325.0,-325.0,-325.0,-321.8253968253968
14.047619047619047,21.19047619047619,-4.523809523809524,3.4126984126984126,-21.666666666666664,-7.5396825396825395,-27.857142857142854,-31.507936507936506,-16.11111111111111,-36.11111111111111,-5.634920634920634,16.11111111111111,-15.95238095238095,-9.920634920634921,-30.07936507936508,-27.063492063492063,-3.571428571428571,0.873015873015873,-325.0,-325.0,-325.0,-325.0,-325.0,-7.5396825396825395
14.047619047619047,21.19047619047619,-4.523809523809524,3.4126984126984126,-21.666666666666664,-7.5396825396825395,-27.857142857142854,-31.507936507936506,-16.11111111111111,-36.11111111111111,-5.634920634920634,16.11111111111111,-15.95238095238095,-9.920634920634921,-30.07936507936508,-27.063492063492063,-3.571428571428571,0.873015873015873,-325.0,-325.0,-325.0,-325.0,-325.0,-7.5396825396825395
-14.365079365079364,-6.428571428571428,-9.444444444444445,-7.222222222222221,-19.444444444444443,-8.809523809523808,-24.365079365079364,-24.84126984126984,-11.984126984126984,-27.698412698412696,0.5555555555555556,14.523809523809524,-12.777777777777777,-5.158730158730158,-26.11111111111111,-17.22222222222222,-3.888888888888889,0.873015873015873,-325.0,-325.0,-325.0,-325.0,-325.0,-7.5396825396825395
-14.365079365079364,-6.428571428571428,-9.444444444444445,-7.222222222222221,-19.444444444444443,-8.809523809523808,-24.365079365079364,-24.84126984126984,-11.984126984126984,-27.698412698412696,0.5555555555555556,14.523809523809524,-12.777777777777777,-5.158730158730158,-26.11111111111111,-17.22222222222222,-3.888888888888889,0.873015873015873,-325.0,-325.0,-325.0,-325.0,-325.0,-7.5396825396825395
-48.80952380952381,-39.285714285714285,-12.936507936507935,-12.619047619047619,-23.095238095238095,-15.0,-31.349206349206348,-20.396825396825395,-13.571428571428571,-15.158730158730158,-1.349206349206349,1.0317460317460316,-13.412698412698411,-7.857142857142857,-20.873015873015873,-11.984126984126984,-3.571428571428571,1.1904761904761905,-325.0,-325.0,-325.0,-325.0,-325.0,-7.5396825396825395
-48.80952380952381,-39.285714285714285,-12.936507936507935,-12.619047619047619,-23.095238095238095,-15.0,-31.349206349206348,-20.396825396825395,-13.571428571428571,-15.158730158730158,-1.349206349206349,1.0317460317460316,-13.412698412698411,-7.857142857142857,-20.873015873015873,-11.984126984126984,-3.571428571428571,1.1904761904761905,-325.0,-325.0,-325.0,-325.0,-325.0,-7.5396825396825395
-60.39682539682539,-22.46031746031746,-12.3015873015873,5.0,-21.825396825396822,3.4126984126984126,-33.25396825396825,2.142857142857143,-15.476190476190474,0.23809523809523808,-14.523809523809524,1.8253968253968254,-17.698412698412696,-11.19047619047619,-26.587301587301585,3.4126984126984126,-3.253968253968254,1.6666666666666665,-325.0,-325.0,-325.0,-325.0,-325.0,-7.5396825396825395
-60.39682539682539,-22.46031746031746,-12.3015873015873,5.0,-21.825396825396822,3.4126984126984126,-33.25396825396825,2.142857142857143,-15.476190476190474,0.23809523809523808,-14.523809523809524,1.8253968253968254,-17.698412698412696,-11.19047619047619,-26.587301587301585,3.4126984126984126,-3.253968253968254,1.6666666666666665,-325.0,-325.0,-325.0,-325.0,-325.0,-7.5396825396825395
-45.317460317460316,-8.65079365079365,7.857142857142857,21.349206349206348,-7.3809523809523805,18.49206349206349,-18.96825396825397,18.015873015873016,-3.095238095238095,6.904761904761904,-11.825396825396824,7.222222222222221,-16.904761904761905,-1.6666666666666665,-18.015873015873016,13.253968253968253,-3.253968253968254,1.1904761904761905,-325.0,-325.0,-325.0,-325.0,-325.0,-7.5396825396825395
-45.317460317460316,-8.65079365079365,7.857142857142857,21.349206349206348,-7.3809523809523805,18.49206349206349,-18.96825396825397,18.015873015873016,-3.095238095238095,6.904761904761904,-11.825396825396824,7.222222222222221,-16.904761904761905,-1.6666666666666665,-18.015873015873016,13.253968253968253,-3.253968253968254,1.1904761904761905,-325.0,-325.0,-325.0,-325.0,-325.0,-7.5396825396825395
-29.6031746031746,-19.285714285714285,27.857142857142854,21.03174603174603,15.0,28.65079365079365,25.952380952380953,32.77777777777778,24.206349206349206,20.555555555555554,2.46031746031746,0.873015873015873,-4.365079365079365,-2.46031746031746,22.3015873015873,18.174603174603174,-3.095238095238095,1.349206349206349,-325.0,-325.0,-325.0,-325.0,-325.0,-321.8253968253968
-29.6031746031746,-19.285714285714285,27.857142857142854,21.03174603174603,15.0,28.65079365079365,25.952380952380953,32.77777777777778,24.206349206349206,20.555555555555554,2.46031746031746,0.873015873015873,-4.365079365079365,-2.46031746031746,22.3015873015873,18.174603174603174,-3.095238095238095,1.349206349206349,-325.0,-325.0,-325.0,-325.0,-325.0,-321.8253968253968
-3.4126984126984126,-32.93650793650794,42.3015873015873,18.65079365079365,22.936507936507937,27.063492063492063,39.6031746031746,34.2063492063492,31.825396825396822,16.428571428571427,19.6031746031746,-3.095238095238095,-7.222222222222221,2.7777777777777777,26.26984126984127,18.015873015873016,-3.4126984126984126,1.349206349206349,-325.0,-325.0,-325.0,-325.0,-325.0,-321.8253968253968
-3.4126984126984126,-32.93650793650794,42.3015873015873,18.65079365079365,22.936507936507937,27.063492063492063,39.6031746031746,34.2063492063492,31.825396825396822,16.428571428571427,19.6031746031746,-3.095238095238095,-7.222222222222221,2.7777777777777777,26.26984126984127,18.015873015873016,-3.4126984126984126,1.349206349206349,-325.0,-325.0,-325.0,-325.0,-325.0,-321.8253968253968
7.222222222222221,-47.06349206349206,44.36507936507936,7.857142857142857,19.444444444444443,21.19047619047619,31.19047619047619,19.126984126984127,20.238095238095237,1.1904761904761905,24.206349206349206,-13.095238095238095,-3.4126984126984126,5.634920634920634,22.3015873015873,6.746031746031746,-3.571428571428571,1.1904761904761905,-325.0,-325.0,-325.0,-325.0,-325.0,-321.8253968253968
7.222222222222221,-47.06349206349206,44.36507936507936,7.857142857142857,19.444444444444443,21.19047619047619,31.19047619047619,19.126984126984127,20.238095238095237,1.1904761904761905,24.206349206349206,-13.095238095238095,-3.4126984126984126,5.634920634920634,22.3015873015873,6.746031746031746,-3.571428571428571,1.1904761904761905,-325.0,-325.0,-325.0,-325.0,-325.0,-321.8253968253968
1.6666666666666665,-41.03174603174603,29.285714285714285,4.2063492063492065,10.079365079365079,14.523809523809524,16.904761904761905,5.7936507936507935,11.825396825396824,-6.26984126984127,19.285714285714285,-16.11111111111111,-4.0476190476190474,5.0,2.46031746031746,1.1904761904761905,-3.253968253968254,1.1904761904761905,-325.0,-325.0,-325.0,-325.0,-325.0,-321.8253968253968
1.6666666666666665,-41.03174603174603,29.285714285714285,4.2063492063492065,10.079365079365079,14.523809523809524,16.904761904761905,5.7936507936507935,11.825396825396824,-6.26984126984127,19.285714285714285,-16.11111111111111,-4.0476190476190474,5.0,2.46031746031746,1.1904761904761905,-3.253968253968254,1.1904761904761905,-325.0,-325.0,-325.0,-325.0,-325.0,-321.8253968253968
-1.1904761904761905,-26.11111111111111,15.0,4.523809523809524,0.5555555555555556,12.936507936507935,17.22222222222222,1.349206349206349,11.984126984126984,-1.8253968253968254,6.111111111111111,-6.428571428571428,4.2063492063492065,4.523809523809524,10.873015873015872,4.523809523809524,-4.2063492063492065,1.349206349206349,-325.0,-325.0,-325.0,-325.0,-325.0,-321.8253968253968
-1.1904761904761905,-26.11111111111111,15.0,4.523809523809524,0.5555555555555556,12.936507936507935,17.22222222222222,1.349206349206349,11.984126984126984,-1.8253968253968254,6.111111111111111,-6.428571428571428,4.2063492063492065,4.523809523809524,10.873015873015872,4.523809523809524,-4.2063492063492065,1.349206349206349,-325.0,-325.0,-325.0,-325.0,-325.0,-321.8253968253968
-16.26984126984127,-17.063492063492063,-1.349206349206349,0.3968253968253968,-10.714285714285714,10.555555555555555,-1.984126984126984,-0.873015873015873,-4.682539682539682,-2.142857142857143,-7.3809523809523805,-0.5555555555555556,-8.492063492063492,5.0,0.7142857142857142,3.095238095238095,-3.888888888888889,1.507936507936508,-325.0,-325.0,-325.0,-325.0,-325.0,-7.5396825396825395
-16.26984126984127,-17.063492063492063,-1.349206349206349,0.3968253968253968,-10.714285714285714,10.555555555555555,-1.984126984126984,-0.873015873015873,-4.682539682539682,-2.142857142857143,-7.3809523809523805,-0.5555555555555556,-8.492063492063492,5.0,0.7142857142857142,3.095238095238095,-3.888888888888889,1.507936507936508,-325.0,-325.0,-325.0,-325.0,-325.0,-7.5396825396825395
-17.38095238095238,-5.634920634920634,-9.444444444444445,-2.9365079365079363,-12.777777777777777,6.904761904761904,-11.984126984126984,4.523809523809524,-0.873015873015873,3.888888888888889,-3.888888888888889,9.603174603174603,3.888888888888889,14.365079365079364,8.492063492063492,8.015873015873016,-3.888888888888889,1.507936507936508,-325.0,-325.0,-325.0,-325.0,-325.0,-7.5396825396825395
-17.38095238095238,-5.634920634920634,-9.444444444444445,-2.9365079365079363,-12.777777777777777,6.904761904761904,-11.984126984126984,4.523809523809524,-0.873015873015873,3.888888888888889,-3.888888888888889,9.603174603174603,3.888888888888889,14.365079365079364,8.492063492063492,8.015873015873016,-3.888888888888889,1.507936507936508,-325.0,-325.0,-325.0,-325.0,-325.0,-7.5396825396825395
-18.80952380952381,8.015873015873016,-20.873015873015873,1.349206349206349,-20.07936507936508,13.571428571428571,-25.634920634920633,6.26984126984127,-13.571428571428571,6.428571428571428,-2.46031746031746,18.174603174603174,10.555555555555555,8.968253968253968,-11.19047619047619,4.682539682539682,-3.4126984126984126,1.6666666666666665,-325.0,-325.0,-325.0,-325.0,-325.0,-7.5396825396825395
-18.80952380952381,8.015873015873016,-20.873015873015873,1.349206349206349,-20.07936507936508,13.571428571428571,-25.634920634920633,6.26984126984127,-13.571428571428571,6.428571428571428,-2.46031746031746,18.174603174603174,10.555555555555555,8.968253968253968,-11.19047619047619,4.682539682539682,-3.4126984126984126,1.6666666666666665,-325.0,-325.0,-325.0,-325.0,-325.0,-7.5396825396825395
-9.761904761904761,18.015873015873016,-15.317460317460316,4.841269841269841,-12.619047619047619,4.682539682539682,-20.238095238095237,-9.285714285714285,-14.523809523809524,3.571428571428571,8.65079365079365,20.396825396825395,6.587301587301587,4.682539682539682,-6.587301587301587,-5.7936507936507935,-4.2063492063492065,1.507936507936508,-325.0,-325.0,-325.0,-325.0,-325.0,-7.5396825396825395
-9.761904761904761,18.015873015873016,-15.317460317460316,4.841269841269841,-12.619047619047619,4.682539682539682,-20.238095238095237,-9.285714285714285,-14.523809523809524,3.571428571428571,8.65079365079365,20.396825396825395,6.587301587301587,4.682539682539682,-6.587301587301587,-5.7936507936507935,-4.2063492063492065,1.507936507936508,-325.0,-325.0,-325.0,-325.0,-325.0,-7.5396825396825395
-20.07936507936508,25.476190476190474,-24.84126984126984,12.777777777777777,-16.11111111111111,7.5396825396825395,-21.984126984126984,-11.825396825396824,-15.0,12.142857142857142,-0.873015873015873,23.730158730158728,3.4126984126984126,4.682539682539682,2.142857142857143,-3.888888888888889,-3.888888888888889,1.1904761904761905,-325.0,-325.0,-325.0,-325.0,-325.0,-7.5396825396825395
-20.07936507936508,25.476190476190474,-24.84126984126984,12.777777777777777,-16.11111111111111,7.5396825396825395,-21.984126984126984,-11.825396825396824,-15.0,12.142857142857142,-0.873015873015873,23.730158730158728,3.4126984126984126,4.682539682539682,2.142857142857143,-3.888888888888889,-3.888888888888889,1.1904761904761905,-325.0,-325.0,-325.0,-325.0,-325.0,-7.5396825396825395
-15.158730158730158,27.857142857142854,-18.333333333333332,11.825396825396824,-6.746031746031746,9.920634920634921,-5.317460317460317,-10.238095238095237,-2.619047619047619,11.349206349206348,5.634920634920634,25.158730158730158,6.26984126984127,8.015873015873016,9.761904761904761,-1.507936507936508,-3.4126984126984126,1.0317460317460316,-325.0,-325.0,-325.0,-325.0,-325.0,-321.8253968253968
-15.158730158730158,27.857142857142854,-18.333333333333332,11.825396825396824,-6.746031746031746,9.920634920634921,-5.317460317460317,-10.238095238095237,-2.619047619047619,11.349206349206348,5.634920634920634,25.158730158730158,6.26984126984127,8.015873015873016,9.761904761904761,-1.507936507936508,-3.4126984126984126,1.0317460317460316,-325.0,-325.0,-325.0,-325.0,-325.0,-321.8253968253968
-5.7936507936507935,37.698412698412696,1.984126984126984,33.888888888888886,12.3015873015873,31.825396825396822,22.777777777777775,9.126984126984127,17.539682539682538,19.126984126984127,13.412698412698411,33.41269841269841,14.523809523809524,11.825396825396824,35.476190476190474,8.492063492063492,-3.888888888888889,1.6666666666666665,-325.0,-325.0,-325.0,-325.0,-325.0,-321.8253968253968
-5.7936507936507935,37.698412698412696,1.984126984126984,33.888888888888886,12.3015873015873,31.825396825396822,22.777777777777775,9.126984126984127,17.539682539682538,19.126984126984127,13.412698412698411,33.41269841269841,14.523809523809524,11.825396825396824,35.476190476190474,8.492063492063492,-3.888888888888889,1.6666666666666665,-325.0,-325.0,-325.0,-325.0,-325.0,-321.8253968253968
-2.9365079365079363,41.03174603174603,8.65079365079365,38.33333333333333,12.936507936507935,45.63492063492063,41.666666666666664,31.03174603174603,33.095238095238095,27.857142857142854,10.079365079365079,35.79365079365079,14.206349206349206,18.333333333333332,36.74603174603175,16.904761904761905,-3.571428571428571,1.1904761904761905,-325.0,-325.0,-325.0,-325.0,-325.0,-321.8253968253968
-2.9365079365079363,41.03174603174603,8.65079365079365,38.33333333333333,12.936507936507935,45.63492063492063,41.666666666666664,31.03174603174603,33.095238095238095,27.857142857142854,10.079365079365079,35.79365079365079,14.206349206349206,18.333333333333332,36.74603174603175,16.904761904761905,-3.571428571428571,1.1904761904761905,-325.0,-325.0,-325.0,-325.0,-325.0,-321.8253968253968
10.555555555555555,48.49206349206349,5.634920634920634,36.42857142857142,2.3015873015873014,27.22222222222222,15.317460317460316,22.3015873015873,18.96825396825397,21.03174603174603,18.65079365079365,39.76190476190476,33.73015873015873,26.587301587301585,30.238095238095237,17.857142857142858,-2.7777777777777777,1.984126984126984,-325.0,-325.0,-325.0,-325.0,-325.0,-321.8253968253968
10.555555555555555,48.49206349206349,5.634920634920634,36.42857142857142,2.3015873015873014,27.22222222222222,15.317460317460316,22.3015873015873,18.96825396825397,21.03174603174603,18.65079365079365,39.76190476190476,33.73015873015873,26.587301587301585,30.238095238095237,17.857142857142858,-2.7777777777777777,1.984126984126984,-325.0,-325.0,-325.0,-325.0,-325.0,-321.8253968253968
11.031746031746032,41.19047619047619,-3.888888888888889,20.07936507936508,-12.777777777777777,2.7777777777777777,-1.984126984126984,10.238095238095237,9.444444444444445,14.523809523809524,13.412698412698411,29.126984126984127,20.396825396825395,19.126984126984127,8.333333333333332,13.888888888888888,-3.095238095238095,1.984126984126984,-325.0,-325.0,-325.0,-325.0,-325.0,-321.8253968253968
11.031746031746032,41.19047619047619,-3.888888888888889,20.07936507936508,-12.777777777777777,2.7777777777777777,-1.984126984126984,10.238095238095237,9.444444444444445,14.523809523809524,13.412698412698411,29.126984126984127,20.396825396825395,19.126984126984127,8.333333333333332,13.888888888888888,-3.095238095238095,1.984126984126984,-325.0,-325.0,-325.0,-325.0,-325.0,-321.8253968253968
9.920634920634921,26.428571428571427,-8.968253968253968,5.7936507936507935,-6.428571428571428,-2.7777777777777777,6.428571428571428,2.7777777777777777,16.11111111111111,14.047619047619047,10.873015873015872,14.84126984126984,14.523809523809524,8.015873015873016,15.0,7.5396825396825395,-2.7777777777777777,1.8253968253968254,-325.0,-325.0,-325.0,-325.0,-325.0,-7.5396825396825395
9.920634920634921,26.428571428571427,-8.968253968253968,5.7936507936507935,-6.428571428571428,-2.7777777777777777,6.428571428571428,2.7777777777777777,16.11111111111111,14.047619047619047,10.873015873015872,14.84126984126984,14.523809523809524,8.015873015873016,15.0,7.5396825396825395,-2.7777777777777777,1.8253968253968254,-325.0,-325.0,-325.0,-325.0,-325.0,-7.5396825396825395
5.317460317460317,32.14285714285714,-6.111111111111111,12.46031746031746,0.873015873015873,1.507936507936508,3.571428571428571,3.73015873015873,9.761904761904761,18.015873015873016,9.603174603174603,22.619047619047617,16.26984126984127,7.3809523809523805,10.873015873015872,6.26984126984127,-3.571428571428571,1.984126984126984,-325.0,-325.0,-325.0,-325.0,-325.0,-7.5396825396825395
5.317460317460317,32.14285714285714,-6.111111111111111,12.46031746031746,0.873015873015873,1.507936507936508,3.571428571428571,3.73015873015873,9.761904761904761,18.015873015873016,9.603174603174603,22.619047619047617,16.26984126984127,7.3809523809523805,10.873015873015872,6.26984126984127,-3.571428571428571,1.984126984126984,-325.0,-325.0,-325.0,-325.0,-325.0,-7.5396825396825395
-1.6666666666666665,23.095238095238095,-7.5396825396825395,13.253968253968253,-1.984126984126984,5.476190476190476,-3.4126984126984126,8.492063492063492,3.095238095238095,22.3015873015873,6.26984126984127,26.587301587301585,13.412698412698411,12.142857142857142,-0.873015873015873,11.349206349206348,-3.73015873015873,1.984126984126984,-325.0,-325.0,-325.0,-325.0,-325.0,-7.5396825396825395
-1.6666666666666665,23.095238095238095,-7.5396825396825395,13.253968253968253,-1.984126984126984,5.476190476190476,-3.4126984126984126,8.492063492063492,3.095238095238095,22.3015873015873,6.26984126984127,26.587301587301585,13.412698412698411,12.142857142857142,-0.873015873015873,11.349206349206348,-3.73015873015873,1.984126984126984,-325.0,-325.0,-325.0,-325.0,-325.0,-7.5396825396825395
0.873015873015873,19.76190476190476,-0.07936507936507936,17.698412698412696,8.492063492063492,17.539682539682538,4.523809523809524,15.317460317460316,3.73015873015873,22.777777777777775,13.888888888888888,27.38095238095238,18.174603174603174,14.047619047619047,11.825396825396824,18.333333333333332,-3.571428571428571,1.349206349206349,-325.0,-325.0,-325.0,-325.0,-325.0,-7.5396825396825395
0.873015873015873,19.76190476190476,-0.07936507936507936,17.698412698412696,8.492063492063492,17.539682539682538,4.523809523809524,15.317460317460316,3.73015873015873,22.777777777777775,13.888888888888888,27.38095238095238,18.174603174603174,14.047619047619047,11.825396825396824,18.333333333333332,-3.571428571428571,1.349206349206349,-325.0,-325.0,-325.0,-325.0,-325.0,-7.5396825396825395
4.523809523809524,26.9047619047619,5.158730158730158,30.555555555555554,21.507936507936506,41.19047619047619,19.444444444444443,31.666666666666664,15.317460317460316,30.07936507936508,15.793650793650793,32.460317460317455,19.444444444444443,18.015873015873016,12.777777777777777,25.476190476190474,-2.9365079365079363,1.349206349206349,-325.0,-325.0,-325.0,-325.0,-325.0,-7.5396825396825395
4.523809523809524,26.9047619047619,5.158730158730158,30.555555555555554,21.507936507936506,41.19047619047619,19.444444444444443,31.666666666666664,15.317460317460316,30.07936507936508,15.793650793650793,32.460317460317455,19.444444444444443,18.015873015873016,12.777777777777777,25.476190476190474,-2.9365079365079363,1.349206349206349,-325.0,-325.0,-325.0,-325.0,-325.0,-7.5396825396825395
-5.634920634920634,18.80952380952381,9.126984126984127,27.698412698412696,25.634920634920633,42.460317460317455,38.80952380952381,37.06349206349206,28.174603174603174,29.920634920634917,17.857142857142858,25.79365079365079,24.84126984126984,15.793650793650793,28.49206349206349,29.76190476190476,-2.619047619047619,1.1904761904761905,-325.0,-325.0,-325.0,-325.0,-325.0,-321.8253968253968
-5.634920634920634,18.80952380952381,9.126984126984127,27.698412698412696,25.634920634920633,42.460317460317455,38.80952380952381,37.06349206349206,28.174603174603174,29.920634920634917,17.857142857142858,25.79365079365079,24.84126984126984,15.793650793650793,28.49206349206349,29.76190476190476,-2.619047619047619,1.1904761904761905,-325.0,-325.0,-325.0,-325.0,-325.0,-321.8253968253968
3.571428571428571,7.063492063492063,20.07936507936508,20.873015873015873,25.158730158730158,35.476190476190474,46.904761904761905,36.904761904761905,31.825396825396822,27.698412698412696,29.920634920634917,22.142857142857142,25.634920634920633,23.730158730158728,33.25396825396825,29.76190476190476,-3.571428571428571,1.349206349206349,-325.0,-325.0,-325.0,-325.0,-325.0,-321.8253968253968
3.571428571428571,7.063492063492063,20.07936507936508,20.873015873015873,25.158730158730158,35.476190476190474,46.904761904761905,36.904761904761905,31.825396825396822,27.698412698412696,29.920634920634917,22.142857142857142,25.634920634920633,23.730158730158728,33.25396825396825,29.76190476190476,-3.571428571428571,1.349206349206349,-325.0,-325.0,-325.0,-325.0,-325.0,-321.8253968253968
3.571428571428571,0.3968253968253968,26.11111111111111,15.476190476190474,21.19047619047619,32.460317460317455,48.01587301587301,34.52380952380952,30.71428571428571,29.444444444444443,25.0,11.825396825396824,25.79365079365079,14.682539682539682,33.41269841269841,22.936507936507937,-3.4126984126984126,1.1904761904761905,-325.0,-325.0,-325.0,-325.0,-325.0,-321.8253968253968
3.571428571428571,0.3968253968253968,26.11111111111111,15.476190476190474,21.19047619047619,32.460317460317455,48.01587301587301,34.52380952380952,30.71428571428571,29.444444444444443,25.0,11.825396825396824,25.79365079365079,14.682539682539682,33.41269841269841,22.936507936507937,-3.4126984126984126,1.1904761904761905,-325.0,-325.0,-325.0,-325.0,-325.0,-321.8253968253968
12.619047619047619,5.476190476190476,31.666666666666664,23.095238095238095,31.825396825396822,38.96825396825397,50.87301587301587,36.11111111111111,28.809523809523807,30.396825396825395,27.38095238095238,11.666666666666666,31.98412698412698,12.142857142857142,32.14285714285714,15.476190476190474,-3.095238095238095,0.873015873015873,-325.0,-325.0,-325.0,-325.0,-325.0,-321.8253968253968
12.619047619047619,5.476190476190476,31.666666666666664,23.095238095238095,31.825396825396822,38.96825396825397,50.87301587301587,36.11111111111111,28.809523809523807,30.396825396825395,27.38095238095238,11.666666666666666,31.98412698412698,12.142857142857142,32.14285714285714,15.476190476190474,-3.095238095238095,0.873015873015873,-325.0,-325.0,-325.0,-325.0,-325.0,-321.8253968253968
7.3809523809523805,15.793650793650793,11.349206349206348,27.698412698412696,12.619047619047619,36.904761904761905,21.825396825396822,33.41269841269841,6.428571428571428,27.539682539682538,15.0,18.174603174603174,13.888888888888888,12.46031746031746,6.428571428571428,15.0,-2.7777777777777777,1.0317460317460316,-325.0,-325.0,-325.0,-325.0,-325.0,-321.8253968253968
7.3809523809523805,15.793650793650793,11.349206349206348,27.698412698412696,12.619047619047619,36.904761904761905,21.825396825396822,33.41269841269841,6.428571428571428,27.539682539682538,15.0,18.174603174603174,13.888888888888888,12.46031746031746,6.428571428571428,15.0,-2.7777777777777777,1.0317460317460316,-325.0,-325.0,-325.0,-325.0,-325.0,-321.8253968253968
3.571428571428571,17.539682539682538,-1.507936507936508,27.698412698412696,8.65079365079365,25.79365079365079,18.015873015873016,16.746031746031743,0.7142857142857142,19.92063492063492,5.952380952380952,18.174603174603174,10.396825396825395,11.349206349206348,14.047619047619047,6.428571428571428,-3.253968253968254,1.349206349206349,-325.0,-325.0,-325.0,-325.0,-325.0,-7.5396825396825395
3.571428571428571,17.539682539682538,-1.507936507936508,27.698412698412696,8.65079365079365,25.79365079365079,18.015873015873016,16.746031746031743,0.7142857142857142,19.92063492063492,5.952380952380952,18.174603174603174,10.396825396825395,11.349206349206348,14.047619047619047,6.428571428571428,-3.253968253968254,1.349206349206349,-325.0,-325.0,-325.0,-325.0,-325.0,-7.5396825396825395
-1.6666666666666665,18.174603174603174,-13.571428571428571,19.76190476190476,-3.4126984126984126,15.158730158730158,-7.063492063492063,6.26984126984127,-11.984126984126984,13.888888888888888,6.587301587301587,17.857142857142858,9.603174603174603,14.047619047619047,-4.2063492063492065,6.428571428571428,-2.7777777777777777,1.0317460317460316,-325.0,-325.0,-325.0,-325.0,-325.0,-7.5396825396825395
-1.6666666666666665,18.174603174603174,-13.571428571428571,19.76190476190476,-3.4126984126984126,15.158730158730158,-7.063492063492063,6.26984126984127,-11.984126984126984,13.888888888888888,6.587301587301587,17.857142857142858,9.603174603174603,14.047619047619047,-4.2063492063492065,6.428571428571428,-2.7777777777777777,1.0317460317460316,-325.0,-325.0,-325.0,-325.0,-325.0,-7.5396825396825395
3.888888888888889,23.41269841269841,-10.079365079365079,20.07936507936508,-5.952380952380952,5.7936507936507935,-30.71428571428571,-8.015873015873016,-21.19047619047619,1.6666666666666665,8.174603174603174,17.698412698412696,2.46031746031746,14.682539682539682,-12.3015873015873,1.8253968253968254,-3.095238095238095,1.0317460317460316,-325.0,-325.0,-325.0,-325.0,-325.0,-7.5396825396825395
3.888888888888889,23.41269841269841,-10.079365079365079,20.07936507936508,-5.952380952380952,5.7936507936507935,-30.71428571428571,-8.015873015873016,-21.19047619047619,1.6666666666666665,8.174603174603174,17.698412698412696,2.46031746031746,14.682539682539682,-12.3015873015873,1.8253968253968254,-3.095238095238095,1.0317460317460316,-325.0,-325.0,-325.0,-325.0,-325.0,-7.5396825396825395
19.92063492063492,37.06349206349206,4.0476190476190474,35.476190476190474,-2.3015873015873014,21.984126984126984,-39.6031746031746,2.46031746031746,-18.96825396825397,3.4126984126984126,14.206349206349206,30.396825396825395,1.0317460317460316,27.857142857142854,-23.41269841269841,14.206349206349206,-3.095238095238095,0.7142857142857142,-325.0,-325.0,-325.0,-325.0,-325.0,-7.5396825396825395
19.92063492063492,37.06349206349206,4.0476190476190474,35.476190476190474,-2.3015873015873014,21.984126984126984,-39.6031746031746,2.46031746031746,-18.96825396825397,3.4126984126984126,14.206349206349206,30.396825396825395,1.0317460317460316,27.857142857142854,-23.41269841269841,14.206349206349206,-3.095238095238095,0.7142857142857142,-325.0,-325.0,-325.0,-325.0,-325.0,-7.5396825396825395
14.365079365079364,23.57142857142857,-2.7777777777777777,37.22222222222222,11.031746031746032,36.269841269841265,-13.73015873015873,18.015873015873016,-3.888888888888889,12.46031746031746,14.682539682539682,22.777777777777775,-1.6666666666666665,21.19047619047619,-3.095238095238095,17.857142857142858,-3.253968253968254,0.7142857142857142,-325.0,-325.0,-325.0,-325.0,-325.0,-7.5396825396825395
14.365079365079364,23.57142857142857,-2.7777777777777777,37.22222222222222,11.031746031746032,36.269841269841265,-13.73015873015873,18.015873015873016,-3.888888888888889,12.46031746031746,14.682539682539682,22.777777777777775,-1.6666666666666665,21.19047619047619,-3.095238095238095,17.857142857142858,-3.253968253968254,0.7142857142857142,-325.0,-325.0,-325.0,-325.0,-325.0,-7.5396825396825395
-5.158730158730158,15.793650793650793,-20.396825396825395,24.047619047619047,7.222222222222221,51.19047619047619,3.571428571428571,48.80952380952381,14.047619047619047,35.476190476190474,8.968253968253968,15.95238095238095,2.9365079365079363,21.19047619047619,2.619047619047619,32.3015873015873,-2.9365079365079363,0.7142857142857142,-325.0,-325.0,-325.0,-325.0,-325.0,-321.8253968253968
-5.158730158730158,15.793650793650793,-20.396825396825395,24.047619047619047,7.222222222222221,51.19047619047619,3.571428571428571,48.80952380952381,14.047619047619047,35.476190476190474,8.968253968253968,15.95238095238095,2.9365079365079363,21.19047619047619,2.619047619047619,32.3015873015873,-2.9365079365079363,0.7142857142857142,-325.0,-325.0,-325.0,-325.0,-325.0,-321.8253968253968
-16.746031746031743,0.7142857142857142,-37.857142857142854,6.904761904761904,-12.936507936507935,37.857142857142854,2.619047619047619,51.19047619047619,14.365079365079364,35.15873015873016,1.0317460317460316,8.015873015873016,-2.619047619047619,20.396825396825395,-2.46031746031746,34.2063492063492,-2.46031746031746,0.7142857142857142,-325.0,-325.0,-325.0,-325.0,-325.0,-321.8253968253968
-16.746031746031743,0.7142857142857142,-37.857142857142854,6.904761904761904,-12.936507936507935,37.857142857142854,2.619047619047619,51.19047619047619,14.365079365079364,35.15873015873016,1.0317460317460316,8.015873015873016,-2.619047619047619,20.396825396825395,-2.46031746031746,34.2063492063492,-2.46031746031746,0.7142857142857142,-325.0,-325.0,-325.0,-325.0,-325.0,-321.8253968253968
-15.793650793650793,2.142857142857143,-28.65079365079365,4.523809523809524,-6.587301587301587,33.095238095238095,4.0476190476190474,36.58730158730159,6.111111111111111,26.746031746031743,-0.7142857142857142,6.904761904761904,-12.142857142857142,16.904761904761905,-2.46031746031746,27.539682539682538,-2.7777777777777777,0.5555555555555556,-325.0,-325.0,-325.0,-325.0,-325.0,-321.8253968253968
-15.793650793650793,2.142857142857143,-28.65079365079365,4.523809523809524,-6.587301587301587,33.095238095238095,4.0476190476190474,36.58730158730159,6.111111111111111,26.746031746031743,-0.7142857142857142,6.904761904761904,-12.142857142857142,16.904761904761905,-2.46031746031746,27.539682539682538,-2.7777777777777777,0.5555555555555556,-325.0,-325.0,-325.0,-325.0,-325.0,-321.8253968253968
1.0317460317460316,12.619047619047619,-4.682539682539682,21.349206349206348,7.063492063492063,28.96825396825397,9.920634920634921,31.825396825396822,8.492063492063492,23.41269841269841,7.3809523809523805,12.936507936507935,2.142857142857143,18.174603174603174,14.047619047619047,27.857142857142854,-3.4126984126984126,0.873015873015873,-325.0,-325.0,-325.0,-325.0,-325.0,-321.8253968253968
1.0317460317460316,12.619047619047619,-4.682539682539682,21.349206349206348,7.063492063492063,28.96825396825397,9.920634920634921,31.825396825396822,8.492063492063492,23.41269841269841,7.3809523809523805,12.936507936507935,2.142857142857143,18.174603174603174,14.047619047619047,27.857142857142854,-3.4126984126984126,0.873015873015873,-325.0,-325.0,-325.0,-325.0,-325.0,-321.8253968253968
8.492063492063492,33.888888888888886,1.0317460317460316,34.52380952380952,13.73015873015873,32.77777777777778,13.888888888888888,29.285714285714285,6.904761904761904,22.46031746031746,7.3809523809523805,25.476190476190474,-1.984126984126984,16.428571428571427,17.857142857142858,23.253968253968253,-2.7777777777777777,0.873015873015873,-325.0,-325.0,-325.0,-325.0,-325.0,-321.8253968253968
8.492063492063492,33.888888888888886,1.0317460317460316,34.52380952380952,13.73015873015873,32.77777777777778,13.888888888888888,29.285714285714285,6.904761904761904,22.46031746031746,7.3809523809523805,25.476190476190474,-1.984126984126984,16.428571428571427,17.857142857142858,23.253968253968253,-2.7777777777777777,0.873015873015873,-325.0,-325.0,-325.0,-325.0,-325.0,-321.8253968253968
10.238095238095237,34.84126984126984,10.714285714285714,32.460317460317455,26.9047619047619,35.476190476190474,26.9047619047619,23.57142857142857,12.777777777777777,25.952380952380953,7.857142857142857,25.952380952380953,3.73015873015873,17.22222222222222,24.206349206349206,18.96825396825397,-3.095238095238095,0.23809523809523808,-325.0,-325.0,-325.0,-325.0,-325.0,-7.5396825396825395
10.238095238095237,34.84126984126984,10.714285714285714,32.460317460317455,26.9047619047619,35.476190476190474,26.9047619047619,23.57142857142857,12.777777777777777,25.952380952380953,7.857142857142857,25.952380952380953,3.73015873015873,17.22222222222222,24.206349206349206,18.96825396825397,-3.095238095238095,0.23809523809523808,-325.0,-325.0,-325.0,-325.0,-325.0,-7.5396825396825395
6.111111111111111,29.76190476190476,-2.619047619047619,19.6031746031746,13.253968253968253,11.825396825396824,8.968253968253968,-1.349206349206349,-5.7936507936507935,8.015873015873016,7.063492063492063,21.507936507936506,5.158730158730158,22.142857142857142,9.285714285714285,2.3015873015873014,-3.4126984126984126,0.23809523809523808,-325.0,-325.0,-325.0,-325.0,-325.0,-7.5396825396825395
6.111111111111111,29.76190476190476,-2.619047619047619,19.6031746031746,13.253968253968253,11.825396825396824,8.968253968253968,-1.349206349206349,-5.7936507936507935,8.015873015873016,7.063492063492063,21.507936507936506,5.158730158730158,22.142857142857142,9.285714285714285,2.3015873015873014,-3.4126984126984126,0.23809523809523808,-325.0,-325.0,-325.0,-325.0,-325.0,-7.5396825396825395
7.857142857142857,10.396825396825395,-7.5396825396825395,-1.8253968253968254,3.73015873015873,-12.3015873015873,-2.7777777777777777,-15.317460317460316,-9.603174603174603,0.07936507936507936,7.5396825396825395,2.7777777777777777,7.063492063492063,12.619047619047619,8.333333333333332,-0.7142857142857142,-3.571428571428571,0.7142857142857142,-325.0,-325.0,-325.0,-325.0,-325.0,-7.5396825396825395
7.857142857142857,10.396825396825395,-7.5396825396825395,-1.8253968253968254,3.73015873015873,-12.3015873015873,-2.7777777777777777,-15.317460317460316,-9.603174603174603,0.07936507936507936,7.5396825396825395,2.7777777777777777,7.063492063492063,12.619047619047619,8.333333333333332,-0.7142857142857142,-3.571428571428571,0.7142857142857142,-325.0,-325.0,-325.0,-325.0,-325.0,-7.5396825396825395
11.507936507936508,14.206349206349206,1.984126984126984,10.238095238095237,4.682539682539682,5.7936507936507935,8.968253968253968,6.428571428571428,3.73015873015873,11.19047619047619,9.603174603174603,10.079365079365079,5.952380952380952,20.873015873015873,10.238095238095237,20.396825396825395,-3.095238095238095,0.3968253968253968,-325.0,-325.0,-325.0,-325.0,-325.0,-7.5396825396825395
11.507936507936508,14.206349206349206,1.984126984126984,10.238095238095237,4.682539682539682,5.7936507936507935,8.968253968253968,6.428571428571428,3.73015873015873,11.19047619047619,9.603174603174603,10.079365079365079,5.952380952380952,20.873015873015873,10.238095238095237,20.396825396825395,-3.095238095238095,0.3968253968253968,-325.0,-325.0,-325.0,-325.0,-325.0,-7.5396825396825395
11.349206349206348,17.063492063492063,9.126984126984127,22.142857142857142,19.6031746031746,15.158730158730158,40.87301587301587,22.3015873015873,28.809523809523807,20.396825396825395,16.746031746031743,13.888888888888888,7.857142857142857,21.19047619047619,20.71428571428571,25.158730158730158,-3.571428571428571,0.7142857142857142,-325.0,-325.0,-325.0,-325.0,-325.0,-7.5396825396825395
11.349206349206348,17.063492063492063,9.126984126984127,22.142857142857142,19.6031746031746,15.158730158730158,40.87301587301587,22.3015873015873,28.809523809523807,20.396825396825395,16.746031746031743,13.888888888888888,7.857142857142857,21.19047619047619,20.71428571428571,25.158730158730158,-3.571428571428571,0.7142857142857142,-325.0,-325.0,-325.0,-325.0,-325.0,-7.5396825396825395
19.444444444444443,33.73015873015873,39.12698412698413,52.61904761904761,49.285714285714285,48.80952380952381,65.15873015873015,45.15873015873016,44.84126984126984,38.96825396825397,22.142857142857142,28.174603174603174,14.047619047619047,27.22222222222222,37.38095238095238,31.349206349206348,-3.253968253968254,0.5555555555555556,-325.0,-325.0,-325.0,-325.0,-325.0,-321.8253968253968
19.444444444444443,33.73015873015873,39.12698412698413,52.61904761904761,49.285714285714285,48.80952380952381,65.15873015873015,45.15873015873016,44.84126984126984,38.96825396825397,22.142857142857142,28.174603174603174,14.047619047619047,27.22222222222222,37.38095238095238,31.349206349206348,-3.253968253968254,0.5555555555555556,-325.0,-325.0,-325.0,-325.0,-325.0,-321.8253968253968
29.76190476190476,29.285714285714285,52.14285714285714,48.17460317460317,55.317460317460316,40.87301587301587,67.53968253968253,26.587301587301585,39.76190476190476,21.825396825396822,25.476190476190474,21.19047619047619,17.063492063492063,16.587301587301585,41.82539682539682,11.349206349206348,-3.095238095238095,0.23809523809523808,-325.0,-325.0,-325.0,-325.0,-325.0,-321.8253968253968
29.76190476190476,29.285714285714285,52.14285714285714,48.17460317460317,55.317460317460316,40.87301587301587,67.53968253968253,26.587301587301585,39.76190476190476,21.825396825396822,25.476190476190474,21.19047619047619,17.063492063492063,16.587301587301585,41.82539682539682,11.349206349206348,-3.095238095238095,0.23809523809523808,-325.0,-325.0,-325.0,-325.0,-325.0,-321.8253968253968
17.22222222222222,28.809523809523807,25.0,40.87301587301587,28.49206349206349,31.507936507936506,31.825396825396822,18.015873015873016,19.6031746031746,19.92063492063492,13.73015873015873,23.57142857142857,7.063492063492063,22.619047619047617,21.507936507936506,5.317460317460317,-3.253968253968254,0.3968253968253968,-325.0,-325.0,-325.0,-325.0,-325.0,-321.8253968253968
17.22222222222222,28.809523809523807,25.0,40.87301587301587,28.49206349206349,31.507936507936506,31.825396825396822,18.015873015873016,19.6031746031746,19.92063492063492,13.73015873015873,23.57142857142857,7.063492063492063,22.619047619047617,21.507936507936506,5.317460317460317,-3.253968253968254,0.3968253968253968,-325.0,-325.0,-325.0,-325.0,-325.0,-321.8253968253968
8.809523809523808,31.507936507936506,6.111111111111111,39.285714285714285,12.777777777777777,43.888888888888886,7.5396825396825395,32.61904761904762,2.619047619047619,26.9047619047619,6.746031746031746,21.03174603174603,4.0476190476190474,21.03174603174603,5.952380952380952,23.095238095238095,-3.095238095238095,0.3968253968253968,-325.0,-325.0,-325.0,-325.0,-325.0,-321.8253968253968
8.809523809523808,31.507936507936506,6.111111111111111,39.285714285714285,12.777777777777777,43.888888888888886,7.5396825396825395,32.61904761904762,2.619047619047619,26.9047619047619,6.746031746031746,21.03174603174603,4.0476190476190474,21.03174603174603,5.952380952380952,23.095238095238095,-3.095238095238095,0.3968253968253968,-325.0,-325.0,-325.0,-325.0,-325.0,-321.8253968253968
-2.3015873015873014,13.571428571428571,-12.3015873015873,17.22222222222222,0.07936507936507936,29.6031746031746,2.142857142857143,28.015873015873016,2.619047619047619,19.285714285714285,4.682539682539682,8.174603174603174,2.9365079365079363,15.95238095238095,1.507936507936508,23.57142857142857,-2.7777777777777777,0.3968253968253968,-325.0,-325.0,-325.0,-325.0,-325.0,-321.8253968253968
-2.3015873015873014,13.571428571428571,-12.3015873015873,17.22222222222222,0.07936507936507936,29.6031746031746,2.142857142857143,28.015873015873016,2.619047619047619,19.285714285714285,4.682539682539682,8.174603174603174,2.9365079365079363,15.95238095238095,1.507936507936508,23.57142857142857,-2.7777777777777777,0.3968253968253968,-325.0,-325.0,-325.0,-325.0,-325.0,-321.8253968253968
6.746031746031746,4.841269841269841,-14.206349206349206,1.507936507936508,-4.2063492063492065,7.857142857142857,6.111111111111111,20.71428571428571,13.412698412698411,10.396825396825395,16.26984126984127,2.142857142857143,10.873015873015872,14.047619047619047,5.7936507936507935,17.063492063492063,-3.095238095238095,0.7142857142857142,-325.0,-325.0,-325.0,-325.0,-325.0,-7.5396825396825395
6.746031746031746,4.841269841269841,-14.206349206349206,1.507936507936508,-4.2063492063492065,7.857142857142857,6.111111111111111,20.71428571428571,13.412698412698411,10.396825396825395,16.26984126984127,2.142857142857143,10.873015873015872,14.047619047619047,5.7936507936507935,17.063492063492063,-3.095238095238095,0.7142857142857142,-325.0,-325.0,-325.0,-325.0,-325.0,-7.5396825396825395
5.952380952380952,14.682539682539682,-15.158730158730158,10.555555555555555,-11.984126984126984,8.492063492063492,7.698412698412698,21.507936507936506,15.793650793650793,16.746031746031743,5.158730158730158,13.412698412698411,6.746031746031746,24.84126984126984,8.968253968253968,18.65079365079365,-3.253968253968254,1.0317460317460316,-325.0,-325.0,-325.0,-325.0,-325.0,-7.5396825396825395
5.952380952380952,14.682539682539682,-15.158730158730158,10.555555555555555,-11.984126984126984,8.492063492063492,7.698412698412698,21.507936507936506,15.793650793650793,16.746031746031743,5.158730158730158,13.412698412698411,6.746031746031746,24.84126984126984,8.968253968253968,18.65079365079365,-3.253968253968254,1.0317460317460316,-325.0,-325.0,-325.0,-325.0,-325.0,-7.5396825396825395
9.761904761904761,11.507936507936508,-0.3968253968253968,4.2063492063492065,-5.476190476190476,-3.4126984126984126,11.666666666666666,8.968253968253968,17.22222222222222,6.111111111111111,5.476190476190476,8.809523809523808,8.492063492063492,19.76190476190476,11.984126984126984,9.603174603174603,-3.253968253968254,0.7142857142857142,-325.0,-325.0,-325.0,-325.0,-325.0,-7.5396825396825395
9.761904761904761,11.507936507936508,-0.3968253968253968,4.2063492063492065,-5.476190476190476,-3.4126984126984126,11.666666666666666,8.968253968253968,17.22222222222222,6.111111111111111,5.476190476190476,8.809523809523808,8.492063492063492,19.76190476190476,11.984126984126984,9.603174603174603,-3.253968253968254,0.7142857142857142,-325.0,-325.0,-325.0,-325.0,-325.0,-7.5396825396825395
17.22222222222222,18.96825396825397,24.68253968253968,14.523809523809524,16.587301587301585,7.3809523809523805,37.698412698412696,17.539682539682538,30.396825396825395,10.555555555555555,10.238095238095237,12.936507936507935,12.936507936507935,16.904761904761905,21.03174603174603,13.888888888888888,-3.095238095238095,0.7142857142857142,-325.0,-325.0,-325.0,-325.0,-325.0,-7.5396825396825395
17.22222222222222,18.96825396825397,24.68253968253968,14.523809523809524,16.587301587301585,7.3809523809523805,37.698412698412696,17.539682539682538,30.396825396825395,10.555555555555555,10.238095238095237,12.936507936507935,12.936507936507935,16.904761904761905,21.03174603174603,13.888888888888888,-3.095238095238095,0.7142857142857142,-325.0,-325.0,-325.0,-325.0,-325.0,-7.5396825396825395
5.317460317460317,23.095238095238095,27.22222222222222,33.41269841269841,23.88888888888889,8.968253968253968,57.698412698412696,43.25396825396825,38.96825396825397,28.96825396825397,-4.365079365079365,21.507936507936506,14.682539682539682,22.3015873015873,43.41269841269841,25.476190476190474,-2.619047619047619,0.7142857142857142,-325.0,-325.0,-325.0,-325.0,-325.0,-7.5396825396825395
5.317460317460317,23.095238095238095,27.22222222222222,33.41269841269841,23.88888888888889,8.968253968253968,57.698412698412696,43.25396825396825,38.96825396825397,28.96825396825397,-4.365079365079365,21.507936507936506,14.682539682539682,22.3015873015873,43.41269841269841,25.476190476190474,-2.619047619047619,0.7142857142857142,-325.0,-325.0,-325.0,-325.0,-325.0,-7.5396825396825395
-3.095238095238095,18.96825396825397,24.84126984126984,32.14285714285714,21.507936507936506,-0.873015873015873,60.079365079365076,42.61904761904761,39.12698412698413,31.03174603174603,-7.063492063492063,17.38095238095238,17.22222222222222,16.11111111111111,40.714285714285715,17.539682539682538,-2.9365079365079363,0.7142857142857142,-325.0,-325.0,-325.0,-325.0,-325.0,-321.8253968253968
-3.095238095238095,18.96825396825397,24.84126984126984,32.14285714285714,21.507936507936506,-0.873015873015873,60.079365079365076,42.61904761904761,39.12698412698413,31.03174603174603,-7.063492063492063,17.38095238095238,17.22222222222222,16.11111111111111,40.714285714285715,17.539682539682538,-2.9365079365079363,0.7142857142857142,-325.0,-325.0,-325.0,-325.0,-325.0,-321.8253968253968
14.047619047619047,32.61904761904762,24.365079365079364,34.84126984126984,20.07936507936508,1.349206349206349,38.65079365079365,32.3015873015873,21.507936507936506,22.777777777777775,2.7777777777777777,16.26984126984127,32.460317460317455,9.285714285714285,25.158730158730158,10.873015873015872,-3.4126984126984126,0.873015873015873,-325.0,-325.0,-325.0,-325.0,-325.0,-321.8253968253968
14.047619047619047,32.61904761904762,24.365079365079364,34.84126984126984,20.07936507936508,1.349206349206349,38.65079365079365,32.3015873015873,21.507936507936506,22.777777777777775,2.7777777777777777,16.26984126984127,32.460317460317455,9.285714285714285,25.158730158730158,10.873015873015872,-3.4126984126984126,0.873015873015873,-325.0,-325.0,-325.0,-325.0,-325.0,-321.8253968253968
36.269841269841265,45.79365079365079,15.793650793650793,23.730158730158728,6.587301587301587,-14.84126984126984,0.5555555555555556,3.888888888888889,-6.746031746031746,4.523809523809524,14.047619047619047,11.19047619047619,31.98412698412698,6.111111111111111,-3.73015873015873,-1.8253968253968254,-3.73015873015873,1.0317460317460316,-325.0,-325.0,-325.0,-325.0,-325.0,-321.8253968253968
36.269841269841265,45.79365079365079,15.793650793650793,23.730158730158728,6.587301587301587,-14.84126984126984,0.5555555555555556,3.888888888888889,-6.746031746031746,4.523809523809524,14.047619047619047,11.19047619047619,31.98412698412698,6.111111111111111,-3.73015873015873,-1.8253968253968254,-3.73015873015873,1.0317460317460316,-325.0,-325.0,-325.0,-325.0,-325.0,-321.8253968253968
37.06349206349206,40.238095238095234,11.031746031746032,12.46031746031746,7.3809523809523805,-22.46031746031746,-2.46031746031746,-11.666666666666666,-8.015873015873016,-2.3015873015873014,21.825396825396822,3.73015873015873,33.095238095238095,0.5555555555555556,6.587301587301587,-2.142857142857143,-3.4126984126984126,1.349206349206349,-325.0,-325.0,-325.0,-325.0,-325.0,-321.8253968253968
37.06349206349206,40.238095238095234,11.031746031746032,12.46031746031746,7.3809523809523805,-22.46031746031746,-2.46031746031746,-11.666666666666666,-8.015873015873016,-2.3015873015873014,21.825396825396822,3.73015873015873,33.095238095238095,0.5555555555555556,6.587301587301587,-2.142857142857143,-3.4126984126984126,1.349206349206349,-325.0,-325.0,-325.0,-325.0,-325.0,-321.8253968253968
29.6031746031746,35.0,6.26984126984127,8.174603174603174,8.015873015873016,-28.96825396825397,-4.0476190476190474,-21.19047619047619,-9.444444444444445,-6.904761904761904,20.238095238095237,3.095238095238095,25.317460317460316,-1.8253968253968254,0.5555555555555556,-5.7936507936507935,-4.0476190476190474,1.0317460317460316,-325.0,-325.0,-325.0,-325.0,-325.0,-321.8253968253968
29.6031746031746,35.0,6.26984126984127,8.174603174603174,8.015873015873016,-28.96825396825397,-4.0476190476190474,-21.19047619047619,-9.444444444444445,-6.904761904761904,20.238095238095237,3.095238095238095,25.317460317460316,-1.8253968253968254,0.5555555555555556,-5.7936507936507935,-4.0476190476190474,1.0317460317460316,-325.0,-325.0,-325.0,-325.0,-325.0,-321.8253968253968
32.3015873015873,29.6031746031746,14.523809523809524,0.7142857142857142,17.063492063492063,-25.158730158730158,7.857142857142857,-17.063492063492063,5.317460317460317,-1.349206349206349,19.76190476190476,2.3015873015873014,28.809523809523807,-3.73015873015873,6.111111111111111,-1.8253968253968254,-3.4126984126984126,1.1904761904761905,-325.0,-325.0,-325.0,-325.0,-325.0,-7.5396825396825395
32.3015873015873,29.6031746031746,14.523809523809524,0.7142857142857142,17.063492063492063,-25.158730158730158,7.857142857142857,-17.063492063492063,5.317460317460317,-1.349206349206349,19.76190476190476,2.3015873015873014,28.809523809523807,-3.73015873015873,6.111111111111111,-1.8253968253968254,-3.4126984126984126,1.1904761904761905,-325.0,-325.0,-325.0,-325.0,-325.0,-7.5396825396825395
32.77777777777778,30.396825396825395,18.015873015873016,13.095238095238095,17.857142857142858,-7.698412698412698,10.555555555555555,-0.23809523809523808,11.507936507936508,4.523809523809524,17.38095238095238,4.841269841269841,25.952380952380953,-4.682539682539682,19.6031746031746,0.3968253968253968,-3.253968253968254,1.1904761904761905,-325.0,-325.0,-325.0,-325.0,-325.0,-7.5396825396825395
32.77777777777778,30.396825396825395,18.015873015873016,13.095238095238095,17.857142857142858,-7.698412698412698,10.555555555555555,-0.23809523809523808,11.507936507936508,4.523809523809524,17.38095238095238,4.841269841269841,25.952380952380953,-4.682539682539682,19.6031746031746,0.3968253968253968,-3.253968253968254,1.1904761904761905,-325.0,-325.0,-325.0,-325.0,-325.0,-7.5396825396825395
39.76190476190476,24.047619047619047,22.936507936507937,9.761904761904761,17.22222222222222,-8.015873015873016,8.015873015873016,3.73015873015873,15.634920634920634,5.158730158730158,19.92063492063492,5.7936507936507935,22.619047619047617,-3.253968253968254,18.96825396825397,5.0,-3.73015873015873,1.0317460317460316,-325.0,-325.0,-325.0,-325.0,-325.0,-7.5396825396825395
39.76190476190476,24.047619047619047,22.936507936507937,9.761904761904761,17.22222222222222,-8.015873015873016,8.015873015873016,3.73015873015873,15.634920634920634,5.158730158730158,19.92063492063492,5.7936507936507935,22.619047619047617,-3.253968253968254,18.96825396825397,5.0,-3.73015873015873,1.0317460317460316,-325.0,-325.0,-325.0,-325.0,-325.0,-7.5396825396825395
55.15873015873016,12.777777777777777,38.80952380952381,9.761904761904761,37.698412698412696,-7.857142857142857,24.68253968253968,1.507936507936508,30.71428571428571,-4.2063492063492065,31.349206349206348,2.3015873015873014,25.634920634920633,-10.873015873015872,29.126984126984127,0.07936507936507936,-3.4126984126984126,0.873015873015873,-325.0,-325.0,-325.0,-325.0,-325.0,-7.5396825396825395
55.15873015873016,12.777777777777777,38.80952380952381,9.761904761904761,37.698412698412696,-7.857142857142857,24.68253968253968,1.507936507936508,30.71428571428571,-4.2063492063492065,31.349206349206348,2.3015873015873014,25.634920634920633,-10.873015873015872,29.126984126984127,0.07936507936507936,-3.4126984126984126,0.873015873015873,-325.0,-325.0,-325.0,-325.0,-325.0,-7.5396825396825395
46.11111111111111,12.3015873015873,38.33333333333333,18.015873015873016,41.666666666666664,6.111111111111111,25.0,13.253968253968253,23.730158730158728,0.873015873015873,30.71428571428571,11.984126984126984,22.3015873015873,-0.5555555555555556,27.063492063492063,10.714285714285714,-3.4126984126984126,1.0317460317460316,-325.0,-325.0,-325.0,-325.0,-325.0,-7.5396825396825395
46.11111111111111,12.3015873015873,38.33333333333333,18.015873015873016,41.666666666666664,6.111111111111111,25.0,13.253968253968253,23.730158730158728,0.873015873015873,30.71428571428571,11.984126984126984,22.3015873015873,-0.5555555555555556,27.063492063492063,10.714285714285714,-3.4126984126984126,1.0317460317460316,-325.0,-325.0,-325.0,-325.0,-325.0,-7.5396825396825395
58.01587301587301,16.746031746031743,47.857142857142854,22.619047619047617,45.95238095238095,17.539682539682538,18.015873015873016,19.126984126984127,26.746031746031743,6.111111111111111,45.95238095238095,15.95238095238095,25.317460317460316,-0.07936507936507936,25.476190476190474,11.984126984126984,-3.253968253968254,0.873015873015873,-325.0,-325.0,-325.0,-325.0,-325.0,-321.8253968253968
58.01587301587301,16.746031746031743,47.857142857142854,22.619047619047617,45.95238095238095,17.539682539682538,18.015873015873016,19.126984126984127,26.746031746031743,6.111111111111111,45.95238095238095,15.95238095238095,25.317460317460316,-0.07936507936507936,25.476190476190474,11.984126984126984,-3.253968253968254,0.873015873015873,-325.0,-325.0,-325.0,-325.0,-325.0,-321.8253968253968
43.57142857142857,15.0,17.539682539682538,17.539682539682538,14.206349206349206,8.174603174603174,-16.428571428571427,2.7777777777777777,2.7777777777777777,-2.46031746031746,33.41269841269841,17.539682539682538,18.65079365079365,-1.0317460317460316,10.714285714285714,2.46031746031746,-3.095238095238095,0.5555555555555556,-325.0,-325.0,-325.0,-325.0,-325.0,-321.8253968253968
43.57142857142857,15.0,17.539682539682538,17.539682539682538,14.206349206349206,8.174603174603174,-16.428571428571427,2.7777777777777777,2.7777777777777777,-2.46031746031746,33.41269841269841,17.539682539682538,18.65079365079365,-1.0317460317460316,10.714285714285714,2.46031746031746,-3.095238095238095,0.5555555555555556,-325.0,-325.0,-325.0,-325.0,-325.0,-321.8253968253968
25.634920634920633,2.3015873015873014,-9.444444444444445,-3.888888888888889,-16.746031746031743,-20.07936507936508,-44.84126984126984,-22.619047619047617,-18.333333333333332,-13.412698412698411,12.936507936507935,13.73015873015873,-0.07936507936507936,0.7142857142857142,-17.539682539682538,-8.333333333333332,-2.9365079365079363,0.7142857142857142,-325.0,-325.0,-325.0,-325.0,-325.0,-321.8253968253968
25.634920634920633,2.3015873015873014,-9.444444444444445,-3.888888888888889,-16.746031746031743,-20.07936507936508,-44.84126984126984,-22.619047619047617,-18.333333333333332,-13.412698412698411,12.936507936507935,13.73015873015873,-0.07936507936507936,0.7142857142857142,-17.539682539682538,-8.333333333333332,-2.9365079365079363,0.7142857142857142,-325.0,-325.0,-325.0,-325.0,-325.0,-321.8253968253968
-6.428571428571428,-21.507936507936506,-19.6031746031746,-17.063492063492063,-23.57142857142857,-29.76190476190476,-41.666666666666664,-29.6031746031746,-16.904761904761905,-14.365079365079364,-8.015873015873016,9.285714285714285,-18.49206349206349,1.0317460317460316,-17.063492063492063,-5.317460317460317,-2.619047619047619,0.7142857142857142,-325.0,-325.0,-325.0,-325.0,-325.0,-321.8253968253968
-6.428571428571428,-21.507936507936506,-19.6031746031746,-17.063492063492063,-23.57142857142857,-29.76190476190476,-41.666666666666664,-29.6031746031746,-16.904761904761905,-14.365079365079364,-8.015873015873016,9.285714285714285,-18.49206349206349,1.0317460317460316,-17.063492063492063,-5.317460317460317,-2.619047619047619,0.7142857142857142,-325.0,-325.0,-325.0,-325.0,-325.0,-321.8253968253968
-73.4126984126984,-76.9047619047619,-32.3015873015873,-28.49206349206349,-24.206349206349206,-29.76190476190476,-24.523809523809522,-27.063492063492063,-5.0,-11.984126984126984,-31.19047619047619,-1.984126984126984,-27.539682539682538,0.7142857142857142,-11.984126984126984,-1.8253968253968254,-3.253968253968254,0.7142857142857142,-325.0,-325.0,-325.0,-325.0,-325.0,-321.8253968253968
-73.4126984126984,-76.9047619047619,-32.3015873015873,-28.49206349206349,-24.206349206349206,-29.76190476190476,-24.523809523809522,-27.063492063492063,-5.0,-11.984126984126984,-31.19047619047619,-1.984126984126984,-27.539682539682538,0.7142857142857142,-11.984126984126984,-1.8253968253968254,-3.253968253968254,0.7142857142857142,-325.0,-325.0,-325.0,-325.0,-325.0,-321.8253968253968
-111.5079365079365,-109.92063492063491,-21.825396825396822,-28.96825396825397,-15.0,-24.047619047619047,-14.523809523809524,-23.730158730158728,1.984126984126984,-9.603174603174603,-35.476190476190474,-9.920634920634921,-27.857142857142854,-4.682539682539682,-13.888888888888888,1.984126984126984,-3.253968253968254,1.0317460317460316,-325.0,-325.0,-325.0,-325.0,-325.0,-7.5396825396825395
-111.5079365079365,-109.92063492063491,-21.825396825396822,-28.96825396825397,-15.0,-24.047619047619047,-14.523809523809524,-23.730158730158728,1.984126984126984,-9.603174603174603,-35.476190476190474,-9.920634920634921,-27.857142857142854,-4.682539682539682,-13.888888888888888,1.984126984126984,-3.253968253968254,1.0317460317460316,-325.0,-325.0,-325.0,-325.0,-325.0,-7.5396825396825395
-107.38095238095238,-109.76190476190476,-2.142857142857143,-14.682539682539682,0.5555555555555556,-3.095238095238095,1.1904761904761905,-9.761904761904761,4.841269841269841,-0.873015873015873,-25.634920634920633,-8.174603174603174,-29.285714285714285,-11.031746031746032,-0.7142857142857142,5.476190476190476,-2.9365079365079363,0.873015873015873,-325.0,-325.0,-325.0,-325.0,-325.0,-7.5396825396825395
-107.38095238095238,-109.76190476190476,-2.142857142857143,-14.682539682539682,0.5555555555555556,-3.095238095238095,1.1904761904761905,-9.761904761904761,4.841269841269841,-0.873015873015873,-25.634920634920633,-8.174603174603174,-29.285714285714285,-11.031746031746032,-0.7142857142857142,5.476190476190476,-2.9365079365079363,0.873015873015873,-325.0,-325.0,-325.0,-325.0,-325.0,-7.5396825396825395
-88.96825396825396,-85.63492063492063,-2.3015873015873014,-2.619047619047619,-3.4126984126984126,8.968253968253968,-7.857142857142857,2.9365079365079363,-3.095238095238095,7.3809523809523805,-17.539682539682538,-4.0476190476190474,-30.238095238095237,-11.031746031746032,-4.523809523809524,9.126984126984127,-3.571428571428571,1.349206349206349,-325.0,-325.0,-325.0,-325.0,-325.0,-7.5396825396825395
-88.96825396825396,-85.63492063492063,-2.3015873015873014,-2.619047619047619,-3.4126984126984126,8.968253968253968,-7.857142857142857,2.9365079365079363,-3.095238095238095,7.3809523809523805,-17.539682539682538,-4.0476190476190474,-30.238095238095237,-11.031746031746032,-4.523809523809524,9.126984126984127,-3.571428571428571,1.349206349206349,-325.0,-325.0,-325.0,-325.0,-325.0,-7.5396825396825395
-61.507936507936506,-47.857142857142854,-14.206349206349206,-1.984126984126984,-15.317460317460316,5.7936507936507935,-17.857142857142858,1.6666666666666665,-15.95238095238095,3.73015873015873,-18.333333333333332,2.619047619047619,-34.52380952380952,-10.714285714285714,-5.7936507936507935,2.619047619047619,-2.9365079365079363,0.873015873015873,-325.0,-325.0,-325.0,-325.0,-325.0,-7.5396825396825395
-61.507936507936506,-47.857142857142854,-14.206349206349206,-1.984126984126984,-15.317460317460316,5.7936507936507935,-17.857142857142858,1.6666666666666665,-15.95238095238095,3.73015873015873,-18.333333333333332,2.619047619047619,-34.52380952380952,-10.714285714285714,-5.7936507936507935,2.619047619047619,-2.9365079365079363,0.873015873015873,-325.0,-325.0,-325.0,-325.0,-325.0,-7.5396825396825395
-18.65079365079365,-7.698412698412698,-0.5555555555555556,9.920634920634921,-6.587301587301587,15.95238095238095,-13.571428571428571,2.7777777777777777,-5.634920634920634,5.952380952380952,-9.126984126984127,11.984126984126984,-27.539682539682538,-1.349206349206349,-11.507936507936508,6.111111111111111,-3.253968253968254,0.873015873015873,-325.0,-325.0,-325.0,-325.0,-325.0,-7.5396825396825395
-18.65079365079365,-7.698412698412698,-0.5555555555555556,9.920634920634921,-6.587301587301587,15.95238095238095,-13.571428571428571,2.7777777777777777,-5.634920634920634,5.952380952380952,-9.126984126984127,11.984126984126984,-27.539682539682538,-1.349206349206349,-11.507936507936508,6.111111111111111,-3.253968253968254,0.873015873015873,-325.0,-325.0,-325.0,-325.0,-325.0,-7.5396825396825395
1.8253968253968254,15.0,-3.4126984126984126,10.873015873015872,-7.3809523809523805,12.619047619047619,-20.238095238095237,1.8253968253968254,-1.349206349206349,9.444444444444445,-20.07936507936508,16.904761904761905,-18.333333333333332,9.285714285714285,-1.984126984126984,11.031746031746032,-2.3015873015873014,0.07936507936507936,-325.0,-325.0,-325.0,-325.0,-325.0,-321.8253968253968
1.8253968253968254,15.0,-3.4126984126984126,10.873015873015872,-7.3809523809523805,12.619047619047619,-20.238095238095237,1.8253968253968254,-1.349206349206349,9.444444444444445,-20.07936507936508,16.904761904761905,-18.333333333333332,9.285714285714285,-1.984126984126984,11.031746031746032,-2.3015873015873014,0.07936507936507936,-325.0,-325.0,-325.0,-325.0,-325.0,-321.8253968253968
6.26984126984127,11.19047619047619,-5.634920634920634,0.3968253968253968,-11.349206349206348,7.5396825396825395,-29.285714285714285,-4.365079365079365,-1.1904761904761905,-2.142857142857143,-34.2063492063492,5.158730158730158,-23.095238095238095,5.317460317460317,-6.587301587301587,10.714285714285714,-3.095238095238095,0.5555555555555556,-325.0,-325.0,-325.0,-325.0,-325.0,-321.8253968253968
6.26984126984127,11.19047619047619,-5.634920634920634,0.3968253968253968,-11.349206349206348,7.5396825396825395,-29.285714285714285,-4.365079365079365,-1.1904761904761905,-2.142857142857143,-34.2063492063492,5.158730158730158,-23.095238095238095,5.317460317460317,-6.587301587301587,10.714285714285714,-3.095238095238095,0.5555555555555556,-325.0,-325.0,-325.0,-325.0,-325.0,-321.8253968253968
8.809523809523808,3.4126984126984126,-15.793650793650793,-9.603174603174603,-17.698412698412696,3.4126984126984126,-35.476190476190474,0.07936507936507936,-4.523809523809524,0.23809523809523808,-38.96825396825397,-3.73015873015873,-18.015873015873016,3.888888888888889,-12.3015873015873,19.92063492063492,-3.095238095238095,0.3968253968253968,-325.0,-325.0,-325.0,-325.0,-325.0,-321.8253968253968
8.809523809523808,3.4126984126984126,-15.793650793650793,-9.603174603174603,-17.698412698412696,3.4126984126984126,-35.476190476190474,0.07936507936507936,-4.523809523809524,0.23809523809523808,-38.96825396825397,-3.73015873015873,-18.015873015873016,3.888888888888889,-12.3015873015873,19.92063492063492,-3.095238095238095,0.3968253968253968,-325.0,-325.0,-325.0,-325.0,-325.0,-321.8253968253968
10.714285714285714,32.93650793650794,-12.619047619047619,8.174603174603174,-5.158730158730158,44.52380952380952,-18.49206349206349,32.3015873015873,4.841269841269841,41.19047619047619,-29.920634920634917,19.285714285714285,-4.365079365079365,17.857142857142858,-0.5555555555555556,47.22222222222222,-2.619047619047619,0.23809523809523808,-325.0,-325.0,-325.0,-325.0,-325.0,-321.8253968253968
10.714285714285714,32.93650793650794,-12.619047619047619,8.174603174603174,-5.158730158730158,44.52380952380952,-18.49206349206349,32.3015873015873,4.841269841269841,41.19047619047619,-29.920634920634917,19.285714285714285,-4.365079365079365,17.857142857142858,-0.5555555555555556,47.22222222222222,-2.619047619047619,0.23809523809523808,-325.0,-325.0,-325.0,-325.0,-325.0,-321.8253968253968
10.714285714285714,53.73015873015873,1.1904761904761905,26.26984126984127,14.206349206349206,81.03174603174602,10.555555555555555,48.01587301587301,22.142857142857142,59.92063492063492,-28.65079365079365,34.52380952380952,-0.3968253968253968,25.158730158730158,14.206349206349206,52.61904761904761,-2.619047619047619,1.1904761904761905,-325.0,-325.0,-325.0,-325.0,-325.0,-321.8253968253968
10.714285714285714,53.73015873015873,1.1904761904761905,26.26984126984127,14.206349206349206,81.03174603174602,10.555555555555555,48.01587301587301,22.142857142857142,59.92063492063492,-28.65079365079365,34.52380952380952,-0.3968253968253968,25.158730158730158,14.206349206349206,52.61904761904761,-2.619047619047619,1.1904761904761905,-325.0,-325.0,-325.0,-325.0,-325.0,-321.8253968253968
19.126984126984127,55.79365079365079,17.38095238095238,33.888888888888886,27.539682539682538,87.85714285714285,29.126984126984127,46.74603174603175,32.460317460317455,61.98412698412698,-21.03174603174603,36.74603174603175,7.5396825396825395,28.65079365079365,36.74603174603175,45.0,-3.095238095238095,1.0317460317460316,-325.0,-325.0,-325.0,-325.0,-325.0,-7.5396825396825395
19.126984126984127,55.79365079365079,17.38095238095238,33.888888888888886,27.539682539682538,87.85714285714285,29.126984126984127,46.74603174603175,32.460317460317455,61.98412698412698,-21.03174603174603,36.74603174603175,7.5396825396825395,28.65079365079365,36.74603174603175,45.0,-3.095238095238095,1.0317460317460316,-325.0,-325.0,-325.0,-325.0,-325.0,-7.5396825396825395
21.19047619047619,39.44444444444444,18.49206349206349,17.698412698412696,20.396825396825395,69.44444444444444,29.126984126984127,25.158730158730158,32.93650793650794,51.34920634920635,-17.857142857142858,22.777777777777775,8.968253968253968,11.984126984126984,41.82539682539682,26.26984126984127,-3.253968253968254,0.873015873015873,-325.0,-325.0,-325.0,-325.0,-325.0,-7.5396825396825395
21.19047619047619,39.44444444444444,18.49206349206349,17.698412698412696,20.396825396825395,69.44444444444444,29.126984126984127,25.158730158730158,32.93650793650794,51.34920634920635,-17.857142857142858,22.777777777777775,8.968253968253968,11.984126984126984,41.82539682539682,26.26984126984127,-3.253968253968254,0.873015873015873,-325.0,-325.0,-325.0,-325.0,-325.0,-7.5396825396825395
36.904761904761905,49.76190476190476,15.95238095238095,25.0,7.222222222222221,58.01587301587301,-1.984126984126984,8.492063492063492,3.095238095238095,34.2063492063492,-10.714285714285714,31.825396825396822,-2.619047619047619,15.0,6.587301587301587,5.158730158730158,-3.4126984126984126,1.0317460317460316,-325.0,-325.0,-325.0,-325.0,-325.0,-7.5396825396825395
36.904761904761905,49.76190476190476,15.95238095238095,25.0,7.222222222222221,58.01587301587301,-1.984126984126984,8.492063492063492,3.095238095238095,34.2063492063492,-10.714285714285714,31.825396825396822,-2.619047619047619,15.0,6.587301587301587,5.158730158730158,-3.4126984126984126,1.0317460317460316,-325.0,-325.0,-325.0,-325.0,-325.0,-7.5396825396825395
36.904761904761905,41.507936507936506,13.095238095238095,23.57142857142857,-0.5555555555555556,46.58730158730158,-18.015873015873016,0.7142857142857142,-11.666666666666666,19.6031746031746,-10.238095238095237,21.825396825396822,-12.3015873015873,7.5396825396825395,-14.206349206349206,-8.809523809523808,-3.095238095238095,1.349206349206349,-325.0,-325.0,-325.0,-325.0,-325.0,-7.5396825396825395
36.904761904761905,41.507936507936506,13.095238095238095,23.57142857142857,-0.5555555555555556,46.58730158730158,-18.015873015873016,0.7142857142857142,-11.666666666666666,19.6031746031746,-10.238095238095237,21.825396825396822,-12.3015873015873,7.5396825396825395,-14.206349206349206,-8.809523809523808,-3.095238095238095,1.349206349206349,-325.0,-325.0,-325.0,-325.0,-325.0,-7.5396825396825395
55.317460317460316,32.3015873015873,15.476190476190474,17.857142857142858,-2.9365079365079363,32.61904761904762,-37.06349206349206,-12.936507936507935,-18.333333333333332,1.6666666666666665,-1.507936507936508,17.539682539682538,-13.095238095238095,10.238095238095237,-35.95238095238095,-12.619047619047619,-3.095238095238095,1.0317460317460316,-325.0,-325.0,-325.0,-325.0,-325.0,-7.5396825396825395
55.317460317460316,32.3015873015873,15.476190476190474,17.857142857142858,-2.9365079365079363,32.61904761904762,-37.06349206349206,-12.936507936507935,-18.333333333333332,1.6666666666666665,-1.507936507936508,17.539682539682538,-13.095238095238095,10.238095238095237,-35.95238095238095,-12.619047619047619,-3.095238095238095,1.0317460317460316,-325.0,-325.0,-325.0,-325.0,-325.0,-7.5396825396825395
55.0,14.365079365079364,21.666666666666664,8.809523809523808,3.73015873015873,23.88888888888889,-40.238095238095234,-27.22222222222222,-25.79365079365079,-16.587301587301585,4.841269841269841,4.2063492063492065,-0.07936507936507936,6.26984126984127,-29.126984126984127,-16.26984126984127,-3.73015873015873,1.0317460317460316,-325.0,-325.0,-325.0,-325.0,-325.0,-321.8253968253968
55.0,14.365079365079364,21.666666666666664,8.809523809523808,3.73015873015873,23.88888888888889,-40.238095238095234,-27.22222222222222,-25.79365079365079,-16.587301587301585,4.841269841269841,4.2063492063492065,-0.07936507936507936,6.26984126984127,-29.126984126984127,-16.26984126984127,-3.73015873015873,1.0317460317460316,-325.0,-325.0,-325.0,-325.0,-325.0,-321.8253968253968
38.96825396825397,7.3809523809523805,6.587301587301587,-5.952380952380952,0.07936507936507936,16.26984126984127,-27.539682539682538,-26.26984126984127,-22.619047619047617,-12.619047619047619,-0.7142857142857142,2.3015873015873014,3.888888888888889,5.952380952380952,-14.047619047619047,-13.571428571428571,-3.253968253968254,1.507936507936508,-325.0,-325.0,-325.0,-325.0,-325.0,-321.8253968253968
38.96825396825397,7.3809523809523805,6.587301587301587,-5.952380952380952,0.07936507936507936,16.26984126984127,-27.539682539682538,-26.26984126984127,-22.619047619047617,-12.619047619047619,-0.7142857142857142,2.3015873015873014,3.888888888888889,5.952380952380952,-14.047619047619047,-13.571428571428571,-3.253968253968254,1.507936507936508,-325.0,-325.0,-325.0,-325.0,-325.0,-321.8253968253968
26.11111111111111,3.4126984126984126,4.0476190476190474,-13.412698412698411,4.2063492063492065,2.3015873015873014,-12.3015873015873,-27.698412698412696,-13.412698412698411,-6.904761904761904,3.253968253968254,-0.5555555555555556,6.587301587301587,-3.571428571428571,-0.07936507936507936,-17.38095238095238,-3.888888888888889,1.349206349206349,-325.0,-325.0,-325.0,-325.0,-325.0,-321.8253968253968
26.11111111111111,3.4126984126984126,4.0476190476190474,-13.412698412698411,4.2063492063492065,2.3015873015873014,-12.3015873015873,-27.698412698412696,-13.412698412698411,-6.904761904761904,3.253968253968254,-0.5555555555555556,6.587301587301587,-3.571428571428571,-0.07936507936507936,-17.38095238095238,-3.888888888888889,1.349206349206349,-325.0,-325.0,-325.0,-325.0,-325.0,-321.8253968253968
0.5555555555555556,-1.8253968253968254,-9.444444444444445,-6.587301587301587,-6.587301587301587,12.619047619047619,-10.873015873015872,-19.285714285714285,-19.126984126984127,-0.3968253968253968,-11.031746031746032,-0.23809523809523808,7.698412698412698,-7.698412698412698,4.2063492063492065,-17.539682539682538,-3.571428571428571,0.873015873015873,-325.0,-325.0,-325.0,-325.0,-325.0,-321.8253968253968
0.5555555555555556,-1.8253968253968254,-9.444444444444445,-6.587301587301587,-6.587301587301587,12.619047619047619,-10.873015873015872,-19.285714285714285,-19.126984126984127,-0.3968253968253968,-11.031746031746032,-0.23809523809523808,7.698412698412698,-7.698412698412698,4.2063492063492065,-17.539682539682538,-3.571428571428571,0.873015873015873,-325.0,-325.0,-325.0,-325.0,-325.0,-321.8253968253968
-6.904761904761904,-10.873015873015872,-0.5555555555555556,2.619047619047619,-3.4126984126984126,24.047619047619047,-1.0317460317460316,-11.666666666666666,-11.984126984126984,2.9365079365079363,-8.015873015873016,-6.428571428571428,1.507936507936508,-18.333333333333332,4.0476190476190474,-20.71428571428571,-3.253968253968254,1.349206349206349,-325.0,-325.0,-325.0,-325.0,-325.0,-321.8253968253968
-6.904761904761904,-10.873015873015872,-0.5555555555555556,2.619047619047619,-3.4126984126984126,24.047619047619047,-1.0317460317460316,-11.666666666666666,-11.984126984126984,2.9365079365079363,-8.015873015873016,-6.428571428571428,1.507936507936508,-18.333333333333332,4.0476190476190474,-20.71428571428571,-3.253968253968254,1.349206349206349,-325.0,-325.0,-325.0,-325.0,-325.0,-321.8253968253968
-35.79365079365079,-16.11111111111111,-39.44444444444444,-8.174603174603174,-44.68253968253968,13.73015873015873,-34.52380952380952,-3.4126984126984126,-32.3015873015873,14.682539682539682,-31.507936507936506,-8.492063492063492,-14.84126984126984,-12.3015873015873,-20.555555555555554,-7.063492063492063,-3.095238095238095,1.984126984126984,-325.0,-325.0,-325.0,-325.0,-325.0,-7.5396825396825395
-35.79365079365079,-16.11111111111111,-39.44444444444444,-8.174603174603174,-44.68253968253968,13.73015873015873,-34.52380952380952,-3.4126984126984126,-32.3015873015873,14.682539682539682,-31.507936507936506,-8.492063492063492,-14.84126984126984,-12.3015873015873,-20.555555555555554,-7.063492063492063,-3.095238095238095,1.984126984126984,-325.0,-325.0,-325.0,-325.0,-325.0,-7.5396825396825395
-27.857142857142854,-26.587301587301585,-39.92063492063492,-21.507936507936506,-35.15873015873016,3.571428571428571,-26.9047619047619,6.904761904761904,-20.07936507936508,21.825396825396822,-20.238095238095237,-9.285714285714285,-16.428571428571427,-1.349206349206349,-20.396825396825395,9.444444444444445,-3.73015873015873,1.6666666666666665,-325.0,-325.0,-325.0,-325.0,-325.0,-7.5396825396825395
-27.857142857142854,-26.587301587301585,-39.92063492063492,-21.507936507936506,-35.15873015873016,3.571428571428571,-26.9047619047619,6.904761904761904,-20.07936507936508,21.825396825396822,-20.238095238095237,-9.285714285714285,-16.428571428571427,-1.349206349206349,-20.396825396825395,9.444444444444445,-3.73015873015873,1.6666666666666665,-325.0,-325.0,-325.0,-325.0,-325.0,-7.5396825396825395
-6.111111111111111,-22.777777777777775,-23.88888888888889,-21.349206349206348,-16.11111111111111,-2.46031746031746,-23.88888888888889,-8.015873015873016,-23.095238095238095,-3.253968253968254,-5.317460317460317,-18.174603174603174,-17.539682539682538,1.8253968253968254,-21.666666666666664,-6.26984126984127,-3.253968253968254,1.1904761904761905,-325.0,-325.0,-325.0,-325.0,-325.0,-7.5396825396825395
-6.111111111111111,-22.777777777777775,-23.88888888888889,-21.349206349206348,-16.11111111111111,-2.46031746031746,-23.88888888888889,-8.015873015873016,-23.095238095238095,-3.253968253968254,-5.317460317460317,-18.174603174603174,-17.539682539682538,1.8253968253968254,-21.666666666666664,-6.26984126984127,-3.253968253968254,1.1904761904761905,-325.0,-325.0,-325.0,-325.0,-325.0,-7.5396825396825395
-7.857142857142857,-15.793650793650793,-3.4126984126984126,-4.523809523809524,3.095238095238095,10.079365079365079,-8.015873015873016,-12.936507936507935,-15.95238095238095,-8.333333333333332,-4.2063492063492065,-30.396825396825395,-10.079365079365079,-1.349206349206349,-17.22222222222222,-15.317460317460316,-3.095238095238095,1.507936507936508,-325.0,-325.0,-325.0,-325.0,-325.0,-7.5396825396825395
-7.857142857142857,-15.793650793650793,-3.4126984126984126,-4.523809523809524,3.095238095238095,10.079365079365079,-8.015873015873016,-12.936507936507935,-15.95238095238095,-8.333333333333332,-4.2063492063492065,-30.396825396825395,-10.079365079365079,-1.349206349206349,-17.22222222222222,-15.317460317460316,-3.095238095238095,1.507936507936508,-325.0,-325.0,-325.0,-325.0,-325.0,-7.5396825396825395
-19.126984126984127,2.619047619047619,-6.26984126984127,9.285714285714285,2.7777777777777777,23.253968253968253,5.0,-8.968253968253968,-8.809523809523808,-0.5555555555555556,-19.126984126984127,-35.15873015873016,-10.396825396825395,5.158730158730158,-1.507936507936508,-10.873015873015872,-3.253968253968254,1.349206349206349,-325.0,-325.0,-325.0,-325.0,-325.0,-7.5396825396825395
-19.126984126984127,2.619047619047619,-6.26984126984127,9.285714285714285,2.7777777777777777,23.253968253968253,5.0,-8.968253968253968,-8.809523809523808,-0.5555555555555556,-19.126984126984127,-35.15873015873016,-10.396825396825395,5.158730158730158,-1.507936507936508,-10.873015873015872,-3.253968253968254,1.349206349206349,-325.0,-325.0,-325.0,-325.0,-325.0,-7.5396825396825395
-31.19047619047619,4.523809523809524,-22.619047619047617,-5.634920634920634,-11.349206349206348,5.317460317460317,-0.23809523809523808,-12.142857142857142,-7.3809523809523805,1.984126984126984,-29.444444444444443,-45.15873015873016,-8.65079365079365,4.2063492063492065,-2.3015873015873014,-8.174603174603174,-3.253968253968254,1.349206349206349,-325.0,-325.0,-325.0,-325.0,-325.0,-321.8253968253968
-31.19047619047619,4.523809523809524,-22.619047619047617,-5.634920634920634,-11.349206349206348,5.317460317460317,-0.23809523809523808,-12.142857142857142,-7.3809523809523805,1.984126984126984,-29.444444444444443,-45.15873015873016,-8.65079365079365,4.2063492063492065,-2.3015873015873014,-8.174603174603174,-3.253968253968254,1.349206349206349,-325.0,-325.0,-325.0,-325.0,-325.0,-321.8253968253968
-10.396825396825395,26.746031746031743,5.476190476190476,21.507936507936506,5.476190476190476,23.41269841269841,1.507936507936508,6.904761904761904,-5.952380952380952,4.2063492063492065,-8.015873015873016,-23.41269841269841,2.3015873015873014,15.476190476190474,0.7142857142857142,3.4126984126984126,-2.7777777777777777,1.349206349206349,-325.0,-325.0,-325.0,-325.0,-325.0,-321.8253968253968
-10.396825396825395,26.746031746031743,5.476190476190476,21.507936507936506,5.476190476190476,23.41269841269841,1.507936507936508,6.904761904761904,-5.952380952380952,4.2063492063492065,-8.015873015873016,-23.41269841269841,2.3015873015873014,15.476190476190474,0.7142857142857142,3.4126984126984126,-2.7777777777777777,1.349206349206349,-325.0,-325.0,-325.0,-325.0,-325.0,-321.8253968253968
-14.206349206349206,14.365079365079364,10.396825396825395,12.3015873015873,11.825396825396824,20.873015873015873,3.4126984126984126,4.523809523809524,-6.111111111111111,-6.111111111111111,-3.888888888888889,-34.2063492063492,-0.5555555555555556,1.8253968253968254,-4.841269841269841,-6.904761904761904,-3.095238095238095,1.0317460317460316,-325.0,-325.0,-325.0,-325.0,-325.0,-321.8253968253968
-14.206349206349206,14.365079365079364,10.396825396825395,12.3015873015873,11.825396825396824,20.873015873015873,3.4126984126984126,4.523809523809524,-6.111111111111111,-6.111111111111111,-3.888888888888889,-34.2063492063492,-0.5555555555555556,1.8253968253968254,-4.841269841269841,-6.904761904761904,-3.095238095238095,1.0317460317460316,-325.0,-325.0,-325.0,-325.0,-325.0,-321.8253968253968
-41.19047619047619,1.0317460317460316,-13.73015873015873,1.507936507936508,-14.047619047619047,8.968253968253968,-15.317460317460316,0.07936507936507936,-23.095238095238095,-5.634920634920634,-22.777777777777775,-46.42857142857142,-2.7777777777777777,6.746031746031746,-12.3015873015873,-10.714285714285714,-3.73015873015873,1.507936507936508,-325.0,-325.0,-325.0,-325.0,-325.0,-321.8253968253968
-41.19047619047619,1.0317460317460316,-13.73015873015873,1.507936507936508,-14.047619047619047,8.968253968253968,-15.317460317460316,0.07936507936507936,-23.095238095238095,-5.634920634920634,-22.777777777777775,-46.42857142857142,-2.7777777777777777,6.746031746031746,-12.3015873015873,-10.714285714285714,-3.73015873015873,1.507936507936508,-325.0,-325.0,-325.0,-325.0,-325.0,-321.8253968253968
-32.3015873015873,-6.26984126984127,-10.079365079365079,0.07936507936507936,-9.285714285714285,4.2063492063492065,3.888888888888889,9.444444444444445,0.3968253968253968,5.634920634920634,-9.920634920634921,-34.36507936507936,9.761904761904761,7.222222222222221,8.65079365079365,8.492063492063492,-3.253968253968254,2.142857142857143,-325.0,-325.0,-325.0,-325.0,-325.0,-321.8253968253968
-32.3015873015873,-6.26984126984127,-10.079365079365079,0.07936507936507936,-9.285714285714285,4.2063492063492065,3.888888888888889,9.444444444444445,0.3968253968253968,5.634920634920634,-9.920634920634921,-34.36507936507936,9.761904761904761,7.222222222222221,8.65079365079365,8.492063492063492,-3.253968253968254,2.142857142857143,-325.0,-325.0,-325.0,-325.0,-325.0,-321.8253968253968
-41.03174603174603,-18.174603174603174,-23.88888888888889,-11.984126984126984,-4.841269841269841,3.253968253968254,14.206349206349206,11.825396825396824,6.904761904761904,16.11111111111111,-13.253968253968253,-34.047619047619044,6.746031746031746,4.523809523809524,8.65079365079365,10.396825396825395,-3.4126984126984126,1.349206349206349,-325.0,-325.0,-325.0,-325.0,-325.0,-7.5396825396825395
-41.03174603174603,-18.174603174603174,-23.88888888888889,-11.984126984126984,-4.841269841269841,3.253968253968254,14.206349206349206,11.825396825396824,6.904761904761904,16.11111111111111,-13.253968253968253,-34.047619047619044,6.746031746031746,4.523809523809524,8.65079365079365,10.396825396825395,-3.4126984126984126,1.349206349206349,-325.0,-325.0,-325.0,-325.0,-325.0,-7.5396825396825395
-30.87301587301587,10.079365079365079,-22.142857142857142,15.0,6.587301587301587,33.095238095238095,26.11111111111111,37.06349206349206,11.507936507936508,38.33333333333333,-4.2063492063492065,-25.79365079365079,20.71428571428571,10.873015873015872,15.634920634920634,27.539682539682538,-3.571428571428571,1.507936507936508,-325.0,-325.0,-325.0,-325.0,-325.0,-7.5396825396825395
-30.87301587301587,10.079365079365079,-22.142857142857142,15.0,6.587301587301587,33.095238095238095,26.11111111111111,37.06349206349206,11.507936507936508,38.33333333333333,-4.2063492063492065,-25.79365079365079,20.71428571428571,10.873015873015872,15.634920634920634,27.539682539682538,-3.571428571428571,1.507936507936508,-325.0,-325.0,-325.0,-325.0,-325.0,-7.5396825396825395
-28.96825396825397,-12.142857142857142,-27.38095238095238,-6.746031746031746,-6.587301587301587,7.222222222222221,-4.365079365079365,11.031746031746032,-8.968253968253968,10.714285714285714,-6.428571428571428,-44.2063492063492,12.777777777777777,-5.634920634920634,-9.126984126984127,1.507936507936508,-2.46031746031746,0.7142857142857142,-325.0,-325.0,-325.0,-325.0,-325.0,-7.5396825396825395
-28.96825396825397,-12.142857142857142,-27.38095238095238,-6.746031746031746,-6.587301587301587,7.222222222222221,-4.365079365079365,11.031746031746032,-8.968253968253968,10.714285714285714,-6.428571428571428,-44.2063492063492,12.777777777777777,-5.634920634920634,-9.126984126984127,1.507936507936508,-2.46031746031746,0.7142857142857142,-325.0,-325.0,-325.0,-325.0,-325.0,-7.5396825396825395
