Fp1[1],Fp2[2],F3[3],F4[4],C3[5],C4[6],P3[7],P4[8],O1[9],O2[10],F7[11],F8[12],T3[13],T4[14],T5[15],T6[16],Fz[17],Pz[18],Cz[19],Pg1[20],Pg2[21],EOGR[22],EOOGL[23],EMG[24]
325.0,-11.666666666666666,76.42857142857143,-325.0,60.71428571428571,325.0,325.0,325.0,325.0,52.14285714285714,325.0,9.920634920634921,325.0,22.936507936507937,325.0,42.61904761904761,325.0,-325.0,325.0,-325.0,-325.0,-1.507936507936508,-1.507936507936508,-166.26984126984127
325.0,-11.666666666666666,76.42857142857143,-325.0,60.71428571428571,325.0,325.0,325.0,325.0,52.14285714285714,325.0,9.920634920634921,325.0,22.936507936507937,325.0,42.61904761904761,325.0,-325.0,325.0,-325.0,-325.0,-1.507936507936508,-1.507936507936508,-166.26984126984127
325.0,-7.698412698412698,73.57142857142857,-325.0,59.12698412698413,325.0,325.0,325.0,325.0,51.666666666666664,325.0,11.19047619047619,325.0,23.730158730158728,325.0,42.3015873015873,325.0,-325.0,325.0,-325.0,-325.0,1.8253968253968254,0.873015873015873,-166.26984126984127
325.0,-7.698412698412698,73.57142857142857,-325.0,59.12698412698413,325.0,325.0,325.0,325.0,51.666666666666664,325.0,11.19047619047619,325.0,23.730158730158728,325.0,42.3015873015873,325.0,-325.0,325.0,-325.0,-325.0,1.8253968253968254,0.873015873015873,-166.26984126984127
325.0,13.412698412698411,78.96825396825396,-325.0,66.74603174603175,325.0,325.0,325.0,325.0,62.460317460317455,325.0,27.22222222222222,325.0,38.33333333333333,325.0,54.047619047619044,325.0,-325.0,284.36507936507934,-325.0,-325.0,1.1904761904761905,0.7142857142857142,-166.26984126984127
325.0,13.412698412698411,78.96825396825396,-325.0,66.74603174603175,325.0,325.0,325.0,325.0,62.460317460317455,325.0,27.22222222222222,325.0,38.33333333333333,325.0,54.047619047619044,325.0,-325.0,284.36507936507934,-325.0,-325.0,1.1904761904761905,0.7142857142857142,-166.26984126984127
325.0,34.047619047619044,79.12698412698413,-325.0,70.55555555555556,325.0,325.0,325.0,325.0,69.6031746031746,325.0,41.82539682539682,325.0,50.71428571428571,325.0,62.3015873015873,325.0,-325.0,156.9047619047619,-325.0,-325.0,-1.984126984126984,-1.0317460317460316,-166.26984126984127
325.0,34.047619047619044,79.12698412698413,-325.0,70.55555555555556,325.0,325.0,325.0,325.0,69.6031746031746,325.0,41.82539682539682,325.0,50.71428571428571,325.0,62.3015873015873,325.0,-325.0,156.9047619047619,-325.0,-325.0,-1.984126984126984,-1.0317460317460316,-166.26984126984127
325.0,19.285714285714285,58.17460317460317,-325.0,50.71428571428571,80.71428571428571,325.0,325.0,325.0,50.238095238095234,325.0,25.0,325.0,33.25396825396825,325.0,42.93650793650794,325.0,-325.0,169.44444444444443,-325.0,-325.0,1.349206349206349,-1.349206349206349,-166.26984126984127
325.0,19.285714285714285,58.17460317460317,-325.0,50.71428571428571,80.71428571428571,325.0,325.0,325.0,50.238095238095234,325.0,25.0,325.0,33.25396825396825,325.0,42.93650793650794,325.0,-325.0,169.44444444444443,-325.0,-325.0,1.349206349206349,-1.349206349206349,-166.26984126984127
325.0,-3.095238095238095,28.174603174603174,-325.0,21.984126984126984,-295.95238095238096,325.0,325.0,325.0,21.825396825396822,325.0,-0.23809523809523808,325.0,7.5396825396825395,325.0,15.634920634920634,325.0,-325.0,125.47619047619047,-325.0,-325.0,-1.0317460317460316,1.1904761904761905,-321.8253968253968
325.0,-3.095238095238095,28.174603174603174,-325.0,21.984126984126984,-295.95238095238096,325.0,325.0,325.0,21.825396825396822,325.0,-0.23809523809523808,325.0,7.5396825396825395,325.0,15.634920634920634,325.0,-325.0,125.47619047619047,-325.0,-325.0,-1.0317460317460316,1.1904761904761905,-321.8253968253968
325.0,-5.952380952380952,21.666666666666664,-325.0,15.95238095238095,-325.0,325.0,325.0,325.0,16.746031746031743,325.0,-3.73015873015873,325.0,3.888888888888889,325.0,10.714285714285714,325.0,-325.0,123.09523809523809,-325.0,-325.0,2.142857142857143,-1.507936507936508,-321.8253968253968
325.0,-5.952380952380952,21.666666666666664,-325.0,15.95238095238095,-325.0,325.0,325.0,325.0,16.746031746031743,325.0,-3.73015873015873,325.0,3.888888888888889,325.0,10.714285714285714,325.0,-325.0,123.09523809523809,-325.0,-325.0,2.142857142857143,-1.507936507936508,-321.8253968253968
325.0,-10.396825396825395,14.206349206349206,-325.0,8.968253968253968,-325.0,325.0,325.0,325.0,9.761904761904761,325.0,-8.968253968253968,325.0,-1.984126984126984,325.0,4.365079365079365,325.0,-325.0,106.9047619047619,-325.0,-325.0,-1.6666666666666665,1.349206349206349,-321.8253968253968
325.0,-10.396825396825395,14.206349206349206,-325.0,8.968253968253968,-325.0,325.0,325.0,325.0,9.761904761904761,325.0,-8.968253968253968,325.0,-1.984126984126984,325.0,4.365079365079365,325.0,-325.0,106.9047619047619,-325.0,-325.0,-1.6666666666666665,1.349206349206349,-321.8253968253968
325.0,-10.396825396825395,10.555555555555555,-325.0,6.111111111111111,-325.0,325.0,325.0,325.0,7.5396825396825395,325.0,-9.920634920634921,325.0,-3.095238095238095,325.0,2.46031746031746,325.0,-325.0,109.92063492063491,-325.0,-325.0,1.349206349206349,-2.619047619047619,-321.8253968253968
325.0,-10.396825396825395,10.555555555555555,-325.0,6.111111111111111,-325.0,325.0,325.0,325.0,7.5396825396825395,325.0,-9.920634920634921,325.0,-3.095238095238095,325.0,2.46031746031746,325.0,-325.0,109.92063492063491,-325.0,-325.0,1.349206349206349,-2.619047619047619,-321.8253968253968
325.0,-8.015873015873016,11.19047619047619,-325.0,6.587301587301587,-325.0,325.0,325.0,325.0,7.857142857142857,325.0,-8.015873015873016,325.0,-1.984126984126984,325.0,3.571428571428571,325.0,-325.0,113.4126984126984,-325.0,-325.0,-1.1904761904761905,2.9365079365079363,-321.8253968253968
325.0,-8.015873015873016,11.19047619047619,-325.0,6.587301587301587,-325.0,325.0,325.0,325.0,7.857142857142857,325.0,-8.015873015873016,325.0,-1.984126984126984,325.0,3.571428571428571,325.0,-325.0,113.4126984126984,-325.0,-325.0,-1.1904761904761905,2.9365079365079363,-321.8253968253968
325.0,-0.7142857142857142,10.714285714285714,-325.0,8.015873015873016,-325.0,325.0,325.0,325.0,9.761904761904761,325.0,-2.142857142857143,325.0,2.7777777777777777,325.0,6.26984126984127,325.0,-325.0,125.0,-325.0,-325.0,2.9365079365079363,-0.5555555555555556,-166.26984126984127
325.0,-0.7142857142857142,10.714285714285714,-325.0,8.015873015873016,-325.0,325.0,325.0,325.0,9.761904761904761,325.0,-2.142857142857143,325.0,2.7777777777777777,325.0,6.26984126984127,325.0,-325.0,125.0,-325.0,-325.0,2.9365079365079363,-0.5555555555555556,-166.26984126984127
325.0,3.4126984126984126,10.396825396825395,-325.0,8.809523809523808,-325.0,325.0,325.0,325.0,11.031746031746032,325.0,1.349206349206349,325.0,5.634920634920634,325.0,8.015873015873016,325.0,-325.0,66.42857142857143,-325.0,-325.0,-2.142857142857143,1.6666666666666665,-166.26984126984127
325.0,3.4126984126984126,10.396825396825395,-325.0,8.809523809523808,-325.0,325.0,325.0,325.0,11.031746031746032,325.0,1.349206349206349,325.0,5.634920634920634,325.0,8.015873015873016,325.0,-325.0,66.42857142857143,-325.0,-325.0,-2.142857142857143,1.6666666666666665,-166.26984126984127
325.0,5.7936507936507935,11.031746031746032,-325.0,9.444444444444445,-325.0,325.0,325.0,325.0,11.825396825396824,325.0,3.095238095238095,325.0,7.5396825396825395,325.0,9.444444444444445,325.0,-325.0,70.23809523809524,-325.0,-325.0,-0.873015873015873,0.23809523809523808,-166.26984126984127
325.0,5.7936507936507935,11.031746031746032,-325.0,9.444444444444445,-325.0,325.0,325.0,325.0,11.825396825396824,325.0,3.095238095238095,325.0,7.5396825396825395,325.0,9.444444444444445,325.0,-325.0,70.23809523809524,-325.0,-325.0,-0.873015873015873,0.23809523809523808,-166.26984126984127
119.28571428571428,7.222222222222221,1.507936507936508,-127.85714285714285,2.9365079365079363,-182.14285714285714,134.36507936507937,217.85714285714283,151.66666666666666,4.365079365079365,123.73015873015872,5.317460317460317,145.47619047619048,4.841269841269841,126.26984126984127,4.523809523809524,118.65079365079364,-147.69841269841268,-40.714285714285715,-141.03174603174602,-123.88888888888889,-0.7142857142857142,-1.8253968253968254,-166.26984126984127
119.28571428571428,7.222222222222221,1.507936507936508,-127.85714285714285,2.9365079365079363,-182.14285714285714,134.36507936507937,217.85714285714283,151.66666666666666,4.365079365079365,123.73015873015872,5.317460317460317,145.47619047619048,4.841269841269841,126.26984126984127,4.523809523809524,118.65079365079364,-147.69841269841268,-40.714285714285715,-141.03174603174602,-123.88888888888889,-0.7142857142857142,-1.8253968253968254,-166.26984126984127
-80.87301587301587,-2.9365079365079363,-2.7777777777777777,29.76190476190476,-2.9365079365079363,15.95238095238095,-55.79365079365079,130.7142857142857,-21.507936507936506,-1.507936507936508,-76.42857142857143,-1.0317460317460316,-27.857142857142854,-3.095238095238095,-71.5079365079365,-1.6666666666666665,-59.12698412698413,23.41269841269841,8.809523809523808,19.92063492063492,51.82539682539682,2.46031746031746,-0.07936507936507936,-166.26984126984127
-80.87301587301587,-2.9365079365079363,-2.7777777777777777,29.76190476190476,-2.9365079365079363,15.95238095238095,-55.79365079365079,130.7142857142857,-21.507936507936506,-1.507936507936508,-76.42857142857143,-1.0317460317460316,-27.857142857142854,-3.095238095238095,-71.5079365079365,-1.6666666666666665,-59.12698412698413,23.41269841269841,8.809523809523808,19.92063492063492,51.82539682539682,2.46031746031746,-0.07936507936507936,-166.26984126984127
-79.44444444444444,-7.857142857142857,-7.5396825396825395,29.126984126984127,-7.5396825396825395,-19.76190476190476,-54.841269841269835,109.6031746031746,-21.349206349206348,-6.587301587301587,-75.31746031746032,-6.428571428571428,-27.22222222222222,-8.333333333333332,-70.39682539682539,-7.063492063492063,-58.17460317460317,23.095238095238095,-43.57142857142857,19.6031746031746,50.87301587301587,-3.4126984126984126,-0.07936507936507936,-321.8253968253968
-79.44444444444444,-7.857142857142857,-7.5396825396825395,29.126984126984127,-7.5396825396825395,-19.76190476190476,-54.841269841269835,109.6031746031746,-21.349206349206348,-6.587301587301587,-75.31746031746032,-6.428571428571428,-27.22222222222222,-8.333333333333332,-70.39682539682539,-7.063492063492063,-58.17460317460317,23.095238095238095,-43.57142857142857,19.6031746031746,50.87301587301587,-3.4126984126984126,-0.07936507936507936,-321.8253968253968
-78.01587301587301,-11.825396825396824,-11.507936507936508,28.65079365079365,-11.349206349206348,-5.317460317460317,-53.888888888888886,130.07936507936506,-21.03174603174603,-10.396825396825395,-74.04761904761904,-9.761904761904761,-26.746031746031743,-12.142857142857142,-69.28571428571428,-10.396825396825395,-57.22222222222222,22.936507936507937,8.333333333333332,19.285714285714285,49.92063492063492,2.46031746031746,-0.23809523809523808,-321.8253968253968
-78.01587301587301,-11.825396825396824,-11.507936507936508,28.65079365079365,-11.349206349206348,-5.317460317460317,-53.888888888888886,130.07936507936506,-21.03174603174603,-10.396825396825395,-74.04761904761904,-9.761904761904761,-26.746031746031743,-12.142857142857142,-69.28571428571428,-10.396825396825395,-57.22222222222222,22.936507936507937,8.333333333333332,19.285714285714285,49.92063492063492,2.46031746031746,-0.23809523809523808,-321.8253968253968
-76.74603174603175,-9.285714285714285,-9.285714285714285,28.015873015873016,-8.809523809523808,-42.14285714285714,-52.93650793650794,109.28571428571428,-20.71428571428571,-7.698412698412698,-72.77777777777777,-7.3809523809523805,-26.26984126984127,-9.603174603174603,-68.17460317460318,-7.698412698412698,-56.269841269841265,22.46031746031746,-41.98412698412698,18.80952380952381,49.12698412698413,-2.7777777777777777,0.3968253968253968,-321.8253968253968
-76.74603174603175,-9.285714285714285,-9.285714285714285,28.015873015873016,-8.809523809523808,-42.14285714285714,-52.93650793650794,109.28571428571428,-20.71428571428571,-7.698412698412698,-72.77777777777777,-7.3809523809523805,-26.26984126984127,-9.603174603174603,-68.17460317460318,-7.698412698412698,-56.269841269841265,22.46031746031746,-41.98412698412698,18.80952380952381,49.12698412698413,-2.7777777777777777,0.3968253968253968,-321.8253968253968
-75.47619047619047,-9.126984126984127,-8.809523809523808,27.698412698412696,-8.809523809523808,48.49206349206349,-52.14285714285714,129.12698412698413,-20.396825396825395,-7.5396825396825395,-71.66666666666666,-7.063492063492063,-25.952380952380953,-9.603174603174603,-67.06349206349206,-7.857142857142857,-55.317460317460316,22.142857142857142,20.873015873015873,18.65079365079365,48.17460317460317,1.6666666666666665,-0.07936507936507936,-321.8253968253968
-75.47619047619047,-9.126984126984127,-8.809523809523808,27.698412698412696,-8.809523809523808,48.49206349206349,-52.14285714285714,129.12698412698413,-20.396825396825395,-7.5396825396825395,-71.66666666666666,-7.063492063492063,-25.952380952380953,-9.603174603174603,-67.06349206349206,-7.857142857142857,-55.317460317460316,22.142857142857142,20.873015873015873,18.65079365079365,48.17460317460317,1.6666666666666665,-0.07936507936507936,-321.8253968253968
-74.2063492063492,-15.634920634920634,-15.476190476190474,27.22222222222222,-15.317460317460316,77.06349206349206,-51.34920634920635,110.23809523809523,-19.92063492063492,-14.206349206349206,-70.55555555555556,-14.047619047619047,-25.476190476190474,-16.26984126984127,-65.95238095238095,-14.682539682539682,-54.36507936507936,21.825396825396822,-31.19047619047619,17.698412698412696,47.53968253968254,-3.253968253968254,-0.3968253968253968,-321.8253968253968
-74.2063492063492,-15.634920634920634,-15.476190476190474,27.22222222222222,-15.317460317460316,77.06349206349206,-51.34920634920635,110.23809523809523,-19.92063492063492,-14.206349206349206,-70.55555555555556,-14.047619047619047,-25.476190476190474,-16.26984126984127,-65.95238095238095,-14.682539682539682,-54.36507936507936,21.825396825396822,-31.19047619047619,17.698412698412696,47.53968253968254,-3.253968253968254,-0.3968253968253968,-321.8253968253968
-72.93650793650794,-13.888888888888888,-13.73015873015873,26.746031746031743,-13.571428571428571,137.69841269841268,-50.39682539682539,136.26984126984127,-19.76190476190476,-12.142857142857142,-69.44444444444444,-11.666666666666666,-25.0,-14.365079365079364,-65.0,-12.3015873015873,-53.41269841269841,21.349206349206348,31.666666666666664,17.857142857142858,46.58730158730158,2.142857142857143,-1.1904761904761905,-166.26984126984127
-72.93650793650794,-13.888888888888888,-13.73015873015873,26.746031746031743,-13.571428571428571,137.69841269841268,-50.39682539682539,136.26984126984127,-19.76190476190476,-12.142857142857142,-69.44444444444444,-11.666666666666666,-25.0,-14.365079365079364,-65.0,-12.3015873015873,-53.41269841269841,21.349206349206348,31.666666666666664,17.857142857142858,46.58730158730158,2.142857142857143,-1.1904761904761905,-166.26984126984127
-72.14285714285714,-8.809523809523808,-9.603174603174603,26.428571428571427,-9.285714285714285,71.98412698412697,-49.6031746031746,126.1111111111111,-19.444444444444443,-8.174603174603174,-68.65079365079364,-7.3809523809523805,-24.84126984126984,-10.238095238095237,-63.888888888888886,-8.65079365079365,-52.77777777777777,21.349206349206348,15.0,14.365079365079364,45.95238095238095,-3.4126984126984126,1.0317460317460316,-166.26984126984127
-72.14285714285714,-8.809523809523808,-9.603174603174603,26.428571428571427,-9.285714285714285,71.98412698412697,-49.6031746031746,126.1111111111111,-19.444444444444443,-8.174603174603174,-68.65079365079364,-7.3809523809523805,-24.84126984126984,-10.238095238095237,-63.888888888888886,-8.65079365079365,-52.77777777777777,21.349206349206348,15.0,14.365079365079364,45.95238095238095,-3.4126984126984126,1.0317460317460316,-166.26984126984127
-70.07936507936508,-9.603174603174603,-9.920634920634921,25.79365079365079,-9.761904761904761,68.17460317460318,-48.49206349206349,146.74603174603175,-18.80952380952381,-8.492063492063492,-67.06349206349206,-7.698412698412698,-24.206349206349206,-10.714285714285714,-62.3015873015873,-9.126984126984127,-51.34920634920635,20.555555555555554,24.206349206349206,8.809523809523808,44.52380952380952,-0.07936507936507936,0.07936507936507936,-166.26984126984127
-70.07936507936508,-9.603174603174603,-9.920634920634921,25.79365079365079,-9.761904761904761,68.17460317460318,-48.49206349206349,146.74603174603175,-18.80952380952381,-8.492063492063492,-67.06349206349206,-7.698412698412698,-24.206349206349206,-10.714285714285714,-62.3015873015873,-9.126984126984127,-51.34920634920635,20.555555555555554,24.206349206349206,8.809523809523808,44.52380952380952,-0.07936507936507936,0.07936507936507936,-166.26984126984127
-36.904761904761905,-241.5079365079365,-80.07936507936508,41.666666666666664,-262.9365079365079,287.22222222222223,266.4285714285714,-75.95238095238095,81.98412698412697,-290.23809523809524,-154.2063492063492,189.44444444444443,-105.47619047619047,156.42857142857142,161.34920634920633,150.87301587301587,59.92063492063492,171.984126984127,-44.047619047619044,-5.634920634920634,201.8253968253968,-38.49206349206349,178.96825396825395,-166.26984126984127
-36.904761904761905,-241.5079365079365,-80.07936507936508,41.666666666666664,-262.9365079365079,287.22222222222223,266.4285714285714,-75.95238095238095,81.98412698412697,-290.23809523809524,-154.2063492063492,189.44444444444443,-105.47619047619047,156.42857142857142,161.34920634920633,150.87301587301587,59.92063492063492,171.984126984127,-44.047619047619044,-5.634920634920634,201.8253968253968,-38.49206349206349,178.96825396825395,-166.26984126984127
-50.87301587301587,-125.79365079365078,-45.15873015873016,32.77777777777778,-136.42857142857142,215.0,110.71428571428571,10.873015873015872,32.14285714285714,-149.6031746031746,-108.17460317460316,90.87301587301587,-64.04761904761905,72.77777777777777,51.507936507936506,71.03174603174602,6.111111111111111,95.47619047619047,-30.07936507936508,6.111111111111111,121.66666666666666,-21.03174603174603,89.6031746031746,-166.26984126984127
-50.87301587301587,-125.79365079365078,-45.15873015873016,32.77777777777778,-136.42857142857142,215.0,110.71428571428571,10.873015873015872,32.14285714285714,-149.6031746031746,-108.17460317460316,90.87301587301587,-64.04761904761905,72.77777777777777,51.507936507936506,71.03174603174602,6.111111111111111,95.47619047619047,-30.07936507936508,6.111111111111111,121.66666666666666,-21.03174603174603,89.6031746031746,-166.26984126984127
-63.73015873015873,-7.698412698412698,-7.3809523809523805,23.57142857142857,-7.5396825396825395,124.84126984126983,-44.36507936507936,120.71428571428571,-17.38095238095238,-5.7936507936507935,-61.19047619047619,-5.476190476190476,-21.666666666666664,-8.015873015873016,-57.22222222222222,-5.7936507936507935,-46.904761904761905,18.96825396825397,-4.682539682539682,14.206349206349206,40.714285714285715,3.253968253968254,-2.3015873015873014,-321.8253968253968
-63.73015873015873,-7.698412698412698,-7.3809523809523805,23.57142857142857,-7.5396825396825395,124.84126984126983,-44.36507936507936,120.71428571428571,-17.38095238095238,-5.7936507936507935,-61.19047619047619,-5.476190476190476,-21.666666666666664,-8.015873015873016,-57.22222222222222,-5.7936507936507935,-46.904761904761905,18.96825396825397,-4.682539682539682,14.206349206349206,40.714285714285715,3.253968253968254,-2.3015873015873014,-321.8253968253968
-61.82539682539682,-10.079365079365079,-10.238095238095237,22.619047619047617,-9.603174603174603,43.095238095238095,-42.93650793650794,102.46031746031746,-17.063492063492063,-8.492063492063492,-59.12698412698413,-8.015873015873016,-21.19047619047619,-11.666666666666666,-55.317460317460316,-9.126984126984127,-45.317460317460316,18.333333333333332,-10.079365079365079,11.984126984126984,39.285714285714285,-0.7142857142857142,-0.23809523809523808,-321.8253968253968
-61.82539682539682,-10.079365079365079,-10.238095238095237,22.619047619047617,-9.603174603174603,43.095238095238095,-42.93650793650794,102.46031746031746,-17.063492063492063,-8.492063492063492,-59.12698412698413,-8.015873015873016,-21.19047619047619,-11.666666666666666,-55.317460317460316,-9.126984126984127,-45.317460317460316,18.333333333333332,-10.079365079365079,11.984126984126984,39.285714285714285,-0.7142857142857142,-0.23809523809523808,-321.8253968253968
-59.76190476190476,-10.714285714285714,-10.873015873015872,21.984126984126984,-10.396825396825395,84.04761904761904,-41.666666666666664,99.44444444444444,-16.587301587301585,-9.126984126984127,-57.38095238095238,-8.174603174603174,-20.396825396825395,-12.3015873015873,-53.57142857142857,-9.920634920634921,-43.73015873015873,17.698412698412696,-10.396825396825395,6.26984126984127,37.857142857142854,-0.7142857142857142,-0.3968253968253968,-321.8253968253968
-59.76190476190476,-10.714285714285714,-10.873015873015872,21.984126984126984,-10.396825396825395,84.04761904761904,-41.666666666666664,99.44444444444444,-16.587301587301585,-9.126984126984127,-57.38095238095238,-8.174603174603174,-20.396825396825395,-12.3015873015873,-53.57142857142857,-9.920634920634921,-43.73015873015873,17.698412698412696,-10.396825396825395,6.26984126984127,37.857142857142854,-0.7142857142857142,-0.3968253968253968,-321.8253968253968
-43.888888888888886,-9.285714285714285,-8.809523809523808,16.26984126984127,-8.492063492063492,21.507936507936506,-31.03174603174603,96.58730158730158,14.682539682539682,-7.222222222222221,-42.77777777777778,-4.841269841269841,-15.0,-10.079365079365079,-39.92063492063492,-7.698412698412698,97.6984126984127,13.253968253968253,-41.34920634920635,-122.6190476190476,27.857142857142854,0.23809523809523808,-1.6666666666666665,-321.8253968253968
-43.888888888888886,-9.285714285714285,-8.809523809523808,16.26984126984127,-8.492063492063492,21.507936507936506,-31.03174603174603,96.58730158730158,14.682539682539682,-7.222222222222221,-42.77777777777778,-4.841269841269841,-15.0,-10.079365079365079,-39.92063492063492,-7.698412698412698,97.6984126984127,13.253968253968253,-41.34920634920635,-122.6190476190476,27.857142857142854,0.23809523809523808,-1.6666666666666665,-321.8253968253968
-29.126984126984127,-13.253968253968253,-13.412698412698411,11.031746031746032,-13.571428571428571,-26.9047619047619,-21.19047619047619,80.55555555555556,43.73015873015873,-12.46031746031746,-29.285714285714285,-8.65079365079365,-10.079365079365079,-16.11111111111111,-27.539682539682538,-12.777777777777777,219.60317460317458,9.126984126984127,38.49206349206349,-21.349206349206348,18.49206349206349,-0.3968253968253968,0.23809523809523808,-321.8253968253968
-29.126984126984127,-13.253968253968253,-13.412698412698411,11.031746031746032,-13.571428571428571,-26.9047619047619,-21.19047619047619,80.55555555555556,43.73015873015873,-12.46031746031746,-29.285714285714285,-8.65079365079365,-10.079365079365079,-16.11111111111111,-27.539682539682538,-12.777777777777777,219.60317460317458,9.126984126984127,38.49206349206349,-21.349206349206348,18.49206349206349,-0.3968253968253968,0.23809523809523808,-321.8253968253968
-28.809523809523807,-12.3015873015873,-12.3015873015873,10.714285714285714,-11.984126984126984,13.253968253968253,-21.03174603174603,85.63492063492063,49.6031746031746,-10.079365079365079,-28.809523809523807,-6.26984126984127,-9.920634920634921,-13.253968253968253,-27.063492063492063,-10.714285714285714,181.66666666666666,8.968253968253968,-36.11111111111111,-255.47619047619045,18.015873015873016,0.23809523809523808,-2.142857142857143,-166.26984126984127
-28.809523809523807,-12.3015873015873,-12.3015873015873,10.714285714285714,-11.984126984126984,13.253968253968253,-21.03174603174603,85.63492063492063,49.6031746031746,-10.079365079365079,-28.809523809523807,-6.26984126984127,-9.920634920634921,-13.253968253968253,-27.063492063492063,-10.714285714285714,181.66666666666666,8.968253968253968,-36.11111111111111,-255.47619047619045,18.015873015873016,0.23809523809523808,-2.142857142857143,-166.26984126984127
-28.333333333333332,-8.65079365079365,-9.126984126984127,10.714285714285714,-9.285714285714285,-21.825396825396822,-20.555555555555554,70.71428571428571,56.74603174603174,-7.698412698412698,-28.333333333333332,-3.571428571428571,-9.920634920634921,-11.19047619047619,-26.587301587301585,-8.015873015873016,143.73015873015873,8.809523809523808,23.730158730158728,-30.87301587301587,17.698412698412696,0.07936507936507936,-0.873015873015873,-166.26984126984127
-28.333333333333332,-8.65079365079365,-9.126984126984127,10.714285714285714,-9.285714285714285,-21.825396825396822,-20.555555555555554,70.71428571428571,56.74603174603174,-7.698412698412698,-28.333333333333332,-3.571428571428571,-9.920634920634921,-11.19047619047619,-26.587301587301585,-8.015873015873016,143.73015873015873,8.809523809523808,23.730158730158728,-30.87301587301587,17.698412698412696,0.07936507936507936,-0.873015873015873,-166.26984126984127
-27.38095238095238,-7.063492063492063,-6.904761904761904,10.396825396825395,-7.3809523809523805,21.03174603174603,-19.92063492063492,90.23809523809523,66.11111111111111,-6.111111111111111,-27.539682539682538,-2.142857142857143,-9.761904761904761,-9.285714285714285,-25.79365079365079,-6.26984126984127,-117.6984126984127,8.65079365079365,44.2063492063492,-26.11111111111111,17.22222222222222,3.4126984126984126,-0.3968253968253968,-166.26984126984127
-27.38095238095238,-7.063492063492063,-6.904761904761904,10.396825396825395,-7.3809523809523805,21.03174603174603,-19.92063492063492,90.23809523809523,66.11111111111111,-6.111111111111111,-27.539682539682538,-2.142857142857143,-9.761904761904761,-9.285714285714285,-25.79365079365079,-6.26984126984127,-117.6984126984127,8.65079365079365,44.2063492063492,-26.11111111111111,17.22222222222222,3.4126984126984126,-0.3968253968253968,-166.26984126984127
-26.9047619047619,-9.285714285714285,-9.126984126984127,10.079365079365079,-8.968253968253968,41.666666666666664,-19.6031746031746,83.25396825396825,69.6031746031746,-7.3809523809523805,-27.063492063492063,-3.888888888888889,-9.285714285714285,-10.238095238095237,-25.317460317460316,-8.015873015873016,-108.96825396825396,8.492063492063492,-35.317460317460316,-265.6349206349206,16.904761904761905,-1.0317460317460316,-2.142857142857143,-166.26984126984127
-26.9047619047619,-9.285714285714285,-9.126984126984127,10.079365079365079,-8.968253968253968,41.666666666666664,-19.6031746031746,83.25396825396825,69.6031746031746,-7.3809523809523805,-27.063492063492063,-3.888888888888889,-9.285714285714285,-10.238095238095237,-25.317460317460316,-8.015873015873016,-108.96825396825396,8.492063492063492,-35.317460317460316,-265.6349206349206,16.904761904761905,-1.0317460317460316,-2.142857142857143,-166.26984126984127
-26.428571428571427,-8.174603174603174,-8.174603174603174,10.396825396825395,-8.492063492063492,33.888888888888886,-19.285714285714285,82.3015873015873,73.73015873015872,-6.746031746031746,-26.587301587301585,-3.095238095238095,-8.968253968253968,-9.920634920634921,-25.158730158730158,-6.428571428571428,-83.25396825396825,8.492063492063492,45.317460317460316,-16.11111111111111,16.746031746031743,2.3015873015873014,-0.5555555555555556,-166.26984126984127
-26.428571428571427,-8.174603174603174,-8.174603174603174,10.396825396825395,-8.492063492063492,33.888888888888886,-19.285714285714285,82.3015873015873,73.73015873015872,-6.746031746031746,-26.587301587301585,-3.095238095238095,-8.968253968253968,-9.920634920634921,-25.158730158730158,-6.428571428571428,-83.25396825396825,8.492063492063492,45.317460317460316,-16.11111111111111,16.746031746031743,2.3015873015873014,-0.5555555555555556,-166.26984126984127
-26.11111111111111,-7.3809523809523805,-7.3809523809523805,9.920634920634921,-7.3809523809523805,32.14285714285714,-18.96825396825397,78.17460317460316,79.28571428571428,-5.634920634920634,-26.26984126984127,-2.142857142857143,-9.126984126984127,-8.492063492063492,-24.68253968253968,-6.111111111111111,-61.03174603174603,8.174603174603174,-40.55555555555555,-256.26984126984127,16.428571428571427,-1.0317460317460316,-1.349206349206349,-321.8253968253968
-26.11111111111111,-7.3809523809523805,-7.3809523809523805,9.920634920634921,-7.3809523809523805,32.14285714285714,-18.96825396825397,78.17460317460316,79.28571428571428,-5.634920634920634,-26.26984126984127,-2.142857142857143,-9.126984126984127,-8.492063492063492,-24.68253968253968,-6.111111111111111,-61.03174603174603,8.174603174603174,-40.55555555555555,-256.26984126984127,16.428571428571427,-1.0317460317460316,-1.349206349206349,-321.8253968253968
-25.79365079365079,-10.238095238095237,-10.714285714285714,9.761904761904761,-10.714285714285714,28.174603174603174,-18.65079365079365,63.25396825396825,79.6031746031746,-9.285714285714285,-25.79365079365079,-6.111111111111111,-8.968253968253968,-12.619047619047619,-24.365079365079364,-9.603174603174603,61.82539682539682,8.174603174603174,19.285714285714285,-17.063492063492063,16.11111111111111,-0.23809523809523808,0.3968253968253968,-321.8253968253968
-25.79365079365079,-10.238095238095237,-10.714285714285714,9.761904761904761,-10.714285714285714,28.174603174603174,-18.65079365079365,63.25396825396825,79.6031746031746,-9.285714285714285,-25.79365079365079,-6.111111111111111,-8.968253968253968,-12.619047619047619,-24.365079365079364,-9.603174603174603,61.82539682539682,8.174603174603174,19.285714285714285,-17.063492063492063,16.11111111111111,-0.23809523809523808,0.3968253968253968,-321.8253968253968
-25.317460317460316,-3.095238095238095,-3.253968253968254,9.603174603174603,-3.095238095238095,46.269841269841265,-18.49206349206349,71.03174603174602,90.71428571428571,-1.1904761904761905,-25.476190476190474,2.142857142857143,-8.65079365079365,-4.0476190476190474,-23.88888888888889,-1.349206349206349,142.93650793650792,8.015873015873016,-48.650793650793645,-243.09523809523807,15.793650793650793,-0.5555555555555556,-2.619047619047619,-321.8253968253968
-25.317460317460316,-3.095238095238095,-3.253968253968254,9.603174603174603,-3.095238095238095,46.269841269841265,-18.49206349206349,71.03174603174602,90.71428571428571,-1.1904761904761905,-25.476190476190474,2.142857142857143,-8.65079365079365,-4.0476190476190474,-23.88888888888889,-1.349206349206349,142.93650793650792,8.015873015873016,-48.650793650793645,-243.09523809523807,15.793650793650793,-0.5555555555555556,-2.619047619047619,-321.8253968253968
-24.84126984126984,1.1904761904761905,0.3968253968253968,9.444444444444445,0.3968253968253968,61.82539682539682,-18.174603174603174,68.17460317460318,98.01587301587301,1.984126984126984,-25.158730158730158,5.158730158730158,-8.809523809523808,-1.349206349206349,-23.730158730158728,1.984126984126984,49.6031746031746,7.857142857142857,24.523809523809522,-14.523809523809524,15.634920634920634,0.23809523809523808,-0.23809523809523808,-321.8253968253968
-24.84126984126984,1.1904761904761905,0.3968253968253968,9.444444444444445,0.3968253968253968,61.82539682539682,-18.174603174603174,68.17460317460318,98.01587301587301,1.984126984126984,-25.158730158730158,5.158730158730158,-8.809523809523808,-1.349206349206349,-23.730158730158728,1.984126984126984,49.6031746031746,7.857142857142857,24.523809523809522,-14.523809523809524,15.634920634920634,0.23809523809523808,-0.23809523809523808,-321.8253968253968
-24.365079365079364,-1.984126984126984,-1.8253968253968254,9.285714285714285,-1.8253968253968254,43.41269841269841,-17.857142857142858,91.34920634920634,99.28571428571428,-0.3968253968253968,-24.523809523809522,2.619047619047619,-8.492063492063492,-3.4126984126984126,-23.253968253968253,-1.1904761904761905,-90.87301587301587,7.698412698412698,-23.253968253968253,-259.2857142857143,15.317460317460316,-0.3968253968253968,-1.984126984126984,-321.8253968253968
-24.365079365079364,-1.984126984126984,-1.8253968253968254,9.285714285714285,-1.8253968253968254,43.41269841269841,-17.857142857142858,91.34920634920634,99.28571428571428,-0.3968253968253968,-24.523809523809522,2.619047619047619,-8.492063492063492,-3.4126984126984126,-23.253968253968253,-1.1904761904761905,-90.87301587301587,7.698412698412698,-23.253968253968253,-259.2857142857143,15.317460317460316,-0.3968253968253968,-1.984126984126984,-321.8253968253968
-24.047619047619047,-4.2063492063492065,-4.682539682539682,9.126984126984127,-4.841269841269841,28.49206349206349,-17.698412698412696,79.44444444444444,99.12698412698413,-3.4126984126984126,-24.365079365079364,-0.5555555555555556,-8.492063492063492,-6.904761904761904,-22.936507936507937,-3.73015873015873,-46.904761904761905,7.698412698412698,44.2063492063492,-26.746031746031743,15.158730158730158,-1.0317460317460316,0.23809523809523808,-166.26984126984127
-24.047619047619047,-4.2063492063492065,-4.682539682539682,9.126984126984127,-4.841269841269841,28.49206349206349,-17.698412698412696,79.44444444444444,99.12698412698413,-3.4126984126984126,-24.365079365079364,-0.5555555555555556,-8.492063492063492,-6.904761904761904,-22.936507936507937,-3.73015873015873,-46.904761904761905,7.698412698412698,44.2063492063492,-26.746031746031743,15.158730158730158,-1.0317460317460316,0.23809523809523808,-166.26984126984127
-23.730158730158728,-2.46031746031746,-2.9365079365079363,8.968253968253968,-2.9365079365079363,36.42857142857142,-17.38095238095238,80.71428571428571,103.57142857142857,-1.507936507936508,-24.047619047619047,1.8253968253968254,-8.333333333333332,-4.523809523809524,-22.619047619047617,-1.984126984126984,126.58730158730158,7.5396825396825395,13.888888888888888,-138.65079365079364,15.0,-1.1904761904761905,-0.873015873015873,-166.26984126984127
-23.730158730158728,-2.46031746031746,-2.9365079365079363,8.968253968253968,-2.9365079365079363,36.42857142857142,-17.38095238095238,80.71428571428571,103.57142857142857,-1.507936507936508,-24.047619047619047,1.8253968253968254,-8.333333333333332,-4.523809523809524,-22.619047619047617,-1.984126984126984,126.58730158730158,7.5396825396825395,13.888888888888888,-138.65079365079364,15.0,-1.1904761904761905,-0.873015873015873,-166.26984126984127
-23.41269841269841,1.0317460317460316,0.23809523809523808,8.809523809523808,0.3968253968253968,-3.571428571428571,-17.22222222222222,70.55555555555556,110.39682539682539,1.8253968253968254,-23.57142857142857,4.523809523809524,-8.333333333333332,-1.507936507936508,-22.3015873015873,1.6666666666666665,285.95238095238096,7.3809523809523805,43.73015873015873,-27.063492063492063,14.523809523809524,-0.3968253968253968,0.5555555555555556,-166.26984126984127
-23.41269841269841,1.0317460317460316,0.23809523809523808,8.809523809523808,0.3968253968253968,-3.571428571428571,-17.22222222222222,70.55555555555556,110.39682539682539,1.8253968253968254,-23.57142857142857,4.523809523809524,-8.333333333333332,-1.507936507936508,-22.3015873015873,1.6666666666666665,285.95238095238096,7.3809523809523805,43.73015873015873,-27.063492063492063,14.523809523809524,-0.3968253968253968,0.5555555555555556,-166.26984126984127
-23.253968253968253,3.253968253968254,1.6666666666666665,8.809523809523808,2.3015873015873014,-36.58730158730159,-16.904761904761905,59.285714285714285,113.25396825396825,3.888888888888889,-23.41269841269841,6.587301587301587,-8.333333333333332,0.873015873015873,-22.3015873015873,3.73015873015873,247.06349206349205,7.222222222222221,21.507936507936506,-59.285714285714285,14.523809523809524,-2.3015873015873014,0.7142857142857142,-166.26984126984127
-23.253968253968253,3.253968253968254,1.6666666666666665,8.809523809523808,2.3015873015873014,-36.58730158730159,-16.904761904761905,59.285714285714285,113.25396825396825,3.888888888888889,-23.41269841269841,6.587301587301587,-8.333333333333332,0.873015873015873,-22.3015873015873,3.73015873015873,247.06349206349205,7.222222222222221,21.507936507936506,-59.285714285714285,14.523809523809524,-2.3015873015873014,0.7142857142857142,-166.26984126984127
-22.46031746031746,-0.7142857142857142,-1.1904761904761905,8.492063492063492,-1.1904761904761905,-15.634920634920634,-16.587301587301585,78.80952380952381,114.36507936507935,-0.07936507936507936,-22.936507936507937,2.3015873015873014,-8.015873015873016,-3.253968253968254,-21.666666666666664,-0.07936507936507936,218.015873015873,7.3809523809523805,39.285714285714285,-28.174603174603174,14.206349206349206,-0.7142857142857142,0.23809523809523808,-166.26984126984127
-22.46031746031746,-0.7142857142857142,-1.1904761904761905,8.492063492063492,-1.1904761904761905,-15.634920634920634,-16.587301587301585,78.80952380952381,114.36507936507935,-0.07936507936507936,-22.936507936507937,2.3015873015873014,-8.015873015873016,-3.253968253968254,-21.666666666666664,-0.07936507936507936,218.015873015873,7.3809523809523805,39.285714285714285,-28.174603174603174,14.206349206349206,-0.7142857142857142,0.23809523809523808,-166.26984126984127
-22.142857142857142,-0.3968253968253968,-0.3968253968253968,8.333333333333332,-0.23809523809523808,29.285714285714285,-16.428571428571427,88.33333333333333,118.33333333333333,1.349206349206349,-22.46031746031746,3.888888888888889,-7.063492063492063,-1.349206349206349,-21.349206349206348,1.1904761904761905,30.07936507936508,7.222222222222221,-22.936507936507937,-290.7142857142857,13.888888888888888,0.873015873015873,-1.507936507936508,-321.8253968253968
-22.142857142857142,-0.3968253968253968,-0.3968253968253968,8.333333333333332,-0.23809523809523808,29.285714285714285,-16.428571428571427,88.33333333333333,118.33333333333333,1.349206349206349,-22.46031746031746,3.888888888888889,-7.063492063492063,-1.349206349206349,-21.349206349206348,1.1904761904761905,30.07936507936508,7.222222222222221,-22.936507936507937,-290.7142857142857,13.888888888888888,0.873015873015873,-1.507936507936508,-321.8253968253968
-21.825396825396822,0.3968253968253968,0.07936507936507936,8.333333333333332,0.07936507936507936,31.349206349206348,-16.26984126984127,87.53968253968253,120.87301587301586,1.349206349206349,-22.142857142857142,4.0476190476190474,-7.222222222222221,-1.0317460317460316,-21.03174603174603,1.8253968253968254,-0.873015873015873,7.063492063492063,11.984126984126984,-241.03174603174602,13.73015873015873,-0.07936507936507936,-0.873015873015873,-321.8253968253968
-21.825396825396822,0.3968253968253968,0.07936507936507936,8.333333333333332,0.07936507936507936,31.349206349206348,-16.26984126984127,87.53968253968253,120.87301587301586,1.349206349206349,-22.142857142857142,4.0476190476190474,-7.222222222222221,-1.0317460317460316,-21.03174603174603,1.8253968253968254,-0.873015873015873,7.063492063492063,11.984126984126984,-241.03174603174602,13.73015873015873,-0.07936507936507936,-0.873015873015873,-321.8253968253968
-21.507936507936506,2.619047619047619,2.142857142857143,8.174603174603174,1.984126984126984,22.619047619047617,-15.95238095238095,84.68253968253968,125.47619047619047,3.571428571428571,-21.825396825396822,6.111111111111111,-7.222222222222221,1.1904761904761905,-20.555555555555554,4.0476190476190474,-120.71428571428571,6.904761904761904,16.587301587301585,-271.031746031746,13.571428571428571,0.07936507936507936,-1.349206349206349,-321.8253968253968
-21.507936507936506,2.619047619047619,2.142857142857143,8.174603174603174,1.984126984126984,22.619047619047617,-15.95238095238095,84.68253968253968,125.47619047619047,3.571428571428571,-21.825396825396822,6.111111111111111,-7.222222222222221,1.1904761904761905,-20.555555555555554,4.0476190476190474,-120.71428571428571,6.904761904761904,16.587301587301585,-271.031746031746,13.571428571428571,0.07936507936507936,-1.349206349206349,-321.8253968253968
-21.19047619047619,-0.7142857142857142,-1.349206349206349,8.015873015873016,-1.507936507936508,8.174603174603174,-15.634920634920634,71.19047619047619,124.52380952380952,-0.07936507936507936,-21.507936507936506,1.984126984126984,-6.111111111111111,-3.253968253968254,-20.238095238095237,-0.07936507936507936,-128.8095238095238,6.746031746031746,44.047619047619044,-180.7142857142857,13.253968253968253,-1.349206349206349,0.23809523809523808,-321.8253968253968
-21.19047619047619,-0.7142857142857142,-1.349206349206349,8.015873015873016,-1.507936507936508,8.174603174603174,-15.634920634920634,71.19047619047619,124.52380952380952,-0.07936507936507936,-21.507936507936506,1.984126984126984,-6.111111111111111,-3.253968253968254,-20.238095238095237,-0.07936507936507936,-128.8095238095238,6.746031746031746,44.047619047619044,-180.7142857142857,13.253968253968253,-1.349206349206349,0.23809523809523808,-321.8253968253968
-20.873015873015873,1.6666666666666665,1.507936507936508,7.857142857142857,1.6666666666666665,-38.49206349206349,-15.317460317460316,80.07936507936508,129.44444444444443,3.253968253968254,-21.19047619047619,5.158730158730158,-0.7142857142857142,0.5555555555555556,-20.07936507936508,2.9365079365079363,-126.26984126984127,6.746031746031746,-22.777777777777775,-273.88888888888886,13.095238095238095,-0.23809523809523808,-1.1904761904761905,-321.8253968253968
-20.873015873015873,1.6666666666666665,1.507936507936508,7.857142857142857,1.6666666666666665,-38.49206349206349,-15.317460317460316,80.07936507936508,129.44444444444443,3.253968253968254,-21.19047619047619,5.158730158730158,-0.7142857142857142,0.5555555555555556,-20.07936507936508,2.9365079365079363,-126.26984126984127,6.746031746031746,-22.777777777777775,-273.88888888888886,13.095238095238095,-0.23809523809523808,-1.1904761904761905,-321.8253968253968
-20.555555555555554,1.349206349206349,0.7142857142857142,7.857142857142857,0.7142857142857142,-87.38095238095238,-15.158730158730158,51.82539682539682,130.7142857142857,1.984126984126984,-20.873015873015873,3.73015873015873,3.571428571428571,-1.349206349206349,-19.76190476190476,1.984126984126984,-123.73015873015872,6.587301587301587,25.79365079365079,-25.476190476190474,12.777777777777777,-1.507936507936508,1.1904761904761905,-166.26984126984127
-20.555555555555554,1.349206349206349,0.7142857142857142,7.857142857142857,0.7142857142857142,-87.38095238095238,-15.158730158730158,51.82539682539682,130.7142857142857,1.984126984126984,-20.873015873015873,3.73015873015873,3.571428571428571,-1.349206349206349,-19.76190476190476,1.984126984126984,-123.73015873015872,6.587301587301587,25.79365079365079,-25.476190476190474,12.777777777777777,-1.507936507936508,1.1904761904761905,-166.26984126984127
-20.238095238095237,4.523809523809524,3.571428571428571,7.698412698412698,4.2063492063492065,-119.44444444444444,-15.0,53.25396825396825,136.42857142857142,6.26984126984127,-20.71428571428571,8.333333333333332,12.3015873015873,3.73015873015873,-19.285714285714285,5.7936507936507935,-121.66666666666666,6.428571428571428,-57.22222222222222,-318.17460317460313,11.825396825396824,-3.253968253968254,-0.7142857142857142,-166.26984126984127
-20.238095238095237,4.523809523809524,3.571428571428571,7.698412698412698,4.2063492063492065,-119.44444444444444,-15.0,53.25396825396825,136.42857142857142,6.26984126984127,-20.71428571428571,8.333333333333332,12.3015873015873,3.73015873015873,-19.285714285714285,5.7936507936507935,-121.66666666666666,6.428571428571428,-57.22222222222222,-318.17460317460313,11.825396825396824,-3.253968253968254,-0.7142857142857142,-166.26984126984127
-19.76190476190476,8.015873015873016,7.222222222222221,7.5396825396825395,7.222222222222221,-143.73015873015873,-14.682539682539682,48.96825396825397,141.19047619047618,8.492063492063492,-20.238095238095237,10.238095238095237,19.6031746031746,5.476190476190476,-19.126984126984127,8.65079365079365,-118.96825396825396,6.428571428571428,22.46031746031746,-43.73015873015873,12.46031746031746,-0.873015873015873,1.507936507936508,-166.26984126984127
-19.76190476190476,8.015873015873016,7.222222222222221,7.5396825396825395,7.222222222222221,-143.73015873015873,-14.682539682539682,48.96825396825397,141.19047619047618,8.492063492063492,-20.238095238095237,10.238095238095237,19.6031746031746,5.476190476190476,-19.126984126984127,8.65079365079365,-118.96825396825396,6.428571428571428,22.46031746031746,-43.73015873015873,12.46031746031746,-0.873015873015873,1.507936507936508,-166.26984126984127
-19.6031746031746,5.7936507936507935,5.952380952380952,7.3809523809523805,5.7936507936507935,-118.8095238095238,-14.523809523809524,68.33333333333333,141.984126984127,7.3809523809523805,-19.92063492063492,9.126984126984127,25.0,4.841269841269841,-18.80952380952381,7.222222222222221,-116.58730158730158,6.26984126984127,-33.095238095238095,-266.1111111111111,11.825396825396824,1.0317460317460316,-1.1904761904761905,-166.26984126984127
-19.6031746031746,5.7936507936507935,5.952380952380952,7.3809523809523805,5.7936507936507935,-118.8095238095238,-14.523809523809524,68.33333333333333,141.984126984127,7.3809523809523805,-19.92063492063492,9.126984126984127,25.0,4.841269841269841,-18.80952380952381,7.222222222222221,-116.58730158730158,6.26984126984127,-33.095238095238095,-266.1111111111111,11.825396825396824,1.0317460317460316,-1.1904761904761905,-166.26984126984127
-19.285714285714285,1.349206349206349,0.3968253968253968,7.222222222222221,0.3968253968253968,-115.95238095238095,-14.523809523809524,52.460317460317455,138.17460317460316,1.6666666666666665,-19.6031746031746,3.095238095238095,25.317460317460316,-1.507936507936508,-18.49206349206349,1.507936507936508,-114.36507936507935,6.26984126984127,24.68253968253968,-38.65079365079365,11.984126984126984,-1.1904761904761905,0.5555555555555556,-166.26984126984127
-19.285714285714285,1.349206349206349,0.3968253968253968,7.222222222222221,0.3968253968253968,-115.95238095238095,-14.523809523809524,52.460317460317455,138.17460317460316,1.6666666666666665,-19.6031746031746,3.095238095238095,25.317460317460316,-1.507936507936508,-18.49206349206349,1.507936507936508,-114.36507936507935,6.26984126984127,24.68253968253968,-38.65079365079365,11.984126984126984,-1.1904761904761905,0.5555555555555556,-166.26984126984127
-18.80952380952381,-0.7142857142857142,-1.349206349206349,7.3809523809523805,-0.873015873015873,-117.22222222222221,-14.047619047619047,58.17460317460317,138.4920634920635,0.7142857142857142,-19.444444444444443,2.3015873015873014,28.015873015873016,-1.6666666666666665,-18.49206349206349,0.3968253968253968,-112.30158730158729,6.111111111111111,-51.34920634920635,-325.0,4.2063492063492065,-2.3015873015873014,-1.984126984126984,-321.8253968253968
-18.80952380952381,-0.7142857142857142,-1.349206349206349,7.3809523809523805,-0.873015873015873,-117.22222222222221,-14.047619047619047,58.17460317460317,138.4920634920635,0.7142857142857142,-19.444444444444443,2.3015873015873014,28.015873015873016,-1.6666666666666665,-18.49206349206349,0.3968253968253968,-112.30158730158729,6.111111111111111,-51.34920634920635,-325.0,4.2063492063492065,-2.3015873015873014,-1.984126984126984,-321.8253968253968
-18.80952380952381,1.8253968253968254,0.873015873015873,7.063492063492063,1.349206349206349,-90.23809523809523,-14.047619047619047,49.6031746031746,141.34920634920636,2.7777777777777777,-19.285714285714285,4.0476190476190474,33.25396825396825,-0.07936507936507936,-18.333333333333332,2.619047619047619,-110.87301587301587,6.111111111111111,-29.444444444444443,-218.8095238095238,8.015873015873016,-2.9365079365079363,-0.5555555555555556,-321.8253968253968
-18.80952380952381,1.8253968253968254,0.873015873015873,7.063492063492063,1.349206349206349,-90.23809523809523,-14.047619047619047,49.6031746031746,141.34920634920636,2.7777777777777777,-19.285714285714285,4.0476190476190474,33.25396825396825,-0.07936507936507936,-18.333333333333332,2.619047619047619,-110.87301587301587,6.111111111111111,-29.444444444444443,-218.8095238095238,8.015873015873016,-2.9365079365079363,-0.5555555555555556,-321.8253968253968
-18.174603174603174,4.523809523809524,4.365079365079365,7.063492063492063,4.365079365079365,3.888888888888889,-13.571428571428571,69.12698412698413,147.2222222222222,6.111111111111111,-18.80952380952381,7.5396825396825395,45.15873015873016,3.73015873015873,-17.698412698412696,6.26984126984127,-107.6984126984127,5.952380952380952,-26.428571428571427,-258.17460317460313,0.7142857142857142,0.5555555555555556,-2.3015873015873014,-321.8253968253968
-18.174603174603174,4.523809523809524,4.365079365079365,7.063492063492063,4.365079365079365,3.888888888888889,-13.571428571428571,69.12698412698413,147.2222222222222,6.111111111111111,-18.80952380952381,7.5396825396825395,45.15873015873016,3.73015873015873,-17.698412698412696,6.26984126984127,-107.6984126984127,5.952380952380952,-26.428571428571427,-258.17460317460313,0.7142857142857142,0.5555555555555556,-2.3015873015873014,-321.8253968253968
-18.174603174603174,8.174603174603174,7.063492063492063,6.746031746031746,7.063492063492063,5.7936507936507935,-13.412698412698411,55.15873015873016,151.03174603174602,8.492063492063492,-18.49206349206349,9.761904761904761,52.460317460317455,5.634920634920634,-17.539682539682538,8.809523809523808,-105.63492063492063,5.952380952380952,28.015873015873016,-53.095238095238095,11.031746031746032,-1.0317460317460316,0.3968253968253968,-321.8253968253968
-18.174603174603174,8.174603174603174,7.063492063492063,6.746031746031746,7.063492063492063,5.7936507936507935,-13.412698412698411,55.15873015873016,151.03174603174602,8.492063492063492,-18.49206349206349,9.761904761904761,52.460317460317455,5.634920634920634,-17.539682539682538,8.809523809523808,-105.63492063492063,5.952380952380952,28.015873015873016,-53.095238095238095,11.031746031746032,-1.0317460317460316,0.3968253968253968,-321.8253968253968
-18.174603174603174,8.492063492063492,7.222222222222221,6.587301587301587,7.698412698412698,-10.079365079365079,-13.412698412698411,49.12698412698413,151.34920634920633,8.968253968253968,-18.49206349206349,9.920634920634921,54.841269841269835,5.7936507936507935,-17.38095238095238,8.968253968253968,-105.15873015873015,6.111111111111111,0.7142857142857142,-131.34920634920636,11.825396825396824,-2.9365079365079363,0.873015873015873,-321.8253968253968
-18.174603174603174,8.492063492063492,7.222222222222221,6.587301587301587,7.698412698412698,-10.079365079365079,-13.412698412698411,49.12698412698413,151.34920634920633,8.968253968253968,-18.49206349206349,9.920634920634921,54.841269841269835,5.7936507936507935,-17.38095238095238,8.968253968253968,-105.15873015873015,6.111111111111111,0.7142857142857142,-131.34920634920636,11.825396825396824,-2.9365079365079363,0.873015873015873,-321.8253968253968
-17.539682539682538,7.063492063492063,6.26984126984127,7.063492063492063,6.111111111111111,-7.5396825396825395,-13.253968253968253,65.31746031746032,152.77777777777777,7.3809523809523805,-18.015873015873016,8.492063492063492,59.12698412698413,4.682539682539682,-17.063492063492063,7.698412698412698,-101.98412698412697,5.7936507936507935,65.15873015873015,-2.619047619047619,11.666666666666666,0.23809523809523808,1.1904761904761905,-166.26984126984127
-17.539682539682538,7.063492063492063,6.26984126984127,7.063492063492063,6.111111111111111,-7.5396825396825395,-13.253968253968253,65.31746031746032,152.77777777777777,7.3809523809523805,-18.015873015873016,8.492063492063492,59.12698412698413,4.682539682539682,-17.063492063492063,7.698412698412698,-101.98412698412697,5.7936507936507935,65.15873015873015,-2.619047619047619,11.666666666666666,0.23809523809523808,1.1904761904761905,-166.26984126984127
-17.38095238095238,8.809523809523808,8.015873015873016,6.746031746031746,8.174603174603174,13.571428571428571,-13.095238095238095,75.0,155.63492063492063,9.603174603174603,-17.857142857142858,10.714285714285714,64.36507936507937,6.746031746031746,-16.904761904761905,9.761904761904761,-100.39682539682539,5.634920634920634,39.6031746031746,-100.39682539682539,8.492063492063492,1.349206349206349,-0.23809523809523808,-166.26984126984127
-17.38095238095238,8.809523809523808,8.015873015873016,6.746031746031746,8.174603174603174,13.571428571428571,-13.095238095238095,75.0,155.63492063492063,9.603174603174603,-17.857142857142858,10.714285714285714,64.36507936507937,6.746031746031746,-16.904761904761905,9.761904761904761,-100.39682539682539,5.634920634920634,39.6031746031746,-100.39682539682539,8.492063492063492,1.349206349206349,-0.23809523809523808,-166.26984126984127
-16.904761904761905,8.174603174603174,7.063492063492063,6.587301587301587,7.222222222222221,-6.587301587301587,-12.777777777777777,54.68253968253968,156.42857142857142,8.492063492063492,-17.539682539682538,9.285714285714285,69.28571428571428,5.7936507936507935,-16.587301587301585,8.809523809523808,-97.53968253968253,5.634920634920634,22.777777777777775,-70.39682539682539,11.666666666666666,-1.8253968253968254,0.23809523809523808,-166.26984126984127
-16.904761904761905,8.174603174603174,7.063492063492063,6.587301587301587,7.222222222222221,-6.587301587301587,-12.777777777777777,54.68253968253968,156.42857142857142,8.492063492063492,-17.539682539682538,9.285714285714285,69.28571428571428,5.7936507936507935,-16.587301587301585,8.809523809523808,-97.53968253968253,5.634920634920634,22.777777777777775,-70.39682539682539,11.666666666666666,-1.8253968253968254,0.23809523809523808,-166.26984126984127
-16.587301587301585,5.158730158730158,4.841269841269841,6.587301587301587,5.0,-44.84126984126984,-12.619047619047619,71.66666666666666,155.3174603174603,6.428571428571428,-17.22222222222222,7.222222222222221,71.19047619047619,4.0476190476190474,-16.26984126984127,6.746031746031746,-95.63492063492063,5.476190476190476,-15.95238095238095,-259.9206349206349,-0.7142857142857142,0.3968253968253968,-1.1904761904761905,-166.26984126984127
-16.587301587301585,5.158730158730158,4.841269841269841,6.587301587301587,5.0,-44.84126984126984,-12.619047619047619,71.66666666666666,155.3174603174603,6.428571428571428,-17.22222222222222,7.222222222222221,71.19047619047619,4.0476190476190474,-16.26984126984127,6.746031746031746,-95.63492063492063,5.476190476190476,-15.95238095238095,-259.9206349206349,-0.7142857142857142,0.3968253968253968,-1.1904761904761905,-166.26984126984127
-16.587301587301585,5.476190476190476,4.2063492063492065,6.428571428571428,5.0,-119.44444444444444,-12.46031746031746,57.857142857142854,155.47619047619048,6.26984126984127,-17.22222222222222,6.587301587301587,74.68253968253968,3.253968253968254,-16.11111111111111,6.111111111111111,-94.2063492063492,5.317460317460317,1.1904761904761905,-172.93650793650792,8.65079365079365,-1.0317460317460316,0.23809523809523808,-166.26984126984127
-16.587301587301585,5.476190476190476,4.2063492063492065,6.428571428571428,5.0,-119.44444444444444,-12.46031746031746,57.857142857142854,155.47619047619048,6.26984126984127,-17.22222222222222,6.587301587301587,74.68253968253968,3.253968253968254,-16.11111111111111,6.111111111111111,-94.2063492063492,5.317460317460317,1.1904761904761905,-172.93650793650792,8.65079365079365,-1.0317460317460316,0.23809523809523808,-166.26984126984127
-16.587301587301585,6.26984126984127,4.2063492063492065,6.26984126984127,5.317460317460317,-185.95238095238093,-12.46031746031746,38.17460317460317,155.95238095238093,6.428571428571428,-17.063492063492063,6.428571428571428,77.53968253968253,3.4126984126984126,-15.95238095238095,6.111111111111111,-93.4126984126984,5.317460317460317,-12.936507936507935,-150.87301587301587,11.825396825396824,-4.365079365079365,1.0317460317460316,-321.8253968253968
-16.587301587301585,6.26984126984127,4.2063492063492065,6.26984126984127,5.317460317460317,-185.95238095238093,-12.46031746031746,38.17460317460317,155.95238095238093,6.428571428571428,-17.063492063492063,6.428571428571428,77.53968253968253,3.4126984126984126,-15.95238095238095,6.111111111111111,-93.4126984126984,5.317460317460317,-12.936507936507935,-150.87301587301587,11.825396825396824,-4.365079365079365,1.0317460317460316,-321.8253968253968
-16.587301587301585,6.26984126984127,4.2063492063492065,6.26984126984127,5.317460317460317,-185.95238095238093,-12.46031746031746,38.17460317460317,155.95238095238093,6.428571428571428,-17.063492063492063,6.428571428571428,77.53968253968253,3.4126984126984126,-15.95238095238095,6.111111111111111,-93.4126984126984,5.317460317460317,-12.936507936507935,-150.87301587301587,11.825396825396824,-4.365079365079365,1.0317460317460316,-321.8253968253968
-16.587301587301585,6.26984126984127,4.2063492063492065,6.26984126984127,5.317460317460317,-185.95238095238093,-12.46031746031746,38.17460317460317,155.95238095238093,6.428571428571428,-17.063492063492063,6.428571428571428,77.53968253968253,3.4126984126984126,-15.95238095238095,6.111111111111111,-93.4126984126984,5.317460317460317,-12.936507936507935,-150.87301587301587,11.825396825396824,-4.365079365079365,1.0317460317460316,-321.8253968253968
-16.587301587301585,6.26984126984127,4.2063492063492065,6.26984126984127,5.317460317460317,-185.95238095238093,-12.46031746031746,38.17460317460317,155.95238095238093,6.428571428571428,-17.063492063492063,6.428571428571428,77.53968253968253,3.4126984126984126,-15.95238095238095,6.111111111111111,-93.4126984126984,5.317460317460317,-12.936507936507935,-150.87301587301587,11.825396825396824,-4.365079365079365,1.0317460317460316,-321.8253968253968
-16.587301587301585,6.26984126984127,4.2063492063492065,6.26984126984127,5.317460317460317,-185.95238095238093,-12.46031746031746,38.17460317460317,155.95238095238093,6.428571428571428,-17.063492063492063,6.428571428571428,77.53968253968253,3.4126984126984126,-15.95238095238095,6.111111111111111,-93.4126984126984,5.317460317460317,-12.936507936507935,-150.87301587301587,11.825396825396824,-4.365079365079365,1.0317460317460316,-321.8253968253968
-15.476190476190474,-1.8253968253968254,-3.095238095238095,5.952380952380952,-2.7777777777777777,-93.57142857142857,-11.825396825396824,45.15873015873016,151.5079365079365,-1.507936507936508,-16.11111111111111,-1.349206349206349,82.14285714285714,-4.2063492063492065,-15.317460317460316,-1.1904761904761905,0.5555555555555556,5.158730158730158,21.825396825396822,-77.22222222222221,11.19047619047619,-2.619047619047619,0.873015873015873,-321.8253968253968
-15.476190476190474,-1.8253968253968254,-3.095238095238095,5.952380952380952,-2.7777777777777777,-93.57142857142857,-11.825396825396824,45.15873015873016,151.5079365079365,-1.507936507936508,-16.11111111111111,-1.349206349206349,82.14285714285714,-4.2063492063492065,-15.317460317460316,-1.1904761904761905,0.5555555555555556,5.158730158730158,21.825396825396822,-77.22222222222221,11.19047619047619,-2.619047619047619,0.873015873015873,-321.8253968253968
-15.158730158730158,3.253968253968254,2.9365079365079363,5.7936507936507935,2.9365079365079363,-41.666666666666664,-11.507936507936508,70.07936507936508,158.17460317460316,4.365079365079365,-15.793650793650793,4.523809523809524,91.82539682539682,1.984126984126984,-15.0,4.523809523809524,-91.82539682539682,5.0,-4.365079365079365,-256.58730158730157,-14.206349206349206,1.8253968253968254,-1.349206349206349,-321.8253968253968
-15.158730158730158,3.253968253968254,2.9365079365079363,5.7936507936507935,2.9365079365079363,-41.666666666666664,-11.507936507936508,70.07936507936508,158.17460317460316,4.365079365079365,-15.793650793650793,4.523809523809524,91.82539682539682,1.984126984126984,-15.0,4.523809523809524,-91.82539682539682,5.0,-4.365079365079365,-256.58730158730157,-14.206349206349206,1.8253968253968254,-1.349206349206349,-321.8253968253968
-14.84126984126984,-1.349206349206349,-2.3015873015873014,5.7936507936507935,-2.142857142857143,-73.88888888888889,-11.349206349206348,52.14285714285714,153.57142857142856,-0.873015873015873,-15.634920634920634,-1.0317460317460316,89.92063492063491,-3.73015873015873,-14.84126984126984,-0.873015873015873,-86.9047619047619,5.0,33.095238095238095,-88.17460317460316,11.984126984126984,-2.3015873015873014,0.23809523809523808,-166.26984126984127
-14.84126984126984,-1.349206349206349,-2.3015873015873014,5.7936507936507935,-2.142857142857143,-73.88888888888889,-11.349206349206348,52.14285714285714,153.57142857142856,-0.873015873015873,-15.634920634920634,-1.0317460317460316,89.92063492063491,-3.73015873015873,-14.84126984126984,-0.873015873015873,-86.9047619047619,5.0,33.095238095238095,-88.17460317460316,11.984126984126984,-2.3015873015873014,0.23809523809523808,-166.26984126984127
-14.523809523809524,-6.904761904761904,-7.063492063492063,5.634920634920634,-7.063492063492063,-82.46031746031746,-11.19047619047619,82.61904761904762,149.28571428571428,-5.476190476190476,-15.317460317460316,-5.634920634920634,88.33333333333333,-7.698412698412698,-14.523809523809524,-5.476190476190476,-0.07936507936507936,4.841269841269841,2.619047619047619,-250.87301587301585,-20.555555555555554,0.873015873015873,-1.349206349206349,-166.26984126984127
-14.523809523809524,-6.904761904761904,-7.063492063492063,5.634920634920634,-7.063492063492063,-82.46031746031746,-11.19047619047619,82.61904761904762,149.28571428571428,-5.476190476190476,-15.317460317460316,-5.634920634920634,88.33333333333333,-7.698412698412698,-14.523809523809524,-5.476190476190476,-0.07936507936507936,4.841269841269841,2.619047619047619,-250.87301587301585,-20.555555555555554,0.873015873015873,-1.349206349206349,-166.26984126984127
-14.523809523809524,-1.349206349206349,-2.46031746031746,5.476190476190476,-2.3015873015873014,-111.03174603174602,-11.19047619047619,65.63492063492063,154.36507936507937,-1.0317460317460316,-15.158730158730158,-1.349206349206349,95.63492063492063,-3.73015873015873,-14.365079365079364,-0.7142857142857142,-41.507936507936506,4.841269841269841,31.19047619047619,-95.95238095238095,12.619047619047619,-2.3015873015873014,1.1904761904761905,-166.26984126984127
-14.523809523809524,-1.349206349206349,-2.46031746031746,5.476190476190476,-2.3015873015873014,-111.03174603174602,-11.19047619047619,65.63492063492063,154.36507936507937,-1.0317460317460316,-15.158730158730158,-1.349206349206349,95.63492063492063,-3.73015873015873,-14.365079365079364,-0.7142857142857142,-41.507936507936506,4.841269841269841,31.19047619047619,-95.95238095238095,12.619047619047619,-2.3015873015873014,1.1904761904761905,-166.26984126984127
-14.206349206349206,0.873015873015873,0.3968253968253968,5.476190476190476,0.5555555555555556,-35.476190476190474,-11.031746031746032,74.36507936507937,157.85714285714286,1.984126984126984,-14.84126984126984,1.984126984126984,101.98412698412697,-0.3968253968253968,-14.206349206349206,2.142857142857143,-1.984126984126984,4.682539682539682,-7.222222222222221,-244.2063492063492,-19.76190476190476,1.349206349206349,-1.0317460317460316,-166.26984126984127
-14.206349206349206,0.873015873015873,0.3968253968253968,5.476190476190476,0.5555555555555556,-35.476190476190474,-11.031746031746032,74.36507936507937,157.85714285714286,1.984126984126984,-14.84126984126984,1.984126984126984,101.98412698412697,-0.3968253968253968,-14.206349206349206,2.142857142857143,-1.984126984126984,4.682539682539682,-7.222222222222221,-244.2063492063492,-19.76190476190476,1.349206349206349,-1.0317460317460316,-166.26984126984127
-14.047619047619047,1.507936507936508,0.23809523809523808,5.476190476190476,0.3968253968253968,-28.015873015873016,-10.873015873015872,48.17460317460317,158.015873015873,1.6666666666666665,-14.682539682539682,1.1904761904761905,104.68253968253968,-1.0317460317460316,-14.047619047619047,1.984126984126984,39.285714285714285,4.682539682539682,25.158730158730158,-86.58730158730158,12.619047619047619,-2.7777777777777777,0.873015873015873,-166.26984126984127
-14.047619047619047,1.507936507936508,0.23809523809523808,5.476190476190476,0.3968253968253968,-28.015873015873016,-10.873015873015872,48.17460317460317,158.015873015873,1.6666666666666665,-14.682539682539682,1.1904761904761905,104.68253968253968,-1.0317460317460316,-14.047619047619047,1.984126984126984,39.285714285714285,4.682539682539682,25.158730158730158,-86.58730158730158,12.619047619047619,-2.7777777777777777,0.873015873015873,-166.26984126984127
-14.206349206349206,4.523809523809524,2.619047619047619,5.476190476190476,3.253968253968254,-25.634920634920633,-10.873015873015872,43.57142857142857,160.87301587301587,4.523809523809524,-14.84126984126984,4.2063492063492065,107.6984126984127,1.984126984126984,-13.73015873015873,4.365079365079365,38.80952380952381,4.682539682539682,-6.26984126984127,-185.0,12.777777777777777,-4.0476190476190474,0.3968253968253968,-321.8253968253968
-14.206349206349206,4.523809523809524,2.619047619047619,5.476190476190476,3.253968253968254,-25.634920634920633,-10.873015873015872,43.57142857142857,160.87301587301587,4.523809523809524,-14.84126984126984,4.2063492063492065,107.6984126984127,1.984126984126984,-13.73015873015873,4.365079365079365,38.80952380952381,4.682539682539682,-6.26984126984127,-185.0,12.777777777777777,-4.0476190476190474,0.3968253968253968,-321.8253968253968
-13.888888888888888,-0.07936507936507936,-1.1904761904761905,5.158730158730158,-0.873015873015873,-84.52380952380952,-10.714285714285714,47.38095238095238,157.2222222222222,0.23809523809523808,-14.365079365079364,-0.3968253968253968,108.33333333333333,-2.3015873015873014,-13.73015873015873,0.3968253968253968,215.47619047619045,4.682539682539682,27.38095238095238,-93.25396825396825,11.666666666666666,-2.142857142857143,0.3968253968253968,-321.8253968253968
-13.888888888888888,-0.07936507936507936,-1.1904761904761905,5.158730158730158,-0.873015873015873,-84.52380952380952,-10.714285714285714,47.38095238095238,157.2222222222222,0.23809523809523808,-14.365079365079364,-0.3968253968253968,108.33333333333333,-2.3015873015873014,-13.73015873015873,0.3968253968253968,215.47619047619045,4.682539682539682,27.38095238095238,-93.25396825396825,11.666666666666666,-2.142857142857143,0.3968253968253968,-321.8253968253968
-13.571428571428571,2.46031746031746,2.3015873015873014,5.317460317460317,2.3015873015873014,-90.55555555555556,-10.396825396825395,58.8095238095238,160.87301587301587,3.571428571428571,-14.047619047619047,3.253968253968254,114.52380952380952,1.349206349206349,-13.253968253968253,3.888888888888889,115.31746031746032,4.365079365079365,-1.984126984126984,-230.7142857142857,-41.34920634920635,1.1904761904761905,-1.349206349206349,-321.8253968253968
-13.571428571428571,2.46031746031746,2.3015873015873014,5.317460317460317,2.3015873015873014,-90.55555555555556,-10.396825396825395,58.8095238095238,160.87301587301587,3.571428571428571,-14.047619047619047,3.253968253968254,114.52380952380952,1.349206349206349,-13.253968253968253,3.888888888888889,115.31746031746032,4.365079365079365,-1.984126984126984,-230.7142857142857,-41.34920634920635,1.1904761904761905,-1.349206349206349,-321.8253968253968
-13.253968253968253,5.7936507936507935,4.523809523809524,5.158730158730158,4.841269841269841,-81.5079365079365,-10.238095238095237,34.36507936507936,163.57142857142856,6.26984126984127,-13.888888888888888,5.476190476190476,119.44444444444444,3.571428571428571,-13.253968253968253,6.428571428571428,-43.41269841269841,4.523809523809524,21.507936507936506,-85.63492063492063,11.666666666666666,-2.142857142857143,1.0317460317460316,-321.8253968253968
-13.253968253968253,5.7936507936507935,4.523809523809524,5.158730158730158,4.841269841269841,-81.5079365079365,-10.238095238095237,34.36507936507936,163.57142857142856,6.26984126984127,-13.888888888888888,5.476190476190476,119.44444444444444,3.571428571428571,-13.253968253968253,6.428571428571428,-43.41269841269841,4.523809523809524,21.507936507936506,-85.63492063492063,11.666666666666666,-2.142857142857143,1.0317460317460316,-321.8253968253968
-12.936507936507935,4.2063492063492065,4.0476190476190474,5.317460317460317,4.0476190476190474,-87.22222222222221,-10.238095238095237,56.74603174603174,162.46031746031744,5.476190476190476,-13.73015873015873,4.0476190476190474,121.03174603174602,3.4126984126984126,-13.095238095238095,5.476190476190476,-60.079365079365076,4.523809523809524,-29.920634920634917,-325.0,-82.77777777777777,0.7142857142857142,-1.8253968253968254,-321.8253968253968
-12.936507936507935,4.2063492063492065,4.0476190476190474,5.317460317460317,4.0476190476190474,-87.22222222222221,-10.238095238095237,56.74603174603174,162.46031746031744,5.476190476190476,-13.73015873015873,4.0476190476190474,121.03174603174602,3.4126984126984126,-13.095238095238095,5.476190476190476,-60.079365079365076,4.523809523809524,-29.920634920634917,-325.0,-82.77777777777777,0.7142857142857142,-1.8253968253968254,-321.8253968253968
-12.936507936507935,1.984126984126984,1.1904761904761905,5.158730158730158,1.349206349206349,-114.2063492063492,-10.079365079365079,40.079365079365076,160.23809523809524,2.619047619047619,-13.571428571428571,1.6666666666666665,119.44444444444444,0.7142857142857142,-12.936507936507935,2.7777777777777777,-81.5079365079365,4.365079365079365,-24.365079365079364,-264.2063492063492,-39.76190476190476,-1.1904761904761905,-1.0317460317460316,-166.26984126984127
-12.936507936507935,1.984126984126984,1.1904761904761905,5.158730158730158,1.349206349206349,-114.2063492063492,-10.079365079365079,40.079365079365076,160.23809523809524,2.619047619047619,-13.571428571428571,1.6666666666666665,119.44444444444444,0.7142857142857142,-12.936507936507935,2.7777777777777777,-81.5079365079365,4.365079365079365,-24.365079365079364,-264.2063492063492,-39.76190476190476,-1.1904761904761905,-1.0317460317460316,-166.26984126984127
-12.777777777777777,-3.888888888888889,-4.682539682539682,4.841269841269841,-4.523809523809524,-88.65079365079364,-9.761904761904761,40.55555555555555,154.84126984126982,-3.571428571428571,-13.253968253968253,-4.0476190476190474,115.79365079365078,-5.476190476190476,-12.777777777777777,-3.095238095238095,-100.23809523809523,4.2063492063492065,5.7936507936507935,-167.06349206349205,-7.063492063492063,0.23809523809523808,-0.7142857142857142,-166.26984126984127
-12.777777777777777,-3.888888888888889,-4.682539682539682,4.841269841269841,-4.523809523809524,-88.65079365079364,-9.761904761904761,40.55555555555555,154.84126984126982,-3.571428571428571,-13.253968253968253,-4.0476190476190474,115.79365079365078,-5.476190476190476,-12.777777777777777,-3.095238095238095,-100.23809523809523,4.2063492063492065,5.7936507936507935,-167.06349206349205,-7.063492063492063,0.23809523809523808,-0.7142857142857142,-166.26984126984127
-12.619047619047619,-9.285714285714285,-9.761904761904761,4.841269841269841,-9.761904761904761,-11.19047619047619,-9.761904761904761,43.095238095238095,149.76190476190476,-8.809523809523808,-13.095238095238095,-9.444444444444445,112.93650793650794,-10.555555555555555,-12.619047619047619,-8.174603174603174,-97.06349206349206,4.2063492063492065,3.4126984126984126,-165.79365079365078,-9.444444444444445,-0.3968253968253968,-1.1904761904761905,-166.26984126984127
-12.619047619047619,-9.285714285714285,-9.761904761904761,4.841269841269841,-9.761904761904761,-11.19047619047619,-9.761904761904761,43.095238095238095,149.76190476190476,-8.809523809523808,-13.095238095238095,-9.444444444444445,112.93650793650794,-10.555555555555555,-12.619047619047619,-8.174603174603174,-97.06349206349206,4.2063492063492065,3.4126984126984126,-165.79365079365078,-9.444444444444445,-0.3968253968253968,-1.1904761904761905,-166.26984126984127
-12.46031746031746,-10.873015873015872,-11.825396825396824,5.0,-11.507936507936508,13.73015873015873,-9.603174603174603,28.65079365079365,148.015873015873,-10.396825396825395,-12.936507936507935,-11.19047619047619,112.30158730158729,-12.142857142857142,-12.46031746031746,-10.079365079365079,-96.74603174603175,4.2063492063492065,-23.57142857142857,-200.7142857142857,-1.507936507936508,-4.2063492063492065,-1.0317460317460316,-166.26984126984127
-12.46031746031746,-10.873015873015872,-11.825396825396824,5.0,-11.507936507936508,13.73015873015873,-9.603174603174603,28.65079365079365,148.015873015873,-10.396825396825395,-12.936507936507935,-11.19047619047619,112.30158730158729,-12.142857142857142,-12.46031746031746,-10.079365079365079,-96.74603174603175,4.2063492063492065,-23.57142857142857,-200.7142857142857,-1.507936507936508,-4.2063492063492065,-1.0317460317460316,-166.26984126984127
-12.46031746031746,-10.873015873015872,-11.825396825396824,5.0,-11.507936507936508,13.73015873015873,-9.603174603174603,28.65079365079365,148.015873015873,-10.396825396825395,-12.936507936507935,-11.19047619047619,112.30158730158729,-12.142857142857142,-12.46031746031746,-10.079365079365079,-96.74603174603175,4.2063492063492065,-23.57142857142857,-200.7142857142857,-1.507936507936508,-4.2063492063492065,-1.0317460317460316,-166.26984126984127
-12.46031746031746,-10.873015873015872,-11.825396825396824,5.0,-11.507936507936508,13.73015873015873,-9.603174603174603,28.65079365079365,148.015873015873,-10.396825396825395,-12.936507936507935,-11.19047619047619,112.30158730158729,-12.142857142857142,-12.46031746031746,-10.079365079365079,-96.74603174603175,4.2063492063492065,-23.57142857142857,-200.7142857142857,-1.507936507936508,-4.2063492063492065,-1.0317460317460316,-166.26984126984127
-11.031746031746032,7.698412698412698,7.698412698412698,4.682539682539682,7.3809523809523805,50.079365079365076,-8.809523809523808,68.65079365079364,165.95238095238093,8.968253968253968,-11.666666666666666,7.5396825396825395,143.4126984126984,6.428571428571428,-11.19047619047619,9.603174603174603,325.0,3.888888888888889,47.06349206349206,-97.85714285714285,-17.857142857142858,3.4126984126984126,-1.8253968253968254,-321.8253968253968
-11.031746031746032,7.698412698412698,7.698412698412698,4.682539682539682,7.3809523809523805,50.079365079365076,-8.809523809523808,68.65079365079364,165.95238095238093,8.968253968253968,-11.666666666666666,7.5396825396825395,143.4126984126984,6.428571428571428,-11.19047619047619,9.603174603174603,325.0,3.888888888888889,47.06349206349206,-97.85714285714285,-17.857142857142858,3.4126984126984126,-1.8253968253968254,-321.8253968253968
-11.031746031746032,7.698412698412698,7.698412698412698,4.682539682539682,7.3809523809523805,50.079365079365076,-8.809523809523808,68.65079365079364,165.95238095238093,8.968253968253968,-11.666666666666666,7.5396825396825395,143.4126984126984,6.428571428571428,-11.19047619047619,9.603174603174603,325.0,3.888888888888889,47.06349206349206,-97.85714285714285,-17.857142857142858,3.4126984126984126,-1.8253968253968254,-321.8253968253968
-11.031746031746032,7.698412698412698,7.698412698412698,4.682539682539682,7.3809523809523805,50.079365079365076,-8.809523809523808,68.65079365079364,165.95238095238093,8.968253968253968,-11.666666666666666,7.5396825396825395,143.4126984126984,6.428571428571428,-11.19047619047619,9.603174603174603,325.0,3.888888888888889,47.06349206349206,-97.85714285714285,-17.857142857142858,3.4126984126984126,-1.8253968253968254,-321.8253968253968
-9.920634920634921,-4.682539682539682,-4.523809523809524,3.888888888888889,-4.523809523809524,-21.825396825396822,-5.158730158730158,63.095238095238095,151.34920634920633,-3.253968253968254,-10.396825396825395,-5.476190476190476,139.76190476190476,-5.158730158730158,17.063492063492063,-3.571428571428571,325.0,3.571428571428571,-15.0,-318.3333333333333,-143.25396825396825,1.507936507936508,-2.142857142857143,-321.8253968253968
-9.920634920634921,-4.682539682539682,-4.523809523809524,3.888888888888889,-4.523809523809524,-21.825396825396822,-5.158730158730158,63.095238095238095,151.34920634920633,-3.253968253968254,-10.396825396825395,-5.476190476190476,139.76190476190476,-5.158730158730158,17.063492063492063,-3.571428571428571,325.0,3.571428571428571,-15.0,-318.3333333333333,-143.25396825396825,1.507936507936508,-2.142857142857143,-321.8253968253968
93.73015873015872,8.968253968253968,8.174603174603174,7.063492063492063,7.698412698412698,-10.873015873015872,151.34920634920633,24.68253968253968,119.28571428571428,8.809523809523808,61.98412698412698,6.746031746031746,141.03174603174602,6.904761904761904,124.68253968253967,9.761904761904761,325.0,-46.269841269841265,46.42857142857142,96.74603174603175,64.04761904761905,-1.8253968253968254,0.23809523809523808,-321.8253968253968
93.73015873015872,8.968253968253968,8.174603174603174,7.063492063492063,7.698412698412698,-10.873015873015872,151.34920634920633,24.68253968253968,119.28571428571428,8.809523809523808,61.98412698412698,6.746031746031746,141.03174603174602,6.904761904761904,124.68253968253967,9.761904761904761,325.0,-46.269841269841265,46.42857142857142,96.74603174603175,64.04761904761905,-1.8253968253968254,0.23809523809523808,-321.8253968253968
143.88888888888889,5.317460317460317,4.523809523809524,-37.06349206349206,4.523809523809524,-31.19047619047619,146.58730158730157,19.126984126984127,105.31746031746032,5.7936507936507935,141.34920634920636,3.888888888888889,127.85714285714285,4.682539682539682,190.55555555555554,6.111111111111111,288.015873015873,-88.65079365079364,1.984126984126984,-56.269841269841265,-130.55555555555554,0.23809523809523808,-1.0317460317460316,-321.8253968253968
143.88888888888889,5.317460317460317,4.523809523809524,-37.06349206349206,4.523809523809524,-31.19047619047619,146.58730158730157,19.126984126984127,105.31746031746032,5.7936507936507935,141.34920634920636,3.888888888888889,127.85714285714285,4.682539682539682,190.55555555555554,6.111111111111111,288.015873015873,-88.65079365079364,1.984126984126984,-56.269841269841265,-130.55555555555554,0.23809523809523808,-1.0317460317460316,-321.8253968253968
194.2063492063492,1.8253968253968254,1.0317460317460316,-81.19047619047619,1.349206349206349,-51.34920634920635,141.8253968253968,13.73015873015873,91.34920634920634,2.7777777777777777,220.7142857142857,1.0317460317460316,114.68253968253967,2.619047619047619,256.4285714285714,2.619047619047619,251.19047619047618,-131.03174603174602,-42.3015873015873,-209.28571428571428,-325.0,2.3015873015873014,-2.3015873015873014,-166.26984126984127
194.2063492063492,1.8253968253968254,1.0317460317460316,-81.19047619047619,1.349206349206349,-51.34920634920635,141.8253968253968,13.73015873015873,91.34920634920634,2.7777777777777777,220.7142857142857,1.0317460317460316,114.68253968253967,2.619047619047619,256.4285714285714,2.619047619047619,251.19047619047618,-131.03174603174602,-42.3015873015873,-209.28571428571428,-325.0,2.3015873015873014,-2.3015873015873014,-166.26984126984127
-21.03174603174603,-2.7777777777777777,-3.73015873015873,-76.26984126984127,-3.4126984126984126,-67.22222222222221,135.63492063492063,-8.333333333333332,84.68253968253968,-2.619047619047619,-1.984126984126984,-4.841269841269841,108.49206349206348,-2.619047619047619,68.96825396825396,-2.46031746031746,244.68253968253967,-107.53968253968253,-59.92063492063492,-192.14285714285714,-221.98412698412696,-1.6666666666666665,-0.07936507936507936,-166.26984126984127
-21.03174603174603,-2.7777777777777777,-3.73015873015873,-76.26984126984127,-3.4126984126984126,-67.22222222222221,135.63492063492063,-8.333333333333332,84.68253968253968,-2.619047619047619,-1.984126984126984,-4.841269841269841,108.49206349206348,-2.619047619047619,68.96825396825396,-2.46031746031746,244.68253968253967,-107.53968253968253,-59.92063492063492,-192.14285714285714,-221.98412698412696,-1.6666666666666665,-0.07936507936507936,-166.26984126984127
-60.238095238095234,-2.46031746031746,-3.095238095238095,13.888888888888888,-3.571428571428571,38.80952380952381,134.52380952380952,24.206349206349206,82.77777777777777,-2.619047619047619,-64.36507936507937,-4.365079365079365,106.1111111111111,-4.0476190476190474,-55.63492063492063,-2.142857142857143,232.46031746031744,-90.39682539682539,46.11111111111111,-108.17460317460316,75.95238095238095,0.873015873015873,-1.1904761904761905,-166.26984126984127
-60.238095238095234,-2.46031746031746,-3.095238095238095,13.888888888888888,-3.571428571428571,38.80952380952381,134.52380952380952,24.206349206349206,82.77777777777777,-2.619047619047619,-64.36507936507937,-4.365079365079365,106.1111111111111,-4.0476190476190474,-55.63492063492063,-2.142857142857143,232.46031746031744,-90.39682539682539,46.11111111111111,-108.17460317460316,75.95238095238095,0.873015873015873,-1.1904761904761905,-166.26984126984127
99.92063492063491,-3.4126984126984126,-4.523809523809524,-11.666666666666666,-4.682539682539682,28.015873015873016,131.66666666666666,-19.6031746031746,79.92063492063491,-4.0476190476190474,70.07936507936508,-5.476190476190476,102.30158730158729,-4.682539682539682,142.77777777777777,-3.253968253968254,181.03174603174602,-88.65079365079364,-0.07936507936507936,106.9047619047619,14.365079365079364,-3.571428571428571,0.5555555555555556,-166.26984126984127
99.92063492063491,-3.4126984126984126,-4.523809523809524,-11.666666666666666,-4.682539682539682,28.015873015873016,131.66666666666666,-19.6031746031746,79.92063492063491,-4.0476190476190474,70.07936507936508,-5.476190476190476,102.30158730158729,-4.682539682539682,142.77777777777777,-3.253968253968254,181.03174603174602,-88.65079365079364,-0.07936507936507936,106.9047619047619,14.365079365079364,-3.571428571428571,0.5555555555555556,-166.26984126984127
16.26984126984127,6.111111111111111,5.158730158730158,-80.07936507936508,5.317460317460317,-94.2063492063492,110.39682539682539,13.412698412698411,60.71428571428571,6.587301587301587,23.730158730158728,5.7936507936507935,79.6031746031746,7.698412698412698,63.57142857142857,6.587301587301587,-325.0,-103.57142857142857,-24.84126984126984,-164.52380952380952,-191.98412698412696,-1.6666666666666665,0.23809523809523808,-166.26984126984127
16.26984126984127,6.111111111111111,5.158730158730158,-80.07936507936508,5.317460317460317,-94.2063492063492,110.39682539682539,13.412698412698411,60.71428571428571,6.587301587301587,23.730158730158728,5.7936507936507935,79.6031746031746,7.698412698412698,63.57142857142857,6.587301587301587,-325.0,-103.57142857142857,-24.84126984126984,-164.52380952380952,-191.98412698412696,-1.6666666666666665,0.23809523809523808,-166.26984126984127
177.06349206349205,-1.1904761904761905,-1.8253968253968254,-9.761904761904761,-2.142857142857143,-52.14285714285714,102.14285714285714,19.126984126984127,52.93650793650794,-1.349206349206349,128.8095238095238,-1.984126984126984,71.03174603174602,-1.6666666666666665,145.15873015873015,-1.0317460317460316,-325.0,-94.84126984126983,39.76190476190476,54.52380952380952,6.904761904761904,1.1904761904761905,-0.873015873015873,-321.8253968253968
177.06349206349205,-1.1904761904761905,-1.8253968253968254,-9.761904761904761,-2.142857142857143,-52.14285714285714,102.14285714285714,19.126984126984127,52.93650793650794,-1.349206349206349,128.8095238095238,-1.984126984126984,71.03174603174602,-1.6666666666666665,145.15873015873015,-1.0317460317460316,-325.0,-94.84126984126983,39.76190476190476,54.52380952380952,6.904761904761904,1.1904761904761905,-0.873015873015873,-321.8253968253968
-1.1904761904761905,-0.3968253968253968,-1.349206349206349,-93.88888888888889,-1.349206349206349,-63.888888888888886,102.61904761904762,6.111111111111111,52.93650793650794,-0.07936507936507936,0.3968253968253968,-0.873015873015873,71.66666666666666,1.0317460317460316,42.61904761904761,-0.23809523809523808,-325.0,-109.6031746031746,-42.14285714285714,-174.52380952380952,-179.9206349206349,-0.5555555555555556,-0.07936507936507936,-321.8253968253968
-1.1904761904761905,-0.3968253968253968,-1.349206349206349,-93.88888888888889,-1.349206349206349,-63.888888888888886,102.61904761904762,6.111111111111111,52.93650793650794,-0.07936507936507936,0.3968253968253968,-0.873015873015873,71.66666666666666,1.0317460317460316,42.61904761904761,-0.23809523809523808,-325.0,-109.6031746031746,-42.14285714285714,-174.52380952380952,-179.9206349206349,-0.5555555555555556,-0.07936507936507936,-321.8253968253968
81.66666666666666,0.07936507936507936,-0.7142857142857142,-57.22222222222222,-1.1904761904761905,-49.76190476190476,102.30158730158729,-3.095238095238095,53.095238095238095,-0.07936507936507936,57.53968253968254,-0.5555555555555556,70.87301587301587,0.873015873015873,83.88888888888889,0.3968253968253968,-272.9365079365079,-116.26984126984127,-11.666666666666666,-61.98412698412698,-82.77777777777777,-0.7142857142857142,-0.5555555555555556,-321.8253968253968
81.66666666666666,0.07936507936507936,-0.7142857142857142,-57.22222222222222,-1.1904761904761905,-49.76190476190476,102.30158730158729,-3.095238095238095,53.095238095238095,-0.07936507936507936,57.53968253968254,-0.5555555555555556,70.87301587301587,0.873015873015873,83.88888888888889,0.3968253968253968,-272.9365079365079,-116.26984126984127,-11.666666666666666,-61.98412698412698,-82.77777777777777,-0.7142857142857142,-0.5555555555555556,-321.8253968253968
105.79365079365078,1.1904761904761905,0.23809523809523808,-104.52380952380952,0.3968253968253968,-8.65079365079365,102.77777777777777,10.714285714285714,53.73015873015873,1.8253968253968254,125.0,1.1904761904761905,72.3015873015873,3.4126984126984126,145.0,1.507936507936508,-285.1587301587301,-139.44444444444443,-42.460317460317455,-240.07936507936506,-297.22222222222223,1.6666666666666665,-0.873015873015873,-321.8253968253968
105.79365079365078,1.1904761904761905,0.23809523809523808,-104.52380952380952,0.3968253968253968,-8.65079365079365,102.77777777777777,10.714285714285714,53.73015873015873,1.8253968253968254,125.0,1.1904761904761905,72.3015873015873,3.4126984126984126,145.0,1.507936507936508,-285.1587301587301,-139.44444444444443,-42.460317460317455,-240.07936507936506,-297.22222222222223,1.6666666666666665,-0.873015873015873,-321.8253968253968
1.1904761904761905,5.476190476190476,4.2063492063492065,-31.825396825396822,4.0476190476190474,30.555555555555554,105.79365079365078,-19.285714285714285,56.74603174603174,5.476190476190476,-44.36507936507936,4.523809523809524,74.68253968253968,5.158730158730158,1.0317460317460316,5.634920634920634,-272.1428571428571,-107.6984126984127,-0.5555555555555556,4.0476190476190474,42.460317460317455,-1.984126984126984,0.3968253968253968,-321.8253968253968
1.1904761904761905,5.476190476190476,4.2063492063492065,-31.825396825396822,4.0476190476190474,30.555555555555554,105.79365079365078,-19.285714285714285,56.74603174603174,5.476190476190476,-44.36507936507936,4.523809523809524,74.68253968253968,5.158730158730158,1.0317460317460316,5.634920634920634,-272.1428571428571,-107.6984126984127,-0.5555555555555556,4.0476190476190474,42.460317460317455,-1.984126984126984,0.3968253968253968,-321.8253968253968
177.2222222222222,-1.0317460317460316,-1.1904761904761905,-71.66666666666666,-1.507936507936508,38.96825396825397,99.28571428571428,7.3809523809523805,50.71428571428571,-0.5555555555555556,171.5079365079365,-1.0317460317460316,68.65079365079364,0.5555555555555556,177.38095238095238,-0.23809523809523808,-292.77777777777777,-138.65079365079364,-8.333333333333332,-116.26984126984127,-195.79365079365078,2.142857142857143,-1.6666666666666665,-166.26984126984127
177.2222222222222,-1.0317460317460316,-1.1904761904761905,-71.66666666666666,-1.507936507936508,38.96825396825397,99.28571428571428,7.3809523809523805,50.71428571428571,-0.5555555555555556,171.5079365079365,-1.0317460317460316,68.65079365079364,0.5555555555555556,177.38095238095238,-0.23809523809523808,-292.77777777777777,-138.65079365079364,-8.333333333333332,-116.26984126984127,-195.79365079365078,2.142857142857143,-1.6666666666666665,-166.26984126984127
-1.0317460317460316,-0.873015873015873,-2.3015873015873014,-33.41269841269841,-2.3015873015873014,-38.49206349206349,97.53968253968253,-16.11111111111111,49.285714285714285,-1.0317460317460316,-42.460317460317455,-1.984126984126984,67.06349206349206,-1.349206349206349,-4.523809523809524,-0.873015873015873,-325.0,-100.55555555555554,0.7142857142857142,5.158730158730158,33.095238095238095,-1.8253968253968254,0.3968253968253968,-166.26984126984127
-1.0317460317460316,-0.873015873015873,-2.3015873015873014,-33.41269841269841,-2.3015873015873014,-38.49206349206349,97.53968253968253,-16.11111111111111,49.285714285714285,-1.0317460317460316,-42.460317460317455,-1.984126984126984,67.06349206349206,-1.349206349206349,-4.523809523809524,-0.873015873015873,-325.0,-100.55555555555554,0.7142857142857142,5.158730158730158,33.095238095238095,-1.8253968253968254,0.3968253968253968,-166.26984126984127
230.07936507936506,-0.23809523809523808,-0.7142857142857142,-70.23809523809524,-1.1904761904761905,-27.063492063492063,98.33333333333333,-0.23809523809523808,50.39682539682539,0.07936507936507936,212.46031746031744,-0.23809523809523808,68.17460317460318,1.349206349206349,207.2222222222222,0.7142857142857142,4.682539682539682,-141.8253968253968,-11.825396825396824,-92.77777777777777,-195.79365079365078,2.3015873015873014,-1.349206349206349,-166.26984126984127
230.07936507936506,-0.23809523809523808,-0.7142857142857142,-70.23809523809524,-1.1904761904761905,-27.063492063492063,98.33333333333333,-0.23809523809523808,50.39682539682539,0.07936507936507936,212.46031746031744,-0.23809523809523808,68.17460317460318,1.349206349206349,207.2222222222222,0.7142857142857142,4.682539682539682,-141.8253968253968,-11.825396825396824,-92.77777777777777,-195.79365079365078,2.3015873015873014,-1.349206349206349,-166.26984126984127
17.698412698412696,4.682539682539682,3.095238095238095,-31.666666666666664,3.095238095238095,-41.82539682539682,101.82539682539682,-19.6031746031746,53.73015873015873,4.523809523809524,-31.03174603174603,3.888888888888889,71.34920634920634,4.2063492063492065,2.9365079365079363,4.682539682539682,-166.26984126984127,-101.98412698412697,0.3968253968253968,7.857142857142857,35.317460317460316,-1.6666666666666665,-0.23809523809523808,-166.26984126984127
17.698412698412696,4.682539682539682,3.095238095238095,-31.666666666666664,3.095238095238095,-41.82539682539682,101.82539682539682,-19.6031746031746,53.73015873015873,4.523809523809524,-31.03174603174603,3.888888888888889,71.34920634920634,4.2063492063492065,2.9365079365079363,4.682539682539682,-166.26984126984127,-101.98412698412697,0.3968253968253968,7.857142857142857,35.317460317460316,-1.6666666666666665,-0.23809523809523808,-166.26984126984127
229.9206349206349,1.349206349206349,1.1904761904761905,-59.12698412698413,0.7142857142857142,-5.476190476190476,98.80952380952381,13.73015873015873,51.19047619047619,1.8253968253968254,215.15873015873015,1.6666666666666665,68.65079365079364,2.9365079365079363,213.09523809523807,2.142857142857143,-50.39682539682539,-124.2063492063492,3.571428571428571,-90.87301587301587,-192.61904761904762,1.349206349206349,-1.6666666666666665,-166.26984126984127
229.9206349206349,1.349206349206349,1.1904761904761905,-59.12698412698413,0.7142857142857142,-5.476190476190476,98.80952380952381,13.73015873015873,51.19047619047619,1.8253968253968254,215.15873015873015,1.6666666666666665,68.65079365079364,2.9365079365079363,213.09523809523807,2.142857142857143,-50.39682539682539,-124.2063492063492,3.571428571428571,-90.87301587301587,-192.61904761904762,1.349206349206349,-1.6666666666666665,-166.26984126984127
18.174603174603174,2.619047619047619,1.1904761904761905,-40.238095238095234,1.349206349206349,-70.55555555555556,98.17460317460316,-7.3809523809523805,51.19047619047619,2.46031746031746,-21.349206349206348,1.6666666666666665,68.4920634920635,2.3015873015873014,27.857142857142854,2.46031746031746,-244.84126984126982,-83.57142857142857,6.904761904761904,10.079365079365079,14.523809523809524,-2.46031746031746,0.07936507936507936,-321.8253968253968
18.174603174603174,2.619047619047619,1.1904761904761905,-40.238095238095234,1.349206349206349,-70.55555555555556,98.17460317460316,-7.3809523809523805,51.19047619047619,2.46031746031746,-21.349206349206348,1.6666666666666665,68.4920634920635,2.3015873015873014,27.857142857142854,2.46031746031746,-244.84126984126982,-83.57142857142857,6.904761904761904,10.079365079365079,14.523809523809524,-2.46031746031746,0.07936507936507936,-321.8253968253968
109.76190476190476,-0.7142857142857142,-1.507936507936508,-59.92063492063492,-1.507936507936508,-26.587301587301585,95.0,2.619047619047619,47.857142857142854,-0.3968253968253968,88.65079365079364,-1.0317460317460316,65.15873015873015,-0.3968253968253968,116.74603174603173,-0.5555555555555556,-288.8095238095238,-98.96825396825396,0.23809523809523808,-38.49206349206349,-84.84126984126983,-0.23809523809523808,-1.0317460317460316,-321.8253968253968
109.76190476190476,-0.7142857142857142,-1.507936507936508,-59.92063492063492,-1.507936507936508,-26.587301587301585,95.0,2.619047619047619,47.857142857142854,-0.3968253968253968,88.65079365079364,-1.0317460317460316,65.15873015873015,-0.3968253968253968,116.74603174603173,-0.5555555555555556,-288.8095238095238,-98.96825396825396,0.23809523809523808,-38.49206349206349,-84.84126984126983,-0.23809523809523808,-1.0317460317460316,-321.8253968253968
-8.968253968253968,-3.571428571428571,-5.0,-53.25396825396825,-5.158730158730158,-3.73015873015873,90.39682539682539,-18.333333333333332,43.73015873015873,-3.73015873015873,-30.71428571428571,-4.523809523809524,60.71428571428571,-3.73015873015873,-3.095238095238095,-3.571428571428571,-325.0,-87.06349206349206,-6.587301587301587,-1.507936507936508,22.777777777777775,-2.3015873015873014,0.07936507936507936,-321.8253968253968
-8.968253968253968,-3.571428571428571,-5.0,-53.25396825396825,-5.158730158730158,-3.73015873015873,90.39682539682539,-18.333333333333332,43.73015873015873,-3.73015873015873,-30.71428571428571,-4.523809523809524,60.71428571428571,-3.73015873015873,-3.095238095238095,-3.571428571428571,-325.0,-87.06349206349206,-6.587301587301587,-1.507936507936508,22.777777777777775,-2.3015873015873014,0.07936507936507936,-321.8253968253968
90.07936507936508,-0.5555555555555556,-1.8253968253968254,-61.34920634920635,-1.6666666666666665,16.11111111111111,93.57142857142857,-1.507936507936508,46.74603174603175,-0.3968253968253968,84.04761904761904,-0.873015873015873,63.57142857142857,-0.07936507936507936,91.98412698412697,-0.3968253968253968,-166.9047619047619,-99.28571428571428,-0.23809523809523808,-44.68253968253968,-72.46031746031746,-0.873015873015873,-1.0317460317460316,-321.8253968253968
90.07936507936508,-0.5555555555555556,-1.8253968253968254,-61.34920634920635,-1.6666666666666665,16.11111111111111,93.57142857142857,-1.507936507936508,46.74603174603175,-0.3968253968253968,84.04761904761904,-0.873015873015873,63.57142857142857,-0.07936507936507936,91.98412698412697,-0.3968253968253968,-166.9047619047619,-99.28571428571428,-0.23809523809523808,-44.68253968253968,-72.46031746031746,-0.873015873015873,-1.0317460317460316,-321.8253968253968
31.825396825396822,2.46031746031746,1.507936507936508,-3.4126984126984126,1.0317460317460316,-13.73015873015873,95.15873015873015,-8.015873015873016,48.80952380952381,2.3015873015873014,-13.253968253968253,1.1904761904761905,65.79365079365078,1.1904761904761905,5.0,2.9365079365079363,-143.73015873015873,-68.80952380952381,40.87301587301587,114.2063492063492,164.2063492063492,-2.46031746031746,0.3968253968253968,-321.8253968253968
31.825396825396822,2.46031746031746,1.507936507936508,-3.4126984126984126,1.0317460317460316,-13.73015873015873,95.15873015873015,-8.015873015873016,48.80952380952381,2.3015873015873014,-13.253968253968253,1.1904761904761905,65.79365079365078,1.1904761904761905,5.0,2.9365079365079363,-143.73015873015873,-68.80952380952381,40.87301587301587,114.2063492063492,164.2063492063492,-2.46031746031746,0.3968253968253968,-321.8253968253968
138.4920634920635,-2.7777777777777777,-3.253968253968254,-21.507936507936506,-3.73015873015873,-13.73015873015873,90.23809523809523,2.619047619047619,43.888888888888886,-2.7777777777777777,107.22222222222221,-3.4126984126984126,60.238095238095234,-3.253968253968254,110.23809523809523,-2.3015873015873014,-98.96825396825396,-86.9047619047619,38.96825396825397,84.2063492063492,57.698412698412696,-0.23809523809523808,-0.5555555555555556,-166.26984126984127
138.4920634920635,-2.7777777777777777,-3.253968253968254,-21.507936507936506,-3.73015873015873,-13.73015873015873,90.23809523809523,2.619047619047619,43.888888888888886,-2.7777777777777777,107.22222222222221,-3.4126984126984126,60.238095238095234,-3.253968253968254,110.23809523809523,-2.3015873015873014,-98.96825396825396,-86.9047619047619,38.96825396825397,84.2063492063492,57.698412698412696,-0.23809523809523808,-0.5555555555555556,-166.26984126984127
42.77777777777778,-2.142857142857143,-3.253968253968254,-72.14285714285714,-3.253968253968254,-26.587301587301585,90.23809523809523,8.65079365079365,44.047619047619044,-2.142857142857143,47.698412698412696,-2.3015873015873014,60.39682539682539,-1.349206349206349,63.25396825396825,-2.142857142857143,-189.60317460317458,-89.6031746031746,2.7777777777777777,-60.079365079365076,-67.06349206349206,0.23809523809523808,-0.5555555555555556,-166.26984126984127
42.77777777777778,-2.142857142857143,-3.253968253968254,-72.14285714285714,-3.253968253968254,-26.587301587301585,90.23809523809523,8.65079365079365,44.047619047619044,-2.142857142857143,47.698412698412696,-2.3015873015873014,60.39682539682539,-1.349206349206349,63.25396825396825,-2.142857142857143,-189.60317460317458,-89.6031746031746,2.7777777777777777,-60.079365079365076,-67.06349206349206,0.23809523809523808,-0.5555555555555556,-166.26984126984127
-45.95238095238095,1.984126984126984,1.8253968253968254,-78.65079365079364,1.349206349206349,-20.238095238095237,94.2063492063492,32.14285714285714,48.33333333333333,2.619047619047619,-18.96825396825397,2.46031746031746,64.84126984126983,3.571428571428571,-18.49206349206349,3.253968253968254,-314.68253968253964,-89.12698412698413,15.158730158730158,-185.47619047619045,-58.96825396825397,2.3015873015873014,-1.349206349206349,-166.26984126984127
-45.95238095238095,1.984126984126984,1.8253968253968254,-78.65079365079364,1.349206349206349,-20.238095238095237,94.2063492063492,32.14285714285714,48.33333333333333,2.619047619047619,-18.96825396825397,2.46031746031746,64.84126984126983,3.571428571428571,-18.49206349206349,3.253968253968254,-314.68253968253964,-89.12698412698413,15.158730158730158,-185.47619047619045,-58.96825396825397,2.3015873015873014,-1.349206349206349,-166.26984126984127
-223.09523809523807,5.634920634920634,4.0476190476190474,-59.92063492063492,4.0476190476190474,-55.95238095238095,96.58730158730158,7.222222222222221,50.39682539682539,5.634920634920634,-210.7142857142857,4.841269841269841,66.9047619047619,5.476190476190476,-285.6349206349206,5.952380952380952,-325.0,-58.49206349206349,8.174603174603174,-199.44444444444443,157.85714285714286,-2.142857142857143,0.23809523809523808,-166.26984126984127
-223.09523809523807,5.634920634920634,4.0476190476190474,-59.92063492063492,4.0476190476190474,-55.95238095238095,96.58730158730158,7.222222222222221,50.39682539682539,5.634920634920634,-210.7142857142857,4.841269841269841,66.9047619047619,5.476190476190476,-285.6349206349206,5.952380952380952,-325.0,-58.49206349206349,8.174603174603174,-199.44444444444443,157.85714285714286,-2.142857142857143,0.23809523809523808,-166.26984126984127
-38.96825396825397,6.904761904761904,6.428571428571428,-70.55555555555556,5.952380952380952,-26.428571428571427,97.6984126984127,31.349206349206348,52.14285714285714,7.222222222222221,-24.84126984126984,7.063492063492063,68.4920634920635,8.333333333333332,-38.33333333333333,7.698412698412698,-292.1428571428571,-88.33333333333333,21.19047619047619,-184.36507936507937,-24.523809523809522,2.619047619047619,-1.1904761904761905,-166.26984126984127
-38.96825396825397,6.904761904761904,6.428571428571428,-70.55555555555556,5.952380952380952,-26.428571428571427,97.6984126984127,31.349206349206348,52.14285714285714,7.222222222222221,-24.84126984126984,7.063492063492063,68.4920634920635,8.333333333333332,-38.33333333333333,7.698412698412698,-292.1428571428571,-88.33333333333333,21.19047619047619,-184.36507936507937,-24.523809523809522,2.619047619047619,-1.1904761904761905,-166.26984126984127
-55.0,11.031746031746032,9.444444444444445,-71.19047619047619,9.603174603174603,-70.87301587301587,99.76190476190476,3.888888888888889,55.0,10.873015873015872,-57.22222222222222,10.396825396825395,71.19047619047619,10.873015873015872,-8.492063492063492,11.031746031746032,-236.9047619047619,-59.76190476190476,-1.349206349206349,-23.88888888888889,19.76190476190476,-1.984126984126984,0.873015873015873,-321.8253968253968
-55.0,11.031746031746032,9.444444444444445,-71.19047619047619,9.603174603174603,-70.87301587301587,99.76190476190476,3.888888888888889,55.0,10.873015873015872,-57.22222222222222,10.396825396825395,71.19047619047619,10.873015873015872,-8.492063492063492,11.031746031746032,-236.9047619047619,-59.76190476190476,-1.349206349206349,-23.88888888888889,19.76190476190476,-1.984126984126984,0.873015873015873,-321.8253968253968
251.34920634920633,4.682539682539682,4.523809523809524,-83.88888888888889,4.0476190476190474,-14.365079365079364,93.73015873015872,29.6031746031746,49.285714285714285,5.0,261.031746031746,4.841269841269841,65.15873015873015,5.952380952380952,267.22222222222223,5.317460317460317,88.65079365079364,-75.15873015873015,10.873015873015872,-21.984126984126984,-166.9047619047619,2.142857142857143,-1.6666666666666665,-321.8253968253968
251.34920634920633,4.682539682539682,4.523809523809524,-83.88888888888889,4.0476190476190474,-14.365079365079364,93.73015873015872,29.6031746031746,49.285714285714285,5.0,261.031746031746,4.841269841269841,65.15873015873015,5.952380952380952,267.22222222222223,5.317460317460317,88.65079365079364,-75.15873015873015,10.873015873015872,-21.984126984126984,-166.9047619047619,2.142857142857143,-1.6666666666666665,-321.8253968253968
285.3174603174603,-0.3968253968253968,-0.07936507936507936,-38.96825396825397,-1.1904761904761905,-10.238095238095237,88.33333333333333,27.698412698412696,44.047619047619044,-0.5555555555555556,263.4126984126984,-0.7142857142857142,59.6031746031746,-0.07936507936507936,266.58730158730157,0.3968253968253968,146.42857142857142,-60.079365079365076,48.80952380952381,105.47619047619047,-26.587301587301585,2.619047619047619,-1.349206349206349,-321.8253968253968
285.3174603174603,-0.3968253968253968,-0.07936507936507936,-38.96825396825397,-1.1904761904761905,-10.238095238095237,88.33333333333333,27.698412698412696,44.047619047619044,-0.5555555555555556,263.4126984126984,-0.7142857142857142,59.6031746031746,-0.07936507936507936,266.58730158730157,0.3968253968253968,146.42857142857142,-60.079365079365076,48.80952380952381,105.47619047619047,-26.587301587301585,2.619047619047619,-1.349206349206349,-321.8253968253968
213.7301587301587,-5.317460317460317,-5.317460317460317,-79.76190476190476,-5.7936507936507935,-43.57142857142857,82.3015873015873,31.349206349206348,38.49206349206349,-4.523809523809524,234.84126984126982,-4.682539682539682,54.047619047619044,-3.571428571428571,240.2380952380952,-4.365079365079365,165.15873015873015,-63.25396825396825,20.873015873015873,-27.698412698412696,-165.95238095238093,1.507936507936508,-1.349206349206349,-321.8253968253968
213.7301587301587,-5.317460317460317,-5.317460317460317,-79.76190476190476,-5.7936507936507935,-43.57142857142857,82.3015873015873,31.349206349206348,38.49206349206349,-4.523809523809524,234.84126984126982,-4.682539682539682,54.047619047619044,-3.571428571428571,240.2380952380952,-4.365079365079365,165.15873015873015,-63.25396825396825,20.873015873015873,-27.698412698412696,-165.95238095238093,1.507936507936508,-1.349206349206349,-321.8253968253968
246.1111111111111,-6.428571428571428,-6.26984126984127,-35.79365079365079,-7.222222222222221,-42.14285714285714,80.87301587301587,29.126984126984127,37.22222222222222,-5.952380952380952,239.12698412698413,-6.111111111111111,52.61904761904761,-5.952380952380952,239.60317460317458,-5.158730158730158,267.6984126984127,-53.41269841269841,55.15873015873016,101.98412698412697,-19.76190476190476,1.0317460317460316,-0.5555555555555556,-321.8253968253968
246.1111111111111,-6.428571428571428,-6.26984126984127,-35.79365079365079,-7.222222222222221,-42.14285714285714,80.87301587301587,29.126984126984127,37.22222222222222,-5.952380952380952,239.12698412698413,-6.111111111111111,52.61904761904761,-5.952380952380952,239.60317460317458,-5.158730158730158,267.6984126984127,-53.41269841269841,55.15873015873016,101.98412698412697,-19.76190476190476,1.0317460317460316,-0.5555555555555556,-321.8253968253968
211.8253968253968,2.9365079365079363,2.7777777777777777,-67.38095238095238,2.46031746031746,-107.6984126984127,89.12698412698413,33.73015873015873,45.79365079365079,3.253968253968254,234.36507936507934,3.253968253968254,61.03174603174603,4.0476190476190474,233.57142857142856,3.4126984126984126,-113.73015873015872,-64.84126984126983,28.174603174603174,-30.87301587301587,-162.14285714285714,1.507936507936508,-0.7142857142857142,-166.26984126984127
211.8253968253968,2.9365079365079363,2.7777777777777777,-67.38095238095238,2.46031746031746,-107.6984126984127,89.12698412698413,33.73015873015873,45.79365079365079,3.253968253968254,234.36507936507934,3.253968253968254,61.03174603174603,4.0476190476190474,233.57142857142856,3.4126984126984126,-113.73015873015872,-64.84126984126983,28.174603174603174,-30.87301587301587,-162.14285714285714,1.507936507936508,-0.7142857142857142,-166.26984126984127
84.84126984126983,-1.507936507936508,-1.8253968253968254,-68.33333333333333,-2.3015873015873014,-117.6984126984127,83.88888888888889,17.063492063492063,40.87301587301587,-1.1904761904761905,106.74603174603175,-1.6666666666666665,56.11111111111111,-0.7142857142857142,121.5079365079365,-1.0317460317460316,-205.15873015873015,-53.888888888888886,14.523809523809524,-29.285714285714285,-102.14285714285714,-0.3968253968253968,-0.23809523809523808,-166.26984126984127
84.84126984126983,-1.507936507936508,-1.8253968253968254,-68.33333333333333,-2.3015873015873014,-117.6984126984127,83.88888888888889,17.063492063492063,40.87301587301587,-1.1904761904761905,106.74603174603175,-1.6666666666666665,56.11111111111111,-0.7142857142857142,121.5079365079365,-1.0317460317460316,-205.15873015873015,-53.888888888888886,14.523809523809524,-29.285714285714285,-102.14285714285714,-0.3968253968253968,-0.23809523809523808,-166.26984126984127
187.06349206349205,-8.015873015873016,-8.174603174603174,-61.507936507936506,-8.492063492063492,-67.85714285714285,76.74603174603175,25.158730158730158,34.047619047619044,-7.5396825396825395,214.36507936507937,-7.857142857142857,49.12698412698413,-6.904761904761904,201.66666666666666,-7.063492063492063,-29.285714285714285,-68.96825396825396,23.57142857142857,-27.22222222222222,-143.73015873015873,1.0317460317460316,-1.349206349206349,-166.26984126984127
187.06349206349205,-8.015873015873016,-8.174603174603174,-61.507936507936506,-8.492063492063492,-67.85714285714285,76.74603174603175,25.158730158730158,34.047619047619044,-7.5396825396825395,214.36507936507937,-7.857142857142857,49.12698412698413,-6.904761904761904,201.66666666666666,-7.063492063492063,-29.285714285714285,-68.96825396825396,23.57142857142857,-27.22222222222222,-143.73015873015873,1.0317460317460316,-1.349206349206349,-166.26984126984127
211.03174603174602,-7.857142857142857,-7.698412698412698,-16.26984126984127,-8.65079365079365,-55.0,76.58730158730158,21.666666666666664,33.888888888888886,-7.5396825396825395,205.47619047619045,-8.015873015873016,48.650793650793645,-8.174603174603174,190.23809523809524,-6.746031746031746,26.9047619047619,-56.11111111111111,58.17460317460317,103.88888888888889,11.031746031746032,0.3968253968253968,-0.5555555555555556,-166.26984126984127
211.03174603174602,-7.857142857142857,-7.698412698412698,-16.26984126984127,-8.65079365079365,-55.0,76.58730158730158,21.666666666666664,33.888888888888886,-7.5396825396825395,205.47619047619045,-8.015873015873016,48.650793650793645,-8.174603174603174,190.23809523809524,-6.746031746031746,26.9047619047619,-56.11111111111111,58.17460317460317,103.88888888888889,11.031746031746032,0.3968253968253968,-0.5555555555555556,-166.26984126984127
178.96825396825395,0.3968253968253968,0.07936507936507936,-69.28571428571428,-0.07936507936507936,19.92063492063492,84.2063492063492,12.3015873015873,41.666666666666664,0.7142857142857142,204.36507936507937,0.873015873015873,56.42857142857142,1.349206349206349,185.95238095238093,1.1904761904761905,-157.2222222222222,-88.33333333333333,11.984126984126984,-29.920634920634917,-123.73015873015872,1.1904761904761905,-1.349206349206349,-166.26984126984127
178.96825396825395,0.3968253968253968,0.07936507936507936,-69.28571428571428,-0.07936507936507936,19.92063492063492,84.2063492063492,12.3015873015873,41.666666666666664,0.7142857142857142,204.36507936507937,0.873015873015873,56.42857142857142,1.349206349206349,185.95238095238093,1.1904761904761905,-157.2222222222222,-88.33333333333333,11.984126984126984,-29.920634920634917,-123.73015873015872,1.1904761904761905,-1.349206349206349,-166.26984126984127
57.698412698412696,0.7142857142857142,0.07936507936507936,-71.19047619047619,-0.23809523809523808,-1.1904761904761905,83.57142857142857,0.23809523809523808,41.19047619047619,1.1904761904761905,83.88888888888889,0.5555555555555556,56.42857142857142,1.507936507936508,81.66666666666666,1.507936507936508,-204.04761904761904,-76.9047619047619,0.5555555555555556,-34.84126984126984,-70.71428571428571,-0.5555555555555556,-0.5555555555555556,-321.8253968253968
57.698412698412696,0.7142857142857142,0.07936507936507936,-71.19047619047619,-0.23809523809523808,-1.1904761904761905,83.57142857142857,0.23809523809523808,41.19047619047619,1.1904761904761905,83.88888888888889,0.5555555555555556,56.42857142857142,1.507936507936508,81.66666666666666,1.507936507936508,-204.04761904761904,-76.9047619047619,0.5555555555555556,-34.84126984126984,-70.71428571428571,-0.5555555555555556,-0.5555555555555556,-321.8253968253968
168.015873015873,-0.7142857142857142,-1.349206349206349,-103.4126984126984,-1.0317460317460316,-7.857142857142857,81.98412698412697,19.76190476190476,39.92063492063492,-0.07936507936507936,221.03174603174602,0.23809523809523808,54.841269841269835,1.8253968253968254,194.68253968253967,0.07936507936507936,-115.79365079365078,-97.38095238095238,-11.031746031746032,-151.66666666666666,-265.7936507936508,2.3015873015873014,-1.507936507936508,-321.8253968253968
168.015873015873,-0.7142857142857142,-1.349206349206349,-103.4126984126984,-1.0317460317460316,-7.857142857142857,81.98412698412697,19.76190476190476,39.92063492063492,-0.07936507936507936,221.03174603174602,0.23809523809523808,54.841269841269835,1.8253968253968254,194.68253968253967,0.07936507936507936,-115.79365079365078,-97.38095238095238,-11.031746031746032,-151.66666666666666,-265.7936507936508,2.3015873015873014,-1.507936507936508,-321.8253968253968
35.0,2.9365079365079363,1.984126984126984,-108.80952380952381,2.142857142857143,1.1904761904761905,84.84126984126983,10.079365079365079,42.77777777777778,3.571428571428571,84.52380952380952,3.4126984126984126,58.17460317460317,5.158730158730158,83.4126984126984,3.571428571428571,-220.3968253968254,-82.14285714285714,-26.9047619047619,-169.28571428571428,-220.3968253968254,0.3968253968253968,-1.0317460317460316,-321.8253968253968
35.0,2.9365079365079363,1.984126984126984,-108.80952380952381,2.142857142857143,1.1904761904761905,84.84126984126983,10.079365079365079,42.77777777777778,3.571428571428571,84.52380952380952,3.4126984126984126,58.17460317460317,5.158730158730158,83.4126984126984,3.571428571428571,-220.3968253968254,-82.14285714285714,-26.9047619047619,-169.28571428571428,-220.3968253968254,0.3968253968253968,-1.0317460317460316,-321.8253968253968
153.57142857142856,4.523809523809524,4.365079365079365,-62.460317460317455,3.888888888888889,86.26984126984127,85.79365079365078,19.76190476190476,44.2063492063492,5.0,163.4126984126984,5.0,58.49206349206349,5.476190476190476,149.44444444444443,5.317460317460317,-325.0,-75.0,17.539682539682538,-29.444444444444443,-92.93650793650794,2.142857142857143,-1.507936507936508,-321.8253968253968
153.57142857142856,4.523809523809524,4.365079365079365,-62.460317460317455,3.888888888888889,86.26984126984127,85.79365079365078,19.76190476190476,44.2063492063492,5.0,163.4126984126984,5.0,58.49206349206349,5.476190476190476,149.44444444444443,5.317460317460317,-325.0,-75.0,17.539682539682538,-29.444444444444443,-92.93650793650794,2.142857142857143,-1.507936507936508,-321.8253968253968
38.96825396825397,2.142857142857143,1.6666666666666665,-71.66666666666666,1.1904761904761905,75.0,82.61904761904762,8.174603174603174,41.19047619047619,2.46031746031746,48.96825396825397,2.142857142857143,55.79365079365079,2.7777777777777777,58.8095238095238,2.9365079365079363,-325.0,-66.11111111111111,-3.888888888888889,-48.01587301587301,-59.92063492063492,0.07936507936507936,-0.5555555555555556,-321.8253968253968
38.96825396825397,2.142857142857143,1.6666666666666665,-71.66666666666666,1.1904761904761905,75.0,82.61904761904762,8.174603174603174,41.19047619047619,2.46031746031746,48.96825396825397,2.142857142857143,55.79365079365079,2.7777777777777777,58.8095238095238,2.9365079365079363,-325.0,-66.11111111111111,-3.888888888888889,-48.01587301587301,-59.92063492063492,0.07936507936507936,-0.5555555555555556,-321.8253968253968
173.88888888888889,-0.07936507936507936,-0.3968253968253968,-62.14285714285714,-0.873015873015873,72.3015873015873,79.6031746031746,21.03174603174603,38.80952380952381,0.5555555555555556,182.61904761904762,0.3968253968253968,53.25396825396825,1.1904761904761905,173.25396825396825,0.873015873015873,-242.46031746031744,-76.1111111111111,12.3015873015873,-13.73015873015873,-96.58730158730158,1.6666666666666665,-1.0317460317460316,-166.26984126984127
173.88888888888889,-0.07936507936507936,-0.3968253968253968,-62.14285714285714,-0.873015873015873,72.3015873015873,79.6031746031746,21.03174603174603,38.80952380952381,0.5555555555555556,182.61904761904762,0.3968253968253968,53.25396825396825,1.1904761904761905,173.25396825396825,0.873015873015873,-242.46031746031744,-76.1111111111111,12.3015873015873,-13.73015873015873,-96.58730158730158,1.6666666666666665,-1.0317460317460316,-166.26984126984127
58.33333333333333,6.111111111111111,5.476190476190476,-67.06349206349206,4.841269841269841,30.555555555555554,85.15873015873015,11.031746031746032,44.36507936507936,6.111111111111111,63.25396825396825,5.952380952380952,58.96825396825397,7.063492063492063,73.73015873015872,6.904761904761904,-291.66666666666663,-66.58730158730158,-3.73015873015873,-31.825396825396822,-65.15873015873015,-0.5555555555555556,0.3968253968253968,-166.26984126984127
58.33333333333333,6.111111111111111,5.476190476190476,-67.06349206349206,4.841269841269841,30.555555555555554,85.15873015873015,11.031746031746032,44.36507936507936,6.111111111111111,63.25396825396825,5.952380952380952,58.96825396825397,7.063492063492063,73.73015873015872,6.904761904761904,-291.66666666666663,-66.58730158730158,-3.73015873015873,-31.825396825396822,-65.15873015873015,-0.5555555555555556,0.3968253968253968,-166.26984126984127
186.74603174603175,5.476190476190476,5.158730158730158,-54.841269841269835,5.0,1.0317460317460316,84.36507936507937,19.76190476190476,43.888888888888886,5.952380952380952,173.4126984126984,5.952380952380952,58.01587301587301,6.587301587301587,161.5079365079365,6.428571428571428,-170.55555555555554,-83.09523809523809,12.777777777777777,-13.73015873015873,-74.04761904761904,1.984126984126984,-0.873015873015873,-166.26984126984127
186.74603174603175,5.476190476190476,5.158730158730158,-54.841269841269835,5.0,1.0317460317460316,84.36507936507937,19.76190476190476,43.888888888888886,5.952380952380952,173.4126984126984,5.952380952380952,58.01587301587301,6.587301587301587,161.5079365079365,6.428571428571428,-170.55555555555554,-83.09523809523809,12.777777777777777,-13.73015873015873,-74.04761904761904,1.984126984126984,-0.873015873015873,-166.26984126984127
191.03174603174602,3.253968253968254,3.095238095238095,-8.333333333333332,2.3015873015873014,-2.9365079365079363,81.5079365079365,15.95238095238095,41.34920634920635,3.095238095238095,143.4126984126984,3.253968253968254,55.15873015873016,2.9365079365079363,132.93650793650792,4.2063492063492065,-109.6031746031746,-65.95238095238095,47.857142857142854,113.4126984126984,89.28571428571428,0.873015873015873,-0.07936507936507936,-166.26984126984127
191.03174603174602,3.253968253968254,3.095238095238095,-8.333333333333332,2.3015873015873014,-2.9365079365079363,81.5079365079365,15.95238095238095,41.34920634920635,3.095238095238095,143.4126984126984,3.253968253968254,55.15873015873016,2.9365079365079363,132.93650793650792,4.2063492063492065,-109.6031746031746,-65.95238095238095,47.857142857142854,113.4126984126984,89.28571428571428,0.873015873015873,-0.07936507936507936,-166.26984126984127
191.03174603174602,3.253968253968254,3.095238095238095,-8.333333333333332,2.3015873015873014,-2.9365079365079363,81.5079365079365,15.95238095238095,41.34920634920635,3.095238095238095,143.4126984126984,3.253968253968254,55.15873015873016,2.9365079365079363,132.93650793650792,4.2063492063492065,-109.6031746031746,-65.95238095238095,47.857142857142854,113.4126984126984,89.28571428571428,0.873015873015873,-0.07936507936507936,-166.26984126984127
191.03174603174602,3.253968253968254,3.095238095238095,-8.333333333333332,2.3015873015873014,-2.9365079365079363,81.5079365079365,15.95238095238095,41.34920634920635,3.095238095238095,143.4126984126984,3.253968253968254,55.15873015873016,2.9365079365079363,132.93650793650792,4.2063492063492065,-109.6031746031746,-65.95238095238095,47.857142857142854,113.4126984126984,89.28571428571428,0.873015873015873,-0.07936507936507936,-166.26984126984127
191.03174603174602,3.253968253968254,3.095238095238095,-8.333333333333332,2.3015873015873014,-2.9365079365079363,81.5079365079365,15.95238095238095,41.34920634920635,3.095238095238095,143.4126984126984,3.253968253968254,55.15873015873016,2.9365079365079363,132.93650793650792,4.2063492063492065,-109.6031746031746,-65.95238095238095,47.857142857142854,113.4126984126984,89.28571428571428,0.873015873015873,-0.07936507936507936,-321.8253968253968
191.03174603174602,3.253968253968254,3.095238095238095,-8.333333333333332,2.3015873015873014,-2.9365079365079363,81.5079365079365,15.95238095238095,41.34920634920635,3.095238095238095,143.4126984126984,3.253968253968254,55.15873015873016,2.9365079365079363,132.93650793650792,4.2063492063492065,-109.6031746031746,-65.95238095238095,47.857142857142854,113.4126984126984,89.28571428571428,0.873015873015873,-0.07936507936507936,-321.8253968253968
229.44444444444443,1.8253968253968254,1.507936507936508,-58.49206349206349,1.349206349206349,33.095238095238095,78.33333333333333,31.349206349206348,38.80952380952381,2.7777777777777777,221.5079365079365,2.7777777777777777,52.77777777777777,3.73015873015873,203.09523809523807,2.619047619047619,3.888888888888889,-84.2063492063492,-0.7142857142857142,-132.93650793650792,-227.69841269841268,1.6666666666666665,-1.0317460317460316,-321.8253968253968
229.44444444444443,1.8253968253968254,1.507936507936508,-58.49206349206349,1.349206349206349,33.095238095238095,78.33333333333333,31.349206349206348,38.80952380952381,2.7777777777777777,221.5079365079365,2.7777777777777777,52.77777777777777,3.73015873015873,203.09523809523807,2.619047619047619,3.888888888888889,-84.2063492063492,-0.7142857142857142,-132.93650793650792,-227.69841269841268,1.6666666666666665,-1.0317460317460316,-321.8253968253968
-1.1904761904761905,5.634920634920634,4.2063492063492065,9.761904761904761,4.0476190476190474,79.92063492063491,80.23809523809523,-1.349206349206349,40.55555555555555,5.634920634920634,-77.06349206349206,4.682539682539682,54.52380952380952,3.253968253968254,-56.11111111111111,5.158730158730158,-268.4920634920635,-39.12698412698413,19.6031746031746,41.82539682539682,121.98412698412697,-3.4126984126984126,1.8253968253968254,-321.8253968253968
