Fp1[1],Fp2[2],F3[3],F4[4],C3[5],C4[6],P3[7],P4[8],O1[9],O2[10],F7[11],F8[12],T3[13],T4[14],T5[15],T6[16],Fz[17],Pz[18],Cz[19],Pg1[20],Pg2[21],EOGR[22],EOOGL[23],EMG[24]
24.84126984126984,194.84126984126982,151.34920634920633,-7.063492063492063,155.15873015873015,325.0,145.15873015873015,325.0,147.53968253968253,231.66666666666666,52.77777777777777,212.3015873015873,139.76190476190476,204.68253968253967,40.39682539682539,239.44444444444443,10.873015873015872,-25.952380952380953,-325.0,-17.063492063492063,-11.666666666666666,0.23809523809523808,-1.984126984126984,-166.26984126984127
24.84126984126984,194.84126984126982,151.34920634920633,-7.063492063492063,155.15873015873015,325.0,145.15873015873015,325.0,147.53968253968253,231.66666666666666,52.77777777777777,212.3015873015873,139.76190476190476,204.68253968253967,40.39682539682539,239.44444444444443,10.873015873015872,-25.952380952380953,-325.0,-17.063492063492063,-11.666666666666666,0.23809523809523808,-1.984126984126984,-166.26984126984127
23.41269841269841,186.9047619047619,141.03174603174602,-6.428571428571428,145.15873015873015,296.58730158730157,135.63492063492063,325.0,138.015873015873,210.55555555555554,48.96825396825397,199.9206349206349,130.7142857142857,183.88888888888889,37.53968253968254,221.34920634920633,10.396825396825395,-24.206349206349206,-325.0,-15.793650793650793,-11.031746031746032,-0.3968253968253968,-0.23809523809523808,-166.26984126984127
23.41269841269841,186.9047619047619,141.03174603174602,-6.428571428571428,145.15873015873015,296.58730158730157,135.63492063492063,325.0,138.015873015873,210.55555555555554,48.96825396825397,199.9206349206349,130.7142857142857,183.88888888888889,37.53968253968254,221.34920634920633,10.396825396825395,-24.206349206349206,-325.0,-15.793650793650793,-11.031746031746032,-0.3968253968253968,-0.23809523809523808,-166.26984126984127
18.49206349206349,169.60317460317458,115.0,-5.634920634920634,119.44444444444444,-325.0,110.71428571428571,316.74603174603175,113.09523809523809,159.76190476190476,39.12698412698413,171.03174603174602,107.06349206349206,154.36507936507937,29.76190476190476,179.12698412698413,8.65079365079365,-19.6031746031746,-187.53968253968253,-12.936507936507935,-8.968253968253968,0.5555555555555556,1.8253968253968254,-166.26984126984127
18.49206349206349,169.60317460317458,115.0,-5.634920634920634,119.44444444444444,-325.0,110.71428571428571,316.74603174603175,113.09523809523809,159.76190476190476,39.12698412698413,171.03174603174602,107.06349206349206,154.36507936507937,29.76190476190476,179.12698412698413,8.65079365079365,-19.6031746031746,-187.53968253968253,-12.936507936507935,-8.968253968253968,0.5555555555555556,1.8253968253968254,-166.26984126984127
17.698412698412696,165.15873015873015,111.34920634920634,-5.634920634920634,115.63492063492063,-325.0,107.06349206349206,307.22222222222223,109.76190476190476,151.8253968253968,37.857142857142854,165.15873015873015,103.73015873015872,150.07936507936506,28.96825396825397,172.3015873015873,8.174603174603174,-18.96825396825397,-140.23809523809524,-12.619047619047619,-8.65079365079365,-0.07936507936507936,-0.5555555555555556,-166.26984126984127
17.698412698412696,165.15873015873015,111.34920634920634,-5.634920634920634,115.63492063492063,-325.0,107.06349206349206,307.22222222222223,109.76190476190476,151.8253968253968,37.857142857142854,165.15873015873015,103.73015873015872,150.07936507936506,28.96825396825397,172.3015873015873,8.174603174603174,-18.96825396825397,-140.23809523809524,-12.619047619047619,-8.65079365079365,-0.07936507936507936,-0.5555555555555556,-166.26984126984127
17.539682539682538,161.34920634920633,110.39682539682539,-5.634920634920634,114.68253968253967,-325.0,106.1111111111111,304.68253968253964,108.80952380952381,146.58730158730157,37.53968253968254,160.7142857142857,102.77777777777777,146.74603174603175,28.65079365079365,167.53968253968253,8.015873015873016,-18.80952380952381,-128.65079365079364,-12.46031746031746,-8.492063492063492,-1.6666666666666665,3.095238095238095,-166.26984126984127
17.539682539682538,161.34920634920633,110.39682539682539,-5.634920634920634,114.68253968253967,-325.0,106.1111111111111,304.68253968253964,108.80952380952381,146.58730158730157,37.53968253968254,160.7142857142857,102.77777777777777,146.74603174603175,28.65079365079365,167.53968253968253,8.015873015873016,-18.80952380952381,-128.65079365079364,-12.46031746031746,-8.492063492063492,-1.6666666666666665,3.095238095238095,-166.26984126984127
17.539682539682538,161.34920634920633,110.39682539682539,-5.634920634920634,114.68253968253967,-325.0,106.1111111111111,304.68253968253964,108.80952380952381,146.58730158730157,37.53968253968254,160.7142857142857,102.77777777777777,146.74603174603175,28.65079365079365,167.53968253968253,8.015873015873016,-18.80952380952381,-128.65079365079364,-12.46031746031746,-8.492063492063492,-1.6666666666666665,3.095238095238095,-321.8253968253968
17.539682539682538,161.34920634920633,110.39682539682539,-5.634920634920634,114.68253968253967,-325.0,106.1111111111111,304.68253968253964,108.80952380952381,146.58730158730157,37.53968253968254,160.7142857142857,102.77777777777777,146.74603174603175,28.65079365079365,167.53968253968253,8.015873015873016,-18.80952380952381,-128.65079365079364,-12.46031746031746,-8.492063492063492,-1.6666666666666665,3.095238095238095,-321.8253968253968
15.634920634920634,162.46031746031744,99.44444444444444,-5.634920634920634,103.73015873015872,-325.0,95.63492063492063,275.95238095238096,98.33333333333333,138.4920634920635,33.41269841269841,157.85714285714286,92.61904761904762,164.84126984126982,25.79365079365079,160.7142857142857,7.3809523809523805,-17.063492063492063,-24.206349206349206,-11.507936507936508,-8.015873015873016,0.23809523809523808,-2.9365079365079363,-321.8253968253968
15.634920634920634,162.46031746031744,99.44444444444444,-5.634920634920634,103.73015873015872,-325.0,95.63492063492063,275.95238095238096,98.33333333333333,138.4920634920635,33.41269841269841,157.85714285714286,92.61904761904762,164.84126984126982,25.79365079365079,160.7142857142857,7.3809523809523805,-17.063492063492063,-24.206349206349206,-11.507936507936508,-8.015873015873016,0.23809523809523808,-2.9365079365079363,-321.8253968253968
15.317460317460316,169.76190476190476,96.9047619047619,-5.158730158730158,101.5079365079365,-325.0,93.73015873015872,270.07936507936506,96.26984126984127,143.73015873015873,32.77777777777778,165.15873015873015,90.71428571428571,175.63492063492063,25.0,166.9047619047619,7.5396825396825395,-16.904761904761905,36.904761904761905,-11.349206349206348,-8.015873015873016,2.619047619047619,-2.9365079365079363,-321.8253968253968
15.317460317460316,169.76190476190476,96.9047619047619,-5.158730158730158,101.5079365079365,-325.0,93.73015873015872,270.07936507936506,96.26984126984127,143.73015873015873,32.77777777777778,165.15873015873015,90.71428571428571,175.63492063492063,25.0,166.9047619047619,7.5396825396825395,-16.904761904761905,36.904761904761905,-11.349206349206348,-8.015873015873016,2.619047619047619,-2.9365079365079363,-321.8253968253968
15.0,168.8095238095238,95.0,-5.317460317460317,99.28571428571428,-325.0,91.66666666666666,264.2063492063492,94.04761904761904,141.8253968253968,31.98412698412698,163.25396825396825,88.80952380952381,178.17460317460316,24.523809523809522,165.0,7.5396825396825395,-16.587301587301585,11.507936507936508,-11.19047619047619,-7.857142857142857,-1.984126984126984,0.3968253968253968,-321.8253968253968
15.0,168.8095238095238,95.0,-5.317460317460317,99.28571428571428,-325.0,91.66666666666666,264.2063492063492,94.04761904761904,141.8253968253968,31.98412698412698,163.25396825396825,88.80952380952381,178.17460317460316,24.523809523809522,165.0,7.5396825396825395,-16.587301587301585,11.507936507936508,-11.19047619047619,-7.857142857142857,-1.984126984126984,0.3968253968253968,-321.8253968253968
14.682539682539682,172.3015873015873,93.73015873015872,-5.634920634920634,98.17460317460316,-325.0,90.39682539682539,261.031746031746,92.77777777777777,144.36507936507937,31.507936507936506,166.26984126984127,87.6984126984127,182.61904761904762,24.206349206349206,167.53968253968253,7.3809523809523805,-16.26984126984127,64.04761904761905,-11.031746031746032,-7.857142857142857,-0.07936507936507936,-0.23809523809523808,-321.8253968253968
14.682539682539682,172.3015873015873,93.73015873015872,-5.634920634920634,98.17460317460316,-325.0,90.39682539682539,261.031746031746,92.77777777777777,144.36507936507937,31.507936507936506,166.26984126984127,87.6984126984127,182.61904761904762,24.206349206349206,167.53968253968253,7.3809523809523805,-16.26984126984127,64.04761904761905,-11.031746031746032,-7.857142857142857,-0.07936507936507936,-0.23809523809523808,-321.8253968253968
14.523809523809524,173.09523809523807,92.77777777777777,-5.7936507936507935,97.38095238095238,-325.0,89.6031746031746,258.968253968254,91.98412698412697,143.88888888888889,31.19047619047619,166.58730158730157,86.9047619047619,183.57142857142856,23.88888888888889,167.38095238095238,7.222222222222221,-16.26984126984127,126.1111111111111,-10.873015873015872,-7.698412698412698,1.6666666666666665,1.6666666666666665,-166.26984126984127
14.523809523809524,173.09523809523807,92.77777777777777,-5.7936507936507935,97.38095238095238,-325.0,89.6031746031746,258.968253968254,91.98412698412697,143.88888888888889,31.19047619047619,166.58730158730157,86.9047619047619,183.57142857142856,23.88888888888889,167.38095238095238,7.222222222222221,-16.26984126984127,126.1111111111111,-10.873015873015872,-7.698412698412698,1.6666666666666665,1.6666666666666665,-166.26984126984127
14.206349206349206,169.60317460317458,91.03174603174602,-5.476190476190476,95.63492063492063,-325.0,88.01587301587301,254.36507936507934,90.39682539682539,139.6031746031746,30.555555555555554,162.77777777777777,85.31746031746032,182.46031746031744,23.41269841269841,163.25396825396825,7.222222222222221,-15.95238095238095,144.68253968253967,-10.714285714285714,-7.698412698412698,0.5555555555555556,0.873015873015873,-166.26984126984127
14.206349206349206,169.60317460317458,91.03174603174602,-5.476190476190476,95.63492063492063,-325.0,88.01587301587301,254.36507936507934,90.39682539682539,139.6031746031746,30.555555555555554,162.77777777777777,85.31746031746032,182.46031746031744,23.41269841269841,163.25396825396825,7.222222222222221,-15.95238095238095,144.68253968253967,-10.714285714285714,-7.698412698412698,0.5555555555555556,0.873015873015873,-166.26984126984127
13.412698412698411,148.015873015873,85.63492063492063,-5.317460317460317,89.76190476190476,-325.0,82.3015873015873,239.28571428571428,85.0,116.26984126984127,28.96825396825397,139.9206349206349,80.23809523809523,168.8095238095238,22.142857142857142,140.7142857142857,6.587301587301587,-15.0,116.1111111111111,-10.238095238095237,-7.063492063492063,-2.142857142857143,1.6666666666666665,-166.26984126984127
13.412698412698411,148.015873015873,85.63492063492063,-5.317460317460317,89.76190476190476,-325.0,82.3015873015873,239.28571428571428,85.0,116.26984126984127,28.96825396825397,139.9206349206349,80.23809523809523,168.8095238095238,22.142857142857142,140.7142857142857,6.587301587301587,-15.0,116.1111111111111,-10.238095238095237,-7.063492063492063,-2.142857142857143,1.6666666666666665,-166.26984126984127
7.857142857142857,97.6984126984127,-101.82539682539682,159.76190476190476,-117.6984126984127,-3.253968253968254,-17.063492063492063,36.58730158730159,48.80952380952381,76.26984126984127,16.746031746031743,97.6984126984127,-34.84126984126984,109.28571428571428,12.777777777777777,96.74603174603175,4.2063492063492065,155.0,95.95238095238095,157.38095238095238,-4.682539682539682,-0.07936507936507936,0.5555555555555556,-166.26984126984127
7.857142857142857,97.6984126984127,-101.82539682539682,159.76190476190476,-117.6984126984127,-3.253968253968254,-17.063492063492063,36.58730158730159,48.80952380952381,76.26984126984127,16.746031746031743,97.6984126984127,-34.84126984126984,109.28571428571428,12.777777777777777,96.74603174603175,4.2063492063492065,155.0,95.95238095238095,157.38095238095238,-4.682539682539682,-0.07936507936507936,0.5555555555555556,-166.26984126984127
2.3015873015873014,49.285714285714285,-285.6349206349206,325.0,-325.0,289.1269841269841,-119.44444444444444,-163.88888888888889,12.619047619047619,37.22222222222222,4.523809523809524,56.58730158730158,-151.984126984127,49.12698412698413,3.4126984126984126,53.41269841269841,1.6666666666666665,325.0,27.22222222222222,325.0,-2.3015873015873014,-2.7777777777777777,0.7142857142857142,-166.26984126984127
2.3015873015873014,49.285714285714285,-285.6349206349206,325.0,-325.0,289.1269841269841,-119.44444444444444,-163.88888888888889,12.619047619047619,37.22222222222222,4.523809523809524,56.58730158730158,-151.984126984127,49.12698412698413,3.4126984126984126,53.41269841269841,1.6666666666666665,325.0,27.22222222222222,325.0,-2.3015873015873014,-2.7777777777777777,0.7142857142857142,-166.26984126984127
1.984126984126984,46.42857142857142,-281.984126984127,325.0,-325.0,306.58730158730157,-122.6190476190476,-161.984126984127,12.3015873015873,34.2063492063492,4.523809523809524,52.77777777777777,-154.04761904761904,47.53968253968254,3.253968253968254,49.285714285714285,1.8253968253968254,325.0,-5.7936507936507935,325.0,-1.984126984126984,1.6666666666666665,-1.8253968253968254,-321.8253968253968
1.984126984126984,46.42857142857142,-281.984126984127,325.0,-325.0,306.58730158730157,-122.6190476190476,-161.984126984127,12.3015873015873,34.2063492063492,4.523809523809524,52.77777777777777,-154.04761904761904,47.53968253968254,3.253968253968254,49.285714285714285,1.8253968253968254,325.0,-5.7936507936507935,325.0,-1.984126984126984,1.6666666666666665,-1.8253968253968254,-321.8253968253968
1.984126984126984,46.42857142857142,-281.984126984127,325.0,-325.0,306.58730158730157,-122.6190476190476,-161.984126984127,12.3015873015873,34.2063492063492,4.523809523809524,52.77777777777777,-154.04761904761904,47.53968253968254,3.253968253968254,49.285714285714285,1.8253968253968254,325.0,-5.7936507936507935,325.0,-1.984126984126984,1.6666666666666665,-1.8253968253968254,-321.8253968253968
1.984126984126984,46.42857142857142,-281.984126984127,325.0,-325.0,306.58730158730157,-122.6190476190476,-161.984126984127,12.3015873015873,34.2063492063492,4.523809523809524,52.77777777777777,-154.04761904761904,47.53968253968254,3.253968253968254,49.285714285714285,1.8253968253968254,325.0,-5.7936507936507935,325.0,-1.984126984126984,1.6666666666666665,-1.8253968253968254,-321.8253968253968
1.984126984126984,46.42857142857142,-281.984126984127,325.0,-325.0,306.58730158730157,-122.6190476190476,-161.984126984127,12.3015873015873,34.2063492063492,4.523809523809524,52.77777777777777,-154.04761904761904,47.53968253968254,3.253968253968254,49.285714285714285,1.8253968253968254,325.0,-5.7936507936507935,325.0,-1.984126984126984,1.6666666666666665,-1.8253968253968254,-321.8253968253968
1.984126984126984,46.42857142857142,-281.984126984127,325.0,-325.0,306.58730158730157,-122.6190476190476,-161.984126984127,12.3015873015873,34.2063492063492,4.523809523809524,52.77777777777777,-154.04761904761904,47.53968253968254,3.253968253968254,49.285714285714285,1.8253968253968254,325.0,-5.7936507936507935,325.0,-1.984126984126984,1.6666666666666665,-1.8253968253968254,-321.8253968253968
1.984126984126984,46.42857142857142,-281.984126984127,325.0,-325.0,306.58730158730157,-122.6190476190476,-161.984126984127,12.3015873015873,34.2063492063492,4.523809523809524,52.77777777777777,-154.04761904761904,47.53968253968254,3.253968253968254,49.285714285714285,1.8253968253968254,325.0,-5.7936507936507935,325.0,-1.984126984126984,1.6666666666666665,-1.8253968253968254,-321.8253968253968
1.984126984126984,46.42857142857142,-281.984126984127,325.0,-325.0,306.58730158730157,-122.6190476190476,-161.984126984127,12.3015873015873,34.2063492063492,4.523809523809524,52.77777777777777,-154.04761904761904,47.53968253968254,3.253968253968254,49.285714285714285,1.8253968253968254,325.0,-5.7936507936507935,325.0,-1.984126984126984,1.6666666666666665,-1.8253968253968254,-321.8253968253968
1.984126984126984,46.42857142857142,-281.984126984127,325.0,-325.0,306.58730158730157,-122.6190476190476,-161.984126984127,12.3015873015873,34.2063492063492,4.523809523809524,52.77777777777777,-154.04761904761904,47.53968253968254,3.253968253968254,49.285714285714285,1.8253968253968254,325.0,-5.7936507936507935,325.0,-1.984126984126984,1.6666666666666665,-1.8253968253968254,-321.8253968253968
1.984126984126984,46.42857142857142,-281.984126984127,325.0,-325.0,306.58730158730157,-122.6190476190476,-161.984126984127,12.3015873015873,34.2063492063492,4.523809523809524,52.77777777777777,-154.04761904761904,47.53968253968254,3.253968253968254,49.285714285714285,1.8253968253968254,325.0,-5.7936507936507935,325.0,-1.984126984126984,1.6666666666666665,-1.8253968253968254,-321.8253968253968
1.984126984126984,46.42857142857142,-281.984126984127,325.0,-325.0,306.58730158730157,-122.6190476190476,-161.984126984127,12.3015873015873,34.2063492063492,4.523809523809524,52.77777777777777,-154.04761904761904,47.53968253968254,3.253968253968254,49.285714285714285,1.8253968253968254,325.0,-5.7936507936507935,325.0,-1.984126984126984,1.6666666666666665,-1.8253968253968254,-166.26984126984127
1.984126984126984,46.42857142857142,-281.984126984127,325.0,-325.0,306.58730158730157,-122.6190476190476,-161.984126984127,12.3015873015873,34.2063492063492,4.523809523809524,52.77777777777777,-154.04761904761904,47.53968253968254,3.253968253968254,49.285714285714285,1.8253968253968254,325.0,-5.7936507936507935,325.0,-1.984126984126984,1.6666666666666665,-1.8253968253968254,-166.26984126984127
1.8253968253968254,44.84126984126984,-237.38095238095238,325.0,-313.0952380952381,315.7936507936508,-148.96825396825395,-137.06349206349205,-156.42857142857142,29.444444444444443,3.888888888888889,45.63492063492063,-168.65079365079364,36.74603174603175,2.7777777777777777,43.57142857142857,1.349206349206349,325.0,13.412698412698411,325.0,-1.8253968253968254,1.984126984126984,-1.0317460317460316,-166.26984126984127
1.8253968253968254,44.84126984126984,-237.38095238095238,325.0,-313.0952380952381,315.7936507936508,-148.96825396825395,-137.06349206349205,-156.42857142857142,29.444444444444443,3.888888888888889,45.63492063492063,-168.65079365079364,36.74603174603175,2.7777777777777777,43.57142857142857,1.349206349206349,325.0,13.412698412698411,325.0,-1.8253968253968254,1.984126984126984,-1.0317460317460316,-166.26984126984127
-262.77777777777777,-40.55555555555555,127.06349206349206,183.09523809523807,-262.77777777777777,320.39682539682536,166.74603174603175,-296.58730158730157,-282.77777777777777,-277.38095238095235,115.63492063492063,57.698412698412696,-323.73015873015873,182.93650793650792,-222.14285714285714,46.11111111111111,127.38095238095238,128.8095238095238,-222.77777777777777,-304.2063492063492,168.65079365079364,243.7301587301587,62.3015873015873,-166.26984126984127
-262.77777777777777,-40.55555555555555,127.06349206349206,183.09523809523807,-262.77777777777777,320.39682539682536,166.74603174603175,-296.58730158730157,-282.77777777777777,-277.38095238095235,115.63492063492063,57.698412698412696,-323.73015873015873,182.93650793650792,-222.14285714285714,46.11111111111111,127.38095238095238,128.8095238095238,-222.77777777777777,-304.2063492063492,168.65079365079364,243.7301587301587,62.3015873015873,-166.26984126984127
-262.77777777777777,-40.55555555555555,127.06349206349206,183.09523809523807,-262.77777777777777,320.39682539682536,166.74603174603175,-296.58730158730157,-282.77777777777777,-277.38095238095235,115.63492063492063,57.698412698412696,-323.73015873015873,182.93650793650792,-222.14285714285714,46.11111111111111,127.38095238095238,128.8095238095238,-222.77777777777777,-304.2063492063492,168.65079365079364,243.7301587301587,62.3015873015873,-166.26984126984127
-262.77777777777777,-40.55555555555555,127.06349206349206,183.09523809523807,-262.77777777777777,320.39682539682536,166.74603174603175,-296.58730158730157,-282.77777777777777,-277.38095238095235,115.63492063492063,57.698412698412696,-323.73015873015873,182.93650793650792,-222.14285714285714,46.11111111111111,127.38095238095238,128.8095238095238,-222.77777777777777,-304.2063492063492,168.65079365079364,243.7301587301587,62.3015873015873,-166.26984126984127
-262.77777777777777,-40.55555555555555,127.06349206349206,183.09523809523807,-262.77777777777777,320.39682539682536,166.74603174603175,-296.58730158730157,-282.77777777777777,-277.38095238095235,115.63492063492063,57.698412698412696,-323.73015873015873,182.93650793650792,-222.14285714285714,46.11111111111111,127.38095238095238,128.8095238095238,-222.77777777777777,-304.2063492063492,168.65079365079364,243.7301587301587,62.3015873015873,-166.26984126984127
-262.77777777777777,-40.55555555555555,127.06349206349206,183.09523809523807,-262.77777777777777,320.39682539682536,166.74603174603175,-296.58730158730157,-282.77777777777777,-277.38095238095235,115.63492063492063,57.698412698412696,-323.73015873015873,182.93650793650792,-222.14285714285714,46.11111111111111,127.38095238095238,128.8095238095238,-222.77777777777777,-304.2063492063492,168.65079365079364,243.7301587301587,62.3015873015873,-166.26984126984127
-262.77777777777777,-40.55555555555555,127.06349206349206,183.09523809523807,-262.77777777777777,320.39682539682536,166.74603174603175,-296.58730158730157,-282.77777777777777,-277.38095238095235,115.63492063492063,57.698412698412696,-323.73015873015873,182.93650793650792,-222.14285714285714,46.11111111111111,127.38095238095238,128.8095238095238,-222.77777777777777,-304.2063492063492,168.65079365079364,243.7301587301587,62.3015873015873,-321.8253968253968
-262.77777777777777,-40.55555555555555,127.06349206349206,183.09523809523807,-262.77777777777777,320.39682539682536,166.74603174603175,-296.58730158730157,-282.77777777777777,-277.38095238095235,115.63492063492063,57.698412698412696,-323.73015873015873,182.93650793650792,-222.14285714285714,46.11111111111111,127.38095238095238,128.8095238095238,-222.77777777777777,-304.2063492063492,168.65079365079364,243.7301587301587,62.3015873015873,-321.8253968253968
-262.77777777777777,-40.55555555555555,127.06349206349206,183.09523809523807,-262.77777777777777,320.39682539682536,166.74603174603175,-296.58730158730157,-282.77777777777777,-277.38095238095235,115.63492063492063,57.698412698412696,-323.73015873015873,182.93650793650792,-222.14285714285714,46.11111111111111,127.38095238095238,128.8095238095238,-222.77777777777777,-304.2063492063492,168.65079365079364,243.7301587301587,62.3015873015873,-321.8253968253968
-262.77777777777777,-40.55555555555555,127.06349206349206,183.09523809523807,-262.77777777777777,320.39682539682536,166.74603174603175,-296.58730158730157,-282.77777777777777,-277.38095238095235,115.63492063492063,57.698412698412696,-323.73015873015873,182.93650793650792,-222.14285714285714,46.11111111111111,127.38095238095238,128.8095238095238,-222.77777777777777,-304.2063492063492,168.65079365079364,243.7301587301587,62.3015873015873,-321.8253968253968
-262.77777777777777,-40.55555555555555,127.06349206349206,183.09523809523807,-262.77777777777777,320.39682539682536,166.74603174603175,-296.58730158730157,-282.77777777777777,-277.38095238095235,115.63492063492063,57.698412698412696,-323.73015873015873,182.93650793650792,-222.14285714285714,46.11111111111111,127.38095238095238,128.8095238095238,-222.77777777777777,-304.2063492063492,168.65079365079364,243.7301587301587,62.3015873015873,-321.8253968253968
-262.77777777777777,-40.55555555555555,127.06349206349206,183.09523809523807,-262.77777777777777,320.39682539682536,166.74603174603175,-296.58730158730157,-282.77777777777777,-277.38095238095235,115.63492063492063,57.698412698412696,-323.73015873015873,182.93650793650792,-222.14285714285714,46.11111111111111,127.38095238095238,128.8095238095238,-222.77777777777777,-304.2063492063492,168.65079365079364,243.7301587301587,62.3015873015873,-321.8253968253968
-262.77777777777777,-40.55555555555555,127.06349206349206,183.09523809523807,-262.77777777777777,320.39682539682536,166.74603174603175,-296.58730158730157,-282.77777777777777,-277.38095238095235,115.63492063492063,57.698412698412696,-323.73015873015873,182.93650793650792,-222.14285714285714,46.11111111111111,127.38095238095238,128.8095238095238,-222.77777777777777,-304.2063492063492,168.65079365079364,243.7301587301587,62.3015873015873,-321.8253968253968
-262.77777777777777,-40.55555555555555,127.06349206349206,183.09523809523807,-262.77777777777777,320.39682539682536,166.74603174603175,-296.58730158730157,-282.77777777777777,-277.38095238095235,115.63492063492063,57.698412698412696,-323.73015873015873,182.93650793650792,-222.14285714285714,46.11111111111111,127.38095238095238,128.8095238095238,-222.77777777777777,-304.2063492063492,168.65079365079364,243.7301587301587,62.3015873015873,-321.8253968253968
-291.19047619047615,-0.873015873015873,45.63492063492063,136.58730158730157,-161.19047619047618,202.61904761904762,-1.984126984126984,-72.77777777777777,-219.76190476190476,-120.55555555555554,-86.1111111111111,48.33333333333333,-259.44444444444446,-38.17460317460317,-247.06349206349205,45.0,-48.01587301587301,110.07936507936508,-86.9047619047619,-105.0,188.96825396825395,121.98412698412697,31.19047619047619,-321.8253968253968
-291.19047619047615,-0.873015873015873,45.63492063492063,136.58730158730157,-161.19047619047618,202.61904761904762,-1.984126984126984,-72.77777777777777,-219.76190476190476,-120.55555555555554,-86.1111111111111,48.33333333333333,-259.44444444444446,-38.17460317460317,-247.06349206349205,45.0,-48.01587301587301,110.07936507936508,-86.9047619047619,-105.0,188.96825396825395,121.98412698412697,31.19047619047619,-321.8253968253968
-319.4444444444444,38.80952380952381,-35.79365079365079,90.23809523809523,-59.6031746031746,85.0,-170.7142857142857,151.03174603174602,-156.74603174603175,36.269841269841265,-287.85714285714283,39.12698412698413,-195.0,-259.2857142857143,-271.984126984127,43.888888888888886,-223.25396825396825,91.34920634920634,48.96825396825397,94.36507936507935,209.28571428571428,0.3968253968253968,0.07936507936507936,-166.26984126984127
-319.4444444444444,38.80952380952381,-35.79365079365079,90.23809523809523,-59.6031746031746,85.0,-170.7142857142857,151.03174603174602,-156.74603174603175,36.269841269841265,-287.85714285714283,39.12698412698413,-195.0,-259.2857142857143,-271.984126984127,43.888888888888886,-223.25396825396825,91.34920634920634,48.96825396825397,94.36507936507935,209.28571428571428,0.3968253968253968,0.07936507936507936,-166.26984126984127
-319.4444444444444,38.80952380952381,-35.79365079365079,90.23809523809523,-59.6031746031746,85.0,-170.7142857142857,151.03174603174602,-156.74603174603175,36.269841269841265,-287.85714285714283,39.12698412698413,-195.0,-259.2857142857143,-271.984126984127,43.888888888888886,-223.25396825396825,91.34920634920634,48.96825396825397,94.36507936507935,209.28571428571428,0.3968253968253968,0.07936507936507936,-166.26984126984127
-319.4444444444444,38.80952380952381,-35.79365079365079,90.23809523809523,-59.6031746031746,85.0,-170.7142857142857,151.03174603174602,-156.74603174603175,36.269841269841265,-287.85714285714283,39.12698412698413,-195.0,-259.2857142857143,-271.984126984127,43.888888888888886,-223.25396825396825,91.34920634920634,48.96825396825397,94.36507936507935,209.28571428571428,0.3968253968253968,0.07936507936507936,-166.26984126984127
-298.3333333333333,31.825396825396822,-33.41269841269841,84.52380952380952,-55.95238095238095,73.88888888888889,-159.6031746031746,123.88888888888889,-146.42857142857142,29.920634920634917,-269.9206349206349,31.19047619047619,-182.14285714285714,-241.03174603174602,-254.84126984126982,38.01587301587301,-208.65079365079364,85.47619047619047,41.03174603174603,88.17460317460316,195.3174603174603,0.23809523809523808,0.07936507936507936,-166.26984126984127
-298.3333333333333,31.825396825396822,-33.41269841269841,84.52380952380952,-55.95238095238095,73.88888888888889,-159.6031746031746,123.88888888888889,-146.42857142857142,29.920634920634917,-269.9206349206349,31.19047619047619,-182.14285714285714,-241.03174603174602,-254.84126984126982,38.01587301587301,-208.65079365079364,85.47619047619047,41.03174603174603,88.17460317460316,195.3174603174603,0.23809523809523808,0.07936507936507936,-166.26984126984127
-134.52380952380952,6.111111111111111,-16.26984126984127,37.53968253968254,-26.9047619047619,-1.984126984126984,-72.93650793650794,176.9047619047619,-67.38095238095238,7.063492063492063,-126.58730158730158,-0.3968253968253968,-82.14285714285714,-103.57142857142857,-119.12698412698413,9.285714285714285,-94.68253968253968,39.44444444444444,-69.44444444444444,39.76190476190476,85.79365079365078,-3.253968253968254,-0.5555555555555556,-166.26984126984127
-134.52380952380952,6.111111111111111,-16.26984126984127,37.53968253968254,-26.9047619047619,-1.984126984126984,-72.93650793650794,176.9047619047619,-67.38095238095238,7.063492063492063,-126.58730158730158,-0.3968253968253968,-82.14285714285714,-103.57142857142857,-119.12698412698413,9.285714285714285,-94.68253968253968,39.44444444444444,-69.44444444444444,39.76190476190476,85.79365079365078,-3.253968253968254,-0.5555555555555556,-166.26984126984127
-91.66666666666666,3.4126984126984126,67.85714285714285,25.79365079365079,24.523809523809522,-33.41269841269841,-50.39682539682539,129.28571428571428,-46.58730158730158,3.095238095238095,-87.53968253968253,-3.4126984126984126,-56.11111111111111,-66.58730158730158,-82.3015873015873,4.2063492063492065,-65.0,27.38095238095238,-23.095238095238095,31.507936507936506,58.17460317460317,-2.142857142857143,0.3968253968253968,-166.26984126984127
-91.66666666666666,3.4126984126984126,67.85714285714285,25.79365079365079,24.523809523809522,-33.41269841269841,-50.39682539682539,129.28571428571428,-46.58730158730158,3.095238095238095,-87.53968253968253,-3.4126984126984126,-56.11111111111111,-66.58730158730158,-82.3015873015873,4.2063492063492065,-65.0,27.38095238095238,-23.095238095238095,31.507936507936506,58.17460317460317,-2.142857142857143,0.3968253968253968,-166.26984126984127
-48.80952380952381,0.7142857142857142,151.984126984127,14.047619047619047,76.1111111111111,-64.68253968253968,-27.698412698412696,81.66666666666666,-25.634920634920633,-0.873015873015873,-48.33333333333333,-6.428571428571428,-29.920634920634917,-29.6031746031746,-45.476190476190474,-0.873015873015873,-35.15873015873016,15.317460317460316,23.253968253968253,23.253968253968253,30.71428571428571,-1.0317460317460316,1.349206349206349,-321.8253968253968
-48.80952380952381,0.7142857142857142,151.984126984127,14.047619047619047,76.1111111111111,-64.68253968253968,-27.698412698412696,81.66666666666666,-25.634920634920633,-0.873015873015873,-48.33333333333333,-6.428571428571428,-29.920634920634917,-29.6031746031746,-45.476190476190474,-0.873015873015873,-35.15873015873016,15.317460317460316,23.253968253968253,23.253968253968253,30.71428571428571,-1.0317460317460316,1.349206349206349,-321.8253968253968
-48.80952380952381,0.7142857142857142,151.984126984127,14.047619047619047,76.1111111111111,-64.68253968253968,-27.698412698412696,81.66666666666666,-25.634920634920633,-0.873015873015873,-48.33333333333333,-6.428571428571428,-29.920634920634917,-29.6031746031746,-45.476190476190474,-0.873015873015873,-35.15873015873016,15.317460317460316,23.253968253968253,23.253968253968253,30.71428571428571,-1.0317460317460316,1.349206349206349,-321.8253968253968
-48.80952380952381,0.7142857142857142,151.984126984127,14.047619047619047,76.1111111111111,-64.68253968253968,-27.698412698412696,81.66666666666666,-25.634920634920633,-0.873015873015873,-48.33333333333333,-6.428571428571428,-29.920634920634917,-29.6031746031746,-45.476190476190474,-0.873015873015873,-35.15873015873016,15.317460317460316,23.253968253968253,23.253968253968253,30.71428571428571,-1.0317460317460316,1.349206349206349,-321.8253968253968
-48.80952380952381,0.7142857142857142,151.984126984127,14.047619047619047,76.1111111111111,-64.68253968253968,-27.698412698412696,81.66666666666666,-25.634920634920633,-0.873015873015873,-48.33333333333333,-6.428571428571428,-29.920634920634917,-29.6031746031746,-45.476190476190474,-0.873015873015873,-35.15873015873016,15.317460317460316,23.253968253968253,23.253968253968253,30.71428571428571,-1.0317460317460316,1.349206349206349,-321.8253968253968
-48.80952380952381,0.7142857142857142,151.984126984127,14.047619047619047,76.1111111111111,-64.68253968253968,-27.698412698412696,81.66666666666666,-25.634920634920633,-0.873015873015873,-48.33333333333333,-6.428571428571428,-29.920634920634917,-29.6031746031746,-45.476190476190474,-0.873015873015873,-35.15873015873016,15.317460317460316,23.253968253968253,23.253968253968253,30.71428571428571,-1.0317460317460316,1.349206349206349,-321.8253968253968
-48.80952380952381,0.7142857142857142,151.984126984127,14.047619047619047,76.1111111111111,-64.68253968253968,-27.698412698412696,81.66666666666666,-25.634920634920633,-0.873015873015873,-48.33333333333333,-6.428571428571428,-29.920634920634917,-29.6031746031746,-45.476190476190474,-0.873015873015873,-35.15873015873016,15.317460317460316,23.253968253968253,23.253968253968253,30.71428571428571,-1.0317460317460316,1.349206349206349,-321.8253968253968
-48.80952380952381,0.7142857142857142,151.984126984127,14.047619047619047,76.1111111111111,-64.68253968253968,-27.698412698412696,81.66666666666666,-25.634920634920633,-0.873015873015873,-48.33333333333333,-6.428571428571428,-29.920634920634917,-29.6031746031746,-45.476190476190474,-0.873015873015873,-35.15873015873016,15.317460317460316,23.253968253968253,23.253968253968253,30.71428571428571,-1.0317460317460316,1.349206349206349,-321.8253968253968
-46.58730158730158,4.0476190476190474,156.26984126984127,13.253968253968253,89.44444444444444,-53.888888888888886,-26.587301587301585,95.0,-24.68253968253968,0.7142857142857142,-46.269841269841265,-3.73015873015873,-28.65079365079365,-24.365079365079364,-43.73015873015873,1.0317460317460316,-33.73015873015873,14.682539682539682,22.619047619047617,9.444444444444445,29.285714285714285,0.873015873015873,0.5555555555555556,-321.8253968253968
-46.58730158730158,4.0476190476190474,156.26984126984127,13.253968253968253,89.44444444444444,-53.888888888888886,-26.587301587301585,95.0,-24.68253968253968,0.7142857142857142,-46.269841269841265,-3.73015873015873,-28.65079365079365,-24.365079365079364,-43.73015873015873,1.0317460317460316,-33.73015873015873,14.682539682539682,22.619047619047617,9.444444444444445,29.285714285714285,0.873015873015873,0.5555555555555556,-321.8253968253968
-44.047619047619044,10.079365079365079,165.47619047619045,12.619047619047619,109.44444444444444,-72.77777777777777,-25.158730158730158,86.42857142857143,-23.41269841269841,7.5396825396825395,-43.888888888888886,3.571428571428571,-26.9047619047619,35.95238095238095,-41.34920634920635,7.3809523809523805,-31.666666666666664,13.888888888888888,-6.587301587301587,-16.428571428571427,27.38095238095238,-1.984126984126984,0.3968253968253968,-166.26984126984127
-44.047619047619044,10.079365079365079,165.47619047619045,12.619047619047619,109.44444444444444,-72.77777777777777,-25.158730158730158,86.42857142857143,-23.41269841269841,7.5396825396825395,-43.888888888888886,3.571428571428571,-26.9047619047619,35.95238095238095,-41.34920634920635,7.3809523809523805,-31.666666666666664,13.888888888888888,-6.587301587301587,-16.428571428571427,27.38095238095238,-1.984126984126984,0.3968253968253968,-166.26984126984127
-43.57142857142857,17.539682539682538,168.65079365079364,12.46031746031746,115.95238095238095,-23.730158730158728,-24.68253968253968,122.14285714285714,-22.936507936507937,10.238095238095237,-43.41269841269841,8.333333333333332,-26.428571428571427,-35.476190476190474,-40.714285714285715,10.079365079365079,-31.03174603174603,13.73015873015873,-43.73015873015873,-103.57142857142857,26.9047619047619,2.3015873015873014,-1.6666666666666665,-166.26984126984127
-43.57142857142857,17.539682539682538,168.65079365079364,12.46031746031746,115.95238095238095,-23.730158730158728,-24.68253968253968,122.14285714285714,-22.936507936507937,10.238095238095237,-43.41269841269841,8.333333333333332,-26.428571428571427,-35.476190476190474,-40.714285714285715,10.079365079365079,-31.03174603174603,13.73015873015873,-43.73015873015873,-103.57142857142857,26.9047619047619,2.3015873015873014,-1.6666666666666665,-166.26984126984127
-35.476190476190474,-0.3968253968253968,159.12698412698413,10.238095238095237,132.77777777777777,-38.33333333333333,-0.873015873015873,98.96825396825396,-19.126984126984127,-2.7777777777777777,-35.79365079365079,-5.952380952380952,-21.507936507936506,246.1111111111111,-33.73015873015873,-2.9365079365079363,-25.634920634920633,11.349206349206348,51.19047619047619,-39.44444444444444,22.142857142857142,0.7142857142857142,-0.23809523809523808,-166.26984126984127
-35.476190476190474,-0.3968253968253968,159.12698412698413,10.238095238095237,132.77777777777777,-38.33333333333333,-0.873015873015873,98.96825396825396,-19.126984126984127,-2.7777777777777777,-35.79365079365079,-5.952380952380952,-21.507936507936506,246.1111111111111,-33.73015873015873,-2.9365079365079363,-25.634920634920633,11.349206349206348,51.19047619047619,-39.44444444444444,22.142857142857142,0.7142857142857142,-0.23809523809523808,-166.26984126984127
-29.285714285714285,-6.904761904761904,155.15873015873015,8.968253968253968,147.69841269841268,-47.53968253968254,0.873015873015873,66.74603174603175,-15.95238095238095,-8.333333333333332,-29.920634920634917,-10.079365079365079,-18.015873015873016,325.0,-28.49206349206349,-7.698412698412698,-21.507936507936506,9.761904761904761,23.095238095238095,-52.460317460317455,18.333333333333332,-2.9365079365079363,1.1904761904761905,-166.26984126984127
-29.285714285714285,-6.904761904761904,155.15873015873015,8.968253968253968,147.69841269841268,-47.53968253968254,0.873015873015873,66.74603174603175,-15.95238095238095,-8.333333333333332,-29.920634920634917,-10.079365079365079,-18.015873015873016,325.0,-28.49206349206349,-7.698412698412698,-21.507936507936506,9.761904761904761,23.095238095238095,-52.460317460317455,18.333333333333332,-2.9365079365079363,1.1904761904761905,-166.26984126984127
-13.095238095238095,-1.8253968253968254,123.25396825396825,4.0476190476190474,152.46031746031744,19.6031746031746,325.0,58.96825396825397,89.44444444444444,-2.142857142857143,-13.888888888888888,-263.4126984126984,-7.3809523809523805,325.0,-13.253968253968253,-2.142857142857143,218.015873015873,4.523809523809524,14.84126984126984,-147.2222222222222,-36.11111111111111,1.349206349206349,-3.253968253968254,-166.26984126984127
-13.095238095238095,-1.8253968253968254,123.25396825396825,4.0476190476190474,152.46031746031744,19.6031746031746,325.0,58.96825396825397,89.44444444444444,-2.142857142857143,-13.888888888888888,-263.4126984126984,-7.3809523809523805,325.0,-13.253968253968253,-2.142857142857143,218.015873015873,4.523809523809524,14.84126984126984,-147.2222222222222,-36.11111111111111,1.349206349206349,-3.253968253968254,-166.26984126984127
-3.4126984126984126,3.888888888888889,114.04761904761904,-18.333333333333332,143.09523809523807,27.698412698412696,325.0,58.33333333333333,126.26984126984127,2.9365079365079363,43.888888888888886,-204.68253968253967,52.3015873015873,279.44444444444446,61.82539682539682,3.4126984126984126,271.5079365079365,-39.6031746031746,1.8253968253968254,-225.63492063492063,-165.3174603174603,1.8253968253968254,-2.619047619047619,-321.8253968253968
-3.4126984126984126,3.888888888888889,114.04761904761904,-18.333333333333332,143.09523809523807,27.698412698412696,325.0,58.33333333333333,126.26984126984127,2.9365079365079363,43.888888888888886,-204.68253968253967,52.3015873015873,279.44444444444446,61.82539682539682,3.4126984126984126,271.5079365079365,-39.6031746031746,1.8253968253968254,-225.63492063492063,-165.3174603174603,1.8253968253968254,-2.619047619047619,-321.8253968253968
-1.6666666666666665,7.063492063492063,104.68253968253968,-15.317460317460316,133.25396825396825,17.063492063492063,325.0,43.41269841269841,163.73015873015873,8.333333333333332,45.79365079365079,-144.68253968253967,114.04761904761904,279.44444444444446,64.2063492063492,9.126984126984127,325.0,-56.11111111111111,14.84126984126984,-192.46031746031744,-128.96825396825395,-0.3968253968253968,-0.3968253968253968,-321.8253968253968
-1.6666666666666665,7.063492063492063,104.68253968253968,-15.317460317460316,133.25396825396825,17.063492063492063,325.0,43.41269841269841,163.73015873015873,8.333333333333332,45.79365079365079,-144.68253968253967,114.04761904761904,279.44444444444446,64.2063492063492,9.126984126984127,325.0,-56.11111111111111,14.84126984126984,-192.46031746031744,-128.96825396825395,-0.3968253968253968,-0.3968253968253968,-321.8253968253968
1.6666666666666665,13.888888888888888,108.65079365079364,-40.079365079365076,137.22222222222223,0.7142857142857142,287.22222222222223,38.80952380952381,168.8095238095238,13.253968253968253,33.57142857142857,-141.5079365079365,121.98412698412697,248.65079365079364,61.03174603174603,13.73015873015873,283.0952380952381,-78.96825396825396,-33.095238095238095,-320.55555555555554,-278.8095238095238,0.7142857142857142,-0.7142857142857142,-321.8253968253968
1.6666666666666665,13.888888888888888,108.65079365079364,-40.079365079365076,137.22222222222223,0.7142857142857142,287.22222222222223,38.80952380952381,168.8095238095238,13.253968253968253,33.57142857142857,-141.5079365079365,121.98412698412697,248.65079365079364,61.03174603174603,13.73015873015873,283.0952380952381,-78.96825396825396,-33.095238095238095,-320.55555555555554,-278.8095238095238,0.7142857142857142,-0.7142857142857142,-321.8253968253968
13.253968253968253,4.841269841269841,102.61904761904762,7.063492063492063,131.03174603174602,-9.761904761904761,325.0,25.634920634920633,165.0,8.174603174603174,19.76190476190476,-138.96825396825395,120.23809523809523,325.0,41.03174603174603,8.809523809523808,325.0,-56.269841269841265,44.2063492063492,-81.66666666666666,-25.158730158730158,-1.1904761904761905,0.23809523809523808,-321.8253968253968
13.253968253968253,4.841269841269841,102.61904761904762,7.063492063492063,131.03174603174602,-9.761904761904761,325.0,25.634920634920633,165.0,8.174603174603174,19.76190476190476,-138.96825396825395,120.23809523809523,325.0,41.03174603174603,8.809523809523808,325.0,-56.269841269841265,44.2063492063492,-81.66666666666666,-25.158730158730158,-1.1904761904761905,0.23809523809523808,-321.8253968253968
-10.079365079365079,11.507936507936508,104.52380952380952,-43.888888888888886,133.25396825396825,-10.238095238095237,277.38095238095235,39.6031746031746,167.53968253968253,10.873015873015872,12.619047619047619,-136.58730158730157,125.47619047619047,247.53968253968253,51.19047619047619,11.349206349206348,308.8095238095238,-92.14285714285714,-38.49206349206349,-321.66666666666663,-274.68253968253964,0.7142857142857142,-0.5555555555555556,-321.8253968253968
-10.079365079365079,11.507936507936508,104.52380952380952,-43.888888888888886,133.25396825396825,-10.238095238095237,277.38095238095235,39.6031746031746,167.53968253968253,10.873015873015872,12.619047619047619,-136.58730158730157,125.47619047619047,247.53968253968253,51.19047619047619,11.349206349206348,308.8095238095238,-92.14285714285714,-38.49206349206349,-321.66666666666663,-274.68253968253964,0.7142857142857142,-0.5555555555555556,-321.8253968253968
-6.746031746031746,0.5555555555555556,97.06349206349206,2.619047619047619,124.68253968253967,-29.285714285714285,325.0,23.095238095238095,161.66666666666666,4.0476190476190474,-0.5555555555555556,-134.2063492063492,121.19047619047619,324.04761904761904,18.65079365079365,4.682539682539682,325.0,-77.85714285714285,30.396825396825395,-89.28571428571428,0.3968253968253968,-2.7777777777777777,0.07936507936507936,-166.26984126984127
-6.746031746031746,0.5555555555555556,97.06349206349206,2.619047619047619,124.68253968253967,-29.285714285714285,325.0,23.095238095238095,161.66666666666666,4.0476190476190474,-0.5555555555555556,-134.2063492063492,121.19047619047619,324.04761904761904,18.65079365079365,4.682539682539682,325.0,-77.85714285714285,30.396825396825395,-89.28571428571428,0.3968253968253968,-2.7777777777777777,0.07936507936507936,-166.26984126984127
-12.619047619047619,10.079365079365079,101.5079365079365,-64.68253968253968,129.28571428571428,-26.746031746031743,188.17460317460316,22.3015873015873,167.85714285714286,10.555555555555555,-20.71428571428571,-132.14285714285714,129.12698412698413,245.0,-5.317460317460317,10.555555555555555,325.0,-95.95238095238095,-62.77777777777777,-325.0,-250.3968253968254,-0.5555555555555556,0.07936507936507936,-166.26984126984127
-12.619047619047619,10.079365079365079,101.5079365079365,-64.68253968253968,129.28571428571428,-26.746031746031743,188.17460317460316,22.3015873015873,167.85714285714286,10.555555555555555,-20.71428571428571,-132.14285714285714,129.12698412698413,245.0,-5.317460317460317,10.555555555555555,325.0,-95.95238095238095,-62.77777777777777,-325.0,-250.3968253968254,-0.5555555555555556,0.07936507936507936,-166.26984126984127
39.285714285714285,-2.3015873015873014,43.888888888888886,-64.52380952380952,60.079365079365076,-34.36507936507936,182.93650793650792,-9.285714285714285,117.22222222222221,2.3015873015873014,-23.88888888888889,65.0,135.95238095238093,132.61904761904762,16.904761904761905,2.7777777777777777,109.12698412698413,-85.15873015873015,6.111111111111111,92.77777777777777,127.85714285714285,-2.619047619047619,1.0317460317460316,-166.26984126984127
39.285714285714285,-2.3015873015873014,43.888888888888886,-64.52380952380952,60.079365079365076,-34.36507936507936,182.93650793650792,-9.285714285714285,117.22222222222221,2.3015873015873014,-23.88888888888889,65.0,135.95238095238093,132.61904761904762,16.904761904761905,2.7777777777777777,109.12698412698413,-85.15873015873015,6.111111111111111,92.77777777777777,127.85714285714285,-2.619047619047619,1.0317460317460316,-166.26984126984127
39.285714285714285,-2.3015873015873014,43.888888888888886,-64.52380952380952,60.079365079365076,-34.36507936507936,182.93650793650792,-9.285714285714285,117.22222222222221,2.3015873015873014,-23.88888888888889,65.0,135.95238095238093,132.61904761904762,16.904761904761905,2.7777777777777777,109.12698412698413,-85.15873015873015,6.111111111111111,92.77777777777777,127.85714285714285,-2.619047619047619,1.0317460317460316,-166.26984126984127
39.285714285714285,-2.3015873015873014,43.888888888888886,-64.52380952380952,60.079365079365076,-34.36507936507936,182.93650793650792,-9.285714285714285,117.22222222222221,2.3015873015873014,-23.88888888888889,65.0,135.95238095238093,132.61904761904762,16.904761904761905,2.7777777777777777,109.12698412698413,-85.15873015873015,6.111111111111111,92.77777777777777,127.85714285714285,-2.619047619047619,1.0317460317460316,-166.26984126984127
84.68253968253968,-2.9365079365079363,37.06349206349206,-58.8095238095238,52.77777777777777,-29.6031746031746,191.98412698412696,-2.46031746031746,105.0,1.0317460317460316,31.825396825396822,195.0,124.04761904761904,111.19047619047619,63.888888888888886,1.984126984126984,-3.253968253968254,-87.85714285714285,24.365079365079364,134.2063492063492,147.2222222222222,-2.7777777777777777,-0.3968253968253968,-166.26984126984127
84.68253968253968,-2.9365079365079363,37.06349206349206,-58.8095238095238,52.77777777777777,-29.6031746031746,191.98412698412696,-2.46031746031746,105.0,1.0317460317460316,31.825396825396822,195.0,124.04761904761904,111.19047619047619,63.888888888888886,1.984126984126984,-3.253968253968254,-87.85714285714285,24.365079365079364,134.2063492063492,147.2222222222222,-2.7777777777777777,-0.3968253968253968,-166.26984126984127
130.07936507936506,-3.571428571428571,30.396825396825395,-52.93650793650794,45.63492063492063,-24.84126984126984,201.19047619047618,4.523809523809524,92.77777777777777,-0.07936507936507936,87.53968253968253,325.0,112.30158730158729,89.76190476190476,111.03174603174602,1.1904761904761905,-115.63492063492063,-90.55555555555556,42.77777777777778,175.63492063492063,166.74603174603175,-2.9365079365079363,-1.8253968253968254,-321.8253968253968
130.07936507936506,-3.571428571428571,30.396825396825395,-52.93650793650794,45.63492063492063,-24.84126984126984,201.19047619047618,4.523809523809524,92.77777777777777,-0.07936507936507936,87.53968253968253,325.0,112.30158730158729,89.76190476190476,111.03174603174602,1.1904761904761905,-115.63492063492063,-90.55555555555556,42.77777777777778,175.63492063492063,166.74603174603175,-2.9365079365079363,-1.8253968253968254,-321.8253968253968
137.22222222222223,-9.920634920634921,23.730158730158728,-53.41269841269841,38.80952380952381,-30.71428571428571,195.95238095238093,3.73015873015873,85.47619047619047,-6.587301587301587,86.42857142857143,325.0,104.84126984126983,88.96825396825396,107.22222222222221,-5.476190476190476,-40.079365079365076,-92.93650793650794,41.666666666666664,180.55555555555554,165.3174603174603,-3.095238095238095,-1.8253968253968254,-321.8253968253968
137.22222222222223,-9.920634920634921,23.730158730158728,-53.41269841269841,38.80952380952381,-30.71428571428571,195.95238095238093,3.73015873015873,85.47619047619047,-6.587301587301587,86.42857142857143,325.0,104.84126984126983,88.96825396825396,107.22222222222221,-5.476190476190476,-40.079365079365076,-92.93650793650794,41.666666666666664,180.55555555555554,165.3174603174603,-3.095238095238095,-1.8253968253968254,-321.8253968253968
144.52380952380952,-16.26984126984127,17.22222222222222,-53.73015873015873,32.14285714285714,-36.42857142857142,190.7142857142857,2.9365079365079363,78.17460317460316,-13.095238095238095,85.47619047619047,325.0,97.38095238095238,88.17460317460316,103.57142857142857,-11.984126984126984,35.476190476190474,-95.15873015873015,40.55555555555555,185.63492063492063,163.88888888888889,-3.253968253968254,-1.6666666666666665,-321.8253968253968
144.52380952380952,-16.26984126984127,17.22222222222222,-53.73015873015873,32.14285714285714,-36.42857142857142,190.7142857142857,2.9365079365079363,78.17460317460316,-13.095238095238095,85.47619047619047,325.0,97.38095238095238,88.17460317460316,103.57142857142857,-11.984126984126984,35.476190476190474,-95.15873015873015,40.55555555555555,185.63492063492063,163.88888888888889,-3.253968253968254,-1.6666666666666665,-321.8253968253968
282.46031746031747,0.23809523809523808,28.96825396825397,-122.6190476190476,43.41269841269841,8.333333333333332,118.8095238095238,12.936507936507935,88.96825396825396,-1.0317460317460316,259.9206349206349,209.76190476190476,107.6984126984127,2.619047619047619,247.85714285714283,-58.01587301587301,-49.76190476190476,-131.34920634920636,-5.317460317460317,-17.063492063492063,-124.84126984126983,2.9365079365079363,-2.9365079365079363,-321.8253968253968
282.46031746031747,0.23809523809523808,28.96825396825397,-122.6190476190476,43.41269841269841,8.333333333333332,118.8095238095238,12.936507936507935,88.96825396825396,-1.0317460317460316,259.9206349206349,209.76190476190476,107.6984126984127,2.619047619047619,247.85714285714283,-58.01587301587301,-49.76190476190476,-131.34920634920636,-5.317460317460317,-17.063492063492063,-124.84126984126983,2.9365079365079363,-2.9365079365079363,-321.8253968253968
6.26984126984127,0.7142857142857142,30.238095238095237,-141.5079365079365,44.36507936507936,-28.809523809523807,-62.14285714285714,-5.7936507936507935,89.76190476190476,1.507936507936508,4.682539682539682,149.9206349206349,110.07936507936508,17.38095238095238,45.15873015873016,-242.46031746031744,-256.4285714285714,-107.22222222222221,-40.87301587301587,-66.26984126984127,-81.34920634920634,-0.07936507936507936,1.507936507936508,-321.8253968253968
6.26984126984127,0.7142857142857142,30.238095238095237,-141.5079365079365,44.36507936507936,-28.809523809523807,-62.14285714285714,-5.7936507936507935,89.76190476190476,1.507936507936508,4.682539682539682,149.9206349206349,110.07936507936508,17.38095238095238,45.15873015873016,-242.46031746031744,-256.4285714285714,-107.22222222222221,-40.87301587301587,-66.26984126984127,-81.34920634920634,-0.07936507936507936,1.507936507936508,-321.8253968253968
199.28571428571428,-5.476190476190476,24.523809523809522,-80.71428571428571,39.285714285714285,3.095238095238095,158.17460317460316,4.0476190476190474,84.2063492063492,-3.888888888888889,173.57142857142856,280.39682539682536,103.88888888888889,39.44444444444444,173.09523809523807,-159.28571428571428,-6.746031746031746,-117.38095238095238,26.587301587301585,98.17460317460316,26.428571428571427,-1.1904761904761905,-2.142857142857143,-166.26984126984127
199.28571428571428,-5.476190476190476,24.523809523809522,-80.71428571428571,39.285714285714285,3.095238095238095,158.17460317460316,4.0476190476190474,84.2063492063492,-3.888888888888889,173.57142857142856,280.39682539682536,103.88888888888889,39.44444444444444,173.09523809523807,-159.28571428571428,-6.746031746031746,-117.38095238095238,26.587301587301585,98.17460317460316,26.428571428571427,-1.1904761904761905,-2.142857142857143,-166.26984126984127
104.04761904761904,-1.8253968253968254,27.22222222222222,-107.22222222222221,41.82539682539682,-9.126984126984127,48.49206349206349,-5.7936507936507935,86.1111111111111,-1.0317460317460316,87.53968253968253,151.8253968253968,105.95238095238095,6.587301587301587,102.46031746031746,-217.53968253968253,-153.25396825396825,-119.12698412698413,-7.063492063492063,8.492063492063492,-34.047619047619044,-0.3968253968253968,0.07936507936507936,-166.26984126984127
104.04761904761904,-1.8253968253968254,27.22222222222222,-107.22222222222221,41.82539682539682,-9.126984126984127,48.49206349206349,-5.7936507936507935,86.1111111111111,-1.0317460317460316,87.53968253968253,151.8253968253968,105.95238095238095,6.587301587301587,102.46031746031746,-217.53968253968253,-153.25396825396825,-119.12698412698413,-7.063492063492063,8.492063492063492,-34.047619047619044,-0.3968253968253968,0.07936507936507936,-166.26984126984127
192.77777777777777,-15.95238095238095,15.0,-29.76190476190476,29.6031746031746,18.80952380952381,179.12698412698413,-14.206349206349206,74.36507936507937,-12.619047619047619,100.07936507936508,325.0,92.46031746031746,89.12698412698413,102.93650793650794,-277.6984126984127,-60.55555555555555,-100.07936507936508,60.39682539682539,183.4126984126984,165.15873015873015,-2.9365079365079363,-1.507936507936508,-166.26984126984127
192.77777777777777,-15.95238095238095,15.0,-29.76190476190476,29.6031746031746,18.80952380952381,179.12698412698413,-14.206349206349206,74.36507936507937,-12.619047619047619,100.07936507936508,325.0,92.46031746031746,89.12698412698413,102.93650793650794,-277.6984126984127,-60.55555555555555,-100.07936507936508,60.39682539682539,183.4126984126984,165.15873015873015,-2.9365079365079363,-1.507936507936508,-166.26984126984127
65.95238095238095,-8.492063492063492,21.507936507936506,-68.65079365079364,35.476190476190474,18.80952380952381,55.317460317460316,-20.238095238095237,79.6031746031746,-5.476190476190476,2.46031746031746,325.0,98.80952380952381,97.06349206349206,33.25396825396825,-301.3492063492063,-66.26984126984127,-99.28571428571428,14.365079365079364,98.01587301587301,110.07936507936508,-3.095238095238095,0.23809523809523808,-166.26984126984127
65.95238095238095,-8.492063492063492,21.507936507936506,-68.65079365079364,35.476190476190474,18.80952380952381,55.317460317460316,-20.238095238095237,79.6031746031746,-5.476190476190476,2.46031746031746,325.0,98.80952380952381,97.06349206349206,33.25396825396825,-301.3492063492063,-66.26984126984127,-99.28571428571428,14.365079365079364,98.01587301587301,110.07936507936508,-3.095238095238095,0.23809523809523808,-166.26984126984127
83.88888888888889,1.0317460317460316,28.333333333333332,-122.30158730158729,41.82539682539682,15.158730158730158,19.126984126984127,-1.6666666666666665,84.84126984126983,2.3015873015873014,61.19047619047619,319.1269841269841,103.88888888888889,50.87301587301587,91.34920634920634,-325.0,160.3968253968254,-113.73015873015872,-20.07936507936508,-8.809523809523808,-27.857142857142854,-0.23809523809523808,-0.07936507936507936,-166.26984126984127
83.88888888888889,1.0317460317460316,28.333333333333332,-122.30158730158729,41.82539682539682,15.158730158730158,19.126984126984127,-1.6666666666666665,84.84126984126983,2.3015873015873014,61.19047619047619,319.1269841269841,103.88888888888889,50.87301587301587,91.34920634920634,-325.0,160.3968253968254,-113.73015873015872,-20.07936507936508,-8.809523809523808,-27.857142857142854,-0.23809523809523808,-0.07936507936507936,-166.26984126984127
-101.34920634920634,-3.095238095238095,26.11111111111111,-83.4126984126984,39.44444444444444,-7.857142857142857,-106.74603174603175,-6.111111111111111,82.61904761904762,0.23809523809523808,-121.03174603174602,325.0,101.5079365079365,96.1111111111111,-107.22222222222221,-325.0,34.2063492063492,-89.28571428571428,6.587301587301587,4.365079365079365,149.28571428571428,-2.3015873015873014,0.7142857142857142,-321.8253968253968
-101.34920634920634,-3.095238095238095,26.11111111111111,-83.4126984126984,39.44444444444444,-7.857142857142857,-106.74603174603175,-6.111111111111111,82.61904761904762,0.23809523809523808,-121.03174603174602,325.0,101.5079365079365,96.1111111111111,-107.22222222222221,-325.0,34.2063492063492,-89.28571428571428,6.587301587301587,4.365079365079365,149.28571428571428,-2.3015873015873014,0.7142857142857142,-321.8253968253968
-137.53968253968253,-0.3968253968253968,24.047619047619047,-79.76190476190476,35.95238095238095,-33.095238095238095,-120.07936507936508,-11.825396825396824,74.84126984126983,1.8253968253968254,-115.31746031746032,317.85714285714283,93.57142857142857,69.6031746031746,-105.79365079365078,-313.4126984126984,-126.26984126984127,-93.88888888888889,-11.666666666666666,-52.61904761904761,66.26984126984127,-1.1904761904761905,0.23809523809523808,-321.8253968253968
-137.53968253968253,-0.3968253968253968,24.047619047619047,-79.76190476190476,35.95238095238095,-33.095238095238095,-120.07936507936508,-11.825396825396824,74.84126984126983,1.8253968253968254,-115.31746031746032,317.85714285714283,93.57142857142857,69.6031746031746,-105.79365079365078,-313.4126984126984,-126.26984126984127,-93.88888888888889,-11.666666666666666,-52.61904761904761,66.26984126984127,-1.1904761904761905,0.23809523809523808,-321.8253968253968
-159.6031746031746,5.7936507936507935,24.523809523809522,-118.96825396825396,34.84126984126984,-65.0,-118.17460317460316,-25.79365079365079,70.07936507936508,6.746031746031746,-101.98412698412697,310.7142857142857,88.80952380952381,51.34920634920635,-54.047619047619044,-301.8253968253968,-325.0,-102.77777777777777,-70.55555555555556,-129.9206349206349,-114.52380952380952,0.3968253968253968,1.0317460317460316,-321.8253968253968
-159.6031746031746,5.7936507936507935,24.523809523809522,-118.96825396825396,34.84126984126984,-65.0,-118.17460317460316,-25.79365079365079,70.07936507936508,6.746031746031746,-101.98412698412697,310.7142857142857,88.80952380952381,51.34920634920635,-54.047619047619044,-301.8253968253968,-325.0,-102.77777777777777,-70.55555555555556,-129.9206349206349,-114.52380952380952,0.3968253968253968,1.0317460317460316,-321.8253968253968
-159.6031746031746,5.7936507936507935,24.523809523809522,-118.96825396825396,34.84126984126984,-65.0,-118.17460317460316,-25.79365079365079,70.07936507936508,6.746031746031746,-101.98412698412697,310.7142857142857,88.80952380952381,51.34920634920635,-54.047619047619044,-301.8253968253968,-325.0,-102.77777777777777,-70.55555555555556,-129.9206349206349,-114.52380952380952,0.3968253968253968,1.0317460317460316,-321.8253968253968
-159.6031746031746,5.7936507936507935,24.523809523809522,-118.96825396825396,34.84126984126984,-65.0,-118.17460317460316,-25.79365079365079,70.07936507936508,6.746031746031746,-101.98412698412697,310.7142857142857,88.80952380952381,51.34920634920635,-54.047619047619044,-301.8253968253968,-325.0,-102.77777777777777,-70.55555555555556,-129.9206349206349,-114.52380952380952,0.3968253968253968,1.0317460317460316,-321.8253968253968
-159.6031746031746,5.7936507936507935,24.523809523809522,-118.96825396825396,34.84126984126984,-65.0,-118.17460317460316,-25.79365079365079,70.07936507936508,6.746031746031746,-101.98412698412697,310.7142857142857,88.80952380952381,51.34920634920635,-54.047619047619044,-301.8253968253968,-325.0,-102.77777777777777,-70.55555555555556,-129.9206349206349,-114.52380952380952,0.3968253968253968,1.0317460317460316,-321.8253968253968
-159.6031746031746,5.7936507936507935,24.523809523809522,-118.96825396825396,34.84126984126984,-65.0,-118.17460317460316,-25.79365079365079,70.07936507936508,6.746031746031746,-101.98412698412697,310.7142857142857,88.80952380952381,51.34920634920635,-54.047619047619044,-301.8253968253968,-325.0,-102.77777777777777,-70.55555555555556,-129.9206349206349,-114.52380952380952,0.3968253968253968,1.0317460317460316,-321.8253968253968
-159.6031746031746,5.7936507936507935,24.523809523809522,-118.96825396825396,34.84126984126984,-65.0,-118.17460317460316,-25.79365079365079,70.07936507936508,6.746031746031746,-101.98412698412697,310.7142857142857,88.80952380952381,51.34920634920635,-54.047619047619044,-301.8253968253968,-325.0,-102.77777777777777,-70.55555555555556,-129.9206349206349,-114.52380952380952,0.3968253968253968,1.0317460317460316,-166.26984126984127
-159.6031746031746,5.7936507936507935,24.523809523809522,-118.96825396825396,34.84126984126984,-65.0,-118.17460317460316,-25.79365079365079,70.07936507936508,6.746031746031746,-101.98412698412697,310.7142857142857,88.80952380952381,51.34920634920635,-54.047619047619044,-301.8253968253968,-325.0,-102.77777777777777,-70.55555555555556,-129.9206349206349,-114.52380952380952,0.3968253968253968,1.0317460317460316,-166.26984126984127
-159.6031746031746,5.7936507936507935,24.523809523809522,-118.96825396825396,34.84126984126984,-65.0,-118.17460317460316,-25.79365079365079,70.07936507936508,6.746031746031746,-101.98412698412697,310.7142857142857,88.80952380952381,51.34920634920635,-54.047619047619044,-301.8253968253968,-325.0,-102.77777777777777,-70.55555555555556,-129.9206349206349,-114.52380952380952,0.3968253968253968,1.0317460317460316,-166.26984126984127
-159.6031746031746,5.7936507936507935,24.523809523809522,-118.96825396825396,34.84126984126984,-65.0,-118.17460317460316,-25.79365079365079,70.07936507936508,6.746031746031746,-101.98412698412697,310.7142857142857,88.80952380952381,51.34920634920635,-54.047619047619044,-301.8253968253968,-325.0,-102.77777777777777,-70.55555555555556,-129.9206349206349,-114.52380952380952,0.3968253968253968,1.0317460317460316,-166.26984126984127
-159.6031746031746,5.7936507936507935,24.523809523809522,-118.96825396825396,34.84126984126984,-65.0,-118.17460317460316,-25.79365079365079,70.07936507936508,6.746031746031746,-101.98412698412697,310.7142857142857,88.80952380952381,51.34920634920635,-54.047619047619044,-301.8253968253968,-325.0,-102.77777777777777,-70.55555555555556,-129.9206349206349,-114.52380952380952,0.3968253968253968,1.0317460317460316,-166.26984126984127
-159.6031746031746,5.7936507936507935,24.523809523809522,-118.96825396825396,34.84126984126984,-65.0,-118.17460317460316,-25.79365079365079,70.07936507936508,6.746031746031746,-101.98412698412697,310.7142857142857,88.80952380952381,51.34920634920635,-54.047619047619044,-301.8253968253968,-325.0,-102.77777777777777,-70.55555555555556,-129.9206349206349,-114.52380952380952,0.3968253968253968,1.0317460317460316,-166.26984126984127
-159.6031746031746,5.7936507936507935,24.523809523809522,-118.96825396825396,34.84126984126984,-65.0,-118.17460317460316,-25.79365079365079,70.07936507936508,6.746031746031746,-101.98412698412697,310.7142857142857,88.80952380952381,51.34920634920635,-54.047619047619044,-301.8253968253968,-325.0,-102.77777777777777,-70.55555555555556,-129.9206349206349,-114.52380952380952,0.3968253968253968,1.0317460317460316,-166.26984126984127
-159.6031746031746,5.7936507936507935,24.523809523809522,-118.96825396825396,34.84126984126984,-65.0,-118.17460317460316,-25.79365079365079,70.07936507936508,6.746031746031746,-101.98412698412697,310.7142857142857,88.80952380952381,51.34920634920635,-54.047619047619044,-301.8253968253968,-325.0,-102.77777777777777,-70.55555555555556,-129.9206349206349,-114.52380952380952,0.3968253968253968,1.0317460317460316,-166.26984126984127
-159.6031746031746,5.7936507936507935,24.523809523809522,-118.96825396825396,34.84126984126984,-65.0,-118.17460317460316,-25.79365079365079,70.07936507936508,6.746031746031746,-101.98412698412697,310.7142857142857,88.80952380952381,51.34920634920635,-54.047619047619044,-301.8253968253968,-325.0,-102.77777777777777,-70.55555555555556,-129.9206349206349,-114.52380952380952,0.3968253968253968,1.0317460317460316,-166.26984126984127
-159.6031746031746,5.7936507936507935,24.523809523809522,-118.96825396825396,34.84126984126984,-65.0,-118.17460317460316,-25.79365079365079,70.07936507936508,6.746031746031746,-101.98412698412697,310.7142857142857,88.80952380952381,51.34920634920635,-54.047619047619044,-301.8253968253968,-325.0,-102.77777777777777,-70.55555555555556,-129.9206349206349,-114.52380952380952,0.3968253968253968,1.0317460317460316,-166.26984126984127
-159.6031746031746,5.7936507936507935,24.523809523809522,-118.96825396825396,34.84126984126984,-65.0,-118.17460317460316,-25.79365079365079,70.07936507936508,6.746031746031746,-101.98412698412697,310.7142857142857,88.80952380952381,51.34920634920635,-54.047619047619044,-301.8253968253968,-325.0,-102.77777777777777,-70.55555555555556,-129.9206349206349,-114.52380952380952,0.3968253968253968,1.0317460317460316,-321.8253968253968
-159.6031746031746,5.7936507936507935,24.523809523809522,-118.96825396825396,34.84126984126984,-65.0,-118.17460317460316,-25.79365079365079,70.07936507936508,6.746031746031746,-101.98412698412697,310.7142857142857,88.80952380952381,51.34920634920635,-54.047619047619044,-301.8253968253968,-325.0,-102.77777777777777,-70.55555555555556,-129.9206349206349,-114.52380952380952,0.3968253968253968,1.0317460317460316,-321.8253968253968
-159.6031746031746,5.7936507936507935,24.523809523809522,-118.96825396825396,34.84126984126984,-65.0,-118.17460317460316,-25.79365079365079,70.07936507936508,6.746031746031746,-101.98412698412697,310.7142857142857,88.80952380952381,51.34920634920635,-54.047619047619044,-301.8253968253968,-325.0,-102.77777777777777,-70.55555555555556,-129.9206349206349,-114.52380952380952,0.3968253968253968,1.0317460317460316,-321.8253968253968
-159.6031746031746,5.7936507936507935,24.523809523809522,-118.96825396825396,34.84126984126984,-65.0,-118.17460317460316,-25.79365079365079,70.07936507936508,6.746031746031746,-101.98412698412697,310.7142857142857,88.80952380952381,51.34920634920635,-54.047619047619044,-301.8253968253968,-325.0,-102.77777777777777,-70.55555555555556,-129.9206349206349,-114.52380952380952,0.3968253968253968,1.0317460317460316,-321.8253968253968
-159.6031746031746,5.7936507936507935,24.523809523809522,-118.96825396825396,34.84126984126984,-65.0,-118.17460317460316,-25.79365079365079,70.07936507936508,6.746031746031746,-101.98412698412697,310.7142857142857,88.80952380952381,51.34920634920635,-54.047619047619044,-301.8253968253968,-325.0,-102.77777777777777,-70.55555555555556,-129.9206349206349,-114.52380952380952,0.3968253968253968,1.0317460317460316,-321.8253968253968
-159.6031746031746,5.7936507936507935,24.523809523809522,-118.96825396825396,34.84126984126984,-65.0,-118.17460317460316,-25.79365079365079,70.07936507936508,6.746031746031746,-101.98412698412697,310.7142857142857,88.80952380952381,51.34920634920635,-54.047619047619044,-301.8253968253968,-325.0,-102.77777777777777,-70.55555555555556,-129.9206349206349,-114.52380952380952,0.3968253968253968,1.0317460317460316,-321.8253968253968
32.61904761904762,2.7777777777777777,18.96825396825397,-66.11111111111111,28.015873015873016,-18.96825396825397,-52.77777777777777,-14.206349206349206,58.650793650793645,4.682539682539682,26.587301587301585,317.85714285714283,74.36507936507937,56.42857142857142,45.317460317460316,-225.3174603174603,-254.36507936507934,-77.38095238095238,-1.6666666666666665,27.857142857142854,2.9365079365079363,-1.8253968253968254,0.07936507936507936,-321.8253968253968
32.61904761904762,2.7777777777777777,18.96825396825397,-66.11111111111111,28.015873015873016,-18.96825396825397,-52.77777777777777,-14.206349206349206,58.650793650793645,4.682539682539682,26.587301587301585,317.85714285714283,74.36507936507937,56.42857142857142,45.317460317460316,-225.3174603174603,-254.36507936507934,-77.38095238095238,-1.6666666666666665,27.857142857142854,2.9365079365079363,-1.8253968253968254,0.07936507936507936,-321.8253968253968
5.634920634920634,4.0476190476190474,17.22222222222222,-54.841269841269835,24.84126984126984,3.095238095238095,-196.9047619047619,-14.047619047619047,49.92063492063492,6.746031746031746,-48.96825396825397,325.0,63.73015873015873,106.9047619047619,-17.22222222222222,-147.53968253968253,-325.0,-35.95238095238095,10.714285714285714,36.42857142857142,58.96825396825397,-4.523809523809524,1.984126984126984,-321.8253968253968
5.634920634920634,4.0476190476190474,17.22222222222222,-54.841269841269835,24.84126984126984,3.095238095238095,-196.9047619047619,-14.047619047619047,49.92063492063492,6.746031746031746,-48.96825396825397,325.0,63.73015873015873,106.9047619047619,-17.22222222222222,-147.53968253968253,-325.0,-35.95238095238095,10.714285714285714,36.42857142857142,58.96825396825397,-4.523809523809524,1.984126984126984,-321.8253968253968
108.65079365079364,1.507936507936508,14.84126984126984,-41.19047619047619,22.46031746031746,14.047619047619047,-45.0,-11.825396825396824,47.698412698412696,4.365079365079365,46.904761904761905,325.0,61.03174603174603,82.61904761904762,58.650793650793645,-145.63492063492063,-308.17460317460313,-49.6031746031746,32.77777777777778,107.85714285714285,88.4920634920635,-4.0476190476190474,-0.07936507936507936,-166.26984126984127
108.65079365079364,1.507936507936508,14.84126984126984,-41.19047619047619,22.46031746031746,14.047619047619047,-45.0,-11.825396825396824,47.698412698412696,4.365079365079365,46.904761904761905,325.0,61.03174603174603,82.61904761904762,58.650793650793645,-145.63492063492063,-308.17460317460313,-49.6031746031746,32.77777777777778,107.85714285714285,88.4920634920635,-4.0476190476190474,-0.07936507936507936,-166.26984126984127
-39.76190476190476,-2.619047619047619,10.079365079365079,-81.82539682539682,18.015873015873016,-23.57142857142857,-118.8095238095238,-32.460317460317455,42.61904761904761,0.07936507936507936,-73.57142857142857,325.0,56.11111111111111,108.65079365079364,-36.269841269841265,-142.3015873015873,-325.0,-65.0,-14.206349206349206,34.682539682539684,47.698412698412696,-2.9365079365079363,1.1904761904761905,-166.26984126984127
-39.76190476190476,-2.619047619047619,10.079365079365079,-81.82539682539682,18.015873015873016,-23.57142857142857,-118.8095238095238,-32.460317460317455,42.61904761904761,0.07936507936507936,-73.57142857142857,325.0,56.11111111111111,108.65079365079364,-36.269841269841265,-142.3015873015873,-325.0,-65.0,-14.206349206349206,34.682539682539684,47.698412698412696,-2.9365079365079363,1.1904761904761905,-166.26984126984127
165.0,-4.841269841269841,6.428571428571428,-63.57142857142857,14.206349206349206,19.92063492063492,33.095238095238095,-3.73015873015873,38.33333333333333,-4.2063492063492065,159.6031746031746,287.22222222222223,50.71428571428571,-22.3015873015873,137.22222222222223,-139.12698412698413,-71.19047619047619,-88.4920634920635,24.68253968253968,36.74603174603175,-27.698412698412696,-0.5555555555555556,-2.142857142857143,-166.26984126984127
165.0,-4.841269841269841,6.428571428571428,-63.57142857142857,14.206349206349206,19.92063492063492,33.095238095238095,-3.73015873015873,38.33333333333333,-4.2063492063492065,159.6031746031746,287.22222222222223,50.71428571428571,-22.3015873015873,137.22222222222223,-139.12698412698413,-71.19047619047619,-88.4920634920635,24.68253968253968,36.74603174603175,-27.698412698412696,-0.5555555555555556,-2.142857142857143,-166.26984126984127
-224.2063492063492,-0.7142857142857142,11.825396825396824,-75.0,19.444444444444443,7.857142857142857,-263.4126984126984,-22.3015873015873,44.047619047619044,2.142857142857143,-220.3968253968254,325.0,57.53968253968254,108.49206349206348,-194.04761904761904,-137.53968253968253,-256.26984126984127,-48.96825396825397,-2.142857142857143,-57.698412698412696,120.71428571428571,-2.619047619047619,1.507936507936508,-166.26984126984127
-224.2063492063492,-0.7142857142857142,11.825396825396824,-75.0,19.444444444444443,7.857142857142857,-263.4126984126984,-22.3015873015873,44.047619047619044,2.142857142857143,-220.3968253968254,325.0,57.53968253968254,108.49206349206348,-194.04761904761904,-137.53968253968253,-256.26984126984127,-48.96825396825397,-2.142857142857143,-57.698412698412696,120.71428571428571,-2.619047619047619,1.507936507936508,-166.26984126984127
-191.66666666666666,-9.761904761904761,2.3015873015873014,-48.96825396825397,10.238095238095237,53.57142857142857,-286.58730158730157,17.063492063492063,33.41269841269841,-9.285714285714285,-173.73015873015873,289.1269841269841,45.95238095238095,-24.206349206349206,-199.12698412698413,-134.2063492063492,-168.8095238095238,-50.71428571428571,51.666666666666664,-138.65079365079364,133.88888888888889,0.07936507936507936,-1.8253968253968254,-166.26984126984127
-191.66666666666666,-9.761904761904761,2.3015873015873014,-48.96825396825397,10.238095238095237,53.57142857142857,-286.58730158730157,17.063492063492063,33.41269841269841,-9.285714285714285,-173.73015873015873,289.1269841269841,45.95238095238095,-24.206349206349206,-199.12698412698413,-134.2063492063492,-168.8095238095238,-50.71428571428571,51.666666666666664,-138.65079365079364,133.88888888888889,0.07936507936507936,-1.8253968253968254,-166.26984126984127
-325.0,-6.904761904761904,5.952380952380952,-64.68253968253968,13.253968253968253,27.698412698412696,-325.0,-7.857142857142857,37.857142857142854,-3.888888888888889,-325.0,325.0,51.34920634920635,110.39682539682539,-325.0,-132.61904761904762,-325.0,-28.65079365079365,11.031746031746032,-149.12698412698413,191.34920634920633,-2.619047619047619,1.0317460317460316,-321.8253968253968
-325.0,-6.904761904761904,5.952380952380952,-64.68253968253968,13.253968253968253,27.698412698412696,-325.0,-7.857142857142857,37.857142857142854,-3.888888888888889,-325.0,325.0,51.34920634920635,110.39682539682539,-325.0,-132.61904761904762,-325.0,-28.65079365079365,11.031746031746032,-149.12698412698413,191.34920634920633,-2.619047619047619,1.0317460317460316,-321.8253968253968
141.03174603174602,-7.222222222222221,3.73015873015873,-65.47619047619047,11.349206349206348,72.3015873015873,68.80952380952381,2.619047619047619,34.682539682539684,-6.428571428571428,156.9047619047619,286.74603174603175,46.74603174603175,-9.761904761904761,145.3174603174603,-129.76190476190476,113.4126984126984,-68.17460317460318,34.84126984126984,48.17460317460317,8.333333333333332,-1.6666666666666665,-2.9365079365079363,-321.8253968253968
141.03174603174602,-7.222222222222221,3.73015873015873,-65.47619047619047,11.349206349206348,72.3015873015873,68.80952380952381,2.619047619047619,34.682539682539684,-6.428571428571428,156.9047619047619,286.74603174603175,46.74603174603175,-9.761904761904761,145.3174603174603,-129.76190476190476,113.4126984126984,-68.17460317460318,34.84126984126984,48.17460317460317,8.333333333333332,-1.6666666666666665,-2.9365079365079363,-321.8253968253968
152.61904761904762,-7.5396825396825395,4.841269841269841,-30.87301587301587,13.095238095238095,60.39682539682539,156.9047619047619,-10.396825396825395,36.42857142857142,-4.523809523809524,135.3174603174603,325.0,48.17460317460317,68.96825396825396,134.04761904761904,-129.44444444444443,146.74603174603175,-53.41269841269841,61.98412698412698,180.87301587301587,139.28571428571428,-3.888888888888889,-1.984126984126984,-321.8253968253968
152.61904761904762,-7.5396825396825395,4.841269841269841,-30.87301587301587,13.095238095238095,60.39682539682539,156.9047619047619,-10.396825396825395,36.42857142857142,-4.523809523809524,135.3174603174603,325.0,48.17460317460317,68.96825396825396,134.04761904761904,-129.44444444444443,146.74603174603175,-53.41269841269841,61.98412698412698,180.87301587301587,139.28571428571428,-3.888888888888889,-1.984126984126984,-321.8253968253968
259.44444444444446,-17.698412698412696,12.142857142857142,-96.9047619047619,19.126984126984127,79.12698412698413,135.63492063492063,4.2063492063492065,41.34920634920635,1.507936507936508,321.8253968253968,250.07936507936506,53.888888888888886,-117.53968253968253,287.85714285714283,-125.79365079365078,176.26984126984127,-99.28571428571428,7.5396825396825395,-1.6666666666666665,-202.93650793650792,1.1904761904761905,-2.142857142857143,-321.8253968253968
259.44444444444446,-17.698412698412696,12.142857142857142,-96.9047619047619,19.126984126984127,79.12698412698413,135.63492063492063,4.2063492063492065,41.34920634920635,1.507936507936508,321.8253968253968,250.07936507936506,53.888888888888886,-117.53968253968253,287.85714285714283,-125.79365079365078,176.26984126984127,-99.28571428571428,7.5396825396825395,-1.6666666666666665,-202.93650793650792,1.1904761904761905,-2.142857142857143,-321.8253968253968
259.44444444444446,-17.698412698412696,12.142857142857142,-96.9047619047619,19.126984126984127,79.12698412698413,135.63492063492063,4.2063492063492065,41.34920634920635,1.507936507936508,321.8253968253968,250.07936507936506,53.888888888888886,-117.53968253968253,287.85714285714283,-125.79365079365078,176.26984126984127,-99.28571428571428,7.5396825396825395,-1.6666666666666665,-202.93650793650792,1.1904761904761905,-2.142857142857143,-321.8253968253968
259.44444444444446,-17.698412698412696,12.142857142857142,-96.9047619047619,19.126984126984127,79.12698412698413,135.63492063492063,4.2063492063492065,41.34920634920635,1.507936507936508,321.8253968253968,250.07936507936506,53.888888888888886,-117.53968253968253,287.85714285714283,-125.79365079365078,176.26984126984127,-99.28571428571428,7.5396825396825395,-1.6666666666666665,-202.93650793650792,1.1904761904761905,-2.142857142857143,-321.8253968253968
259.44444444444446,-17.698412698412696,12.142857142857142,-96.9047619047619,19.126984126984127,79.12698412698413,135.63492063492063,4.2063492063492065,41.34920634920635,1.507936507936508,321.8253968253968,250.07936507936506,53.888888888888886,-117.53968253968253,287.85714285714283,-125.79365079365078,176.26984126984127,-99.28571428571428,7.5396825396825395,-1.6666666666666665,-202.93650793650792,1.1904761904761905,-2.142857142857143,-166.26984126984127
259.44444444444446,-17.698412698412696,12.142857142857142,-96.9047619047619,19.126984126984127,79.12698412698413,135.63492063492063,4.2063492063492065,41.34920634920635,1.507936507936508,321.8253968253968,250.07936507936506,53.888888888888886,-117.53968253968253,287.85714285714283,-125.79365079365078,176.26984126984127,-99.28571428571428,7.5396825396825395,-1.6666666666666665,-202.93650793650792,1.1904761904761905,-2.142857142857143,-166.26984126984127
-25.952380952380953,-110.71428571428571,15.476190476190474,-80.71428571428571,22.46031746031746,55.79365079365079,-62.77777777777777,-20.71428571428571,45.15873015873016,7.3809523809523805,-43.73015873015873,325.0,58.650793650793645,109.12698412698413,-25.476190476190474,-119.76190476190476,-299.9206349206349,-51.19047619047619,-10.873015873015872,21.19047619047619,11.19047619047619,-2.142857142857143,0.7142857142857142,-166.26984126984127
-25.952380952380953,-110.71428571428571,15.476190476190474,-80.71428571428571,22.46031746031746,55.79365079365079,-62.77777777777777,-20.71428571428571,45.15873015873016,7.3809523809523805,-43.73015873015873,325.0,58.650793650793645,109.12698412698413,-25.476190476190474,-119.76190476190476,-299.9206349206349,-51.19047619047619,-10.873015873015872,21.19047619047619,11.19047619047619,-2.142857142857143,0.7142857142857142,-166.26984126984127
229.28571428571428,-80.07936507936508,6.111111111111111,-61.666666666666664,13.412698412698411,102.14285714285714,215.47619047619045,2.7777777777777777,35.317460317460316,-3.253968253968254,210.3968253968254,288.015873015873,47.22222222222222,-16.428571428571427,185.63492063492063,-116.9047619047619,151.34920634920633,-66.74603174603175,32.14285714285714,100.39682539682539,-31.03174603174603,-1.984126984126984,-1.6666666666666665,-166.26984126984127
229.28571428571428,-80.07936507936508,6.111111111111111,-61.666666666666664,13.412698412698411,102.14285714285714,215.47619047619045,2.7777777777777777,35.317460317460316,-3.253968253968254,210.3968253968254,288.015873015873,47.22222222222222,-16.428571428571427,185.63492063492063,-116.9047619047619,151.34920634920633,-66.74603174603175,32.14285714285714,100.39682539682539,-31.03174603174603,-1.984126984126984,-1.6666666666666665,-166.26984126984127
-49.12698412698413,-127.38095238095238,10.555555555555555,-97.53968253968253,17.698412698412696,62.3015873015873,31.349206349206348,-29.444444444444443,39.76190476190476,2.9365079365079363,-63.095238095238095,309.4444444444444,52.61904761904761,105.15873015873015,-42.14285714285714,-115.63492063492063,30.555555555555554,-58.01587301587301,-27.063492063492063,12.619047619047619,0.23809523809523808,-2.619047619047619,1.349206349206349,-166.26984126984127
-49.12698412698413,-127.38095238095238,10.555555555555555,-97.53968253968253,17.698412698412696,62.3015873015873,31.349206349206348,-29.444444444444443,39.76190476190476,2.9365079365079363,-63.095238095238095,309.4444444444444,52.61904761904761,105.15873015873015,-42.14285714285714,-115.63492063492063,30.555555555555554,-58.01587301587301,-27.063492063492063,12.619047619047619,0.23809523809523808,-2.619047619047619,1.349206349206349,-166.26984126984127
224.36507936507934,-120.71428571428571,4.2063492063492065,-58.01587301587301,11.507936507936508,81.34920634920634,231.66666666666666,-7.222222222222221,32.77777777777778,-4.523809523809524,181.5079365079365,291.66666666666663,44.84126984126984,-2.619047619047619,151.66666666666666,-112.93650793650794,295.95238095238096,-82.61904761904762,22.936507936507937,91.5079365079365,-20.07936507936508,-0.7142857142857142,-1.984126984126984,-166.26984126984127
224.36507936507934,-120.71428571428571,4.2063492063492065,-58.01587301587301,11.507936507936508,81.34920634920634,231.66666666666666,-7.222222222222221,32.77777777777778,-4.523809523809524,181.5079365079365,291.66666666666663,44.84126984126984,-2.619047619047619,151.66666666666666,-112.93650793650794,295.95238095238096,-82.61904761904762,22.936507936507937,91.5079365079365,-20.07936507936508,-0.7142857142857142,-1.984126984126984,-166.26984126984127
171.984126984127,-57.06349206349206,0.873015873015873,-23.095238095238095,8.015873015873016,68.4920634920635,248.96825396825395,-15.158730158730158,29.6031746031746,-7.698412698412698,95.79365079365078,325.0,41.82539682539682,78.17460317460316,78.80952380952381,-112.6190476190476,267.06349206349205,-60.55555555555555,49.12698412698413,187.06349206349205,132.46031746031744,-2.619047619047619,-1.349206349206349,-321.8253968253968
171.984126984127,-57.06349206349206,0.873015873015873,-23.095238095238095,8.015873015873016,68.4920634920635,248.96825396825395,-15.158730158730158,29.6031746031746,-7.698412698412698,95.79365079365078,325.0,41.82539682539682,78.17460317460316,78.80952380952381,-112.6190476190476,267.06349206349205,-60.55555555555555,49.12698412698413,187.06349206349205,132.46031746031744,-2.619047619047619,-1.349206349206349,-321.8253968253968
150.7142857142857,-56.11111111111111,6.746031746031746,-22.936507936507937,13.73015873015873,67.06349206349206,248.17460317460316,-15.0,35.317460317460316,-1.8253968253968254,93.88888888888889,325.0,47.38095238095238,78.80952380952381,76.74603174603175,-110.55555555555554,211.34920634920633,-55.95238095238095,49.92063492063492,186.58730158730157,137.69841269841268,-3.253968253968254,-1.6666666666666665,-321.8253968253968
150.7142857142857,-56.11111111111111,6.746031746031746,-22.936507936507937,13.73015873015873,67.06349206349206,248.17460317460316,-15.0,35.317460317460316,-1.8253968253968254,93.88888888888889,325.0,47.38095238095238,78.80952380952381,76.74603174603175,-110.55555555555554,211.34920634920633,-55.95238095238095,49.92063492063492,186.58730158730157,137.69841269841268,-3.253968253968254,-1.6666666666666665,-321.8253968253968
-66.74603174603175,-175.63492063492063,15.0,-95.47619047619047,21.825396825396822,31.507936507936506,25.317460317460316,-27.063492063492063,43.888888888888886,7.698412698412698,-73.09523809523809,290.07936507936506,56.42857142857142,109.6031746031746,-58.33333333333333,-107.6984126984127,-73.25396825396825,-56.58730158730158,-29.6031746031746,-12.777777777777777,-3.4126984126984126,-3.095238095238095,0.7142857142857142,-321.8253968253968
-66.74603174603175,-175.63492063492063,15.0,-95.47619047619047,21.825396825396822,31.507936507936506,25.317460317460316,-27.063492063492063,43.888888888888886,7.698412698412698,-73.09523809523809,290.07936507936506,56.42857142857142,109.6031746031746,-58.33333333333333,-107.6984126984127,-73.25396825396825,-56.58730158730158,-29.6031746031746,-12.777777777777777,-3.4126984126984126,-3.095238095238095,0.7142857142857142,-321.8253968253968
211.8253968253968,-199.9206349206349,3.571428571428571,-53.41269841269841,10.714285714285714,44.68253968253968,232.14285714285714,-4.682539682539682,31.507936507936506,-4.682539682539682,164.84126984126982,291.984126984127,43.095238095238095,-1.8253968253968254,140.07936507936506,-105.31746031746032,261.66666666666663,-74.36507936507937,26.587301587301585,93.57142857142857,-11.507936507936508,-0.7142857142857142,-2.7777777777777777,-321.8253968253968
211.8253968253968,-199.9206349206349,3.571428571428571,-53.41269841269841,10.714285714285714,44.68253968253968,232.14285714285714,-4.682539682539682,31.507936507936506,-4.682539682539682,164.84126984126982,291.984126984127,43.095238095238095,-1.8253968253968254,140.07936507936506,-105.31746031746032,261.66666666666663,-74.36507936507937,26.587301587301585,93.57142857142857,-11.507936507936508,-0.7142857142857142,-2.7777777777777777,-321.8253968253968
-57.857142857142854,-191.8253968253968,14.206349206349206,-86.74603174603175,20.396825396825395,-1.0317460317460316,15.0,-24.365079365079364,42.14285714285714,6.904761904761904,-90.71428571428571,276.90476190476187,54.52380952380952,109.12698412698413,-63.57142857142857,-104.04761904761904,-21.666666666666664,-57.22222222222222,-27.063492063492063,-11.19047619047619,-1.0317460317460316,-2.7777777777777777,0.7142857142857142,-321.8253968253968
-57.857142857142854,-191.8253968253968,14.206349206349206,-86.74603174603175,20.396825396825395,-1.0317460317460316,15.0,-24.365079365079364,42.14285714285714,6.904761904761904,-90.71428571428571,276.90476190476187,54.52380952380952,109.12698412698413,-63.57142857142857,-104.04761904761904,-21.666666666666664,-57.22222222222222,-27.063492063492063,-11.19047619047619,-1.0317460317460316,-2.7777777777777777,0.7142857142857142,-321.8253968253968
279.44444444444446,-325.0,7.3809523809523805,-72.77777777777777,13.888888888888888,44.52380952380952,214.84126984126982,16.26984126984127,34.52380952380952,-1.6666666666666665,242.93650793650792,248.015873015873,45.79365079365079,-72.14285714285714,215.0,-101.98412698412697,325.0,-82.3015873015873,17.38095238095238,6.428571428571428,-140.23809523809524,0.23809523809523808,-2.619047619047619,-166.26984126984127
279.44444444444446,-325.0,7.3809523809523805,-72.77777777777777,13.888888888888888,44.52380952380952,214.84126984126982,16.26984126984127,34.52380952380952,-1.6666666666666665,242.93650793650792,248.015873015873,45.79365079365079,-72.14285714285714,215.0,-101.98412698412697,325.0,-82.3015873015873,17.38095238095238,6.428571428571428,-140.23809523809524,0.23809523809523808,-2.619047619047619,-166.26984126984127
279.44444444444446,-325.0,7.3809523809523805,-72.77777777777777,13.888888888888888,44.52380952380952,214.84126984126982,16.26984126984127,34.52380952380952,-1.6666666666666665,242.93650793650792,248.015873015873,45.79365079365079,-72.14285714285714,215.0,-101.98412698412697,325.0,-82.3015873015873,17.38095238095238,6.428571428571428,-140.23809523809524,0.23809523809523808,-2.619047619047619,-166.26984126984127
279.44444444444446,-325.0,7.3809523809523805,-72.77777777777777,13.888888888888888,44.52380952380952,214.84126984126982,16.26984126984127,34.52380952380952,-1.6666666666666665,242.93650793650792,248.015873015873,45.79365079365079,-72.14285714285714,215.0,-101.98412698412697,325.0,-82.3015873015873,17.38095238095238,6.428571428571428,-140.23809523809524,0.23809523809523808,-2.619047619047619,-166.26984126984127
279.44444444444446,-325.0,7.3809523809523805,-72.77777777777777,13.888888888888888,44.52380952380952,214.84126984126982,16.26984126984127,34.52380952380952,-1.6666666666666665,242.93650793650792,248.015873015873,45.79365079365079,-72.14285714285714,215.0,-101.98412698412697,325.0,-82.3015873015873,17.38095238095238,6.428571428571428,-140.23809523809524,0.23809523809523808,-2.619047619047619,-166.26984126984127
279.44444444444446,-325.0,7.3809523809523805,-72.77777777777777,13.888888888888888,44.52380952380952,214.84126984126982,16.26984126984127,34.52380952380952,-1.6666666666666665,242.93650793650792,248.015873015873,45.79365079365079,-72.14285714285714,215.0,-101.98412698412697,325.0,-82.3015873015873,17.38095238095238,6.428571428571428,-140.23809523809524,0.23809523809523808,-2.619047619047619,-166.26984126984127
279.44444444444446,-325.0,7.3809523809523805,-72.77777777777777,13.888888888888888,44.52380952380952,214.84126984126982,16.26984126984127,34.52380952380952,-1.6666666666666665,242.93650793650792,248.015873015873,45.79365079365079,-72.14285714285714,215.0,-101.98412698412697,325.0,-82.3015873015873,17.38095238095238,6.428571428571428,-140.23809523809524,0.23809523809523808,-2.619047619047619,-166.26984126984127
279.44444444444446,-325.0,7.3809523809523805,-72.77777777777777,13.888888888888888,44.52380952380952,214.84126984126982,16.26984126984127,34.52380952380952,-1.6666666666666665,242.93650793650792,248.015873015873,45.79365079365079,-72.14285714285714,215.0,-101.98412698412697,325.0,-82.3015873015873,17.38095238095238,6.428571428571428,-140.23809523809524,0.23809523809523808,-2.619047619047619,-166.26984126984127
181.19047619047618,-170.7142857142857,4.365079365079365,-38.80952380952381,11.031746031746032,33.25396825396825,152.93650793650792,11.666666666666666,31.507936507936506,-3.888888888888889,122.77777777777777,286.4285714285714,42.77777777777778,9.444444444444445,120.87301587301586,-98.33333333333333,265.1587301587301,-56.74603174603174,33.41269841269841,80.39682539682539,10.396825396825395,-1.507936507936508,-2.142857142857143,-166.26984126984127
181.19047619047618,-170.7142857142857,4.365079365079365,-38.80952380952381,11.031746031746032,33.25396825396825,152.93650793650792,11.666666666666666,31.507936507936506,-3.888888888888889,122.77777777777777,286.4285714285714,42.77777777777778,9.444444444444445,120.87301587301586,-98.33333333333333,265.1587301587301,-56.74603174603174,33.41269841269841,80.39682539682539,10.396825396825395,-1.507936507936508,-2.142857142857143,-166.26984126984127
-105.47619047619047,-206.9047619047619,11.031746031746032,-79.92063492063491,16.428571428571427,-5.634920634920634,-149.12698412698413,-0.7142857142857142,36.42857142857142,3.73015873015873,-130.55555555555554,267.85714285714283,49.6031746031746,96.1111111111111,-82.3015873015873,-93.73015873015872,-93.25396825396825,-37.06349206349206,-28.174603174603174,-58.8095238095238,-9.444444444444445,-1.6666666666666665,1.984126984126984,-321.8253968253968
-105.47619047619047,-206.9047619047619,11.031746031746032,-79.92063492063491,16.428571428571427,-5.634920634920634,-149.12698412698413,-0.7142857142857142,36.42857142857142,3.73015873015873,-130.55555555555554,267.85714285714283,49.6031746031746,96.1111111111111,-82.3015873015873,-93.73015873015872,-93.25396825396825,-37.06349206349206,-28.174603174603174,-58.8095238095238,-9.444444444444445,-1.6666666666666665,1.984126984126984,-321.8253968253968
-4.841269841269841,-103.4126984126984,5.634920634920634,-40.714285714285715,11.666666666666666,6.26984126984127,-34.84126984126984,0.07936507936507936,31.666666666666664,-1.6666666666666665,-58.650793650793645,296.4285714285714,43.57142857142857,93.09523809523809,-31.98412698412698,-92.61904761904762,-58.17460317460317,-32.61904761904762,15.158730158730158,50.87301587301587,82.46031746031746,-3.253968253968254,0.5555555555555556,-321.8253968253968
-4.841269841269841,-103.4126984126984,5.634920634920634,-40.714285714285715,11.666666666666666,6.26984126984127,-34.84126984126984,0.07936507936507936,31.666666666666664,-1.6666666666666665,-58.650793650793645,296.4285714285714,43.57142857142857,93.09523809523809,-31.98412698412698,-92.61904761904762,-58.17460317460317,-32.61904761904762,15.158730158730158,50.87301587301587,82.46031746031746,-3.253968253968254,0.5555555555555556,-321.8253968253968
189.76190476190476,-60.238095238095234,-23.730158730158728,133.73015873015873,-20.396825396825395,179.44444444444443,11.349206349206348,99.76190476190476,17.38095238095238,60.238095238095234,176.42857142857142,223.09523809523807,-66.26984126984127,51.19047619047619,59.92063492063492,-24.68253968253968,82.61904761904762,-158.96825396825395,80.87301587301587,88.96825396825396,-41.82539682539682,-80.55555555555556,53.41269841269841,-321.8253968253968
189.76190476190476,-60.238095238095234,-23.730158730158728,133.73015873015873,-20.396825396825395,179.44444444444443,11.349206349206348,99.76190476190476,17.38095238095238,60.238095238095234,176.42857142857142,223.09523809523807,-66.26984126984127,51.19047619047619,59.92063492063492,-24.68253968253968,82.61904761904762,-158.96825396825395,80.87301587301587,88.96825396825396,-41.82539682539682,-80.55555555555556,53.41269841269841,-321.8253968253968
-60.079365079365076,-108.65079365079364,6.746031746031746,-38.65079365079365,12.3015873015873,8.015873015873016,-62.77777777777777,-8.174603174603174,32.14285714285714,-0.23809523809523808,-66.42857142857143,284.8412698412698,43.888888888888886,91.19047619047619,-39.44444444444444,-87.85714285714285,21.825396825396822,-44.84126984126984,4.2063492063492065,53.57142857142857,83.73015873015872,-3.253968253968254,0.3968253968253968,-321.8253968253968
-60.079365079365076,-108.65079365079364,6.746031746031746,-38.65079365079365,12.3015873015873,8.015873015873016,-62.77777777777777,-8.174603174603174,32.14285714285714,-0.23809523809523808,-66.42857142857143,284.8412698412698,43.888888888888886,91.19047619047619,-39.44444444444444,-87.85714285714285,21.825396825396822,-44.84126984126984,4.2063492063492065,53.57142857142857,83.73015873015872,-3.253968253968254,0.3968253968253968,-321.8253968253968
29.920634920634917,-276.1111111111111,10.396825396825395,-56.904761904761905,15.793650793650793,28.65079365079365,-34.2063492063492,5.317460317460317,34.682539682539684,3.095238095238095,46.269841269841265,248.96825396825395,46.74603174603175,18.49206349206349,57.06349206349206,-86.58730158730158,109.92063492063491,-57.698412698412696,-2.9365079365079363,-18.174603174603174,-44.2063492063492,-1.6666666666666665,-1.349206349206349,-321.8253968253968
29.920634920634917,-276.1111111111111,10.396825396825395,-56.904761904761905,15.793650793650793,28.65079365079365,-34.2063492063492,5.317460317460317,34.682539682539684,3.095238095238095,46.269841269841265,248.96825396825395,46.74603174603175,18.49206349206349,57.06349206349206,-86.58730158730158,109.92063492063491,-57.698412698412696,-2.9365079365079363,-18.174603174603174,-44.2063492063492,-1.6666666666666665,-1.349206349206349,-321.8253968253968
-49.6031746031746,-111.66666666666666,6.746031746031746,-20.238095238095237,12.3015873015873,20.238095238095237,-47.698412698412696,-3.4126984126984126,31.825396825396822,0.23809523809523808,-50.55555555555555,277.22222222222223,43.095238095238095,88.96825396825396,-29.76190476190476,-84.68253968253968,66.9047619047619,-32.77777777777778,15.634920634920634,39.76190476190476,74.52380952380952,-3.095238095238095,-0.07936507936507936,-166.26984126984127
-49.6031746031746,-111.66666666666666,6.746031746031746,-20.238095238095237,12.3015873015873,20.238095238095237,-47.698412698412696,-3.4126984126984126,31.825396825396822,0.23809523809523808,-50.55555555555555,277.22222222222223,43.095238095238095,88.96825396825396,-29.76190476190476,-84.68253968253968,66.9047619047619,-32.77777777777778,15.634920634920634,39.76190476190476,74.52380952380952,-3.095238095238095,-0.07936507936507936,-166.26984126984127
109.76190476190476,-291.984126984127,11.031746031746032,-53.57142857142857,16.746031746031743,39.92063492063492,-6.587301587301587,19.92063492063492,34.84126984126984,3.73015873015873,167.69841269841268,127.53968253968253,46.42857142857142,-149.6031746031746,149.44444444444443,-82.93650793650794,172.77777777777777,-68.80952380952381,-1.0317460317460316,-81.82539682539682,-167.38095238095238,2.46031746031746,-1.1904761904761905,-166.26984126984127
109.76190476190476,-291.984126984127,11.031746031746032,-53.57142857142857,16.746031746031743,39.92063492063492,-6.587301587301587,19.92063492063492,34.84126984126984,3.73015873015873,167.69841269841268,127.53968253968253,46.42857142857142,-149.6031746031746,149.44444444444443,-82.93650793650794,172.77777777777777,-68.80952380952381,-1.0317460317460316,-81.82539682539682,-167.38095238095238,2.46031746031746,-1.1904761904761905,-166.26984126984127
24.523809523809522,23.253968253968253,3.73015873015873,38.65079365079365,9.126984126984127,15.634920634920634,60.238095238095234,0.23809523809523808,28.333333333333332,-21.19047619047619,10.238095238095237,325.0,-24.206349206349206,101.82539682539682,12.936507936507935,-82.14285714285714,192.93650793650792,-24.365079365079364,65.15873015873015,161.19047619047618,185.79365079365078,-3.4126984126984126,-0.5555555555555556,-166.26984126984127
24.523809523809522,23.253968253968253,3.73015873015873,38.65079365079365,9.126984126984127,15.634920634920634,60.238095238095234,0.23809523809523808,28.333333333333332,-21.19047619047619,10.238095238095237,325.0,-24.206349206349206,101.82539682539682,12.936507936507935,-82.14285714285714,192.93650793650792,-24.365079365079364,65.15873015873015,161.19047619047618,185.79365079365078,-3.4126984126984126,-0.5555555555555556,-166.26984126984127
65.31746031746032,-149.44444444444443,1.1904761904761905,-4.682539682539682,6.111111111111111,24.047619047619047,3.095238095238095,11.507936507936508,23.41269841269841,-262.46031746031747,95.47619047619047,169.9206349206349,-222.61904761904762,-68.4920634920635,91.82539682539682,-74.36507936507937,325.0,-44.36507936507936,2.619047619047619,-1.1904761904761905,-61.666666666666664,0.3968253968253968,0.07936507936507936,-166.26984126984127
65.31746031746032,-149.44444444444443,1.1904761904761905,-4.682539682539682,6.111111111111111,24.047619047619047,3.095238095238095,11.507936507936508,23.41269841269841,-262.46031746031747,95.47619047619047,169.9206349206349,-222.61904761904762,-68.4920634920635,91.82539682539682,-74.36507936507937,325.0,-44.36507936507936,2.619047619047619,-1.1904761904761905,-61.666666666666664,0.3968253968253968,0.07936507936507936,-166.26984126984127
121.19047619047619,-153.25396825396825,-0.3968253968253968,39.6031746031746,5.158730158730158,32.14285714285714,112.6190476190476,14.682539682539682,22.46031746031746,-281.66666666666663,134.36507936507937,282.77777777777777,-194.52380952380952,33.888888888888886,118.96825396825396,-72.77777777777777,325.0,-34.84126984126984,48.17460317460317,121.19047619047619,55.79365079365079,-1.507936507936508,-0.873015873015873,-166.26984126984127
121.19047619047619,-153.25396825396825,-0.3968253968253968,39.6031746031746,5.158730158730158,32.14285714285714,112.6190476190476,14.682539682539682,22.46031746031746,-281.66666666666663,134.36507936507937,282.77777777777777,-194.52380952380952,33.888888888888886,118.96825396825396,-72.77777777777777,325.0,-34.84126984126984,48.17460317460317,121.19047619047619,55.79365079365079,-1.507936507936508,-0.873015873015873,-166.26984126984127
202.77777777777777,-325.0,0.7142857142857142,31.349206349206348,6.428571428571428,53.41269841269841,149.6031746031746,30.396825396825395,23.57142857142857,-325.0,246.1111111111111,240.55555555555554,-100.71428571428571,-38.80952380952381,208.4920634920635,-71.66666666666666,325.0,-47.22222222222222,52.14285714285714,75.95238095238095,-46.74603174603175,0.07936507936507936,-2.3015873015873014,-321.8253968253968
202.77777777777777,-325.0,0.7142857142857142,31.349206349206348,6.428571428571428,53.41269841269841,149.6031746031746,30.396825396825395,23.57142857142857,-325.0,246.1111111111111,240.55555555555554,-100.71428571428571,-38.80952380952381,208.4920634920635,-71.66666666666666,325.0,-47.22222222222222,52.14285714285714,75.95238095238095,-46.74603174603175,0.07936507936507936,-2.3015873015873014,-321.8253968253968
202.77777777777777,-325.0,0.7142857142857142,31.349206349206348,6.428571428571428,53.41269841269841,149.6031746031746,30.396825396825395,23.57142857142857,-325.0,246.1111111111111,240.55555555555554,-100.71428571428571,-38.80952380952381,208.4920634920635,-71.66666666666666,325.0,-47.22222222222222,52.14285714285714,75.95238095238095,-46.74603174603175,0.07936507936507936,-2.3015873015873014,-321.8253968253968
202.77777777777777,-325.0,0.7142857142857142,31.349206349206348,6.428571428571428,53.41269841269841,149.6031746031746,30.396825396825395,23.57142857142857,-325.0,246.1111111111111,240.55555555555554,-100.71428571428571,-38.80952380952381,208.4920634920635,-71.66666666666666,325.0,-47.22222222222222,52.14285714285714,75.95238095238095,-46.74603174603175,0.07936507936507936,-2.3015873015873014,-321.8253968253968
202.77777777777777,-325.0,0.7142857142857142,31.349206349206348,6.428571428571428,53.41269841269841,149.6031746031746,30.396825396825395,23.57142857142857,-325.0,246.1111111111111,240.55555555555554,-100.71428571428571,-38.80952380952381,208.4920634920635,-71.66666666666666,325.0,-47.22222222222222,52.14285714285714,75.95238095238095,-46.74603174603175,0.07936507936507936,-2.3015873015873014,-321.8253968253968
202.77777777777777,-325.0,0.7142857142857142,31.349206349206348,6.428571428571428,53.41269841269841,149.6031746031746,30.396825396825395,23.57142857142857,-325.0,246.1111111111111,240.55555555555554,-100.71428571428571,-38.80952380952381,208.4920634920635,-71.66666666666666,325.0,-47.22222222222222,52.14285714285714,75.95238095238095,-46.74603174603175,0.07936507936507936,-2.3015873015873014,-321.8253968253968
19.6031746031746,-227.06349206349205,5.952380952380952,-32.93650793650794,9.920634920634921,10.079365079365079,27.38095238095238,19.285714285714285,22.46031746031746,-223.57142857142856,55.476190476190474,124.52380952380952,-102.61904761904762,21.507936507936506,50.87301587301587,78.65079365079364,199.9206349206349,-21.507936507936506,16.11111111111111,0.873015873015873,-34.682539682539684,-0.7142857142857142,-0.07936507936507936,-321.8253968253968
19.6031746031746,-227.06349206349205,5.952380952380952,-32.93650793650794,9.920634920634921,10.079365079365079,27.38095238095238,19.285714285714285,22.46031746031746,-223.57142857142856,55.476190476190474,124.52380952380952,-102.61904761904762,21.507936507936506,50.87301587301587,78.65079365079364,199.9206349206349,-21.507936507936506,16.11111111111111,0.873015873015873,-34.682539682539684,-0.7142857142857142,-0.07936507936507936,-321.8253968253968
-163.57142857142856,-129.12698412698413,11.19047619047619,-97.22222222222221,13.412698412698411,-33.095238095238095,-94.68253968253968,8.174603174603174,21.349206349206348,-122.14285714285714,-135.0,8.65079365079365,-104.36507936507935,81.98412698412697,-106.58730158730158,228.96825396825395,75.0,4.365079365079365,-19.76190476190476,-74.04761904761904,-22.619047619047617,-1.349206349206349,2.142857142857143,-321.8253968253968
-163.57142857142856,-129.12698412698413,11.19047619047619,-97.22222222222221,13.412698412698411,-33.095238095238095,-94.68253968253968,8.174603174603174,21.349206349206348,-122.14285714285714,-135.0,8.65079365079365,-104.36507936507935,81.98412698412697,-106.58730158730158,228.96825396825395,75.0,4.365079365079365,-19.76190476190476,-74.04761904761904,-22.619047619047617,-1.349206349206349,2.142857142857143,-321.8253968253968
-163.57142857142856,-129.12698412698413,11.19047619047619,-97.22222222222221,13.412698412698411,-33.095238095238095,-94.68253968253968,8.174603174603174,21.349206349206348,-122.14285714285714,-135.0,8.65079365079365,-104.36507936507935,81.98412698412697,-106.58730158730158,228.96825396825395,75.0,4.365079365079365,-19.76190476190476,-74.04761904761904,-22.619047619047617,-1.349206349206349,2.142857142857143,-166.26984126984127
-163.57142857142856,-129.12698412698413,11.19047619047619,-97.22222222222221,13.412698412698411,-33.095238095238095,-94.68253968253968,8.174603174603174,21.349206349206348,-122.14285714285714,-135.0,8.65079365079365,-104.36507936507935,81.98412698412697,-106.58730158730158,228.96825396825395,75.0,4.365079365079365,-19.76190476190476,-74.04761904761904,-22.619047619047617,-1.349206349206349,2.142857142857143,-166.26984126984127
52.14285714285714,-76.74603174603175,-7.3809523809523805,77.06349206349206,-172.77777777777777,-34.047619047619044,88.17460317460316,-0.23809523809523808,-45.95238095238095,-83.4126984126984,-63.25396825396825,183.4126984126984,-74.36507936507937,184.52380952380952,-38.17460317460317,325.0,-286.58730158730157,16.746031746031743,71.98412698412697,146.74603174603175,171.8253968253968,-4.682539682539682,-0.3968253968253968,-166.26984126984127
52.14285714285714,-76.74603174603175,-7.3809523809523805,77.06349206349206,-172.77777777777777,-34.047619047619044,88.17460317460316,-0.23809523809523808,-45.95238095238095,-83.4126984126984,-63.25396825396825,183.4126984126984,-74.36507936507937,184.52380952380952,-38.17460317460317,325.0,-286.58730158730157,16.746031746031743,71.98412698412697,146.74603174603175,171.8253968253968,-4.682539682539682,-0.3968253968253968,-166.26984126984127
52.14285714285714,-76.74603174603175,-7.3809523809523805,77.06349206349206,-172.77777777777777,-34.047619047619044,88.17460317460316,-0.23809523809523808,-45.95238095238095,-83.4126984126984,-63.25396825396825,183.4126984126984,-74.36507936507937,184.52380952380952,-38.17460317460317,325.0,-286.58730158730157,16.746031746031743,71.98412698412697,146.74603174603175,171.8253968253968,-4.682539682539682,-0.3968253968253968,-166.26984126984127
52.14285714285714,-76.74603174603175,-7.3809523809523805,77.06349206349206,-172.77777777777777,-34.047619047619044,88.17460317460316,-0.23809523809523808,-45.95238095238095,-83.4126984126984,-63.25396825396825,183.4126984126984,-74.36507936507937,184.52380952380952,-38.17460317460317,325.0,-286.58730158730157,16.746031746031743,71.98412698412697,146.74603174603175,171.8253968253968,-4.682539682539682,-0.3968253968253968,-166.26984126984127
52.14285714285714,-76.74603174603175,-7.3809523809523805,77.06349206349206,-172.77777777777777,-34.047619047619044,88.17460317460316,-0.23809523809523808,-45.95238095238095,-83.4126984126984,-63.25396825396825,183.4126984126984,-74.36507936507937,184.52380952380952,-38.17460317460317,325.0,-286.58730158730157,16.746031746031743,71.98412698412697,146.74603174603175,171.8253968253968,-4.682539682539682,-0.3968253968253968,-166.26984126984127
52.14285714285714,-76.74603174603175,-7.3809523809523805,77.06349206349206,-172.77777777777777,-34.047619047619044,88.17460317460316,-0.23809523809523808,-45.95238095238095,-83.4126984126984,-63.25396825396825,183.4126984126984,-74.36507936507937,184.52380952380952,-38.17460317460317,325.0,-286.58730158730157,16.746031746031743,71.98412698412697,146.74603174603175,171.8253968253968,-4.682539682539682,-0.3968253968253968,-166.26984126984127
52.14285714285714,-76.74603174603175,-7.3809523809523805,77.06349206349206,-172.77777777777777,-34.047619047619044,88.17460317460316,-0.23809523809523808,-45.95238095238095,-83.4126984126984,-63.25396825396825,183.4126984126984,-74.36507936507937,184.52380952380952,-38.17460317460317,325.0,-286.58730158730157,16.746031746031743,71.98412698412697,146.74603174603175,171.8253968253968,-4.682539682539682,-0.3968253968253968,-166.26984126984127
52.14285714285714,-76.74603174603175,-7.3809523809523805,77.06349206349206,-172.77777777777777,-34.047619047619044,88.17460317460316,-0.23809523809523808,-45.95238095238095,-83.4126984126984,-63.25396825396825,183.4126984126984,-74.36507936507937,184.52380952380952,-38.17460317460317,325.0,-286.58730158730157,16.746031746031743,71.98412698412697,146.74603174603175,171.8253968253968,-4.682539682539682,-0.3968253968253968,-166.26984126984127
52.14285714285714,-76.74603174603175,-7.3809523809523805,77.06349206349206,-172.77777777777777,-34.047619047619044,88.17460317460316,-0.23809523809523808,-45.95238095238095,-83.4126984126984,-63.25396825396825,183.4126984126984,-74.36507936507937,184.52380952380952,-38.17460317460317,325.0,-286.58730158730157,16.746031746031743,71.98412698412697,146.74603174603175,171.8253968253968,-4.682539682539682,-0.3968253968253968,-321.8253968253968
52.14285714285714,-76.74603174603175,-7.3809523809523805,77.06349206349206,-172.77777777777777,-34.047619047619044,88.17460317460316,-0.23809523809523808,-45.95238095238095,-83.4126984126984,-63.25396825396825,183.4126984126984,-74.36507936507937,184.52380952380952,-38.17460317460317,325.0,-286.58730158730157,16.746031746031743,71.98412698412697,146.74603174603175,171.8253968253968,-4.682539682539682,-0.3968253968253968,-321.8253968253968
-27.857142857142854,4.523809523809524,7.698412698412698,-21.825396825396822,-231.66666666666666,-26.746031746031743,-165.3174603174603,-4.0476190476190474,-248.17460317460316,15.158730158730158,-28.333333333333332,-48.650793650793645,74.2063492063492,-138.33333333333331,-22.142857142857142,185.95238095238093,-256.58730158730157,-49.76190476190476,-31.507936507936506,-117.53968253968253,-87.53968253968253,1.6666666666666665,-0.07936507936507936,-321.8253968253968
-27.857142857142854,4.523809523809524,7.698412698412698,-21.825396825396822,-231.66666666666666,-26.746031746031743,-165.3174603174603,-4.0476190476190474,-248.17460317460316,15.158730158730158,-28.333333333333332,-48.650793650793645,74.2063492063492,-138.33333333333331,-22.142857142857142,185.95238095238093,-256.58730158730157,-49.76190476190476,-31.507936507936506,-117.53968253968253,-87.53968253968253,1.6666666666666665,-0.07936507936507936,-321.8253968253968
-303.25396825396825,82.46031746031746,10.873015873015872,-16.428571428571427,-138.17460317460316,-2.46031746031746,-301.8253968253968,-19.285714285714285,-171.19047619047618,87.06349206349206,-259.44444444444446,-149.76190476190476,-176.58730158730157,-21.984126984126984,-225.95238095238093,117.53968253968253,-325.0,-14.523809523809524,-52.77777777777777,-175.15873015873015,7.222222222222221,1.1904761904761905,1.984126984126984,-321.8253968253968
-303.25396825396825,82.46031746031746,10.873015873015872,-16.428571428571427,-138.17460317460316,-2.46031746031746,-301.8253968253968,-19.285714285714285,-171.19047619047618,87.06349206349206,-259.44444444444446,-149.76190476190476,-176.58730158730157,-21.984126984126984,-225.95238095238093,117.53968253968253,-325.0,-14.523809523809524,-52.77777777777777,-175.15873015873015,7.222222222222221,1.1904761904761905,1.984126984126984,-321.8253968253968
-303.25396825396825,82.46031746031746,10.873015873015872,-16.428571428571427,-138.17460317460316,-2.46031746031746,-301.8253968253968,-19.285714285714285,-171.19047619047618,87.06349206349206,-259.44444444444446,-149.76190476190476,-176.58730158730157,-21.984126984126984,-225.95238095238093,117.53968253968253,-325.0,-14.523809523809524,-52.77777777777777,-175.15873015873015,7.222222222222221,1.1904761904761905,1.984126984126984,-321.8253968253968
-303.25396825396825,82.46031746031746,10.873015873015872,-16.428571428571427,-138.17460317460316,-2.46031746031746,-301.8253968253968,-19.285714285714285,-171.19047619047618,87.06349206349206,-259.44444444444446,-149.76190476190476,-176.58730158730157,-21.984126984126984,-225.95238095238093,117.53968253968253,-325.0,-14.523809523809524,-52.77777777777777,-175.15873015873015,7.222222222222221,1.1904761904761905,1.984126984126984,-321.8253968253968
-303.25396825396825,82.46031746031746,10.873015873015872,-16.428571428571427,-138.17460317460316,-2.46031746031746,-301.8253968253968,-19.285714285714285,-171.19047619047618,87.06349206349206,-259.44444444444446,-149.76190476190476,-176.58730158730157,-21.984126984126984,-225.95238095238093,117.53968253968253,-325.0,-14.523809523809524,-52.77777777777777,-175.15873015873015,7.222222222222221,1.1904761904761905,1.984126984126984,-321.8253968253968
-303.25396825396825,82.46031746031746,10.873015873015872,-16.428571428571427,-138.17460317460316,-2.46031746031746,-301.8253968253968,-19.285714285714285,-171.19047619047618,87.06349206349206,-259.44444444444446,-149.76190476190476,-176.58730158730157,-21.984126984126984,-225.95238095238093,117.53968253968253,-325.0,-14.523809523809524,-52.77777777777777,-175.15873015873015,7.222222222222221,1.1904761904761905,1.984126984126984,-321.8253968253968
-303.25396825396825,82.46031746031746,10.873015873015872,-16.428571428571427,-138.17460317460316,-2.46031746031746,-301.8253968253968,-19.285714285714285,-171.19047619047618,87.06349206349206,-259.44444444444446,-149.76190476190476,-176.58730158730157,-21.984126984126984,-225.95238095238093,117.53968253968253,-325.0,-14.523809523809524,-52.77777777777777,-175.15873015873015,7.222222222222221,1.1904761904761905,1.984126984126984,-166.26984126984127
-303.25396825396825,82.46031746031746,10.873015873015872,-16.428571428571427,-138.17460317460316,-2.46031746031746,-301.8253968253968,-19.285714285714285,-171.19047619047618,87.06349206349206,-259.44444444444446,-149.76190476190476,-176.58730158730157,-21.984126984126984,-225.95238095238093,117.53968253968253,-325.0,-14.523809523809524,-52.77777777777777,-175.15873015873015,7.222222222222221,1.1904761904761905,1.984126984126984,-166.26984126984127
-303.25396825396825,82.46031746031746,10.873015873015872,-16.428571428571427,-138.17460317460316,-2.46031746031746,-301.8253968253968,-19.285714285714285,-171.19047619047618,87.06349206349206,-259.44444444444446,-149.76190476190476,-176.58730158730157,-21.984126984126984,-225.95238095238093,117.53968253968253,-325.0,-14.523809523809524,-52.77777777777777,-175.15873015873015,7.222222222222221,1.1904761904761905,1.984126984126984,-166.26984126984127
-303.25396825396825,82.46031746031746,10.873015873015872,-16.428571428571427,-138.17460317460316,-2.46031746031746,-301.8253968253968,-19.285714285714285,-171.19047619047618,87.06349206349206,-259.44444444444446,-149.76190476190476,-176.58730158730157,-21.984126984126984,-225.95238095238093,117.53968253968253,-325.0,-14.523809523809524,-52.77777777777777,-175.15873015873015,7.222222222222221,1.1904761904761905,1.984126984126984,-166.26984126984127
91.34920634920634,325.0,2.46031746031746,61.03174603174603,-106.9047619047619,29.126984126984127,176.9047619047619,21.984126984126984,-131.34920634920636,325.0,135.63492063492063,106.58730158730158,107.53968253968253,45.0,110.71428571428571,263.25396825396825,144.84126984126982,12.777777777777777,62.460317460317455,155.63492063492063,97.53968253968253,-4.682539682539682,-2.7777777777777777,-166.26984126984127
91.34920634920634,325.0,2.46031746031746,61.03174603174603,-106.9047619047619,29.126984126984127,176.9047619047619,21.984126984126984,-131.34920634920636,325.0,135.63492063492063,106.58730158730158,107.53968253968253,45.0,110.71428571428571,263.25396825396825,144.84126984126982,12.777777777777777,62.460317460317455,155.63492063492063,97.53968253968253,-4.682539682539682,-2.7777777777777777,-166.26984126984127
70.55555555555556,93.4126984126984,10.714285714285714,8.333333333333332,-105.31746031746032,20.07936507936508,93.73015873015872,20.555555555555554,-129.6031746031746,239.12698412698413,155.0,-48.01587301587301,54.841269841269835,-140.07936507936506,128.33333333333331,148.8095238095238,40.238095238095234,-7.063492063492063,17.063492063492063,31.825396825396822,-51.03174603174603,-0.07936507936507936,-1.507936507936508,-166.26984126984127
70.55555555555556,93.4126984126984,10.714285714285714,8.333333333333332,-105.31746031746032,20.07936507936508,93.73015873015872,20.555555555555554,-129.6031746031746,239.12698412698413,155.0,-48.01587301587301,54.841269841269835,-140.07936507936506,128.33333333333331,148.8095238095238,40.238095238095234,-7.063492063492063,17.063492063492063,31.825396825396822,-51.03174603174603,-0.07936507936507936,-1.507936507936508,-166.26984126984127
-29.76190476190476,325.0,11.031746031746032,40.55555555555555,-103.09523809523809,-11.507936507936508,66.11111111111111,-7.698412698412698,-126.58730158730158,325.0,15.158730158730158,116.9047619047619,9.761904761904761,143.73015873015873,2.7777777777777777,275.0,-19.92063492063492,-5.634920634920634,27.539682539682538,150.87301587301587,137.85714285714286,-4.365079365079365,-1.984126984126984,-166.26984126984127
-29.76190476190476,325.0,11.031746031746032,40.55555555555555,-103.09523809523809,-11.507936507936508,66.11111111111111,-7.698412698412698,-126.58730158730158,325.0,15.158730158730158,116.9047619047619,9.761904761904761,143.73015873015873,2.7777777777777777,275.0,-19.92063492063492,-5.634920634920634,27.539682539682538,150.87301587301587,137.85714285714286,-4.365079365079365,-1.984126984126984,-166.26984126984127
-53.095238095238095,-65.0,18.96825396825397,-48.01587301587301,-101.03174603174602,-10.396825396825395,-182.3015873015873,-4.0476190476190474,-124.04761904761904,118.49206349206348,50.238095238095234,-226.42857142857142,28.96825396825397,-228.8095238095238,42.460317460317455,55.0,-79.76190476190476,-57.857142857142854,-62.14285714285714,-96.58730158730158,-172.93650793650792,3.4126984126984126,1.507936507936508,-321.8253968253968
-53.095238095238095,-65.0,18.96825396825397,-48.01587301587301,-101.03174603174602,-10.396825396825395,-182.3015873015873,-4.0476190476190474,-124.04761904761904,118.49206349206348,50.238095238095234,-226.42857142857142,28.96825396825397,-228.8095238095238,42.460317460317455,55.0,-79.76190476190476,-57.857142857142854,-62.14285714285714,-96.58730158730158,-172.93650793650792,3.4126984126984126,1.507936507936508,-321.8253968253968
-13.412698412698411,325.0,10.396825396825395,45.476190476190474,-99.6031746031746,-37.06349206349206,-71.5079365079365,-11.349206349206348,-122.30158730158729,325.0,-0.873015873015873,120.55555555555554,121.66666666666666,149.44444444444443,-2.3015873015873014,281.8253968253968,-37.698412698412696,-21.666666666666664,18.65079365079365,160.7142857142857,131.03174603174602,-3.73015873015873,-0.07936507936507936,-321.8253968253968
