Fp1[1],Fp2[2],F3[3],F4[4],C3[5],C4[6],P3[7],P4[8],O1[9],O2[10],F7[11],F8[12],T3[13],T4[14],T5[15],T6[16],Fz[17],Pz[18],Cz[19],Pg1[20],Pg2[21],EOGR[22],EOOGL[23],EMG[24]
325.0,-44.2063492063492,-325.0,-325.0,325.0,-325.0,325.0,325.0,-325.0,-53.25396825396825,325.0,-75.79365079365078,16.428571428571427,-30.555555555555554,325.0,-12.142857142857142,325.0,-325.0,325.0,-325.0,-325.0,1.984126984126984,0.7142857142857142,-166.26984126984127
325.0,-44.2063492063492,-325.0,-325.0,325.0,-325.0,325.0,325.0,-325.0,-53.25396825396825,325.0,-75.79365079365078,16.428571428571427,-30.555555555555554,325.0,-12.142857142857142,325.0,-325.0,325.0,-325.0,-325.0,1.984126984126984,0.7142857142857142,-166.26984126984127
325.0,-41.19047619047619,-325.0,-325.0,325.0,-325.0,325.0,325.0,-325.0,-54.36507936507936,325.0,-76.74603174603175,14.523809523809524,-33.73015873015873,325.0,-15.317460317460316,325.0,-325.0,325.0,-325.0,-325.0,-6.587301587301587,-3.73015873015873,-166.26984126984127
325.0,-41.19047619047619,-325.0,-325.0,325.0,-325.0,325.0,325.0,-325.0,-54.36507936507936,325.0,-76.74603174603175,14.523809523809524,-33.73015873015873,325.0,-15.317460317460316,325.0,-325.0,325.0,-325.0,-325.0,-6.587301587301587,-3.73015873015873,-166.26984126984127
325.0,-19.6031746031746,-325.0,-325.0,325.0,-325.0,325.0,325.0,-325.0,-41.34920634920635,325.0,-56.269841269841265,25.158730158730158,-27.539682539682538,325.0,-8.174603174603174,325.0,-325.0,325.0,-325.0,-325.0,5.634920634920634,3.253968253968254,-166.26984126984127
325.0,-19.6031746031746,-325.0,-325.0,325.0,-325.0,325.0,325.0,-325.0,-41.34920634920635,325.0,-56.269841269841265,25.158730158730158,-27.539682539682538,325.0,-8.174603174603174,325.0,-325.0,325.0,-325.0,-325.0,5.634920634920634,3.253968253968254,-166.26984126984127
325.0,-8.492063492063492,-325.0,-325.0,325.0,-325.0,325.0,325.0,-325.0,-34.36507936507936,325.0,-44.52380952380952,30.396825396825395,-24.047619047619047,325.0,-4.2063492063492065,325.0,-325.0,325.0,-325.0,-325.0,5.317460317460317,3.253968253968254,-166.26984126984127
325.0,-8.492063492063492,-325.0,-325.0,325.0,-325.0,325.0,325.0,-325.0,-34.36507936507936,325.0,-44.52380952380952,30.396825396825395,-24.047619047619047,325.0,-4.2063492063492065,325.0,-325.0,325.0,-325.0,-325.0,5.317460317460317,3.253968253968254,-166.26984126984127
325.0,-8.492063492063492,-325.0,-325.0,325.0,-325.0,325.0,325.0,-325.0,-34.36507936507936,325.0,-44.52380952380952,30.396825396825395,-24.047619047619047,325.0,-4.2063492063492065,325.0,-325.0,325.0,-325.0,-325.0,5.317460317460317,3.253968253968254,-166.26984126984127
325.0,-8.492063492063492,-325.0,-325.0,325.0,-325.0,325.0,325.0,-325.0,-34.36507936507936,325.0,-44.52380952380952,30.396825396825395,-24.047619047619047,325.0,-4.2063492063492065,325.0,-325.0,325.0,-325.0,-325.0,5.317460317460317,3.253968253968254,-166.26984126984127
325.0,32.93650793650794,-325.0,-325.0,325.0,-322.9365079365079,325.0,325.0,-322.9365079365079,-17.539682539682538,325.0,-12.3015873015873,-147.38095238095238,-16.904761904761905,325.0,1.984126984126984,325.0,-325.0,325.0,-325.0,-325.0,-0.23809523809523808,0.3968253968253968,-321.8253968253968
325.0,32.93650793650794,-325.0,-325.0,325.0,-322.9365079365079,325.0,325.0,-322.9365079365079,-17.539682539682538,325.0,-12.3015873015873,-147.38095238095238,-16.904761904761905,325.0,1.984126984126984,325.0,-325.0,325.0,-325.0,-325.0,-0.23809523809523808,0.3968253968253968,-321.8253968253968
325.0,74.52380952380952,-325.0,-325.0,325.0,-320.87301587301585,325.0,325.0,-320.87301587301585,-0.5555555555555556,325.0,19.92063492063492,-325.0,-9.603174603174603,325.0,8.333333333333332,325.0,-325.0,325.0,-325.0,-325.0,-5.7936507936507935,-2.46031746031746,-321.8253968253968
325.0,74.52380952380952,-325.0,-325.0,325.0,-320.87301587301585,325.0,325.0,-320.87301587301585,-0.5555555555555556,325.0,19.92063492063492,-325.0,-9.603174603174603,325.0,8.333333333333332,325.0,-325.0,325.0,-325.0,-325.0,-5.7936507936507935,-2.46031746031746,-321.8253968253968
325.0,74.52380952380952,-325.0,-325.0,325.0,-320.87301587301585,325.0,325.0,-320.87301587301585,-0.5555555555555556,325.0,19.92063492063492,-325.0,-9.603174603174603,325.0,8.333333333333332,325.0,-325.0,325.0,-325.0,-325.0,-5.7936507936507935,-2.46031746031746,-321.8253968253968
325.0,74.52380952380952,-325.0,-325.0,325.0,-320.87301587301585,325.0,325.0,-320.87301587301585,-0.5555555555555556,325.0,19.92063492063492,-325.0,-9.603174603174603,325.0,8.333333333333332,325.0,-325.0,325.0,-325.0,-325.0,-5.7936507936507935,-2.46031746031746,-321.8253968253968
325.0,74.52380952380952,-325.0,-325.0,325.0,-320.87301587301585,325.0,325.0,-320.87301587301585,-0.5555555555555556,325.0,19.92063492063492,-325.0,-9.603174603174603,325.0,8.333333333333332,325.0,-325.0,325.0,-325.0,-325.0,-5.7936507936507935,-2.46031746031746,-321.8253968253968
325.0,74.52380952380952,-325.0,-325.0,325.0,-320.87301587301585,325.0,325.0,-320.87301587301585,-0.5555555555555556,325.0,19.92063492063492,-325.0,-9.603174603174603,325.0,8.333333333333332,325.0,-325.0,325.0,-325.0,-325.0,-5.7936507936507935,-2.46031746031746,-321.8253968253968
325.0,74.52380952380952,-325.0,-325.0,325.0,-320.87301587301585,325.0,325.0,-320.87301587301585,-0.5555555555555556,325.0,19.92063492063492,-325.0,-9.603174603174603,325.0,8.333333333333332,325.0,-325.0,325.0,-325.0,-325.0,-5.7936507936507935,-2.46031746031746,-321.8253968253968
325.0,74.52380952380952,-325.0,-325.0,325.0,-320.87301587301585,325.0,325.0,-320.87301587301585,-0.5555555555555556,325.0,19.92063492063492,-325.0,-9.603174603174603,325.0,8.333333333333332,325.0,-325.0,325.0,-325.0,-325.0,-5.7936507936507935,-2.46031746031746,-321.8253968253968
325.0,74.52380952380952,-325.0,-325.0,325.0,-320.87301587301585,325.0,325.0,-320.87301587301585,-0.5555555555555556,325.0,19.92063492063492,-325.0,-9.603174603174603,325.0,8.333333333333332,325.0,-325.0,325.0,-325.0,-325.0,-5.7936507936507935,-2.46031746031746,-166.26984126984127
325.0,74.52380952380952,-325.0,-325.0,325.0,-320.87301587301585,325.0,325.0,-320.87301587301585,-0.5555555555555556,325.0,19.92063492063492,-325.0,-9.603174603174603,325.0,8.333333333333332,325.0,-325.0,325.0,-325.0,-325.0,-5.7936507936507935,-2.46031746031746,-166.26984126984127
325.0,82.61904761904762,-318.968253968254,-325.0,325.0,-303.25396825396825,325.0,325.0,-302.9365079365079,3.253968253968254,325.0,31.03174603174603,-325.0,-7.5396825396825395,325.0,8.65079365079365,325.0,-325.0,325.0,-325.0,-325.0,-0.07936507936507936,-0.07936507936507936,-166.26984126984127
325.0,82.61904761904762,-318.968253968254,-325.0,325.0,-303.25396825396825,325.0,325.0,-302.9365079365079,3.253968253968254,325.0,31.03174603174603,-325.0,-7.5396825396825395,325.0,8.65079365079365,325.0,-325.0,325.0,-325.0,-325.0,-0.07936507936507936,-0.07936507936507936,-166.26984126984127
325.0,90.87301587301587,-302.46031746031747,-325.0,325.0,-276.4285714285714,325.0,325.0,-275.7936507936508,12.3015873015873,325.0,49.285714285714285,-325.0,-1.349206349206349,325.0,11.984126984126984,325.0,-325.0,325.0,-325.0,-324.36507936507934,6.26984126984127,2.3015873015873014,-166.26984126984127
325.0,90.87301587301587,-302.46031746031747,-325.0,325.0,-276.4285714285714,325.0,325.0,-275.7936507936508,12.3015873015873,325.0,49.285714285714285,-325.0,-1.349206349206349,325.0,11.984126984126984,325.0,-325.0,325.0,-325.0,-324.36507936507934,6.26984126984127,2.3015873015873014,-166.26984126984127
325.0,91.19047619047619,-292.1428571428571,-325.0,325.0,-267.06349206349205,325.0,325.0,-266.4285714285714,17.539682539682538,325.0,56.42857142857142,-325.0,2.7777777777777777,325.0,15.158730158730158,325.0,-325.0,325.0,-325.0,-323.73015873015873,6.904761904761904,2.3015873015873014,-166.26984126984127
325.0,91.19047619047619,-292.1428571428571,-325.0,325.0,-267.06349206349205,325.0,325.0,-266.4285714285714,17.539682539682538,325.0,56.42857142857142,-325.0,2.7777777777777777,325.0,15.158730158730158,325.0,-325.0,325.0,-325.0,-323.73015873015873,6.904761904761904,2.3015873015873014,-166.26984126984127
295.6349206349206,60.238095238095234,-235.0,-278.015873015873,272.77777777777777,-216.1111111111111,-0.07936507936507936,-0.07936507936507936,-215.79365079365078,9.126984126984127,272.77777777777777,57.857142857142854,-308.015873015873,2.7777777777777777,286.58730158730157,1.8253968253968254,307.53968253968253,-264.8412698412698,-2.7777777777777777,-263.0952380952381,-258.6507936507936,4.523809523809524,1.6666666666666665,-166.26984126984127
295.6349206349206,60.238095238095234,-235.0,-278.015873015873,272.77777777777777,-216.1111111111111,-0.07936507936507936,-0.07936507936507936,-215.79365079365078,9.126984126984127,272.77777777777777,57.857142857142854,-308.015873015873,2.7777777777777777,286.58730158730157,1.8253968253968254,307.53968253968253,-264.8412698412698,-2.7777777777777777,-263.0952380952381,-258.6507936507936,4.523809523809524,1.6666666666666665,-166.26984126984127
266.26984126984127,40.55555555555555,-187.85714285714283,-231.03174603174602,220.7142857142857,-173.88888888888889,-325.0,-325.0,-173.73015873015873,9.444444444444445,220.55555555555554,64.2063492063492,-291.031746031746,11.507936507936508,248.33333333333331,-1.507936507936508,290.07936507936506,-213.88888888888889,-325.0,-210.3968253968254,-205.0,1.1904761904761905,0.5555555555555556,-321.8253968253968
266.26984126984127,40.55555555555555,-187.85714285714283,-231.03174603174602,220.7142857142857,-173.88888888888889,-325.0,-325.0,-173.73015873015873,9.444444444444445,220.55555555555554,64.2063492063492,-291.031746031746,11.507936507936508,248.33333333333331,-1.507936507936508,290.07936507936506,-213.88888888888889,-325.0,-210.3968253968254,-205.0,1.1904761904761905,0.5555555555555556,-321.8253968253968
266.26984126984127,40.55555555555555,-187.85714285714283,-231.03174603174602,220.7142857142857,-173.88888888888889,-325.0,-325.0,-173.73015873015873,9.444444444444445,220.55555555555554,64.2063492063492,-291.031746031746,11.507936507936508,248.33333333333331,-1.507936507936508,290.07936507936506,-213.88888888888889,-325.0,-210.3968253968254,-205.0,1.1904761904761905,0.5555555555555556,-321.8253968253968
266.26984126984127,40.55555555555555,-187.85714285714283,-231.03174603174602,220.7142857142857,-173.88888888888889,-325.0,-325.0,-173.73015873015873,9.444444444444445,220.55555555555554,64.2063492063492,-291.031746031746,11.507936507936508,248.33333333333331,-1.507936507936508,290.07936507936506,-213.88888888888889,-325.0,-210.3968253968254,-205.0,1.1904761904761905,0.5555555555555556,-321.8253968253968
59.92063492063492,-163.73015873015873,-44.84126984126984,-12.619047619047619,52.61904761904761,325.0,-228.65079365079364,-184.2063492063492,325.0,17.698412698412696,52.61904761904761,-266.74603174603175,-70.07936507936508,10.873015873015872,60.238095238095234,6.111111111111111,67.06349206349206,-53.25396825396825,-178.8095238095238,-49.92063492063492,-45.79365079365079,5.476190476190476,2.9365079365079363,-321.8253968253968
59.92063492063492,-163.73015873015873,-44.84126984126984,-12.619047619047619,52.61904761904761,325.0,-228.65079365079364,-184.2063492063492,325.0,17.698412698412696,52.61904761904761,-266.74603174603175,-70.07936507936508,10.873015873015872,60.238095238095234,6.111111111111111,67.06349206349206,-53.25396825396825,-178.8095238095238,-49.92063492063492,-45.79365079365079,5.476190476190476,2.9365079365079363,-321.8253968253968
58.650793650793645,-160.23809523809524,-44.2063492063492,221.98412698412696,51.666666666666664,325.0,-223.88888888888889,-180.23809523809524,325.0,14.206349206349206,51.34920634920635,-261.031746031746,-68.65079365079364,6.587301587301587,58.96825396825397,2.46031746031746,65.47619047619047,-52.3015873015873,-175.3174603174603,-48.650793650793645,-45.0,-6.746031746031746,-3.571428571428571,-321.8253968253968
58.650793650793645,-160.23809523809524,-44.2063492063492,221.98412698412696,51.666666666666664,325.0,-223.88888888888889,-180.23809523809524,325.0,14.206349206349206,51.34920634920635,-261.031746031746,-68.65079365079364,6.587301587301587,58.96825396825397,2.46031746031746,65.47619047619047,-52.3015873015873,-175.3174603174603,-48.650793650793645,-45.0,-6.746031746031746,-3.571428571428571,-321.8253968253968
58.33333333333333,-159.6031746031746,-44.047619047619044,223.88888888888889,51.507936507936506,325.0,-222.77777777777777,-179.44444444444443,325.0,15.634920634920634,51.19047619047619,-259.76190476190476,-68.4920634920635,7.5396825396825395,58.8095238095238,3.4126984126984126,65.15873015873015,-51.98412698412698,-174.68253968253967,-48.33333333333333,-44.68253968253968,-6.904761904761904,-3.73015873015873,-321.8253968253968
58.33333333333333,-159.6031746031746,-44.047619047619044,223.88888888888889,51.507936507936506,325.0,-222.77777777777777,-179.44444444444443,325.0,15.634920634920634,51.19047619047619,-259.76190476190476,-68.4920634920635,7.5396825396825395,58.8095238095238,3.4126984126984126,65.15873015873015,-51.98412698412698,-174.68253968253967,-48.33333333333333,-44.68253968253968,-6.904761904761904,-3.73015873015873,-321.8253968253968
56.58730158730158,-155.0,-42.77777777777778,325.0,49.76190476190476,324.5238095238095,-216.26984126984127,-174.52380952380952,325.0,11.507936507936508,49.6031746031746,-251.98412698412696,-66.58730158730158,3.888888888888889,57.22222222222222,-0.5555555555555556,63.095238095238095,-50.71428571428571,-169.60317460317458,-47.22222222222222,-43.41269841269841,-8.174603174603174,-3.095238095238095,-166.26984126984127
56.58730158730158,-155.0,-42.77777777777778,325.0,49.76190476190476,324.5238095238095,-216.26984126984127,-174.52380952380952,325.0,11.507936507936508,49.6031746031746,-251.98412698412696,-66.58730158730158,3.888888888888889,57.22222222222222,-0.5555555555555556,63.095238095238095,-50.71428571428571,-169.60317460317458,-47.22222222222222,-43.41269841269841,-8.174603174603174,-3.095238095238095,-166.26984126984127
55.95238095238095,-152.77777777777777,-42.3015873015873,325.0,49.285714285714285,321.66666666666663,-213.7301587301587,-172.14285714285714,325.0,9.126984126984127,49.12698412698413,-248.8095238095238,-65.47619047619047,1.984126984126984,56.11111111111111,-2.46031746031746,62.3015873015873,-49.92063492063492,-167.38095238095238,-46.58730158730158,-42.77777777777778,7.5396825396825395,2.142857142857143,-166.26984126984127
55.95238095238095,-152.77777777777777,-42.3015873015873,325.0,49.285714285714285,321.66666666666663,-213.7301587301587,-172.14285714285714,325.0,9.126984126984127,49.12698412698413,-248.8095238095238,-65.47619047619047,1.984126984126984,56.11111111111111,-2.46031746031746,62.3015873015873,-49.92063492063492,-167.38095238095238,-46.58730158730158,-42.77777777777778,7.5396825396825395,2.142857142857143,-166.26984126984127
53.888888888888886,-147.69841269841268,-40.87301587301587,325.0,47.53968253968254,310.87301587301585,-206.58730158730157,-166.9047619047619,325.0,10.396825396825395,47.38095238095238,-240.2380952380952,-63.41269841269841,6.587301587301587,54.68253968253968,-1.6666666666666665,60.238095238095234,190.3968253968254,-161.8253968253968,-45.0,-41.507936507936506,-0.5555555555555556,-0.873015873015873,-166.26984126984127
53.888888888888886,-147.69841269841268,-40.87301587301587,325.0,47.53968253968254,310.87301587301585,-206.58730158730157,-166.9047619047619,325.0,10.396825396825395,47.38095238095238,-240.2380952380952,-63.41269841269841,6.587301587301587,54.68253968253968,-1.6666666666666665,60.238095238095234,190.3968253968254,-161.8253968253968,-45.0,-41.507936507936506,-0.5555555555555556,-0.873015873015873,-166.26984126984127
51.507936507936506,-141.34920634920636,-39.285714285714285,325.0,45.63492063492063,298.4920634920635,-197.85714285714283,-160.07936507936506,325.0,9.444444444444445,45.476190476190474,-229.9206349206349,-60.873015873015866,6.746031746031746,52.3015873015873,-2.142857142857143,-41.507936507936506,325.0,-155.15873015873015,-43.25396825396825,-39.6031746031746,5.476190476190476,2.46031746031746,-166.26984126984127
51.507936507936506,-141.34920634920636,-39.285714285714285,325.0,45.63492063492063,298.4920634920635,-197.85714285714283,-160.07936507936506,325.0,9.444444444444445,45.476190476190474,-229.9206349206349,-60.873015873015866,6.746031746031746,52.3015873015873,-2.142857142857143,-41.507936507936506,325.0,-155.15873015873015,-43.25396825396825,-39.6031746031746,5.476190476190476,2.46031746031746,-166.26984126984127
51.507936507936506,-141.34920634920636,-39.285714285714285,325.0,45.63492063492063,298.4920634920635,-197.85714285714283,-160.07936507936506,325.0,9.444444444444445,45.476190476190474,-229.9206349206349,-60.873015873015866,6.746031746031746,52.3015873015873,-2.142857142857143,-41.507936507936506,325.0,-155.15873015873015,-43.25396825396825,-39.6031746031746,5.476190476190476,2.46031746031746,-166.26984126984127
51.507936507936506,-141.34920634920636,-39.285714285714285,325.0,45.63492063492063,298.4920634920635,-197.85714285714283,-160.07936507936506,325.0,9.444444444444445,45.476190476190474,-229.9206349206349,-60.873015873015866,6.746031746031746,52.3015873015873,-2.142857142857143,-41.507936507936506,325.0,-155.15873015873015,-43.25396825396825,-39.6031746031746,5.476190476190476,2.46031746031746,-166.26984126984127
51.507936507936506,-141.34920634920636,-39.285714285714285,325.0,45.63492063492063,298.4920634920635,-197.85714285714283,-160.07936507936506,325.0,9.444444444444445,45.476190476190474,-229.9206349206349,-60.873015873015866,6.746031746031746,52.3015873015873,-2.142857142857143,-41.507936507936506,325.0,-155.15873015873015,-43.25396825396825,-39.6031746031746,5.476190476190476,2.46031746031746,-321.8253968253968
51.507936507936506,-141.34920634920636,-39.285714285714285,325.0,45.63492063492063,298.4920634920635,-197.85714285714283,-160.07936507936506,325.0,9.444444444444445,45.476190476190474,-229.9206349206349,-60.873015873015866,6.746031746031746,52.3015873015873,-2.142857142857143,-41.507936507936506,325.0,-155.15873015873015,-43.25396825396825,-39.6031746031746,5.476190476190476,2.46031746031746,-321.8253968253968
51.507936507936506,-141.34920634920636,-39.285714285714285,325.0,45.63492063492063,298.4920634920635,-197.85714285714283,-160.07936507936506,325.0,9.444444444444445,45.476190476190474,-229.9206349206349,-60.873015873015866,6.746031746031746,52.3015873015873,-2.142857142857143,-41.507936507936506,325.0,-155.15873015873015,-43.25396825396825,-39.6031746031746,5.476190476190476,2.46031746031746,-321.8253968253968
51.507936507936506,-141.34920634920636,-39.285714285714285,325.0,45.63492063492063,298.4920634920635,-197.85714285714283,-160.07936507936506,325.0,9.444444444444445,45.476190476190474,-229.9206349206349,-60.873015873015866,6.746031746031746,52.3015873015873,-2.142857142857143,-41.507936507936506,325.0,-155.15873015873015,-43.25396825396825,-39.6031746031746,5.476190476190476,2.46031746031746,-321.8253968253968
40.079365079365076,-111.19047619047619,-31.03174603174603,325.0,35.95238095238095,236.58730158730157,-156.11111111111111,-127.38095238095238,325.0,10.079365079365079,35.79365079365079,-180.07936507936506,-47.857142857142854,8.968253968253968,41.34920634920635,5.476190476190476,-325.0,325.0,-122.6190476190476,325.0,-30.87301587301587,4.2063492063492065,0.5555555555555556,-321.8253968253968
40.079365079365076,-111.19047619047619,-31.03174603174603,325.0,35.95238095238095,236.58730158730157,-156.11111111111111,-127.38095238095238,325.0,10.079365079365079,35.79365079365079,-180.07936507936506,-47.857142857142854,8.968253968253968,41.34920634920635,5.476190476190476,-325.0,325.0,-122.6190476190476,325.0,-30.87301587301587,4.2063492063492065,0.5555555555555556,-321.8253968253968
40.079365079365076,-111.19047619047619,-31.03174603174603,325.0,35.95238095238095,236.58730158730157,-156.11111111111111,-127.38095238095238,325.0,10.079365079365079,35.79365079365079,-180.07936507936506,-47.857142857142854,8.968253968253968,41.34920634920635,5.476190476190476,-325.0,325.0,-122.6190476190476,325.0,-30.87301587301587,4.2063492063492065,0.5555555555555556,-321.8253968253968
40.079365079365076,-111.19047619047619,-31.03174603174603,325.0,35.95238095238095,236.58730158730157,-156.11111111111111,-127.38095238095238,325.0,10.079365079365079,35.79365079365079,-180.07936507936506,-47.857142857142854,8.968253968253968,41.34920634920635,5.476190476190476,-325.0,325.0,-122.6190476190476,325.0,-30.87301587301587,4.2063492063492065,0.5555555555555556,-321.8253968253968
40.079365079365076,-111.19047619047619,-31.03174603174603,325.0,35.95238095238095,236.58730158730157,-156.11111111111111,-127.38095238095238,325.0,10.079365079365079,35.79365079365079,-180.07936507936506,-47.857142857142854,8.968253968253968,41.34920634920635,5.476190476190476,-325.0,325.0,-122.6190476190476,325.0,-30.87301587301587,4.2063492063492065,0.5555555555555556,-321.8253968253968
40.079365079365076,-111.19047619047619,-31.03174603174603,325.0,35.95238095238095,236.58730158730157,-156.11111111111111,-127.38095238095238,325.0,10.079365079365079,35.79365079365079,-180.07936507936506,-47.857142857142854,8.968253968253968,41.34920634920635,5.476190476190476,-325.0,325.0,-122.6190476190476,325.0,-30.87301587301587,4.2063492063492065,0.5555555555555556,-321.8253968253968
40.079365079365076,-111.19047619047619,-31.03174603174603,325.0,35.95238095238095,236.58730158730157,-156.11111111111111,-127.38095238095238,325.0,10.079365079365079,35.79365079365079,-180.07936507936506,-47.857142857142854,8.968253968253968,41.34920634920635,5.476190476190476,-325.0,325.0,-122.6190476190476,325.0,-30.87301587301587,4.2063492063492065,0.5555555555555556,-166.26984126984127
40.079365079365076,-111.19047619047619,-31.03174603174603,325.0,35.95238095238095,236.58730158730157,-156.11111111111111,-127.38095238095238,325.0,10.079365079365079,35.79365079365079,-180.07936507936506,-47.857142857142854,8.968253968253968,41.34920634920635,5.476190476190476,-325.0,325.0,-122.6190476190476,325.0,-30.87301587301587,4.2063492063492065,0.5555555555555556,-166.26984126984127
36.58730158730159,-101.66666666666666,-28.65079365079365,325.0,32.77777777777778,216.58730158730157,-93.57142857142857,-116.9047619047619,325.0,7.698412698412698,32.77777777777778,-164.36507936507937,-43.888888888888886,7.5396825396825395,37.698412698412696,7.3809523809523805,-325.0,325.0,-112.14285714285714,325.0,-28.174603174603174,1.0317460317460316,-0.07936507936507936,-166.26984126984127
36.58730158730159,-101.66666666666666,-28.65079365079365,325.0,32.77777777777778,216.58730158730157,-93.57142857142857,-116.9047619047619,325.0,7.698412698412698,32.77777777777778,-164.36507936507937,-43.888888888888886,7.5396825396825395,37.698412698412696,7.3809523809523805,-325.0,325.0,-112.14285714285714,325.0,-28.174603174603174,1.0317460317460316,-0.07936507936507936,-166.26984126984127
33.095238095238095,-91.98412698412697,-26.11111111111111,325.0,29.76190476190476,196.74603174603175,-31.03174603174603,-106.42857142857142,325.0,5.476190476190476,29.76190476190476,-148.65079365079364,-39.76190476190476,6.111111111111111,34.047619047619044,9.444444444444445,-325.0,325.0,-101.5079365079365,325.0,-25.476190476190474,-2.142857142857143,-0.5555555555555556,-166.26984126984127
33.095238095238095,-91.98412698412697,-26.11111111111111,325.0,29.76190476190476,196.74603174603175,-31.03174603174603,-106.42857142857142,325.0,5.476190476190476,29.76190476190476,-148.65079365079364,-39.76190476190476,6.111111111111111,34.047619047619044,9.444444444444445,-325.0,325.0,-101.5079365079365,325.0,-25.476190476190474,-2.142857142857143,-0.5555555555555556,-166.26984126984127
33.095238095238095,-91.98412698412697,-26.11111111111111,325.0,29.76190476190476,196.74603174603175,-31.03174603174603,-106.42857142857142,325.0,5.476190476190476,29.76190476190476,-148.65079365079364,-39.76190476190476,6.111111111111111,34.047619047619044,9.444444444444445,-325.0,325.0,-101.5079365079365,325.0,-25.476190476190474,-2.142857142857143,-0.5555555555555556,-166.26984126984127
33.095238095238095,-91.98412698412697,-26.11111111111111,325.0,29.76190476190476,196.74603174603175,-31.03174603174603,-106.42857142857142,325.0,5.476190476190476,29.76190476190476,-148.65079365079364,-39.76190476190476,6.111111111111111,34.047619047619044,9.444444444444445,-325.0,325.0,-101.5079365079365,325.0,-25.476190476190474,-2.142857142857143,-0.5555555555555556,-166.26984126984127
33.095238095238095,-91.98412698412697,-26.11111111111111,325.0,29.76190476190476,196.74603174603175,-31.03174603174603,-106.42857142857142,325.0,5.476190476190476,29.76190476190476,-148.65079365079364,-39.76190476190476,6.111111111111111,34.047619047619044,9.444444444444445,-325.0,325.0,-101.5079365079365,325.0,-25.476190476190474,-2.142857142857143,-0.5555555555555556,-166.26984126984127
33.095238095238095,-91.98412698412697,-26.11111111111111,325.0,29.76190476190476,196.74603174603175,-31.03174603174603,-106.42857142857142,325.0,5.476190476190476,29.76190476190476,-148.65079365079364,-39.76190476190476,6.111111111111111,34.047619047619044,9.444444444444445,-325.0,325.0,-101.5079365079365,325.0,-25.476190476190474,-2.142857142857143,-0.5555555555555556,-166.26984126984127
33.095238095238095,-91.98412698412697,-26.11111111111111,325.0,29.76190476190476,196.74603174603175,-31.03174603174603,-106.42857142857142,325.0,5.476190476190476,29.76190476190476,-148.65079365079364,-39.76190476190476,6.111111111111111,34.047619047619044,9.444444444444445,-325.0,325.0,-101.5079365079365,325.0,-25.476190476190474,-2.142857142857143,-0.5555555555555556,-321.8253968253968
33.095238095238095,-91.98412698412697,-26.11111111111111,325.0,29.76190476190476,196.74603174603175,-31.03174603174603,-106.42857142857142,325.0,5.476190476190476,29.76190476190476,-148.65079365079364,-39.76190476190476,6.111111111111111,34.047619047619044,9.444444444444445,-325.0,325.0,-101.5079365079365,325.0,-25.476190476190474,-2.142857142857143,-0.5555555555555556,-321.8253968253968
33.095238095238095,-91.98412698412697,-26.11111111111111,325.0,29.76190476190476,196.74603174603175,-31.03174603174603,-106.42857142857142,325.0,5.476190476190476,29.76190476190476,-148.65079365079364,-39.76190476190476,6.111111111111111,34.047619047619044,9.444444444444445,-325.0,325.0,-101.5079365079365,325.0,-25.476190476190474,-2.142857142857143,-0.5555555555555556,-321.8253968253968
33.095238095238095,-91.98412698412697,-26.11111111111111,325.0,29.76190476190476,196.74603174603175,-31.03174603174603,-106.42857142857142,325.0,5.476190476190476,29.76190476190476,-148.65079365079364,-39.76190476190476,6.111111111111111,34.047619047619044,9.444444444444445,-325.0,325.0,-101.5079365079365,325.0,-25.476190476190474,-2.142857142857143,-0.5555555555555556,-321.8253968253968
33.095238095238095,-91.98412698412697,-26.11111111111111,325.0,29.76190476190476,196.74603174603175,-31.03174603174603,-106.42857142857142,325.0,5.476190476190476,29.76190476190476,-148.65079365079364,-39.76190476190476,6.111111111111111,34.047619047619044,9.444444444444445,-325.0,325.0,-101.5079365079365,325.0,-25.476190476190474,-2.142857142857143,-0.5555555555555556,-321.8253968253968
33.095238095238095,-91.98412698412697,-26.11111111111111,325.0,29.76190476190476,196.74603174603175,-31.03174603174603,-106.42857142857142,325.0,5.476190476190476,29.76190476190476,-148.65079365079364,-39.76190476190476,6.111111111111111,34.047619047619044,9.444444444444445,-325.0,325.0,-101.5079365079365,325.0,-25.476190476190474,-2.142857142857143,-0.5555555555555556,-321.8253968253968
33.095238095238095,-91.98412698412697,-26.11111111111111,325.0,29.76190476190476,196.74603174603175,-31.03174603174603,-106.42857142857142,325.0,5.476190476190476,29.76190476190476,-148.65079365079364,-39.76190476190476,6.111111111111111,34.047619047619044,9.444444444444445,-325.0,325.0,-101.5079365079365,325.0,-25.476190476190474,-2.142857142857143,-0.5555555555555556,-321.8253968253968
33.095238095238095,-91.98412698412697,-26.11111111111111,325.0,29.76190476190476,196.74603174603175,-31.03174603174603,-106.42857142857142,325.0,5.476190476190476,29.76190476190476,-148.65079365079364,-39.76190476190476,6.111111111111111,34.047619047619044,9.444444444444445,-325.0,325.0,-101.5079365079365,325.0,-25.476190476190474,-2.142857142857143,-0.5555555555555556,-321.8253968253968
33.095238095238095,-91.98412698412697,-26.11111111111111,325.0,29.76190476190476,196.74603174603175,-31.03174603174603,-106.42857142857142,325.0,5.476190476190476,29.76190476190476,-148.65079365079364,-39.76190476190476,6.111111111111111,34.047619047619044,9.444444444444445,-325.0,325.0,-101.5079365079365,325.0,-25.476190476190474,-2.142857142857143,-0.5555555555555556,-321.8253968253968
33.095238095238095,-91.98412698412697,-26.11111111111111,325.0,29.76190476190476,196.74603174603175,-31.03174603174603,-106.42857142857142,325.0,5.476190476190476,29.76190476190476,-148.65079365079364,-39.76190476190476,6.111111111111111,34.047619047619044,9.444444444444445,-325.0,325.0,-101.5079365079365,325.0,-25.476190476190474,-2.142857142857143,-0.5555555555555556,-321.8253968253968
33.095238095238095,-91.98412698412697,-26.11111111111111,325.0,29.76190476190476,196.74603174603175,-31.03174603174603,-106.42857142857142,325.0,5.476190476190476,29.76190476190476,-148.65079365079364,-39.76190476190476,6.111111111111111,34.047619047619044,9.444444444444445,-325.0,325.0,-101.5079365079365,325.0,-25.476190476190474,-2.142857142857143,-0.5555555555555556,-166.26984126984127
33.095238095238095,-91.98412698412697,-26.11111111111111,325.0,29.76190476190476,196.74603174603175,-31.03174603174603,-106.42857142857142,325.0,5.476190476190476,29.76190476190476,-148.65079365079364,-39.76190476190476,6.111111111111111,34.047619047619044,9.444444444444445,-325.0,325.0,-101.5079365079365,325.0,-25.476190476190474,-2.142857142857143,-0.5555555555555556,-166.26984126984127
33.095238095238095,-91.98412698412697,-26.11111111111111,325.0,29.76190476190476,196.74603174603175,-31.03174603174603,-106.42857142857142,325.0,5.476190476190476,29.76190476190476,-148.65079365079364,-39.76190476190476,6.111111111111111,34.047619047619044,9.444444444444445,-325.0,325.0,-101.5079365079365,325.0,-25.476190476190474,-2.142857142857143,-0.5555555555555556,-166.26984126984127
33.095238095238095,-91.98412698412697,-26.11111111111111,325.0,29.76190476190476,196.74603174603175,-31.03174603174603,-106.42857142857142,325.0,5.476190476190476,29.76190476190476,-148.65079365079364,-39.76190476190476,6.111111111111111,34.047619047619044,9.444444444444445,-325.0,325.0,-101.5079365079365,325.0,-25.476190476190474,-2.142857142857143,-0.5555555555555556,-166.26984126984127
33.095238095238095,-91.98412698412697,-26.11111111111111,325.0,29.76190476190476,196.74603174603175,-31.03174603174603,-106.42857142857142,325.0,5.476190476190476,29.76190476190476,-148.65079365079364,-39.76190476190476,6.111111111111111,34.047619047619044,9.444444444444445,-325.0,325.0,-101.5079365079365,325.0,-25.476190476190474,-2.142857142857143,-0.5555555555555556,-166.26984126984127
33.095238095238095,-91.98412698412697,-26.11111111111111,325.0,29.76190476190476,196.74603174603175,-31.03174603174603,-106.42857142857142,325.0,5.476190476190476,29.76190476190476,-148.65079365079364,-39.76190476190476,6.111111111111111,34.047619047619044,9.444444444444445,-325.0,325.0,-101.5079365079365,325.0,-25.476190476190474,-2.142857142857143,-0.5555555555555556,-166.26984126984127
33.095238095238095,-91.98412698412697,-26.11111111111111,325.0,29.76190476190476,196.74603174603175,-31.03174603174603,-106.42857142857142,325.0,5.476190476190476,29.76190476190476,-148.65079365079364,-39.76190476190476,6.111111111111111,34.047619047619044,9.444444444444445,-325.0,325.0,-101.5079365079365,325.0,-25.476190476190474,-2.142857142857143,-0.5555555555555556,-166.26984126984127
33.095238095238095,-91.98412698412697,-26.11111111111111,325.0,29.76190476190476,196.74603174603175,-31.03174603174603,-106.42857142857142,325.0,5.476190476190476,29.76190476190476,-148.65079365079364,-39.76190476190476,6.111111111111111,34.047619047619044,9.444444444444445,-325.0,325.0,-101.5079365079365,325.0,-25.476190476190474,-2.142857142857143,-0.5555555555555556,-166.26984126984127
33.095238095238095,-91.98412698412697,-26.11111111111111,325.0,29.76190476190476,196.74603174603175,-31.03174603174603,-106.42857142857142,325.0,5.476190476190476,29.76190476190476,-148.65079365079364,-39.76190476190476,6.111111111111111,34.047619047619044,9.444444444444445,-325.0,325.0,-101.5079365079365,325.0,-25.476190476190474,-2.142857142857143,-0.5555555555555556,-166.26984126984127
33.095238095238095,-91.98412698412697,-26.11111111111111,325.0,29.76190476190476,196.74603174603175,-31.03174603174603,-106.42857142857142,325.0,5.476190476190476,29.76190476190476,-148.65079365079364,-39.76190476190476,6.111111111111111,34.047619047619044,9.444444444444445,-325.0,325.0,-101.5079365079365,325.0,-25.476190476190474,-2.142857142857143,-0.5555555555555556,-166.26984126984127
33.095238095238095,-91.98412698412697,-26.11111111111111,325.0,29.76190476190476,196.74603174603175,-31.03174603174603,-106.42857142857142,325.0,5.476190476190476,29.76190476190476,-148.65079365079364,-39.76190476190476,6.111111111111111,34.047619047619044,9.444444444444445,-325.0,325.0,-101.5079365079365,325.0,-25.476190476190474,-2.142857142857143,-0.5555555555555556,-321.8253968253968
33.095238095238095,-91.98412698412697,-26.11111111111111,325.0,29.76190476190476,196.74603174603175,-31.03174603174603,-106.42857142857142,325.0,5.476190476190476,29.76190476190476,-148.65079365079364,-39.76190476190476,6.111111111111111,34.047619047619044,9.444444444444445,-325.0,325.0,-101.5079365079365,325.0,-25.476190476190474,-2.142857142857143,-0.5555555555555556,-321.8253968253968
33.095238095238095,-91.98412698412697,-26.11111111111111,325.0,29.76190476190476,196.74603174603175,-31.03174603174603,-106.42857142857142,325.0,5.476190476190476,29.76190476190476,-148.65079365079364,-39.76190476190476,6.111111111111111,34.047619047619044,9.444444444444445,-325.0,325.0,-101.5079365079365,325.0,-25.476190476190474,-2.142857142857143,-0.5555555555555556,-321.8253968253968
33.095238095238095,-91.98412698412697,-26.11111111111111,325.0,29.76190476190476,196.74603174603175,-31.03174603174603,-106.42857142857142,325.0,5.476190476190476,29.76190476190476,-148.65079365079364,-39.76190476190476,6.111111111111111,34.047619047619044,9.444444444444445,-325.0,325.0,-101.5079365079365,325.0,-25.476190476190474,-2.142857142857143,-0.5555555555555556,-321.8253968253968
33.095238095238095,-91.98412698412697,-26.11111111111111,325.0,29.76190476190476,196.74603174603175,-31.03174603174603,-106.42857142857142,325.0,5.476190476190476,29.76190476190476,-148.65079365079364,-39.76190476190476,6.111111111111111,34.047619047619044,9.444444444444445,-325.0,325.0,-101.5079365079365,325.0,-25.476190476190474,-2.142857142857143,-0.5555555555555556,-321.8253968253968
33.095238095238095,-91.98412698412697,-26.11111111111111,325.0,29.76190476190476,196.74603174603175,-31.03174603174603,-106.42857142857142,325.0,5.476190476190476,29.76190476190476,-148.65079365079364,-39.76190476190476,6.111111111111111,34.047619047619044,9.444444444444445,-325.0,325.0,-101.5079365079365,325.0,-25.476190476190474,-2.142857142857143,-0.5555555555555556,-321.8253968253968
33.095238095238095,-91.98412698412697,-26.11111111111111,325.0,29.76190476190476,196.74603174603175,-31.03174603174603,-106.42857142857142,325.0,5.476190476190476,29.76190476190476,-148.65079365079364,-39.76190476190476,6.111111111111111,34.047619047619044,9.444444444444445,-325.0,325.0,-101.5079365079365,325.0,-25.476190476190474,-2.142857142857143,-0.5555555555555556,-321.8253968253968
33.095238095238095,-91.98412698412697,-26.11111111111111,325.0,29.76190476190476,196.74603174603175,-31.03174603174603,-106.42857142857142,325.0,5.476190476190476,29.76190476190476,-148.65079365079364,-39.76190476190476,6.111111111111111,34.047619047619044,9.444444444444445,-325.0,325.0,-101.5079365079365,325.0,-25.476190476190474,-2.142857142857143,-0.5555555555555556,-321.8253968253968
24.365079365079364,-67.85714285714285,-19.92063492063492,325.0,-35.63492063492063,146.58730158730157,-80.07936507936508,-75.31746031746032,325.0,3.4126984126984126,22.142857142857142,-109.28571428571428,325.0,0.873015873015873,25.476190476190474,11.349206349206348,-325.0,325.0,-17.539682539682538,325.0,-18.96825396825397,-9.126984126984127,-5.0,-321.8253968253968
24.365079365079364,-67.85714285714285,-19.92063492063492,325.0,-35.63492063492063,146.58730158730157,-80.07936507936508,-75.31746031746032,325.0,3.4126984126984126,22.142857142857142,-109.28571428571428,325.0,0.873015873015873,25.476190476190474,11.349206349206348,-325.0,325.0,-17.539682539682538,325.0,-18.96825396825397,-9.126984126984127,-5.0,-321.8253968253968
24.365079365079364,-67.85714285714285,-19.92063492063492,325.0,-35.63492063492063,146.58730158730157,-80.07936507936508,-75.31746031746032,325.0,3.4126984126984126,22.142857142857142,-109.28571428571428,325.0,0.873015873015873,25.476190476190474,11.349206349206348,-325.0,325.0,-17.539682539682538,325.0,-18.96825396825397,-9.126984126984127,-5.0,-166.26984126984127
24.365079365079364,-67.85714285714285,-19.92063492063492,325.0,-35.63492063492063,146.58730158730157,-80.07936507936508,-75.31746031746032,325.0,3.4126984126984126,22.142857142857142,-109.28571428571428,325.0,0.873015873015873,25.476190476190474,11.349206349206348,-325.0,325.0,-17.539682539682538,325.0,-18.96825396825397,-9.126984126984127,-5.0,-166.26984126984127
23.41269841269841,-65.31746031746032,-5.317460317460317,325.0,-52.77777777777777,141.03174603174602,22.936507936507937,-44.84126984126984,325.0,3.73015873015873,17.22222222222222,-105.15873015873015,325.0,0.873015873015873,24.523809523809522,11.666666666666666,-325.0,325.0,-7.063492063492063,325.0,-16.587301587301585,-2.619047619047619,-1.984126984126984,-166.26984126984127
23.41269841269841,-65.31746031746032,-5.317460317460317,325.0,-52.77777777777777,141.03174603174602,22.936507936507937,-44.84126984126984,325.0,3.73015873015873,17.22222222222222,-105.15873015873015,325.0,0.873015873015873,24.523809523809522,11.666666666666666,-325.0,325.0,-7.063492063492063,325.0,-16.587301587301585,-2.619047619047619,-1.984126984126984,-166.26984126984127
22.777777777777775,-63.73015873015873,8.333333333333332,325.0,-63.73015873015873,137.38095238095238,64.52380952380952,-29.285714285714285,325.0,-5.0,2.7777777777777777,-102.14285714285714,325.0,-8.015873015873016,23.88888888888889,3.253968253968254,-325.0,325.0,5.476190476190476,325.0,78.96825396825396,-6.746031746031746,-3.095238095238095,-166.26984126984127
22.777777777777775,-63.73015873015873,8.333333333333332,325.0,-63.73015873015873,137.38095238095238,64.52380952380952,-29.285714285714285,325.0,-5.0,2.7777777777777777,-102.14285714285714,325.0,-8.015873015873016,23.88888888888889,3.253968253968254,-325.0,325.0,5.476190476190476,325.0,78.96825396825396,-6.746031746031746,-3.095238095238095,-166.26984126984127
17.698412698412696,-62.61904761904761,16.26984126984127,325.0,-70.55555555555556,135.15873015873015,228.17460317460316,-32.77777777777778,325.0,-4.682539682539682,-6.26984126984127,-100.55555555555554,325.0,-7.698412698412698,23.41269841269841,3.571428571428571,-325.0,325.0,7.3809523809523805,325.0,126.42857142857142,5.634920634920634,3.253968253968254,-166.26984126984127
17.698412698412696,-62.61904761904761,16.26984126984127,325.0,-70.55555555555556,135.15873015873015,228.17460317460316,-32.77777777777778,325.0,-4.682539682539682,-6.26984126984127,-100.55555555555554,325.0,-7.698412698412698,23.41269841269841,3.571428571428571,-325.0,325.0,7.3809523809523805,325.0,126.42857142857142,5.634920634920634,3.253968253968254,-166.26984126984127
8.015873015873016,-61.507936507936506,24.84126984126984,325.0,-77.22222222222221,132.93650793650792,141.984126984127,-39.12698412698413,325.0,-7.222222222222221,-15.158730158730158,-98.80952380952381,325.0,-10.873015873015872,18.49206349206349,1.0317460317460316,-325.0,325.0,3.095238095238095,325.0,157.85714285714286,-6.111111111111111,-3.888888888888889,-166.26984126984127
8.015873015873016,-61.507936507936506,24.84126984126984,325.0,-77.22222222222221,132.93650793650792,141.984126984127,-39.12698412698413,325.0,-7.222222222222221,-15.158730158730158,-98.80952380952381,325.0,-10.873015873015872,18.49206349206349,1.0317460317460316,-325.0,325.0,3.095238095238095,325.0,157.85714285714286,-6.111111111111111,-3.888888888888889,-166.26984126984127
-1.0317460317460316,-60.55555555555555,32.61904761904762,325.0,-83.25396825396825,130.7142857142857,325.0,-26.428571428571427,324.04761904761904,-4.365079365079365,-23.41269841269841,-97.06349206349206,325.0,-7.063492063492063,8.968253968253968,4.365079365079365,-325.0,325.0,11.507936507936508,325.0,152.61904761904762,5.634920634920634,2.7777777777777777,-321.8253968253968
-1.0317460317460316,-60.55555555555555,32.61904761904762,325.0,-83.25396825396825,130.7142857142857,325.0,-26.428571428571427,324.04761904761904,-4.365079365079365,-23.41269841269841,-97.06349206349206,325.0,-7.063492063492063,8.968253968253968,4.365079365079365,-325.0,325.0,11.507936507936508,325.0,152.61904761904762,5.634920634920634,2.7777777777777777,-321.8253968253968
-9.920634920634921,-59.44444444444444,39.285714285714285,325.0,-89.28571428571428,128.4920634920635,325.0,-21.03174603174603,318.8095238095238,-3.095238095238095,-31.507936507936506,-95.47619047619047,325.0,-6.111111111111111,-0.07936507936507936,5.952380952380952,-325.0,325.0,10.873015873015872,325.0,188.8095238095238,-7.063492063492063,-3.253968253968254,-321.8253968253968
-9.920634920634921,-59.44444444444444,39.285714285714285,325.0,-89.28571428571428,128.4920634920635,325.0,-21.03174603174603,318.8095238095238,-3.095238095238095,-31.507936507936506,-95.47619047619047,325.0,-6.111111111111111,-0.07936507936507936,5.952380952380952,-325.0,325.0,10.873015873015872,325.0,188.8095238095238,-7.063492063492063,-3.253968253968254,-321.8253968253968
-16.428571428571427,-58.650793650793645,44.68253968253968,325.0,-93.09523809523809,126.9047619047619,325.0,-17.22222222222222,314.8412698412698,-1.0317460317460316,-37.22222222222222,-94.04761904761904,325.0,-3.888888888888889,-6.904761904761904,7.698412698412698,-325.0,325.0,10.873015873015872,325.0,133.57142857142856,5.7936507936507935,2.3015873015873014,-321.8253968253968
-16.428571428571427,-58.650793650793645,44.68253968253968,325.0,-93.09523809523809,126.9047619047619,325.0,-17.22222222222222,314.8412698412698,-1.0317460317460316,-37.22222222222222,-94.04761904761904,325.0,-3.888888888888889,-6.904761904761904,7.698412698412698,-325.0,325.0,10.873015873015872,325.0,133.57142857142856,5.7936507936507935,2.3015873015873014,-321.8253968253968
-25.0,-57.698412698412696,52.3015873015873,325.0,-99.12698412698413,124.52380952380952,275.1587301587301,-16.11111111111111,309.9206349206349,-8.968253968253968,-45.0,-92.46031746031746,325.0,-12.936507936507935,-15.793650793650793,-0.23809523809523808,-325.0,325.0,13.73015873015873,325.0,325.0,-5.634920634920634,-1.984126984126984,-321.8253968253968
-25.0,-57.698412698412696,52.3015873015873,325.0,-99.12698412698413,124.52380952380952,275.1587301587301,-16.11111111111111,309.9206349206349,-8.968253968253968,-45.0,-92.46031746031746,325.0,-12.936507936507935,-15.793650793650793,-0.23809523809523808,-325.0,325.0,13.73015873015873,325.0,325.0,-5.634920634920634,-1.984126984126984,-321.8253968253968
-33.095238095238095,-56.58730158730158,59.12698412698413,325.0,-104.2063492063492,122.6190476190476,325.0,-10.873015873015872,304.68253968253964,-10.555555555555555,-52.3015873015873,-90.71428571428571,325.0,-14.047619047619047,-24.047619047619047,-2.3015873015873014,-325.0,325.0,13.412698412698411,325.0,243.7301587301587,5.0,2.3015873015873014,-321.8253968253968
-33.095238095238095,-56.58730158730158,59.12698412698413,325.0,-104.2063492063492,122.6190476190476,325.0,-10.873015873015872,304.68253968253964,-10.555555555555555,-52.3015873015873,-90.71428571428571,325.0,-14.047619047619047,-24.047619047619047,-2.3015873015873014,-325.0,325.0,13.412698412698411,325.0,243.7301587301587,5.0,2.3015873015873014,-321.8253968253968
-42.3015873015873,-55.476190476190474,66.74603174603175,318.6507936507936,-110.39682539682539,120.07936507936508,244.68253968253967,-13.095238095238095,298.4920634920635,-4.2063492063492065,-60.873015873015866,-88.96825396825396,325.0,-8.015873015873016,-34.047619047619044,4.841269841269841,-325.0,325.0,12.46031746031746,325.0,325.0,-7.063492063492063,-3.73015873015873,-166.26984126984127
-42.3015873015873,-55.476190476190474,66.74603174603175,318.6507936507936,-110.39682539682539,120.07936507936508,244.68253968253967,-13.095238095238095,298.4920634920635,-4.2063492063492065,-60.873015873015866,-88.96825396825396,325.0,-8.015873015873016,-34.047619047619044,4.841269841269841,-325.0,325.0,12.46031746031746,325.0,325.0,-7.063492063492063,-3.73015873015873,-166.26984126984127
-48.01587301587301,-54.68253968253968,71.66666666666666,314.68253968253964,-113.73015873015872,118.65079365079364,305.4761904761905,-10.873015873015872,294.8412698412698,-1.8253968253968254,-65.79365079365078,-87.53968253968253,325.0,-5.0,-39.285714285714285,6.587301587301587,-325.0,325.0,10.714285714285714,325.0,325.0,6.111111111111111,2.46031746031746,-166.26984126984127
-48.01587301587301,-54.68253968253968,71.66666666666666,314.68253968253964,-113.73015873015872,118.65079365079364,305.4761904761905,-10.873015873015872,294.8412698412698,-1.8253968253968254,-65.79365079365078,-87.53968253968253,325.0,-5.0,-39.285714285714285,6.587301587301587,-325.0,325.0,10.714285714285714,325.0,325.0,6.111111111111111,2.46031746031746,-166.26984126984127
-61.98412698412698,-53.73015873015873,79.12698412698413,308.015873015873,-119.6031746031746,116.1111111111111,42.77777777777778,-1.0317460317460316,288.6507936507936,0.07936507936507936,-73.57142857142857,-85.95238095238095,325.0,-3.888888888888889,-48.650793650793645,8.968253968253968,-325.0,325.0,21.666666666666664,325.0,325.0,-6.746031746031746,-4.0476190476190474,-166.26984126984127
-61.98412698412698,-53.73015873015873,79.12698412698413,308.015873015873,-119.6031746031746,116.1111111111111,42.77777777777778,-1.0317460317460316,288.6507936507936,0.07936507936507936,-73.57142857142857,-85.95238095238095,325.0,-3.888888888888889,-48.650793650793645,8.968253968253968,-325.0,325.0,21.666666666666664,325.0,325.0,-6.746031746031746,-4.0476190476190474,-166.26984126984127
-141.66666666666666,-52.77777777777777,84.36507936507937,302.77777777777777,-123.57142857142857,114.04761904761904,51.34920634920635,7.857142857142857,283.88888888888886,9.920634920634921,-79.44444444444444,-84.36507936507937,325.0,6.26984126984127,-55.15873015873016,18.80952380952381,-325.0,325.0,32.460317460317455,325.0,325.0,5.952380952380952,2.619047619047619,-166.26984126984127
-141.66666666666666,-52.77777777777777,84.36507936507937,302.77777777777777,-123.57142857142857,114.04761904761904,51.34920634920635,7.857142857142857,283.88888888888886,9.920634920634921,-79.44444444444444,-84.36507936507937,325.0,6.26984126984127,-55.15873015873016,18.80952380952381,-325.0,325.0,32.460317460317455,325.0,325.0,5.952380952380952,2.619047619047619,-166.26984126984127
-140.23809523809524,-51.98412698412698,89.92063492063491,297.6984126984127,-127.6984126984127,112.14285714285714,-9.444444444444445,13.253968253968253,279.1269841269841,7.5396825396825395,-85.31746031746032,-82.93650793650794,325.0,3.095238095238095,-62.14285714285714,16.11111111111111,-325.0,325.0,35.317460317460316,325.0,325.0,-6.26984126984127,-4.0476190476190474,-166.26984126984127
-140.23809523809524,-51.98412698412698,89.92063492063491,297.6984126984127,-127.6984126984127,112.14285714285714,-9.444444444444445,13.253968253968253,279.1269841269841,7.5396825396825395,-85.31746031746032,-82.93650793650794,325.0,3.095238095238095,-62.14285714285714,16.11111111111111,-325.0,325.0,35.317460317460316,325.0,325.0,-6.26984126984127,-4.0476190476190474,-166.26984126984127
-232.6190476190476,-50.87301587301587,95.31746031746032,292.77777777777777,-131.8253968253968,110.07936507936508,27.063492063492063,26.9047619047619,274.5238095238095,5.317460317460317,-90.87301587301587,-81.5079365079365,325.0,1.1904761904761905,-68.65079365079364,13.888888888888888,-325.0,325.0,48.650793650793645,325.0,325.0,4.682539682539682,2.142857142857143,-321.8253968253968
-232.6190476190476,-50.87301587301587,95.31746031746032,292.77777777777777,-131.8253968253968,110.07936507936508,27.063492063492063,26.9047619047619,274.5238095238095,5.317460317460317,-90.87301587301587,-81.5079365079365,325.0,1.1904761904761905,-68.65079365079364,13.888888888888888,-325.0,325.0,48.650793650793645,325.0,325.0,4.682539682539682,2.142857142857143,-321.8253968253968
-232.3015873015873,-50.079365079365076,100.39682539682539,287.85714285714283,-135.47619047619048,108.49206349206348,-0.3968253968253968,28.015873015873016,270.07936507936506,7.857142857142857,-96.1111111111111,-79.92063492063491,325.0,3.253968253968254,-74.68253968253968,16.746031746031743,-325.0,325.0,47.53968253968254,325.0,325.0,-6.904761904761904,-3.73015873015873,-321.8253968253968
-232.3015873015873,-50.079365079365076,100.39682539682539,287.85714285714283,-135.47619047619048,108.49206349206348,-0.3968253968253968,28.015873015873016,270.07936507936506,7.857142857142857,-96.1111111111111,-79.92063492063491,325.0,3.253968253968254,-74.68253968253968,16.746031746031743,-325.0,325.0,47.53968253968254,325.0,325.0,-6.904761904761904,-3.73015873015873,-321.8253968253968
-216.26984126984127,-49.76190476190476,101.82539682539682,286.58730158730157,-136.26984126984127,108.01587301587301,65.15873015873015,27.22222222222222,268.968253968254,8.968253968253968,-97.22222222222221,-79.92063492063491,325.0,4.0476190476190474,-76.26984126984127,17.857142857142858,-325.0,325.0,44.2063492063492,325.0,325.0,-6.746031746031746,-2.7777777777777777,-321.8253968253968
-216.26984126984127,-49.76190476190476,101.82539682539682,286.58730158730157,-136.26984126984127,108.01587301587301,65.15873015873015,27.22222222222222,268.968253968254,8.968253968253968,-97.22222222222221,-79.92063492063491,325.0,4.0476190476190474,-76.26984126984127,17.857142857142858,-325.0,325.0,44.2063492063492,325.0,325.0,-6.746031746031746,-2.7777777777777777,-321.8253968253968
-259.44444444444446,-48.96825396825397,111.34920634920634,281.8253968253968,-139.6031746031746,106.1111111111111,53.41269841269841,28.015873015873016,264.36507936507934,9.920634920634921,-102.30158730158729,-78.4920634920635,325.0,4.682539682539682,-81.98412698412697,18.333333333333332,-325.0,325.0,40.87301587301587,325.0,325.0,-6.746031746031746,-2.9365079365079363,-321.8253968253968
-259.44444444444446,-48.96825396825397,111.34920634920634,281.8253968253968,-139.6031746031746,106.1111111111111,53.41269841269841,28.015873015873016,264.36507936507934,9.920634920634921,-102.30158730158729,-78.4920634920635,325.0,4.682539682539682,-81.98412698412697,18.333333333333332,-325.0,325.0,40.87301587301587,325.0,325.0,-6.746031746031746,-2.9365079365079363,-321.8253968253968
-325.0,-47.698412698412696,156.42857142857142,274.5238095238095,-144.68253968253967,103.57142857142857,92.61904761904762,34.36507936507936,258.17460317460313,9.761904761904761,-109.44444444444444,-76.1111111111111,325.0,5.7936507936507935,-90.23809523809523,18.174603174603174,-325.0,322.9365079365079,45.63492063492063,325.0,325.0,6.428571428571428,2.7777777777777777,-321.8253968253968
-325.0,-47.698412698412696,156.42857142857142,274.5238095238095,-144.68253968253967,103.57142857142857,92.61904761904762,34.36507936507936,258.17460317460313,9.761904761904761,-109.44444444444444,-76.1111111111111,325.0,5.7936507936507935,-90.23809523809523,18.174603174603174,-325.0,322.9365079365079,45.63492063492063,325.0,325.0,6.428571428571428,2.7777777777777777,-321.8253968253968
-325.0,-46.74603174603175,188.4920634920635,268.6507936507936,-148.65079365079364,101.34920634920634,-13.412698412698411,41.98412698412698,252.6190476190476,5.952380952380952,-115.15873015873015,-74.36507936507937,325.0,0.7142857142857142,-97.06349206349206,14.047619047619047,-325.0,316.74603174603175,57.857142857142854,325.0,325.0,-6.904761904761904,-4.0476190476190474,-166.26984126984127
-325.0,-46.74603174603175,188.4920634920635,268.6507936507936,-148.65079365079364,101.34920634920634,-13.412698412698411,41.98412698412698,252.6190476190476,5.952380952380952,-115.15873015873015,-74.36507936507937,325.0,0.7142857142857142,-97.06349206349206,14.047619047619047,-325.0,316.74603174603175,57.857142857142854,325.0,325.0,-6.904761904761904,-4.0476190476190474,-166.26984126984127
-325.0,-46.11111111111111,236.58730158730157,265.6349206349206,-151.03174603174602,100.07936507936508,90.87301587301587,49.12698412698413,249.44444444444443,1.349206349206349,-118.49206349206348,-73.57142857142857,325.0,-2.7777777777777777,-101.34920634920634,9.444444444444445,-325.0,312.9365079365079,64.36507936507937,325.0,325.0,6.904761904761904,4.2063492063492065,-166.26984126984127
-325.0,-46.11111111111111,236.58730158730157,265.6349206349206,-151.03174603174602,100.07936507936508,90.87301587301587,49.12698412698413,249.44444444444443,1.349206349206349,-118.49206349206348,-73.57142857142857,325.0,-2.7777777777777777,-101.34920634920634,9.444444444444445,-325.0,312.9365079365079,64.36507936507937,325.0,325.0,6.904761904761904,4.2063492063492065,-166.26984126984127
-325.0,-45.476190476190474,246.9047619047619,262.1428571428571,-152.93650793650792,98.80952380952381,87.85714285714285,49.76190476190476,246.26984126984127,3.888888888888889,-121.5079365079365,-72.61904761904762,325.0,-1.0317460317460316,-105.0,11.825396825396824,-323.57142857142856,309.1269841269841,62.77777777777777,325.0,325.0,0.23809523809523808,0.23809523809523808,-166.26984126984127
-325.0,-45.476190476190474,246.9047619047619,262.1428571428571,-152.93650793650792,98.80952380952381,87.85714285714285,49.76190476190476,246.26984126984127,3.888888888888889,-121.5079365079365,-72.61904761904762,325.0,-1.0317460317460316,-105.0,11.825396825396824,-323.57142857142856,309.1269841269841,62.77777777777777,325.0,325.0,0.23809523809523808,0.23809523809523808,-166.26984126984127
-325.0,-44.52380952380952,325.0,256.4285714285714,-155.95238095238093,96.74603174603175,94.84126984126983,59.92063492063492,241.19047619047618,10.396825396825395,-126.26984126984127,-70.87301587301587,325.0,6.26984126984127,-146.58730158730157,18.80952380952381,-319.4444444444444,302.9365079365079,73.4126984126984,325.0,325.0,6.111111111111111,3.73015873015873,-166.26984126984127
-325.0,-44.52380952380952,325.0,256.4285714285714,-155.95238095238093,96.74603174603175,94.84126984126983,59.92063492063492,241.19047619047618,10.396825396825395,-126.26984126984127,-70.87301587301587,325.0,6.26984126984127,-146.58730158730157,18.80952380952381,-319.4444444444444,302.9365079365079,73.4126984126984,325.0,325.0,6.111111111111111,3.73015873015873,-166.26984126984127
-325.0,-43.73015873015873,325.0,252.14285714285714,-158.96825396825395,95.15873015873015,-68.96825396825396,66.11111111111111,237.2222222222222,4.2063492063492065,-130.23809523809524,-69.6031746031746,325.0,-1.507936507936508,-152.61904761904762,12.142857142857142,-314.04761904761904,298.17460317460313,79.12698412698413,325.0,325.0,-8.492063492063492,-6.111111111111111,-166.26984126984127
-325.0,-43.73015873015873,325.0,252.14285714285714,-158.96825396825395,95.15873015873015,-68.96825396825396,66.11111111111111,237.2222222222222,4.2063492063492065,-130.23809523809524,-69.6031746031746,325.0,-1.507936507936508,-152.61904761904762,12.142857142857142,-314.04761904761904,298.17460317460313,79.12698412698413,325.0,325.0,-8.492063492063492,-6.111111111111111,-166.26984126984127
-325.0,-42.93650793650794,325.0,247.69841269841268,-161.5079365079365,93.73015873015872,47.06349206349206,76.1111111111111,233.09523809523807,-0.7142857142857142,-133.88888888888889,-68.4920634920635,325.0,-5.952380952380952,-238.17460317460316,6.904761904761904,-308.6507936507936,293.25396825396825,88.01587301587301,325.0,325.0,7.222222222222221,4.682539682539682,-321.8253968253968
-325.0,-42.93650793650794,325.0,247.69841269841268,-161.5079365079365,93.73015873015872,47.06349206349206,76.1111111111111,233.09523809523807,-0.7142857142857142,-133.88888888888889,-68.4920634920635,325.0,-5.952380952380952,-238.17460317460316,6.904761904761904,-308.6507936507936,293.25396825396825,88.01587301587301,325.0,325.0,7.222222222222221,4.682539682539682,-321.8253968253968
-325.0,-41.98412698412698,325.0,242.46031746031744,-164.04761904761904,91.5079365079365,-34.52380952380952,84.2063492063492,228.33333333333331,-3.888888888888889,-138.33333333333331,-66.9047619047619,325.0,-9.920634920634921,-217.53968253968253,3.571428571428571,-302.1428571428571,287.22222222222223,99.28571428571428,323.57142857142856,325.0,-7.063492063492063,-3.888888888888889,-321.8253968253968
-325.0,-41.98412698412698,325.0,242.46031746031744,-164.04761904761904,91.5079365079365,-34.52380952380952,84.2063492063492,228.33333333333331,-3.888888888888889,-138.33333333333331,-66.9047619047619,325.0,-9.920634920634921,-217.53968253968253,3.571428571428571,-302.1428571428571,287.22222222222223,99.28571428571428,323.57142857142856,325.0,-7.063492063492063,-3.888888888888889,-321.8253968253968
-325.0,-41.666666666666664,325.0,239.44444444444443,-165.47619047619045,90.55555555555556,53.73015873015873,86.26984126984127,225.47619047619045,-2.7777777777777777,-140.3968253968254,-65.95238095238095,325.0,-8.492063492063492,-294.5238095238095,4.841269841269841,-298.3333333333333,283.88888888888886,100.23809523809523,319.4444444444444,325.0,6.904761904761904,3.571428571428571,-321.8253968253968
-325.0,-41.666666666666664,325.0,239.44444444444443,-165.47619047619045,90.55555555555556,53.73015873015873,86.26984126984127,225.47619047619045,-2.7777777777777777,-140.3968253968254,-65.95238095238095,325.0,-8.492063492063492,-294.5238095238095,4.841269841269841,-298.3333333333333,283.88888888888886,100.23809523809523,319.4444444444444,325.0,6.904761904761904,3.571428571428571,-321.8253968253968
-325.0,-41.03174603174603,325.0,236.26984126984127,-166.9047619047619,89.12698412698413,51.03174603174603,84.84126984126983,222.61904761904762,-2.7777777777777777,-142.77777777777777,-65.15873015873015,325.0,-8.65079365079365,-268.4920634920635,4.365079365079365,-294.5238095238095,280.39682539682536,94.36507936507935,315.6349206349206,325.0,1.0317460317460316,0.3968253968253968,-321.8253968253968
-325.0,-41.03174603174603,325.0,236.26984126984127,-166.9047619047619,89.12698412698413,51.03174603174603,84.84126984126983,222.61904761904762,-2.7777777777777777,-142.77777777777777,-65.15873015873015,325.0,-8.65079365079365,-268.4920634920635,4.365079365079365,-294.5238095238095,280.39682539682536,94.36507936507935,315.6349206349206,325.0,1.0317460317460316,0.3968253968253968,-321.8253968253968
-325.0,-40.238095238095234,325.0,233.25396825396825,-168.33333333333331,87.85714285714285,48.49206349206349,83.57142857142857,219.9206349206349,-2.7777777777777777,-145.15873015873015,-64.2063492063492,325.0,-8.65079365079365,-242.3015873015873,4.0476190476190474,-290.55555555555554,277.06349206349205,88.65079365079364,311.8253968253968,325.0,-4.841269841269841,-2.619047619047619,-321.8253968253968
-325.0,-40.238095238095234,325.0,233.25396825396825,-168.33333333333331,87.85714285714285,48.49206349206349,83.57142857142857,219.9206349206349,-2.7777777777777777,-145.15873015873015,-64.2063492063492,325.0,-8.65079365079365,-242.3015873015873,4.0476190476190474,-290.55555555555554,277.06349206349205,88.65079365079364,311.8253968253968,325.0,-4.841269841269841,-2.619047619047619,-321.8253968253968
-325.0,-39.6031746031746,325.0,229.44444444444443,-170.23809523809524,86.42857142857143,25.476190476190474,84.04761904761904,216.26984126984127,-2.7777777777777777,-148.015873015873,-63.095238095238095,325.0,-8.809523809523808,-269.44444444444446,3.888888888888889,-285.7936507936508,272.6190476190476,91.82539682539682,306.74603174603175,325.0,-5.0,-2.7777777777777777,-166.26984126984127
-325.0,-39.6031746031746,325.0,229.44444444444443,-170.23809523809524,86.42857142857143,25.476190476190474,84.04761904761904,216.26984126984127,-2.7777777777777777,-148.015873015873,-63.095238095238095,325.0,-8.809523809523808,-269.44444444444446,3.888888888888889,-285.7936507936508,272.6190476190476,91.82539682539682,306.74603174603175,325.0,-5.0,-2.7777777777777777,-166.26984126984127
-325.0,-38.96825396825397,325.0,225.63492063492063,-171.984126984127,85.15873015873015,2.619047619047619,84.68253968253968,212.61904761904762,-2.7777777777777777,-150.7142857142857,-61.82539682539682,325.0,-8.809523809523808,-296.4285714285714,3.73015873015873,-280.87301587301585,268.3333333333333,95.15873015873015,301.66666666666663,325.0,-5.0,-2.7777777777777777,-166.26984126984127
-325.0,-38.96825396825397,325.0,225.63492063492063,-171.984126984127,85.15873015873015,2.619047619047619,84.68253968253968,212.61904761904762,-2.7777777777777777,-150.7142857142857,-61.82539682539682,325.0,-8.809523809523808,-296.4285714285714,3.73015873015873,-280.87301587301585,268.3333333333333,95.15873015873015,301.66666666666663,325.0,-5.0,-2.7777777777777777,-166.26984126984127
-325.0,-37.857142857142854,325.0,218.8095238095238,-174.52380952380952,82.61904761904762,-162.93650793650792,97.85714285714285,206.42857142857142,0.3968253968253968,-191.8253968253968,-60.238095238095234,325.0,-7.222222222222221,-325.0,6.26984126984127,-272.77777777777777,260.7142857142857,103.25396825396825,292.9365079365079,325.0,-6.746031746031746,-4.0476190476190474,-166.26984126984127
-325.0,-37.857142857142854,325.0,218.8095238095238,-174.52380952380952,82.61904761904762,-162.93650793650792,97.85714285714285,206.42857142857142,0.3968253968253968,-191.8253968253968,-60.238095238095234,325.0,-7.222222222222221,-325.0,6.26984126984127,-272.77777777777777,260.7142857142857,103.25396825396825,292.9365079365079,325.0,-6.746031746031746,-4.0476190476190474,-166.26984126984127
-325.0,-37.22222222222222,325.0,215.95238095238093,-175.15873015873015,81.66666666666666,-157.69841269841268,104.04761904761904,203.7301587301587,5.317460317460317,-280.23809523809524,-59.6031746031746,325.0,-2.619047619047619,-325.0,10.873015873015872,-269.1269841269841,257.6984126984127,109.76190476190476,289.4444444444444,325.0,6.904761904761904,4.841269841269841,-166.26984126984127
-325.0,-37.22222222222222,325.0,215.95238095238093,-175.15873015873015,81.66666666666666,-157.69841269841268,104.04761904761904,203.7301587301587,5.317460317460317,-280.23809523809524,-59.6031746031746,325.0,-2.619047619047619,-325.0,10.873015873015872,-269.1269841269841,257.6984126984127,109.76190476190476,289.4444444444444,325.0,6.904761904761904,4.841269841269841,-166.26984126984127
-325.0,-36.904761904761905,325.0,213.25396825396825,-176.26984126984127,80.71428571428571,-155.0,105.0,201.19047619047618,5.634920634920634,-245.79365079365078,-58.650793650793645,325.0,-2.142857142857143,-325.0,11.19047619047619,-265.7936507936508,254.36507936507934,110.55555555555554,285.7936507936508,325.0,2.142857142857143,1.507936507936508,-166.26984126984127
-325.0,-36.904761904761905,325.0,213.25396825396825,-176.26984126984127,80.71428571428571,-155.0,105.0,201.19047619047618,5.634920634920634,-245.79365079365078,-58.650793650793645,325.0,-2.142857142857143,-325.0,11.19047619047619,-265.7936507936508,254.36507936507934,110.55555555555554,285.7936507936508,325.0,2.142857142857143,1.507936507936508,-166.26984126984127
-325.0,-36.42857142857142,325.0,210.55555555555554,-177.2222222222222,79.76190476190476,-152.3015873015873,106.1111111111111,198.65079365079364,5.952380952380952,-211.19047619047618,-57.698412698412696,325.0,-1.507936507936508,-325.0,11.666666666666666,-262.46031746031747,251.19047619047618,111.34920634920634,282.1428571428571,325.0,-2.46031746031746,-1.8253968253968254,-321.8253968253968
-325.0,-36.42857142857142,325.0,210.55555555555554,-177.2222222222222,79.76190476190476,-152.3015873015873,106.1111111111111,198.65079365079364,5.952380952380952,-211.19047619047618,-57.698412698412696,325.0,-1.507936507936508,-325.0,11.666666666666666,-262.46031746031747,251.19047619047618,111.34920634920634,282.1428571428571,325.0,-2.46031746031746,-1.8253968253968254,-321.8253968253968
-325.0,-36.42857142857142,325.0,210.55555555555554,-177.2222222222222,79.76190476190476,-152.3015873015873,106.1111111111111,198.65079365079364,5.952380952380952,-211.19047619047618,-57.698412698412696,325.0,-1.507936507936508,-325.0,11.666666666666666,-262.46031746031747,251.19047619047618,111.34920634920634,282.1428571428571,325.0,-2.46031746031746,-1.8253968253968254,-321.8253968253968
-325.0,-36.42857142857142,325.0,210.55555555555554,-177.2222222222222,79.76190476190476,-152.3015873015873,106.1111111111111,198.65079365079364,5.952380952380952,-211.19047619047618,-57.698412698412696,325.0,-1.507936507936508,-325.0,11.666666666666666,-262.46031746031747,251.19047619047618,111.34920634920634,282.1428571428571,325.0,-2.46031746031746,-1.8253968253968254,-321.8253968253968
-325.0,-35.0,325.0,201.66666666666666,-179.9206349206349,76.26984126984127,-145.47619047619048,131.34920634920636,190.55555555555554,1.0317460317460316,-325.0,-55.317460317460316,325.0,-6.904761904761904,-325.0,6.111111111111111,-251.5079365079365,241.5079365079365,135.47619047619048,270.7142857142857,325.0,7.5396825396825395,4.682539682539682,-321.8253968253968
-325.0,-35.0,325.0,201.66666666666666,-179.9206349206349,76.26984126984127,-145.47619047619048,131.34920634920636,190.55555555555554,1.0317460317460316,-325.0,-55.317460317460316,325.0,-6.904761904761904,-325.0,6.111111111111111,-251.5079365079365,241.5079365079365,135.47619047619048,270.7142857142857,325.0,7.5396825396825395,4.682539682539682,-321.8253968253968
-325.0,-35.0,325.0,201.66666666666666,-179.9206349206349,76.26984126984127,-145.47619047619048,131.34920634920636,190.55555555555554,1.0317460317460316,-325.0,-55.317460317460316,325.0,-6.904761904761904,-325.0,6.111111111111111,-251.5079365079365,241.5079365079365,135.47619047619048,270.7142857142857,325.0,7.5396825396825395,4.682539682539682,-321.8253968253968
-325.0,-35.0,325.0,201.66666666666666,-179.9206349206349,76.26984126984127,-145.47619047619048,131.34920634920636,190.55555555555554,1.0317460317460316,-325.0,-55.317460317460316,325.0,-6.904761904761904,-325.0,6.111111111111111,-251.5079365079365,241.5079365079365,135.47619047619048,270.7142857142857,325.0,7.5396825396825395,4.682539682539682,-321.8253968253968
-325.0,-33.73015873015873,325.0,194.84126984126982,-181.8253968253968,73.73015873015872,-139.76190476190476,130.7142857142857,184.2063492063492,-3.888888888888889,-325.0,-53.25396825396825,325.0,-11.984126984126984,-325.0,1.0317460317460316,-242.93650793650792,233.7301587301587,132.61904761904762,261.8253968253968,325.0,8.174603174603174,4.523809523809524,-321.8253968253968
-325.0,-33.73015873015873,325.0,194.84126984126982,-181.8253968253968,73.73015873015872,-139.76190476190476,130.7142857142857,184.2063492063492,-3.888888888888889,-325.0,-53.25396825396825,325.0,-11.984126984126984,-325.0,1.0317460317460316,-242.93650793650792,233.7301587301587,132.61904761904762,261.8253968253968,325.0,8.174603174603174,4.523809523809524,-321.8253968253968
-325.0,-33.73015873015873,325.0,194.84126984126982,-181.8253968253968,73.73015873015872,-139.76190476190476,130.7142857142857,184.2063492063492,-3.888888888888889,-325.0,-53.25396825396825,325.0,-11.984126984126984,-325.0,1.0317460317460316,-242.93650793650792,233.7301587301587,132.61904761904762,261.8253968253968,325.0,8.174603174603174,4.523809523809524,-166.26984126984127
-325.0,-33.73015873015873,325.0,194.84126984126982,-181.8253968253968,73.73015873015872,-139.76190476190476,130.7142857142857,184.2063492063492,-3.888888888888889,-325.0,-53.25396825396825,325.0,-11.984126984126984,-325.0,1.0317460317460316,-242.93650793650792,233.7301587301587,132.61904761904762,261.8253968253968,325.0,8.174603174603174,4.523809523809524,-166.26984126984127
-325.0,-32.61904761904762,325.0,188.17460317460316,-182.93650793650792,71.19047619047619,-134.2063492063492,146.11111111111111,178.015873015873,4.682539682539682,-325.0,-51.34920634920635,325.0,-3.571428571428571,-325.0,9.285714285714285,-234.84126984126982,226.42857142857142,142.46031746031744,253.25396825396825,325.0,7.5396825396825395,5.476190476190476,-166.26984126984127
-325.0,-32.61904761904762,325.0,188.17460317460316,-182.93650793650792,71.19047619047619,-134.2063492063492,146.11111111111111,178.015873015873,4.682539682539682,-325.0,-51.34920634920635,325.0,-3.571428571428571,-325.0,9.285714285714285,-234.84126984126982,226.42857142857142,142.46031746031744,253.25396825396825,325.0,7.5396825396825395,5.476190476190476,-166.26984126984127
-325.0,-31.825396825396822,325.0,184.04761904761904,-183.57142857142856,69.76190476190476,-121.03174603174602,141.19047619047618,174.2063492063492,4.523809523809524,-325.0,-50.39682539682539,325.0,-3.73015873015873,-325.0,9.126984126984127,-229.9206349206349,221.66666666666666,139.12698412698413,247.85714285714283,325.0,-6.26984126984127,-3.571428571428571,-166.26984126984127
-325.0,-31.825396825396822,325.0,184.04761904761904,-183.57142857142856,69.76190476190476,-121.03174603174602,141.19047619047618,174.2063492063492,4.523809523809524,-325.0,-50.39682539682539,325.0,-3.73015873015873,-325.0,9.126984126984127,-229.9206349206349,221.66666666666666,139.12698412698413,247.85714285714283,325.0,-6.26984126984127,-3.571428571428571,-166.26984126984127
-325.0,-31.507936507936506,325.0,181.66666666666666,-184.04761904761904,68.96825396825396,-119.6031746031746,147.69841269841268,171.984126984127,0.7142857142857142,-325.0,-49.44444444444444,325.0,-7.698412698412698,-325.0,5.158730158730158,-226.74603174603175,218.96825396825395,145.79365079365078,244.84126984126982,325.0,8.015873015873016,5.0,-166.26984126984127
-325.0,-31.507936507936506,325.0,181.66666666666666,-184.04761904761904,68.96825396825396,-119.6031746031746,147.69841269841268,171.984126984127,0.7142857142857142,-325.0,-49.44444444444444,325.0,-7.698412698412698,-325.0,5.158730158730158,-226.74603174603175,218.96825396825395,145.79365079365078,244.84126984126982,325.0,8.015873015873016,5.0,-166.26984126984127
-325.0,-31.19047619047619,325.0,179.44444444444443,-184.36507936507937,68.01587301587301,-117.38095238095238,140.07936507936506,169.9206349206349,-0.3968253968253968,-325.0,-48.96825396825397,325.0,-8.492063492063492,-325.0,4.2063492063492065,-224.04761904761904,216.26984126984127,133.88888888888889,241.66666666666666,325.0,3.4126984126984126,1.8253968253968254,-166.26984126984127
-325.0,-31.19047619047619,325.0,179.44444444444443,-184.36507936507937,68.01587301587301,-117.38095238095238,140.07936507936506,169.9206349206349,-0.3968253968253968,-325.0,-48.96825396825397,325.0,-8.492063492063492,-325.0,4.2063492063492065,-224.04761904761904,216.26984126984127,133.88888888888889,241.66666666666666,325.0,3.4126984126984126,1.8253968253968254,-166.26984126984127
-325.0,-30.396825396825395,325.0,175.63492063492063,-211.8253968253968,66.58730158730158,-120.07936507936508,138.4920634920635,166.42857142857142,-2.7777777777777777,-325.0,-48.01587301587301,325.0,-11.507936507936508,-325.0,1.507936507936508,-219.28571428571428,211.8253968253968,132.14285714285714,236.9047619047619,325.0,8.65079365079365,4.682539682539682,-321.8253968253968
-325.0,-30.396825396825395,325.0,175.63492063492063,-211.8253968253968,66.58730158730158,-120.07936507936508,138.4920634920635,166.42857142857142,-2.7777777777777777,-325.0,-48.01587301587301,325.0,-11.507936507936508,-325.0,1.507936507936508,-219.28571428571428,211.8253968253968,132.14285714285714,236.9047619047619,325.0,8.65079365079365,4.682539682539682,-321.8253968253968
-325.0,-29.920634920634917,325.0,171.8253968253968,-195.15873015873015,65.15873015873015,-105.63492063492063,138.015873015873,162.93650793650792,8.015873015873016,-325.0,-46.904761904761905,325.0,-0.3968253968253968,-325.0,12.142857142857142,-214.84126984126982,207.53968253968253,130.07936507936506,231.66666666666666,325.0,-5.634920634920634,-3.253968253968254,-321.8253968253968
-325.0,-29.920634920634917,325.0,171.8253968253968,-195.15873015873015,65.15873015873015,-105.63492063492063,138.015873015873,162.93650793650792,8.015873015873016,-325.0,-46.904761904761905,325.0,-0.3968253968253968,-325.0,12.142857142857142,-214.84126984126982,207.53968253968253,130.07936507936506,231.66666666666666,325.0,-5.634920634920634,-3.253968253968254,-321.8253968253968
-325.0,-29.285714285714285,325.0,169.60317460317458,-288.6507936507936,64.2063492063492,-106.9047619047619,142.61904761904762,160.87301587301587,7.3809523809523805,-325.0,-46.269841269841265,325.0,-1.1904761904761905,-325.0,11.19047619047619,-211.8253968253968,205.0,133.88888888888889,229.12698412698413,325.0,9.444444444444445,5.158730158730158,-321.8253968253968
-325.0,-29.285714285714285,325.0,169.60317460317458,-288.6507936507936,64.2063492063492,-106.9047619047619,142.61904761904762,160.87301587301587,7.3809523809523805,-325.0,-46.269841269841265,325.0,-1.1904761904761905,-325.0,11.19047619047619,-211.8253968253968,205.0,133.88888888888889,229.12698412698413,325.0,9.444444444444445,5.158730158730158,-321.8253968253968
-325.0,-28.809523809523807,325.0,165.95238095238093,-229.28571428571428,63.095238095238095,-107.6984126984127,134.2063492063492,157.38095238095238,-0.7142857142857142,-325.0,-45.317460317460316,325.0,-9.444444444444445,-325.0,3.095238095238095,-207.38095238095238,200.87301587301587,127.53968253968253,224.2063492063492,325.0,-5.0,-1.984126984126984,-321.8253968253968
-325.0,-28.809523809523807,325.0,165.95238095238093,-229.28571428571428,63.095238095238095,-107.6984126984127,134.2063492063492,157.38095238095238,-0.7142857142857142,-325.0,-45.317460317460316,325.0,-9.444444444444445,-325.0,3.095238095238095,-207.38095238095238,200.87301587301587,127.53968253968253,224.2063492063492,325.0,-5.0,-1.984126984126984,-321.8253968253968
-325.0,-28.333333333333332,325.0,163.88888888888889,-325.0,61.98412698412698,-106.9047619047619,139.12698412698413,155.47619047619048,1.984126984126984,-325.0,-44.68253968253968,325.0,-6.428571428571428,-325.0,5.7936507936507935,-204.68253968253967,198.4920634920635,135.79365079365078,221.5079365079365,325.0,8.809523809523808,4.841269841269841,-321.8253968253968
-325.0,-28.333333333333332,325.0,163.88888888888889,-325.0,61.98412698412698,-106.9047619047619,139.12698412698413,155.47619047619048,1.984126984126984,-325.0,-44.68253968253968,325.0,-6.428571428571428,-325.0,5.7936507936507935,-204.68253968253967,198.4920634920635,135.79365079365078,221.5079365079365,325.0,8.809523809523808,4.841269841269841,-321.8253968253968
-325.0,-28.015873015873016,325.0,160.3968253968254,-259.76190476190476,60.873015873015866,-84.04761904761904,144.36507936507937,152.14285714285714,1.1904761904761905,-325.0,-43.73015873015873,325.0,-7.3809523809523805,-325.0,4.841269841269841,-200.55555555555554,194.52380952380952,138.015873015873,216.9047619047619,325.0,-5.0,-2.3015873015873014,-166.26984126984127
-325.0,-28.015873015873016,325.0,160.3968253968254,-259.76190476190476,60.873015873015866,-84.04761904761904,144.36507936507937,152.14285714285714,1.1904761904761905,-325.0,-43.73015873015873,325.0,-7.3809523809523805,-325.0,4.841269841269841,-200.55555555555554,194.52380952380952,138.015873015873,216.9047619047619,325.0,-5.0,-2.3015873015873014,-166.26984126984127
-325.0,-27.38095238095238,325.0,158.33333333333331,-153.57142857142856,60.079365079365076,106.58730158730158,154.84126984126982,150.3968253968254,-2.46031746031746,-325.0,-43.095238095238095,325.0,-10.079365079365079,-325.0,1.6666666666666665,-197.85714285714283,191.98412698412696,152.14285714285714,214.04761904761904,325.0,7.3809523809523805,4.841269841269841,-166.26984126984127
-325.0,-27.38095238095238,325.0,158.33333333333331,-153.57142857142856,60.079365079365076,106.58730158730158,154.84126984126982,150.3968253968254,-2.46031746031746,-325.0,-43.095238095238095,325.0,-10.079365079365079,-325.0,1.6666666666666665,-197.85714285714283,191.98412698412696,152.14285714285714,214.04761904761904,325.0,7.3809523809523805,4.841269841269841,-166.26984126984127
-325.0,-27.22222222222222,325.0,154.84126984126982,-188.8095238095238,58.8095238095238,325.0,152.3015873015873,147.2222222222222,2.7777777777777777,-266.26984126984127,-42.460317460317455,325.0,-4.365079365079365,-325.0,7.5396825396825395,-194.04761904761904,188.17460317460316,150.23809523809524,209.44444444444443,325.0,-4.841269841269841,-2.46031746031746,-166.26984126984127
-325.0,-27.22222222222222,325.0,154.84126984126982,-188.8095238095238,58.8095238095238,325.0,152.3015873015873,147.2222222222222,2.7777777777777777,-266.26984126984127,-42.460317460317455,325.0,-4.365079365079365,-325.0,7.5396825396825395,-194.04761904761904,188.17460317460316,150.23809523809524,209.44444444444443,325.0,-4.841269841269841,-2.46031746031746,-166.26984126984127
-325.0,-27.22222222222222,325.0,154.2063492063492,-174.36507936507937,58.8095238095238,325.0,152.14285714285714,146.58730158730157,4.2063492063492065,-207.38095238095238,-42.3015873015873,325.0,-2.9365079365079363,-325.0,9.285714285714285,-193.25396825396825,187.38095238095238,149.6031746031746,208.65079365079364,325.0,-0.07936507936507936,0.3968253968253968,-166.26984126984127
-325.0,-27.22222222222222,325.0,154.2063492063492,-174.36507936507937,58.8095238095238,325.0,152.14285714285714,146.58730158730157,4.2063492063492065,-207.38095238095238,-42.3015873015873,325.0,-2.9365079365079363,-325.0,9.285714285714285,-193.25396825396825,187.38095238095238,149.6031746031746,208.65079365079364,325.0,-0.07936507936507936,0.3968253968253968,-166.26984126984127
-325.0,-26.26984126984127,325.0,149.44444444444443,-179.44444444444443,57.06349206349206,325.0,146.42857142857142,142.3015873015873,3.571428571428571,-288.015873015873,-41.03174603174603,325.0,-4.0476190476190474,-325.0,7.857142857142857,-187.53968253968253,181.984126984127,141.8253968253968,202.61904761904762,325.0,-4.365079365079365,-3.095238095238095,-166.26984126984127
-325.0,-26.26984126984127,325.0,149.44444444444443,-179.44444444444443,57.06349206349206,325.0,146.42857142857142,142.3015873015873,3.571428571428571,-288.015873015873,-41.03174603174603,325.0,-4.0476190476190474,-325.0,7.857142857142857,-187.53968253968253,181.984126984127,141.8253968253968,202.61904761904762,325.0,-4.365079365079365,-3.095238095238095,-166.26984126984127
-325.0,-25.634920634920633,325.0,147.69841269841268,-226.1111111111111,56.11111111111111,325.0,143.57142857142856,140.3968253968254,1.984126984126984,-325.0,-40.39682539682539,325.0,-5.0,-325.0,6.428571428571428,-184.84126984126982,179.9206349206349,142.61904761904762,200.23809523809524,325.0,9.126984126984127,3.73015873015873,-321.8253968253968
-325.0,-25.634920634920633,325.0,147.69841269841268,-226.1111111111111,56.11111111111111,325.0,143.57142857142856,140.3968253968254,1.984126984126984,-325.0,-40.39682539682539,325.0,-5.0,-325.0,6.428571428571428,-184.84126984126982,179.9206349206349,142.61904761904762,200.23809523809524,325.0,9.126984126984127,3.73015873015873,-321.8253968253968
-325.0,-25.476190476190474,325.0,145.63492063492063,-204.36507936507937,55.476190476190474,325.0,138.8095238095238,138.4920634920635,2.7777777777777777,-325.0,-39.92063492063492,324.04761904761904,-4.365079365079365,-325.0,7.222222222222221,-182.61904761904762,177.69841269841268,138.96825396825395,197.69841269841268,325.0,5.0,2.619047619047619,-321.8253968253968
-325.0,-25.476190476190474,325.0,145.63492063492063,-204.36507936507937,55.476190476190474,325.0,138.8095238095238,138.4920634920635,2.7777777777777777,-325.0,-39.92063492063492,324.04761904761904,-4.365079365079365,-325.0,7.222222222222221,-182.61904761904762,177.69841269841268,138.96825396825395,197.69841269841268,325.0,5.0,2.619047619047619,-321.8253968253968
-325.0,-25.0,325.0,142.77777777777777,-325.0,54.36507936507936,319.1269841269841,142.61904761904762,135.95238095238093,1.0317460317460316,-325.0,-38.96825396825397,319.9206349206349,-5.7936507936507935,-325.0,5.476190476190476,-178.96825396825395,173.88888888888889,149.12698412698413,193.4126984126984,325.0,9.444444444444445,5.317460317460317,-321.8253968253968
-325.0,-25.0,325.0,142.77777777777777,-325.0,54.36507936507936,319.1269841269841,142.61904761904762,135.95238095238093,1.0317460317460316,-325.0,-38.96825396825397,319.9206349206349,-5.7936507936507935,-325.0,5.476190476190476,-178.96825396825395,173.88888888888889,149.12698412698413,193.4126984126984,325.0,9.444444444444445,5.317460317460317,-321.8253968253968
-325.0,-24.68253968253968,325.0,140.87301587301587,-266.58730158730157,53.57142857142857,297.6984126984127,142.3015873015873,133.88888888888889,-0.7142857142857142,-325.0,-38.49206349206349,316.1111111111111,-8.174603174603174,-325.0,3.4126984126984126,-176.58730158730157,171.984126984127,148.17460317460316,191.03174603174602,325.0,5.317460317460317,2.9365079365079363,-321.8253968253968
-325.0,-24.68253968253968,325.0,140.87301587301587,-266.58730158730157,53.57142857142857,297.6984126984127,142.3015873015873,133.88888888888889,-0.7142857142857142,-325.0,-38.49206349206349,316.1111111111111,-8.174603174603174,-325.0,3.4126984126984126,-176.58730158730157,171.984126984127,148.17460317460316,191.03174603174602,325.0,5.317460317460317,2.9365079365079363,-321.8253968253968
-325.0,-24.206349206349206,325.0,138.015873015873,-325.0,52.460317460317455,152.61904761904762,148.96825396825395,131.34920634920636,1.984126984126984,-325.0,-37.53968253968254,309.6031746031746,-5.317460317460317,-325.0,6.746031746031746,-172.93650793650792,168.4920634920635,157.85714285714286,187.06349206349205,325.0,8.015873015873016,5.0,-321.8253968253968
-325.0,-24.206349206349206,325.0,138.015873015873,-325.0,52.460317460317455,152.61904761904762,148.96825396825395,131.34920634920636,1.984126984126984,-325.0,-37.53968253968254,309.6031746031746,-5.317460317460317,-325.0,6.746031746031746,-172.93650793650792,168.4920634920635,157.85714285714286,187.06349206349205,325.0,8.015873015873016,5.0,-321.8253968253968
-325.0,-24.206349206349206,325.0,138.015873015873,-325.0,52.460317460317455,152.61904761904762,148.96825396825395,131.34920634920636,1.984126984126984,-325.0,-37.53968253968254,309.6031746031746,-5.317460317460317,-325.0,6.746031746031746,-172.93650793650792,168.4920634920635,157.85714285714286,187.06349206349205,325.0,8.015873015873016,5.0,-166.26984126984127
-325.0,-24.206349206349206,325.0,138.015873015873,-325.0,52.460317460317455,152.61904761904762,148.96825396825395,131.34920634920636,1.984126984126984,-325.0,-37.53968253968254,309.6031746031746,-5.317460317460317,-325.0,6.746031746031746,-172.93650793650792,168.4920634920635,157.85714285714286,187.06349206349205,325.0,8.015873015873016,5.0,-166.26984126984127
-325.0,-23.41269841269841,325.0,133.0952380952381,-325.0,50.71428571428571,276.1111111111111,166.58730158730157,126.74603174603173,1.6666666666666665,-325.0,-36.42857142857142,299.2857142857143,-10.873015873015872,-325.0,5.0,-166.9047619047619,162.93650793650792,167.06349206349205,180.7142857142857,325.0,7.857142857142857,4.365079365079365,-166.26984126984127
-325.0,-23.41269841269841,325.0,133.0952380952381,-325.0,50.71428571428571,276.1111111111111,166.58730158730157,126.74603174603173,1.6666666666666665,-325.0,-36.42857142857142,299.2857142857143,-10.873015873015872,-325.0,5.0,-166.9047619047619,162.93650793650792,167.06349206349205,180.7142857142857,325.0,7.857142857142857,4.365079365079365,-166.26984126984127
-222.93650793650792,-133.4126984126984,151.8253968253968,217.69841269841268,-212.61904761904762,25.0,-8.492063492063492,95.79365079365078,207.69841269841268,-133.88888888888889,-324.5238095238095,-99.12698412698413,63.888888888888886,-4.365079365079365,-263.4126984126984,-136.9047619047619,-228.49206349206347,169.76190476190476,89.28571428571428,-7.222222222222221,131.34920634920636,-95.79365079365078,69.28571428571428,-166.26984126984127
-222.93650793650792,-133.4126984126984,151.8253968253968,217.69841269841268,-212.61904761904762,25.0,-8.492063492063492,95.79365079365078,207.69841269841268,-133.88888888888889,-324.5238095238095,-99.12698412698413,63.888888888888886,-4.365079365079365,-263.4126984126984,-136.9047619047619,-228.49206349206347,169.76190476190476,89.28571428571428,-7.222222222222221,131.34920634920636,-95.79365079365078,69.28571428571428,-166.26984126984127
-120.71428571428571,-243.7301587301587,-21.19047619047619,304.68253968253964,-100.07936507936508,0.07936507936507936,-267.22222222222223,21.03174603174603,290.87301587301585,-275.3174603174603,-323.88888888888886,-162.46031746031744,-166.42857142857142,-2.9365079365079363,-201.8253968253968,-284.36507936507934,-292.77777777777777,179.28571428571428,11.984126984126984,-191.98412698412696,-62.14285714285714,-182.93650793650792,143.57142857142856,-166.26984126984127
-120.71428571428571,-243.7301587301587,-21.19047619047619,304.68253968253964,-100.07936507936508,0.07936507936507936,-267.22222222222223,21.03174603174603,290.87301587301585,-275.3174603174603,-323.88888888888886,-162.46031746031744,-166.42857142857142,-2.9365079365079363,-201.8253968253968,-284.36507936507934,-292.77777777777777,179.28571428571428,11.984126984126984,-191.98412698412696,-62.14285714285714,-182.93650793650792,143.57142857142856,-166.26984126984127
-120.71428571428571,-243.7301587301587,-21.19047619047619,304.68253968253964,-100.07936507936508,0.07936507936507936,-267.22222222222223,21.03174603174603,290.87301587301585,-275.3174603174603,-323.88888888888886,-162.46031746031744,-166.42857142857142,-2.9365079365079363,-201.8253968253968,-284.36507936507934,-292.77777777777777,179.28571428571428,11.984126984126984,-191.98412698412696,-62.14285714285714,-182.93650793650792,143.57142857142856,-166.26984126984127
-120.71428571428571,-243.7301587301587,-21.19047619047619,304.68253968253964,-100.07936507936508,0.07936507936507936,-267.22222222222223,21.03174603174603,290.87301587301585,-275.3174603174603,-323.88888888888886,-162.46031746031744,-166.42857142857142,-2.9365079365079363,-201.8253968253968,-284.36507936507934,-292.77777777777777,179.28571428571428,11.984126984126984,-191.98412698412696,-62.14285714285714,-182.93650793650792,143.57142857142856,-166.26984126984127
-325.0,-19.126984126984127,325.0,109.28571428571428,-325.0,41.98412698412698,-178.015873015873,152.61904761904762,104.68253968253968,3.095238095238095,-325.0,-29.76190476190476,247.2222222222222,-10.714285714285714,-325.0,2.46031746031746,-137.53968253968253,135.3174603174603,149.44444444444443,149.44444444444443,317.22222222222223,-1.507936507936508,-1.507936507936508,-321.8253968253968
-325.0,-19.126984126984127,325.0,109.28571428571428,-325.0,41.98412698412698,-178.015873015873,152.61904761904762,104.68253968253968,3.095238095238095,-325.0,-29.76190476190476,247.2222222222222,-10.714285714285714,-325.0,2.46031746031746,-137.53968253968253,135.3174603174603,149.44444444444443,149.44444444444443,317.22222222222223,-1.507936507936508,-1.507936507936508,-321.8253968253968
-325.0,-16.26984126984127,325.0,107.85714285714285,-325.0,41.507936507936506,-175.47619047619045,153.88888888888889,103.4126984126984,3.4126984126984126,-325.0,-29.6031746031746,244.04761904761904,-9.920634920634921,-325.0,3.095238095238095,-135.79365079365078,133.57142857142856,152.93650793650792,147.53968253968253,313.25396825396825,-0.873015873015873,-1.1904761904761905,-321.8253968253968
-325.0,-16.26984126984127,325.0,107.85714285714285,-325.0,41.507936507936506,-175.47619047619045,153.88888888888889,103.4126984126984,3.4126984126984126,-325.0,-29.6031746031746,244.04761904761904,-9.920634920634921,-325.0,3.095238095238095,-135.79365079365078,133.57142857142856,152.93650793650792,147.53968253968253,313.25396825396825,-0.873015873015873,-1.1904761904761905,-321.8253968253968
-325.0,-13.253968253968253,325.0,107.06349206349206,-325.0,41.03174603174603,-173.73015873015873,153.09523809523807,102.61904761904762,3.095238095238095,-325.0,-29.285714285714285,241.98412698412696,-10.079365079365079,-325.0,3.253968253968254,-134.52380952380952,132.61904761904762,153.09523809523807,146.42857142857142,310.39682539682536,-6.26984126984127,-4.0476190476190474,-321.8253968253968
-325.0,-13.253968253968253,325.0,107.06349206349206,-325.0,41.03174603174603,-173.73015873015873,153.09523809523807,102.61904761904762,3.095238095238095,-325.0,-29.285714285714285,241.98412698412696,-10.079365079365079,-325.0,3.253968253968254,-134.52380952380952,132.61904761904762,153.09523809523807,146.42857142857142,310.39682539682536,-6.26984126984127,-4.0476190476190474,-321.8253968253968
-325.0,9.126984126984127,325.0,102.61904761904762,-325.0,39.44444444444444,-165.47619047619045,171.984126984127,98.17460317460316,2.46031746031746,-325.0,-28.015873015873016,231.98412698412696,-10.238095238095237,-325.0,1.8253968253968254,-128.96825396825395,127.22222222222221,165.3174603174603,140.23809523809524,297.22222222222223,-1.0317460317460316,-0.873015873015873,-321.8253968253968
-325.0,9.126984126984127,325.0,102.61904761904762,-325.0,39.44444444444444,-165.47619047619045,171.984126984127,98.17460317460316,2.46031746031746,-325.0,-28.015873015873016,231.98412698412696,-10.238095238095237,-325.0,1.8253968253968254,-128.96825396825395,127.22222222222221,165.3174603174603,140.23809523809524,297.22222222222223,-1.0317460317460316,-0.873015873015873,-321.8253968253968
-229.76190476190476,169.12698412698413,246.74603174603172,70.55555555555556,-308.015873015873,-21.825396825396822,-229.12698412698413,158.8095238095238,68.01587301587301,3.4126984126984126,-279.9206349206349,148.4920634920635,159.9206349206349,-4.682539682539682,-245.15873015873015,3.888888888888889,-89.12698412698413,88.65079365079364,143.09523809523807,96.9047619047619,204.04761904761904,-0.7142857142857142,-1.0317460317460316,-321.8253968253968
-229.76190476190476,169.12698412698413,246.74603174603172,70.55555555555556,-308.015873015873,-21.825396825396822,-229.12698412698413,158.8095238095238,68.01587301587301,3.4126984126984126,-279.9206349206349,148.4920634920635,159.9206349206349,-4.682539682539682,-245.15873015873015,3.888888888888889,-89.12698412698413,88.65079365079364,143.09523809523807,96.9047619047619,204.04761904761904,-0.7142857142857142,-1.0317460317460316,-321.8253968253968
-35.95238095238095,321.5079365079365,-37.38095238095238,-216.9047619047619,-95.15873015873015,311.19047619047615,-114.04761904761904,285.7936507936508,-321.8253968253968,285.7936507936508,60.238095238095234,101.5079365079365,110.07936507936508,0.3968253968253968,-185.47619047619045,26.26984126984127,254.52380952380952,51.03174603174603,-224.04761904761904,54.841269841269835,-231.98412698412696,-25.634920634920633,-25.317460317460316,-166.26984126984127
-35.95238095238095,321.5079365079365,-37.38095238095238,-216.9047619047619,-95.15873015873015,311.19047619047615,-114.04761904761904,285.7936507936508,-321.8253968253968,285.7936507936508,60.238095238095234,101.5079365079365,110.07936507936508,0.3968253968253968,-185.47619047619045,26.26984126984127,254.52380952380952,51.03174603174603,-224.04761904761904,54.841269841269835,-231.98412698412696,-25.634920634920633,-25.317460317460316,-166.26984126984127
-35.95238095238095,321.5079365079365,-37.38095238095238,-216.9047619047619,-95.15873015873015,311.19047619047615,-114.04761904761904,285.7936507936508,-321.8253968253968,285.7936507936508,60.238095238095234,101.5079365079365,110.07936507936508,0.3968253968253968,-185.47619047619045,26.26984126984127,254.52380952380952,51.03174603174603,-224.04761904761904,54.841269841269835,-231.98412698412696,-25.634920634920633,-25.317460317460316,-166.26984126984127
-35.95238095238095,321.5079365079365,-37.38095238095238,-216.9047619047619,-95.15873015873015,311.19047619047615,-114.04761904761904,285.7936507936508,-321.8253968253968,285.7936507936508,60.238095238095234,101.5079365079365,110.07936507936508,0.3968253968253968,-185.47619047619045,26.26984126984127,254.52380952380952,51.03174603174603,-224.04761904761904,54.841269841269835,-231.98412698412696,-25.634920634920633,-25.317460317460316,-166.26984126984127
-35.95238095238095,321.5079365079365,-37.38095238095238,-216.9047619047619,-95.15873015873015,311.19047619047615,-114.04761904761904,285.7936507936508,-321.8253968253968,285.7936507936508,60.238095238095234,101.5079365079365,110.07936507936508,0.3968253968253968,-185.47619047619045,26.26984126984127,254.52380952380952,51.03174603174603,-224.04761904761904,54.841269841269835,-231.98412698412696,-25.634920634920633,-25.317460317460316,-166.26984126984127
-35.95238095238095,321.5079365079365,-37.38095238095238,-216.9047619047619,-95.15873015873015,311.19047619047615,-114.04761904761904,285.7936507936508,-321.8253968253968,285.7936507936508,60.238095238095234,101.5079365079365,110.07936507936508,0.3968253968253968,-185.47619047619045,26.26984126984127,254.52380952380952,51.03174603174603,-224.04761904761904,54.841269841269835,-231.98412698412696,-25.634920634920633,-25.317460317460316,-166.26984126984127
-71.5079365079365,323.25396825396825,48.49206349206349,-92.77777777777777,-165.47619047619045,97.22222222222221,-162.61904761904762,208.96825396825395,-145.47619047619048,145.79365079365078,-64.84126984126983,108.33333333333333,90.87301587301587,-162.3015873015873,-159.28571428571428,17.857142857142858,107.22222222222221,46.11111111111111,-53.888888888888886,49.285714285714285,-71.03174603174602,-9.603174603174603,-11.349206349206348,-166.26984126984127
-71.5079365079365,323.25396825396825,48.49206349206349,-92.77777777777777,-165.47619047619045,97.22222222222221,-162.61904761904762,208.96825396825395,-145.47619047619048,145.79365079365078,-64.84126984126983,108.33333333333333,90.87301587301587,-162.3015873015873,-159.28571428571428,17.857142857142858,107.22222222222221,46.11111111111111,-53.888888888888886,49.285714285714285,-71.03174603174602,-9.603174603174603,-11.349206349206348,-166.26984126984127
-107.06349206349206,325.0,134.36507936507937,31.507936507936506,-235.79365079365078,-116.58730158730158,-211.19047619047618,132.14285714285714,31.03174603174603,5.7936507936507935,-189.76190476190476,115.15873015873015,71.66666666666666,-325.0,-133.0952380952381,9.444444444444445,-39.92063492063492,41.19047619047619,116.26984126984127,43.888888888888886,90.07936507936508,6.587301587301587,2.7777777777777777,-166.26984126984127
-107.06349206349206,325.0,134.36507936507937,31.507936507936506,-235.79365079365078,-116.58730158730158,-211.19047619047618,132.14285714285714,31.03174603174603,5.7936507936507935,-189.76190476190476,115.15873015873015,71.66666666666666,-325.0,-133.0952380952381,9.444444444444445,-39.92063492063492,41.19047619047619,116.26984126984127,43.888888888888886,90.07936507936508,6.587301587301587,2.7777777777777777,-166.26984126984127
-107.06349206349206,325.0,134.36507936507937,31.507936507936506,-235.79365079365078,-116.58730158730158,-211.19047619047618,132.14285714285714,31.03174603174603,5.7936507936507935,-189.76190476190476,115.15873015873015,71.66666666666666,-325.0,-133.0952380952381,9.444444444444445,-39.92063492063492,41.19047619047619,116.26984126984127,43.888888888888886,90.07936507936508,6.587301587301587,2.7777777777777777,-321.8253968253968
-107.06349206349206,325.0,134.36507936507937,31.507936507936506,-235.79365079365078,-116.58730158730158,-211.19047619047618,132.14285714285714,31.03174603174603,5.7936507936507935,-189.76190476190476,115.15873015873015,71.66666666666666,-325.0,-133.0952380952381,9.444444444444445,-39.92063492063492,41.19047619047619,116.26984126984127,43.888888888888886,90.07936507936508,6.587301587301587,2.7777777777777777,-321.8253968253968
-104.52380952380952,325.0,130.87301587301587,30.71428571428571,-230.2380952380952,-105.15873015873015,-212.3015873015873,129.28571428571428,30.238095238095237,6.428571428571428,-185.3174603174603,178.015873015873,69.76190476190476,-325.0,-129.9206349206349,11.19047619047619,-39.12698412698413,40.079365079365076,115.0,42.77777777777778,87.6984126984127,-0.3968253968253968,-0.873015873015873,-321.8253968253968
-104.52380952380952,325.0,130.87301587301587,30.71428571428571,-230.2380952380952,-105.15873015873015,-212.3015873015873,129.28571428571428,30.238095238095237,6.428571428571428,-185.3174603174603,178.015873015873,69.76190476190476,-325.0,-129.9206349206349,11.19047619047619,-39.12698412698413,40.079365079365076,115.0,42.77777777777778,87.6984126984127,-0.3968253968253968,-0.873015873015873,-321.8253968253968
-100.87301587301587,325.0,126.26984126984127,29.76190476190476,-222.77777777777777,-104.68253968253968,-165.3174603174603,130.55555555555554,29.285714285714285,7.063492063492063,-179.28571428571428,209.12698412698413,67.38095238095238,-325.0,-125.63492063492063,12.936507936507935,-37.857142857142854,38.65079365079365,117.85714285714285,41.34920634920635,84.68253968253968,-0.07936507936507936,-0.23809523809523808,-321.8253968253968
-100.87301587301587,325.0,126.26984126984127,29.76190476190476,-222.77777777777777,-104.68253968253968,-165.3174603174603,130.55555555555554,29.285714285714285,7.063492063492063,-179.28571428571428,209.12698412698413,67.38095238095238,-325.0,-125.63492063492063,12.936507936507935,-37.857142857142854,38.65079365079365,117.85714285714285,41.34920634920635,84.68253968253968,-0.07936507936507936,-0.23809523809523808,-321.8253968253968
-99.76190476190476,325.0,125.31746031746032,29.6031746031746,-221.03174603174602,-115.47619047619047,-117.38095238095238,134.84126984126982,29.126984126984127,7.222222222222221,-177.69841269841268,177.2222222222222,66.74603174603175,-325.0,-124.52380952380952,12.777777777777777,-37.38095238095238,38.33333333333333,121.98412698412697,41.03174603174603,83.88888888888889,7.3809523809523805,3.888888888888889,-321.8253968253968
-99.76190476190476,325.0,125.31746031746032,29.6031746031746,-221.03174603174602,-115.47619047619047,-117.38095238095238,134.84126984126982,29.126984126984127,7.222222222222221,-177.69841269841268,177.2222222222222,66.74603174603175,-325.0,-124.52380952380952,12.777777777777777,-37.38095238095238,38.33333333333333,121.98412698412697,41.03174603174603,83.88888888888889,7.3809523809523805,3.888888888888889,-321.8253968253968
-99.76190476190476,325.0,125.31746031746032,29.6031746031746,-221.03174603174602,-115.47619047619047,-117.38095238095238,134.84126984126982,29.126984126984127,7.222222222222221,-177.69841269841268,177.2222222222222,66.74603174603175,-325.0,-124.52380952380952,12.777777777777777,-37.38095238095238,38.33333333333333,121.98412698412697,41.03174603174603,83.88888888888889,7.3809523809523805,3.888888888888889,-321.8253968253968
-99.76190476190476,325.0,125.31746031746032,29.6031746031746,-221.03174603174602,-115.47619047619047,-117.38095238095238,134.84126984126982,29.126984126984127,7.222222222222221,-177.69841269841268,177.2222222222222,66.74603174603175,-325.0,-124.52380952380952,12.777777777777777,-37.38095238095238,38.33333333333333,121.98412698412697,41.03174603174603,83.88888888888889,7.3809523809523805,3.888888888888889,-321.8253968253968
-99.76190476190476,325.0,125.31746031746032,29.6031746031746,-221.03174603174602,-115.47619047619047,-117.38095238095238,134.84126984126982,29.126984126984127,7.222222222222221,-177.69841269841268,177.2222222222222,66.74603174603175,-325.0,-124.52380952380952,12.777777777777777,-37.38095238095238,38.33333333333333,121.98412698412697,41.03174603174603,83.88888888888889,7.3809523809523805,3.888888888888889,-166.26984126984127
-99.76190476190476,325.0,125.31746031746032,29.6031746031746,-221.03174603174602,-115.47619047619047,-117.38095238095238,134.84126984126982,29.126984126984127,7.222222222222221,-177.69841269841268,177.2222222222222,66.74603174603175,-325.0,-124.52380952380952,12.777777777777777,-37.38095238095238,38.33333333333333,121.98412698412697,41.03174603174603,83.88888888888889,7.3809523809523805,3.888888888888889,-166.26984126984127
-99.76190476190476,325.0,125.31746031746032,29.6031746031746,-221.03174603174602,-115.47619047619047,-117.38095238095238,134.84126984126982,29.126984126984127,7.222222222222221,-177.69841269841268,177.2222222222222,66.74603174603175,-325.0,-124.52380952380952,12.777777777777777,-37.38095238095238,38.33333333333333,121.98412698412697,41.03174603174603,83.88888888888889,7.3809523809523805,3.888888888888889,-166.26984126984127
-99.76190476190476,325.0,125.31746031746032,29.6031746031746,-221.03174603174602,-115.47619047619047,-117.38095238095238,134.84126984126982,29.126984126984127,7.222222222222221,-177.69841269841268,177.2222222222222,66.74603174603175,-325.0,-124.52380952380952,12.777777777777777,-37.38095238095238,38.33333333333333,121.98412698412697,41.03174603174603,83.88888888888889,7.3809523809523805,3.888888888888889,-166.26984126984127
-95.63492063492063,325.0,119.92063492063491,28.333333333333332,-212.46031746031744,-108.65079365079364,-146.58730158730157,124.2063492063492,27.857142857142854,2.619047619047619,-170.87301587301587,251.03174603174602,64.04761904761905,-325.0,-119.76190476190476,8.174603174603174,-35.95238095238095,36.74603174603175,121.98412698412697,39.44444444444444,80.23809523809523,-0.07936507936507936,-0.5555555555555556,-166.26984126984127
-95.63492063492063,325.0,119.92063492063491,28.333333333333332,-212.46031746031744,-108.65079365079364,-146.58730158730157,124.2063492063492,27.857142857142854,2.619047619047619,-170.87301587301587,251.03174603174602,64.04761904761905,-325.0,-119.76190476190476,8.174603174603174,-35.95238095238095,36.74603174603175,121.98412698412697,39.44444444444444,80.23809523809523,-0.07936507936507936,-0.5555555555555556,-166.26984126984127
-91.03174603174602,325.0,114.04761904761904,26.746031746031743,-201.98412698412696,-128.8095238095238,-81.03174603174602,108.80952380952381,26.26984126984127,2.619047619047619,-162.46031746031744,253.4126984126984,61.03174603174603,-325.0,-113.88888888888889,7.063492063492063,-34.047619047619044,35.476190476190474,114.52380952380952,37.53968253968254,75.95238095238095,-3.571428571428571,-2.619047619047619,-166.26984126984127
-91.03174603174602,325.0,114.04761904761904,26.746031746031743,-201.98412698412696,-128.8095238095238,-81.03174603174602,108.80952380952381,26.26984126984127,2.619047619047619,-162.46031746031744,253.4126984126984,61.03174603174603,-325.0,-113.88888888888889,7.063492063492063,-34.047619047619044,35.476190476190474,114.52380952380952,37.53968253968254,75.95238095238095,-3.571428571428571,-2.619047619047619,-166.26984126984127
-91.03174603174602,325.0,114.04761904761904,26.746031746031743,-201.98412698412696,-128.8095238095238,-81.03174603174602,108.80952380952381,26.26984126984127,2.619047619047619,-162.46031746031744,253.4126984126984,61.03174603174603,-325.0,-113.88888888888889,7.063492063492063,-34.047619047619044,35.476190476190474,114.52380952380952,37.53968253968254,75.95238095238095,-3.571428571428571,-2.619047619047619,-166.26984126984127
-91.03174603174602,325.0,114.04761904761904,26.746031746031743,-201.98412698412696,-128.8095238095238,-81.03174603174602,108.80952380952381,26.26984126984127,2.619047619047619,-162.46031746031744,253.4126984126984,61.03174603174603,-325.0,-113.88888888888889,7.063492063492063,-34.047619047619044,35.476190476190474,114.52380952380952,37.53968253968254,75.95238095238095,-3.571428571428571,-2.619047619047619,-166.26984126984127
-91.03174603174602,325.0,114.04761904761904,26.746031746031743,-201.98412698412696,-128.8095238095238,-81.03174603174602,108.80952380952381,26.26984126984127,2.619047619047619,-162.46031746031744,253.4126984126984,61.03174603174603,-325.0,-113.88888888888889,7.063492063492063,-34.047619047619044,35.476190476190474,114.52380952380952,37.53968253968254,75.95238095238095,-3.571428571428571,-2.619047619047619,-321.8253968253968
-91.03174603174602,325.0,114.04761904761904,26.746031746031743,-201.98412698412696,-128.8095238095238,-81.03174603174602,108.80952380952381,26.26984126984127,2.619047619047619,-162.46031746031744,253.4126984126984,61.03174603174603,-325.0,-113.88888888888889,7.063492063492063,-34.047619047619044,35.476190476190474,114.52380952380952,37.53968253968254,75.95238095238095,-3.571428571428571,-2.619047619047619,-321.8253968253968
-88.33333333333333,325.0,110.39682539682539,25.952380952380953,-196.42857142857142,-121.5079365079365,-130.87301587301587,100.39682539682539,25.634920634920633,-0.7142857142857142,-158.015873015873,289.1269841269841,59.12698412698413,-325.0,-110.71428571428571,4.523809523809524,-33.25396825396825,34.2063492063492,107.38095238095238,36.42857142857142,73.73015873015872,-5.476190476190476,-3.73015873015873,-321.8253968253968
-88.33333333333333,325.0,110.39682539682539,25.952380952380953,-196.42857142857142,-121.5079365079365,-130.87301587301587,100.39682539682539,25.634920634920633,-0.7142857142857142,-158.015873015873,289.1269841269841,59.12698412698413,-325.0,-110.71428571428571,4.523809523809524,-33.25396825396825,34.2063492063492,107.38095238095238,36.42857142857142,73.73015873015872,-5.476190476190476,-3.73015873015873,-321.8253968253968
-84.68253968253968,325.0,106.26984126984127,25.0,-189.44444444444443,-138.015873015873,-97.22222222222221,95.79365079365078,24.84126984126984,-1.1904761904761905,-152.14285714285714,259.9206349206349,56.74603174603174,-325.0,-106.42857142857142,4.365079365079365,-31.98412698412698,33.095238095238095,98.49206349206348,34.84126984126984,70.87301587301587,-2.3015873015873014,-2.142857142857143,-321.8253968253968
-84.68253968253968,325.0,106.26984126984127,25.0,-189.44444444444443,-138.015873015873,-97.22222222222221,95.79365079365078,24.84126984126984,-1.1904761904761905,-152.14285714285714,259.9206349206349,56.74603174603174,-325.0,-106.42857142857142,4.365079365079365,-31.98412698412698,33.095238095238095,98.49206349206348,34.84126984126984,70.87301587301587,-2.3015873015873014,-2.142857142857143,-321.8253968253968
-84.68253968253968,325.0,106.26984126984127,25.0,-189.44444444444443,-138.015873015873,-97.22222222222221,95.79365079365078,24.84126984126984,-1.1904761904761905,-152.14285714285714,259.9206349206349,56.74603174603174,-325.0,-106.42857142857142,4.365079365079365,-31.98412698412698,33.095238095238095,98.49206349206348,34.84126984126984,70.87301587301587,-2.3015873015873014,-2.142857142857143,-321.8253968253968
-84.68253968253968,325.0,106.26984126984127,25.0,-189.44444444444443,-138.015873015873,-97.22222222222221,95.79365079365078,24.84126984126984,-1.1904761904761905,-152.14285714285714,259.9206349206349,56.74603174603174,-325.0,-106.42857142857142,4.365079365079365,-31.98412698412698,33.095238095238095,98.49206349206348,34.84126984126984,70.87301587301587,-2.3015873015873014,-2.142857142857143,-321.8253968253968
-84.68253968253968,325.0,106.26984126984127,25.0,-189.44444444444443,-138.015873015873,-97.22222222222221,95.79365079365078,24.84126984126984,-1.1904761904761905,-152.14285714285714,259.9206349206349,56.74603174603174,-325.0,-106.42857142857142,4.365079365079365,-31.98412698412698,33.095238095238095,98.49206349206348,34.84126984126984,70.87301587301587,-2.3015873015873014,-2.142857142857143,-321.8253968253968
-84.68253968253968,325.0,106.26984126984127,25.0,-189.44444444444443,-138.015873015873,-97.22222222222221,95.79365079365078,24.84126984126984,-1.1904761904761905,-152.14285714285714,259.9206349206349,56.74603174603174,-325.0,-106.42857142857142,4.365079365079365,-31.98412698412698,33.095238095238095,98.49206349206348,34.84126984126984,70.87301587301587,-2.3015873015873014,-2.142857142857143,-321.8253968253968
-82.3015873015873,325.0,102.93650793650794,24.206349206349206,-184.2063492063492,-130.3968253968254,-114.52380952380952,104.36507936507935,24.047619047619047,-4.682539682539682,-147.85714285714286,292.46031746031747,55.0,-325.0,-103.57142857142857,1.6666666666666665,-31.03174603174603,31.98412698412698,98.80952380952381,33.888888888888886,68.65079365079364,-5.158730158730158,-4.523809523809524,-166.26984126984127
-82.3015873015873,325.0,102.93650793650794,24.206349206349206,-184.2063492063492,-130.3968253968254,-114.52380952380952,104.36507936507935,24.047619047619047,-4.682539682539682,-147.85714285714286,292.46031746031747,55.0,-325.0,-103.57142857142857,1.6666666666666665,-31.03174603174603,31.98412698412698,98.80952380952381,33.888888888888886,68.65079365079364,-5.158730158730158,-4.523809523809524,-166.26984126984127
-78.80952380952381,325.0,98.65079365079364,23.095238095238095,-176.74603174603175,-146.74603174603175,-24.523809523809522,106.42857142857142,23.095238095238095,-2.7777777777777777,-141.8253968253968,294.8412698412698,52.61904761904761,-325.0,-99.44444444444444,4.0476190476190474,-29.920634920634917,30.71428571428571,91.66666666666666,32.460317460317455,65.63492063492063,3.095238095238095,1.349206349206349,-166.26984126984127
-78.80952380952381,325.0,98.65079365079364,23.095238095238095,-176.74603174603175,-146.74603174603175,-24.523809523809522,106.42857142857142,23.095238095238095,-2.7777777777777777,-141.8253968253968,294.8412698412698,52.61904761904761,-325.0,-99.44444444444444,4.0476190476190474,-29.920634920634917,30.71428571428571,91.66666666666666,32.460317460317455,65.63492063492063,3.095238095238095,1.349206349206349,-166.26984126984127
-77.6984126984127,325.0,97.22222222222221,22.936507936507937,-174.68253968253967,-130.55555555555554,-76.26984126984127,102.77777777777777,22.936507936507937,-4.0476190476190474,-140.07936507936506,325.0,51.82539682539682,-325.0,-98.33333333333333,3.253968253968254,-29.6031746031746,30.07936507936508,94.68253968253968,32.14285714285714,64.84126984126983,-0.23809523809523808,-0.873015873015873,-166.26984126984127
-77.6984126984127,325.0,97.22222222222221,22.936507936507937,-174.68253968253967,-130.55555555555554,-76.26984126984127,102.77777777777777,22.936507936507937,-4.0476190476190474,-140.07936507936506,325.0,51.82539682539682,-325.0,-98.33333333333333,3.253968253968254,-29.6031746031746,30.07936507936508,94.68253968253968,32.14285714285714,64.84126984126983,-0.23809523809523808,-0.873015873015873,-166.26984126984127
-76.42857142857143,325.0,95.47619047619047,22.619047619047617,-171.8253968253968,-125.95238095238095,-80.07936507936508,96.42857142857142,22.46031746031746,-5.317460317460317,-137.85714285714286,325.0,51.03174603174603,-325.0,-96.74603174603175,1.984126984126984,-29.126984126984127,29.76190476190476,95.15873015873015,31.666666666666664,63.73015873015873,0.07936507936507936,-1.0317460317460316,-166.26984126984127
-76.42857142857143,325.0,95.47619047619047,22.619047619047617,-171.8253968253968,-125.95238095238095,-80.07936507936508,96.42857142857142,22.46031746031746,-5.317460317460317,-137.85714285714286,325.0,51.03174603174603,-325.0,-96.74603174603175,1.984126984126984,-29.126984126984127,29.76190476190476,95.15873015873015,31.666666666666664,63.73015873015873,0.07936507936507936,-1.0317460317460316,-166.26984126984127
-75.15873015873015,325.0,93.88888888888889,22.3015873015873,-169.12698412698413,-130.7142857142857,-71.82539682539682,85.95238095238095,22.142857142857142,-3.253968253968254,-135.47619047619048,325.0,50.238095238095234,-322.1428571428571,-95.15873015873015,4.2063492063492065,-28.49206349206349,29.444444444444443,88.17460317460316,31.19047619047619,62.61904761904761,-0.07936507936507936,-0.3968253968253968,-166.26984126984127
-75.15873015873015,325.0,93.88888888888889,22.3015873015873,-169.12698412698413,-130.7142857142857,-71.82539682539682,85.95238095238095,22.142857142857142,-3.253968253968254,-135.47619047619048,325.0,50.238095238095234,-322.1428571428571,-95.15873015873015,4.2063492063492065,-28.49206349206349,29.444444444444443,88.17460317460316,31.19047619047619,62.61904761904761,-0.07936507936507936,-0.3968253968253968,-166.26984126984127
-73.73015873015872,325.0,92.30158730158729,21.984126984126984,-166.42857142857142,-136.26984126984127,-68.4920634920635,77.22222222222221,21.666666666666664,-3.73015873015873,-133.25396825396825,325.0,49.6031746031746,-316.4285714285714,-93.57142857142857,4.0476190476190474,-28.015873015873016,28.96825396825397,79.44444444444444,30.555555555555554,61.666666666666664,-0.07936507936507936,-0.07936507936507936,-321.8253968253968
-73.73015873015872,325.0,92.30158730158729,21.984126984126984,-166.42857142857142,-136.26984126984127,-68.4920634920635,77.22222222222221,21.666666666666664,-3.73015873015873,-133.25396825396825,325.0,49.6031746031746,-316.4285714285714,-93.57142857142857,4.0476190476190474,-28.015873015873016,28.96825396825397,79.44444444444444,30.555555555555554,61.666666666666664,-0.07936507936507936,-0.07936507936507936,-321.8253968253968
-73.09523809523809,325.0,91.5079365079365,21.825396825396822,-165.0,-142.14285714285714,-33.57142857142857,75.79365079365078,21.507936507936506,-6.111111111111111,-132.14285714285714,325.0,49.12698412698413,-313.57142857142856,-92.77777777777777,1.349206349206349,-27.698412698412696,28.65079365079365,77.6984126984127,30.238095238095237,61.19047619047619,8.492063492063492,4.523809523809524,-321.8253968253968
-73.09523809523809,325.0,91.5079365079365,21.825396825396822,-165.0,-142.14285714285714,-33.57142857142857,75.79365079365078,21.507936507936506,-6.111111111111111,-132.14285714285714,325.0,49.12698412698413,-313.57142857142856,-92.77777777777777,1.349206349206349,-27.698412698412696,28.65079365079365,77.6984126984127,30.238095238095237,61.19047619047619,8.492063492063492,4.523809523809524,-321.8253968253968
-71.82539682539682,325.0,89.92063492063491,21.507936507936506,-162.46031746031744,-140.23809523809524,-55.15873015873016,76.58730158730158,21.03174603174603,-6.587301587301587,-130.07936507936506,325.0,48.33333333333333,-308.015873015873,-91.34920634920634,0.873015873015873,-27.22222222222222,28.174603174603174,74.52380952380952,29.76190476190476,60.079365079365076,8.015873015873016,4.0476190476190474,-321.8253968253968
-71.82539682539682,325.0,89.92063492063491,21.507936507936506,-162.46031746031744,-140.23809523809524,-55.15873015873016,76.58730158730158,21.03174603174603,-6.587301587301587,-130.07936507936506,325.0,48.33333333333333,-308.015873015873,-91.34920634920634,0.873015873015873,-27.22222222222222,28.174603174603174,74.52380952380952,29.76190476190476,60.079365079365076,8.015873015873016,4.0476190476190474,-321.8253968253968
-70.23809523809524,325.0,87.53968253968253,20.71428571428571,-158.17460317460316,-113.73015873015872,-158.33333333333331,81.03174603174602,20.71428571428571,-2.46031746031746,-127.06349206349206,325.0,47.06349206349206,-300.07936507936506,-88.96825396825396,5.158730158730158,-26.587301587301585,27.539682539682538,72.3015873015873,29.285714285714285,58.17460317460317,0.23809523809523808,-0.873015873015873,-321.8253968253968
-70.23809523809524,325.0,87.53968253968253,20.71428571428571,-158.17460317460316,-113.73015873015872,-158.33333333333331,81.03174603174602,20.71428571428571,-2.46031746031746,-127.06349206349206,325.0,47.06349206349206,-300.07936507936506,-88.96825396825396,5.158730158730158,-26.587301587301585,27.539682539682538,72.3015873015873,29.285714285714285,58.17460317460317,0.23809523809523808,-0.873015873015873,-321.8253968253968
-69.28571428571428,325.0,86.42857142857143,20.396825396825395,-156.42857142857142,-126.58730158730158,-90.39682539682539,85.15873015873015,20.396825396825395,-6.428571428571428,-125.47619047619047,325.0,46.269841269841265,-296.1111111111111,-87.85714285714285,1.8253968253968254,-26.428571428571427,27.22222222222222,73.09523809523809,28.65079365079365,57.53968253968254,4.523809523809524,2.142857142857143,-321.8253968253968
-69.28571428571428,325.0,86.42857142857143,20.396825396825395,-156.42857142857142,-126.58730158730158,-90.39682539682539,85.15873015873015,20.396825396825395,-6.428571428571428,-125.47619047619047,325.0,46.269841269841265,-296.1111111111111,-87.85714285714285,1.8253968253968254,-26.428571428571427,27.22222222222222,73.09523809523809,28.65079365079365,57.53968253968254,4.523809523809524,2.142857142857143,-321.8253968253968
-67.53968253968253,325.0,84.52380952380952,20.07936507936508,-153.4126984126984,-136.42857142857142,-29.285714285714285,90.07936507936508,20.07936507936508,-7.857142857142857,-122.77777777777777,325.0,45.317460317460316,-289.6031746031746,-86.1111111111111,1.507936507936508,-25.952380952380953,26.587301587301585,75.15873015873015,27.857142857142854,56.42857142857142,0.07936507936507936,0.23809523809523808,-166.26984126984127
-67.53968253968253,325.0,84.52380952380952,20.07936507936508,-153.4126984126984,-136.42857142857142,-29.285714285714285,90.07936507936508,20.07936507936508,-7.857142857142857,-122.77777777777777,325.0,45.317460317460316,-289.6031746031746,-86.1111111111111,1.507936507936508,-25.952380952380953,26.587301587301585,75.15873015873015,27.857142857142854,56.42857142857142,0.07936507936507936,0.23809523809523808,-166.26984126984127
-66.74603174603175,325.0,83.09523809523809,19.76190476190476,-150.55555555555554,-152.77777777777777,69.28571428571428,92.61904761904762,19.6031746031746,-2.46031746031746,-121.03174603174602,325.0,44.68253968253968,-284.36507936507934,-84.36507936507937,6.111111111111111,-25.317460317460316,26.26984126984127,81.98412698412697,27.698412698412696,55.476190476190474,-0.07936507936507936,0.23809523809523808,-166.26984126984127
-66.74603174603175,325.0,83.09523809523809,19.76190476190476,-150.55555555555554,-152.77777777777777,69.28571428571428,92.61904761904762,19.6031746031746,-2.46031746031746,-121.03174603174602,325.0,44.68253968253968,-284.36507936507934,-84.36507936507937,6.111111111111111,-25.317460317460316,26.26984126984127,81.98412698412697,27.698412698412696,55.476190476190474,-0.07936507936507936,0.23809523809523808,-166.26984126984127
-66.74603174603175,325.0,83.09523809523809,19.76190476190476,-150.55555555555554,-152.77777777777777,69.28571428571428,92.61904761904762,19.6031746031746,-2.46031746031746,-121.03174603174602,325.0,44.68253968253968,-284.36507936507934,-84.36507936507937,6.111111111111111,-25.317460317460316,26.26984126984127,81.98412698412697,27.698412698412696,55.476190476190474,-0.07936507936507936,0.23809523809523808,-166.26984126984127
-66.74603174603175,325.0,83.09523809523809,19.76190476190476,-150.55555555555554,-152.77777777777777,69.28571428571428,92.61904761904762,19.6031746031746,-2.46031746031746,-121.03174603174602,325.0,44.68253968253968,-284.36507936507934,-84.36507936507937,6.111111111111111,-25.317460317460316,26.26984126984127,81.98412698412697,27.698412698412696,55.476190476190474,-0.07936507936507936,0.23809523809523808,-166.26984126984127
-64.04761904761905,325.0,80.07936507936508,19.285714285714285,-145.95238095238093,-143.25396825396825,68.96825396825396,90.71428571428571,19.126984126984127,-0.5555555555555556,-117.22222222222221,325.0,43.25396825396825,-274.36507936507934,-81.66666666666666,8.015873015873016,-24.365079365079364,25.476190476190474,89.12698412698413,27.063492063492063,53.25396825396825,0.23809523809523808,0.23809523809523808,-166.26984126984127
-64.04761904761905,325.0,80.07936507936508,19.285714285714285,-145.95238095238093,-143.25396825396825,68.96825396825396,90.71428571428571,19.126984126984127,-0.5555555555555556,-117.22222222222221,325.0,43.25396825396825,-274.36507936507934,-81.66666666666666,8.015873015873016,-24.365079365079364,25.476190476190474,89.12698412698413,27.063492063492063,53.25396825396825,0.23809523809523808,0.23809523809523808,-166.26984126984127
