Fp1[1],Fp2[2],F3[3],F4[4],C3[5],C4[6],P3[7],P4[8],O1[9],O2[10],F7[11],F8[12],T3[13],T4[14],T5[15],T6[16],Fz[17],Pz[18],Cz[19],Pg1[20],Pg2[21],EOGR[22],EOOGL[23],EMG[24]
168.96825396825395,93.88888888888889,-180.7142857142857,-20.238095238095237,-0.07936507936507936,-316.1111111111111,304.68253968253964,325.0,-10.238095238095237,117.6984126984127,7.222222222222221,-186.42857142857142,-15.0,140.55555555555554,164.04761904761904,-86.26984126984127,324.36507936507934,-11.349206349206348,152.3015873015873,-1.1904761904761905,-20.238095238095237,150.55555555555554,-150.55555555555554,-166.26984126984127
168.96825396825395,93.88888888888889,-180.7142857142857,-20.238095238095237,-0.07936507936507936,-316.1111111111111,304.68253968253964,325.0,-10.238095238095237,117.6984126984127,7.222222222222221,-186.42857142857142,-15.0,140.55555555555554,164.04761904761904,-86.26984126984127,324.36507936507934,-11.349206349206348,152.3015873015873,-1.1904761904761905,-20.238095238095237,150.55555555555554,-150.55555555555554,-166.26984126984127
325.0,-21.349206349206348,-325.0,-325.0,325.0,-325.0,325.0,325.0,-325.0,-42.14285714285714,325.0,-54.047619047619044,6.111111111111111,-19.92063492063492,325.0,-4.2063492063492065,325.0,-325.0,325.0,-325.0,-325.0,-4.365079365079365,-0.3968253968253968,-166.26984126984127
325.0,-21.349206349206348,-325.0,-325.0,325.0,-325.0,325.0,325.0,-325.0,-42.14285714285714,325.0,-54.047619047619044,6.111111111111111,-19.92063492063492,325.0,-4.2063492063492065,325.0,-325.0,325.0,-325.0,-325.0,-4.365079365079365,-0.3968253968253968,-166.26984126984127
1.349206349206349,6.746031746031746,-162.61904761904762,-110.55555555555554,172.61904761904762,-143.57142857142856,325.0,165.95238095238093,-162.61904761904762,-165.63492063492063,322.3015873015873,-161.19047619047618,27.857142857142854,7.063492063492063,173.09523809523807,20.238095238095237,174.2063492063492,-166.74603174603175,325.0,-314.8412698412698,-152.3015873015873,12.777777777777777,162.14285714285714,-166.26984126984127
1.349206349206349,6.746031746031746,-162.61904761904762,-110.55555555555554,172.61904761904762,-143.57142857142856,325.0,165.95238095238093,-162.61904761904762,-165.63492063492063,322.3015873015873,-161.19047619047618,27.857142857142854,7.063492063492063,173.09523809523807,20.238095238095237,174.2063492063492,-166.74603174603175,325.0,-314.8412698412698,-152.3015873015873,12.777777777777777,162.14285714285714,-166.26984126984127
-1.6666666666666665,57.698412698412696,-162.61904761904762,-110.55555555555554,172.61904761904762,-129.6031746031746,321.984126984127,162.93650793650792,-157.2222222222222,-137.69841269841268,322.3015873015873,-103.4126984126984,-145.47619047619048,20.71428571428571,173.09523809523807,30.396825396825395,172.77777777777777,-152.61904761904762,318.17460317460313,-305.0,-141.19047619047618,10.238095238095237,162.3015873015873,-166.26984126984127
-1.6666666666666665,57.698412698412696,-162.61904761904762,-110.55555555555554,172.61904761904762,-129.6031746031746,321.984126984127,162.93650793650792,-157.2222222222222,-137.69841269841268,322.3015873015873,-103.4126984126984,-145.47619047619048,20.71428571428571,173.09523809523807,30.396825396825395,172.77777777777777,-152.61904761904762,318.17460317460313,-305.0,-141.19047619047618,10.238095238095237,162.3015873015873,-166.26984126984127
313.57142857142856,100.23809523809523,-325.0,-321.66666666666663,321.66666666666663,-292.3015873015873,313.57142857142856,313.88888888888886,-309.1269841269841,25.634920634920633,321.984126984127,84.36507936507937,-325.0,12.777777777777777,325.0,21.349206349206348,316.4285714285714,-296.74603174603175,301.3492063492063,-295.0,-302.6190476190476,-2.46031746031746,-0.07936507936507936,-166.26984126984127
313.57142857142856,100.23809523809523,-325.0,-321.66666666666663,321.66666666666663,-292.3015873015873,313.57142857142856,313.88888888888886,-309.1269841269841,25.634920634920633,321.984126984127,84.36507936507937,-325.0,12.777777777777777,325.0,21.349206349206348,316.4285714285714,-296.74603174603175,301.3492063492063,-295.0,-302.6190476190476,-2.46031746031746,-0.07936507936507936,-166.26984126984127
308.015873015873,95.31746031746032,-325.0,-318.17460317460313,318.3333333333333,-287.38095238095235,308.3333333333333,308.6507936507936,-303.73015873015873,22.142857142857142,319.1269841269841,82.93650793650794,-325.0,9.285714285714285,325.0,17.38095238095238,311.031746031746,-296.74603174603175,291.19047619047615,-284.8412698412698,-302.6190476190476,-2.46031746031746,-0.07936507936507936,-321.8253968253968
308.015873015873,95.31746031746032,-325.0,-318.17460317460313,318.3333333333333,-287.38095238095235,308.3333333333333,308.6507936507936,-303.73015873015873,22.142857142857142,319.1269841269841,82.93650793650794,-325.0,9.285714285714285,325.0,17.38095238095238,311.031746031746,-296.74603174603175,291.19047619047615,-284.8412698412698,-302.6190476190476,-2.46031746031746,-0.07936507936507936,-321.8253968253968
308.015873015873,95.31746031746032,-325.0,-318.17460317460313,318.3333333333333,-287.38095238095235,308.3333333333333,308.6507936507936,-303.73015873015873,22.142857142857142,319.1269841269841,82.93650793650794,-325.0,9.285714285714285,325.0,17.38095238095238,311.031746031746,-296.74603174603175,291.19047619047615,-284.8412698412698,-302.6190476190476,-2.46031746031746,-0.07936507936507936,-321.8253968253968
308.015873015873,95.31746031746032,-325.0,-318.17460317460313,318.3333333333333,-287.38095238095235,308.3333333333333,308.6507936507936,-303.73015873015873,22.142857142857142,319.1269841269841,82.93650793650794,-325.0,9.285714285714285,325.0,17.38095238095238,311.031746031746,-296.74603174603175,291.19047619047615,-284.8412698412698,-302.6190476190476,-2.46031746031746,-0.07936507936507936,-321.8253968253968
308.015873015873,95.31746031746032,-325.0,-318.17460317460313,318.3333333333333,-287.38095238095235,308.3333333333333,308.6507936507936,-303.73015873015873,22.142857142857142,319.1269841269841,82.93650793650794,-325.0,9.285714285714285,325.0,17.38095238095238,311.031746031746,-296.74603174603175,291.19047619047615,-284.8412698412698,-302.6190476190476,-2.46031746031746,-0.07936507936507936,-321.8253968253968
308.015873015873,95.31746031746032,-325.0,-318.17460317460313,318.3333333333333,-287.38095238095235,308.3333333333333,308.6507936507936,-303.73015873015873,22.142857142857142,319.1269841269841,82.93650793650794,-325.0,9.285714285714285,325.0,17.38095238095238,311.031746031746,-296.74603174603175,291.19047619047615,-284.8412698412698,-302.6190476190476,-2.46031746031746,-0.07936507936507936,-321.8253968253968
288.4920634920635,89.6031746031746,-325.0,-298.015873015873,298.6507936507936,-269.6031746031746,289.1269841269841,289.6031746031746,-285.3174603174603,23.253968253968253,299.6031746031746,88.33333333333333,-325.0,11.349206349206348,311.031746031746,16.428571428571427,291.19047619047615,-269.76190476190476,282.1428571428571,-276.4285714285714,-273.4126984126984,-2.7777777777777777,-0.7142857142857142,-321.8253968253968
288.4920634920635,89.6031746031746,-325.0,-298.015873015873,298.6507936507936,-269.6031746031746,289.1269841269841,289.6031746031746,-285.3174603174603,23.253968253968253,299.6031746031746,88.33333333333333,-325.0,11.349206349206348,311.031746031746,16.428571428571427,291.19047619047615,-269.76190476190476,282.1428571428571,-276.4285714285714,-273.4126984126984,-2.7777777777777777,-0.7142857142857142,-321.8253968253968
279.76190476190476,84.52380952380952,-317.85714285714283,-288.968253968254,290.07936507936506,-261.8253968253968,229.28571428571428,205.63492063492063,-277.06349206349205,21.666666666666664,291.031746031746,87.38095238095238,-325.0,10.396825396825395,302.1428571428571,14.206349206349206,282.46031746031747,-261.984126984127,190.23809523809524,-268.3333333333333,-265.0,0.07936507936507936,-0.873015873015873,-321.8253968253968
279.76190476190476,84.52380952380952,-317.85714285714283,-288.968253968254,290.07936507936506,-261.8253968253968,229.28571428571428,205.63492063492063,-277.06349206349205,21.666666666666664,291.031746031746,87.38095238095238,-325.0,10.396825396825395,302.1428571428571,14.206349206349206,282.46031746031747,-261.984126984127,190.23809523809524,-268.3333333333333,-265.0,0.07936507936507936,-0.873015873015873,-321.8253968253968
268.8095238095238,78.96825396825396,-306.74603174603175,-277.6984126984127,279.2857142857143,-251.98412698412696,213.09523809523807,49.6031746031746,-266.74603174603175,20.873015873015873,280.07936507936506,86.42857142857143,-325.0,9.444444444444445,290.87301587301585,12.46031746031746,271.5079365079365,-252.14285714285714,29.6031746031746,-258.015873015873,-254.36507936507934,-2.3015873015873014,-0.7142857142857142,-166.26984126984127
268.8095238095238,78.96825396825396,-306.74603174603175,-277.6984126984127,279.2857142857143,-251.98412698412696,213.09523809523807,49.6031746031746,-266.74603174603175,20.873015873015873,280.07936507936506,86.42857142857143,-325.0,9.444444444444445,290.87301587301585,12.46031746031746,271.5079365079365,-252.14285714285714,29.6031746031746,-258.015873015873,-254.36507936507934,-2.3015873015873014,-0.7142857142857142,-166.26984126984127
265.4761904761905,74.84126984126983,-302.77777777777777,-273.88888888888886,275.6349206349206,-248.8095238095238,115.47619047619047,-21.984126984126984,-263.25396825396825,18.65079365079365,276.58730158730157,83.57142857142857,-323.57142857142856,7.698412698412698,287.38095238095235,9.920634920634921,267.85714285714283,-248.96825396825395,-33.73015873015873,-254.84126984126982,-250.87301587301585,0.07936507936507936,-0.23809523809523808,-166.26984126984127
265.4761904761905,74.84126984126983,-302.77777777777777,-273.88888888888886,275.6349206349206,-248.8095238095238,115.47619047619047,-21.984126984126984,-263.25396825396825,18.65079365079365,276.58730158730157,83.57142857142857,-323.57142857142856,7.698412698412698,287.38095238095235,9.920634920634921,267.85714285714283,-248.96825396825395,-33.73015873015873,-254.84126984126982,-250.87301587301585,0.07936507936507936,-0.23809523809523808,-166.26984126984127
252.93650793650792,62.14285714285714,-289.1269841269841,-261.1904761904762,263.4126984126984,-237.38095238095238,-167.53968253968253,-196.26984126984127,-251.5079365079365,13.095238095238095,264.2063492063492,75.95238095238095,-310.07936507936506,2.7777777777777777,274.68253968253964,3.4126984126984126,255.47619047619045,-237.85714285714283,-198.8095238095238,-243.25396825396825,-238.8095238095238,-2.46031746031746,-1.1904761904761905,-166.26984126984127
252.93650793650792,62.14285714285714,-289.1269841269841,-261.1904761904762,263.4126984126984,-237.38095238095238,-167.53968253968253,-196.26984126984127,-251.5079365079365,13.095238095238095,264.2063492063492,75.95238095238095,-310.07936507936506,2.7777777777777777,274.68253968253964,3.4126984126984126,255.47619047619045,-237.85714285714283,-198.8095238095238,-243.25396825396825,-238.8095238095238,-2.46031746031746,-1.1904761904761905,-166.26984126984127
233.4126984126984,50.55555555555555,-267.22222222222223,-241.03174603174602,244.04761904761904,-219.76190476190476,-73.25396825396825,-325.0,-233.09523809523807,13.571428571428571,244.52380952380952,72.3015873015873,-286.58730158730157,4.2063492063492065,254.68253968253967,2.7777777777777777,236.1111111111111,-220.07936507936506,-325.0,-224.36507936507934,-220.07936507936506,1.1904761904761905,-0.7142857142857142,-166.26984126984127
233.4126984126984,50.55555555555555,-267.22222222222223,-241.03174603174602,244.04761904761904,-219.76190476190476,-73.25396825396825,-325.0,-233.09523809523807,13.571428571428571,244.52380952380952,72.3015873015873,-286.58730158730157,4.2063492063492065,254.68253968253967,2.7777777777777777,236.1111111111111,-220.07936507936506,-325.0,-224.36507936507934,-220.07936507936506,1.1904761904761905,-0.7142857142857142,-166.26984126984127
223.88888888888889,51.82539682539682,-257.06349206349205,-231.8253968253968,235.15873015873015,-211.34920634920633,93.88888888888889,-325.0,-224.2063492063492,18.65079365079365,235.3174603174603,75.79365079365078,-275.7936507936508,9.761904761904761,245.3174603174603,7.222222222222221,226.9047619047619,-211.98412698412696,-325.0,-215.79365079365078,-211.19047619047618,0.5555555555555556,0.7142857142857142,-166.26984126984127
223.88888888888889,51.82539682539682,-257.06349206349205,-231.8253968253968,235.15873015873015,-211.34920634920633,93.88888888888889,-325.0,-224.2063492063492,18.65079365079365,235.3174603174603,75.79365079365078,-275.7936507936508,9.761904761904761,245.3174603174603,7.222222222222221,226.9047619047619,-211.98412698412696,-325.0,-215.79365079365078,-211.19047619047618,0.5555555555555556,0.7142857142857142,-166.26984126984127
123.4126984126984,-325.0,-145.15873015873015,-129.12698412698413,133.0952380952381,325.0,-325.0,-325.0,-127.38095238095238,-6.746031746031746,133.25396825396825,-160.55555555555554,-156.58730158730157,6.26984126984127,140.07936507936506,-17.539682539682538,125.95238095238095,-120.71428571428571,-325.0,-121.19047619047619,-116.1111111111111,0.873015873015873,0.7142857142857142,-321.8253968253968
123.4126984126984,-325.0,-145.15873015873015,-129.12698412698413,133.0952380952381,325.0,-325.0,-325.0,-127.38095238095238,-6.746031746031746,133.25396825396825,-160.55555555555554,-156.58730158730157,6.26984126984127,140.07936507936506,-17.539682539682538,125.95238095238095,-120.71428571428571,-325.0,-121.19047619047619,-116.1111111111111,0.873015873015873,0.7142857142857142,-321.8253968253968
97.38095238095238,-312.1428571428571,-115.79365079365078,-102.61904761904762,106.26984126984127,325.0,-325.0,-324.8412698412698,-102.14285714285714,-3.888888888888889,106.42857142857142,-325.0,-125.31746031746032,8.968253968253968,112.30158730158729,-12.777777777777777,99.6031746031746,-96.74603174603175,-323.57142857142856,-96.42857142857142,-91.66666666666666,-1.507936507936508,-0.07936507936507936,-321.8253968253968
97.38095238095238,-312.1428571428571,-115.79365079365078,-102.61904761904762,106.26984126984127,325.0,-325.0,-324.8412698412698,-102.14285714285714,-3.888888888888889,106.42857142857142,-325.0,-125.31746031746032,8.968253968253968,112.30158730158729,-12.777777777777777,99.6031746031746,-96.74603174603175,-323.57142857142856,-96.42857142857142,-91.66666666666666,-1.507936507936508,-0.07936507936507936,-321.8253968253968
88.65079365079364,-299.1269841269841,-105.79365079365078,-93.57142857142857,97.06349206349206,325.0,-325.0,-324.5238095238095,-93.4126984126984,-3.73015873015873,97.38095238095238,-325.0,-114.68253968253967,8.65079365079365,102.77777777777777,-11.349206349206348,90.55555555555556,-88.4920634920635,-322.1428571428571,-88.17460317460316,-83.25396825396825,-1.1904761904761905,-0.3968253968253968,-321.8253968253968
88.65079365079364,-299.1269841269841,-105.79365079365078,-93.57142857142857,97.06349206349206,325.0,-325.0,-324.5238095238095,-93.4126984126984,-3.73015873015873,97.38095238095238,-325.0,-114.68253968253967,8.65079365079365,102.77777777777777,-11.349206349206348,90.55555555555556,-88.4920634920635,-322.1428571428571,-88.17460317460316,-83.25396825396825,-1.1904761904761905,-0.3968253968253968,-321.8253968253968
88.65079365079364,-299.1269841269841,-105.79365079365078,-93.57142857142857,97.06349206349206,325.0,-325.0,-324.5238095238095,-93.4126984126984,-3.73015873015873,97.38095238095238,-325.0,-114.68253968253967,8.65079365079365,102.77777777777777,-11.349206349206348,90.55555555555556,-88.4920634920635,-322.1428571428571,-88.17460317460316,-83.25396825396825,-1.1904761904761905,-0.3968253968253968,-321.8253968253968
88.65079365079364,-299.1269841269841,-105.79365079365078,-93.57142857142857,97.06349206349206,325.0,-325.0,-324.5238095238095,-93.4126984126984,-3.73015873015873,97.38095238095238,-325.0,-114.68253968253967,8.65079365079365,102.77777777777777,-11.349206349206348,90.55555555555556,-88.4920634920635,-322.1428571428571,-88.17460317460316,-83.25396825396825,-1.1904761904761905,-0.3968253968253968,-321.8253968253968
88.65079365079364,-299.1269841269841,-105.79365079365078,-93.57142857142857,97.06349206349206,325.0,-325.0,-324.5238095238095,-93.4126984126984,-3.73015873015873,97.38095238095238,-325.0,-114.68253968253967,8.65079365079365,102.77777777777777,-11.349206349206348,90.55555555555556,-88.4920634920635,-322.1428571428571,-88.17460317460316,-83.25396825396825,-1.1904761904761905,-0.3968253968253968,-321.8253968253968
88.65079365079364,-299.1269841269841,-105.79365079365078,-93.57142857142857,97.06349206349206,325.0,-325.0,-324.5238095238095,-93.4126984126984,-3.73015873015873,97.38095238095238,-325.0,-114.68253968253967,8.65079365079365,102.77777777777777,-11.349206349206348,90.55555555555556,-88.4920634920635,-322.1428571428571,-88.17460317460316,-83.25396825396825,-1.1904761904761905,-0.3968253968253968,-321.8253968253968
88.65079365079364,-299.1269841269841,-105.79365079365078,-93.57142857142857,97.06349206349206,325.0,-325.0,-324.5238095238095,-93.4126984126984,-3.73015873015873,97.38095238095238,-325.0,-114.68253968253967,8.65079365079365,102.77777777777777,-11.349206349206348,90.55555555555556,-88.4920634920635,-322.1428571428571,-88.17460317460316,-83.25396825396825,-1.1904761904761905,-0.3968253968253968,-166.26984126984127
88.65079365079364,-299.1269841269841,-105.79365079365078,-93.57142857142857,97.06349206349206,325.0,-325.0,-324.5238095238095,-93.4126984126984,-3.73015873015873,97.38095238095238,-325.0,-114.68253968253967,8.65079365079365,102.77777777777777,-11.349206349206348,90.55555555555556,-88.4920634920635,-322.1428571428571,-88.17460317460316,-83.25396825396825,-1.1904761904761905,-0.3968253968253968,-166.26984126984127
59.285714285714285,-202.46031746031744,-71.82539682539682,115.63492063492063,65.31746031746032,273.4126984126984,-270.87301587301585,-222.93650793650792,115.79365079365078,-0.5555555555555556,65.63492063492063,-242.93650793650792,-78.01587301587301,3.253968253968254,69.6031746031746,-3.73015873015873,-117.22222222222221,118.17460317460316,-219.60317460317458,118.33333333333333,-55.79365079365079,-0.23809523809523808,-0.7142857142857142,-166.26984126984127
59.285714285714285,-202.46031746031744,-71.82539682539682,115.63492063492063,65.31746031746032,273.4126984126984,-270.87301587301585,-222.93650793650792,115.79365079365078,-0.5555555555555556,65.63492063492063,-242.93650793650792,-78.01587301587301,3.253968253968254,69.6031746031746,-3.73015873015873,-117.22222222222221,118.17460317460316,-219.60317460317458,118.33333333333333,-55.79365079365079,-0.23809523809523808,-0.7142857142857142,-166.26984126984127
29.920634920634917,-105.79365079365078,-37.857142857142854,325.0,33.73015873015873,221.8253968253968,-216.74603174603175,-121.34920634920634,325.0,2.619047619047619,34.047619047619044,-160.87301587301587,-41.19047619047619,-2.142857142857143,36.42857142857142,4.0476190476190474,-325.0,325.0,-116.9047619047619,325.0,-28.333333333333332,0.873015873015873,-1.0317460317460316,-166.26984126984127
29.920634920634917,-105.79365079365078,-37.857142857142854,325.0,33.73015873015873,221.8253968253968,-216.74603174603175,-121.34920634920634,325.0,2.619047619047619,34.047619047619044,-160.87301587301587,-41.19047619047619,-2.142857142857143,36.42857142857142,4.0476190476190474,-325.0,325.0,-116.9047619047619,325.0,-28.333333333333332,0.873015873015873,-1.0317460317460316,-166.26984126984127
29.920634920634917,-105.79365079365078,-37.857142857142854,325.0,33.73015873015873,221.8253968253968,-216.74603174603175,-121.34920634920634,325.0,2.619047619047619,34.047619047619044,-160.87301587301587,-41.19047619047619,-2.142857142857143,36.42857142857142,4.0476190476190474,-325.0,325.0,-116.9047619047619,325.0,-28.333333333333332,0.873015873015873,-1.0317460317460316,-166.26984126984127
29.920634920634917,-105.79365079365078,-37.857142857142854,325.0,33.73015873015873,221.8253968253968,-216.74603174603175,-121.34920634920634,325.0,2.619047619047619,34.047619047619044,-160.87301587301587,-41.19047619047619,-2.142857142857143,36.42857142857142,4.0476190476190474,-325.0,325.0,-116.9047619047619,325.0,-28.333333333333332,0.873015873015873,-1.0317460317460316,-166.26984126984127
-325.0,-29.76190476190476,325.0,169.76190476190476,-253.88888888888889,63.888888888888886,-37.22222222222222,141.984126984127,156.74603174603175,-0.5555555555555556,-325.0,-44.047619047619044,323.4126984126984,-4.2063492063492065,-325.0,3.571428571428571,-204.04761904761904,205.95238095238093,146.74603174603175,230.3968253968254,325.0,3.888888888888889,1.0317460317460316,-166.26984126984127
-325.0,-29.76190476190476,325.0,169.76190476190476,-253.88888888888889,63.888888888888886,-37.22222222222222,141.984126984127,156.74603174603175,-0.5555555555555556,-325.0,-44.047619047619044,323.4126984126984,-4.2063492063492065,-325.0,3.571428571428571,-204.04761904761904,205.95238095238093,146.74603174603175,230.3968253968254,325.0,3.888888888888889,1.0317460317460316,-166.26984126984127
-325.0,-25.158730158730158,325.0,143.57142857142856,-325.0,54.2063492063492,3.4126984126984126,161.984126984127,132.93650793650792,3.888888888888889,-325.0,-37.06349206349206,321.8253968253968,-1.349206349206349,-325.0,6.904761904761904,-172.93650793650792,175.95238095238093,165.15873015873015,196.11111111111111,325.0,3.4126984126984126,0.5555555555555556,-321.8253968253968
-325.0,-25.158730158730158,325.0,143.57142857142856,-325.0,54.2063492063492,3.4126984126984126,161.984126984127,132.93650793650792,3.888888888888889,-325.0,-37.06349206349206,321.8253968253968,-1.349206349206349,-325.0,6.904761904761904,-172.93650793650792,175.95238095238093,165.15873015873015,196.11111111111111,325.0,3.4126984126984126,0.5555555555555556,-321.8253968253968
-325.0,-25.158730158730158,325.0,143.57142857142856,-325.0,54.2063492063492,3.4126984126984126,161.984126984127,132.93650793650792,3.888888888888889,-325.0,-37.06349206349206,321.8253968253968,-1.349206349206349,-325.0,6.904761904761904,-172.93650793650792,175.95238095238093,165.15873015873015,196.11111111111111,325.0,3.4126984126984126,0.5555555555555556,-321.8253968253968
-325.0,-25.158730158730158,325.0,143.57142857142856,-325.0,54.2063492063492,3.4126984126984126,161.984126984127,132.93650793650792,3.888888888888889,-325.0,-37.06349206349206,321.8253968253968,-1.349206349206349,-325.0,6.904761904761904,-172.93650793650792,175.95238095238093,165.15873015873015,196.11111111111111,325.0,3.4126984126984126,0.5555555555555556,-321.8253968253968
-325.0,-25.158730158730158,325.0,143.57142857142856,-325.0,54.2063492063492,3.4126984126984126,161.984126984127,132.93650793650792,3.888888888888889,-325.0,-37.06349206349206,321.8253968253968,-1.349206349206349,-325.0,6.904761904761904,-172.93650793650792,175.95238095238093,165.15873015873015,196.11111111111111,325.0,3.4126984126984126,0.5555555555555556,-321.8253968253968
-325.0,-25.158730158730158,325.0,143.57142857142856,-325.0,54.2063492063492,3.4126984126984126,161.984126984127,132.93650793650792,3.888888888888889,-325.0,-37.06349206349206,321.8253968253968,-1.349206349206349,-325.0,6.904761904761904,-172.93650793650792,175.95238095238093,165.15873015873015,196.11111111111111,325.0,3.4126984126984126,0.5555555555555556,-321.8253968253968
-325.0,-25.158730158730158,325.0,143.57142857142856,-325.0,54.2063492063492,3.4126984126984126,161.984126984127,132.93650793650792,3.888888888888889,-325.0,-37.06349206349206,321.8253968253968,-1.349206349206349,-325.0,6.904761904761904,-172.93650793650792,175.95238095238093,165.15873015873015,196.11111111111111,325.0,3.4126984126984126,0.5555555555555556,-321.8253968253968
-325.0,-25.158730158730158,325.0,143.57142857142856,-325.0,54.2063492063492,3.4126984126984126,161.984126984127,132.93650793650792,3.888888888888889,-325.0,-37.06349206349206,321.8253968253968,-1.349206349206349,-325.0,6.904761904761904,-172.93650793650792,175.95238095238093,165.15873015873015,196.11111111111111,325.0,3.4126984126984126,0.5555555555555556,-321.8253968253968
-325.0,-25.158730158730158,325.0,143.57142857142856,-325.0,54.2063492063492,3.4126984126984126,161.984126984127,132.93650793650792,3.888888888888889,-325.0,-37.06349206349206,321.8253968253968,-1.349206349206349,-325.0,6.904761904761904,-172.93650793650792,175.95238095238093,165.15873015873015,196.11111111111111,325.0,3.4126984126984126,0.5555555555555556,-321.8253968253968
-325.0,-25.158730158730158,325.0,143.57142857142856,-325.0,54.2063492063492,3.4126984126984126,161.984126984127,132.93650793650792,3.888888888888889,-325.0,-37.06349206349206,321.8253968253968,-1.349206349206349,-325.0,6.904761904761904,-172.93650793650792,175.95238095238093,165.15873015873015,196.11111111111111,325.0,3.4126984126984126,0.5555555555555556,-321.8253968253968
-325.0,-25.158730158730158,325.0,143.57142857142856,-325.0,54.2063492063492,3.4126984126984126,161.984126984127,132.93650793650792,3.888888888888889,-325.0,-37.06349206349206,321.8253968253968,-1.349206349206349,-325.0,6.904761904761904,-172.93650793650792,175.95238095238093,165.15873015873015,196.11111111111111,325.0,3.4126984126984126,0.5555555555555556,-166.26984126984127
-325.0,-25.158730158730158,325.0,143.57142857142856,-325.0,54.2063492063492,3.4126984126984126,161.984126984127,132.93650793650792,3.888888888888889,-325.0,-37.06349206349206,321.8253968253968,-1.349206349206349,-325.0,6.904761904761904,-172.93650793650792,175.95238095238093,165.15873015873015,196.11111111111111,325.0,3.4126984126984126,0.5555555555555556,-166.26984126984127
-325.0,-25.158730158730158,325.0,143.57142857142856,-325.0,54.2063492063492,3.4126984126984126,161.984126984127,132.93650793650792,3.888888888888889,-325.0,-37.06349206349206,321.8253968253968,-1.349206349206349,-325.0,6.904761904761904,-172.93650793650792,175.95238095238093,165.15873015873015,196.11111111111111,325.0,3.4126984126984126,0.5555555555555556,-166.26984126984127
-325.0,-25.158730158730158,325.0,143.57142857142856,-325.0,54.2063492063492,3.4126984126984126,161.984126984127,132.93650793650792,3.888888888888889,-325.0,-37.06349206349206,321.8253968253968,-1.349206349206349,-325.0,6.904761904761904,-172.93650793650792,175.95238095238093,165.15873015873015,196.11111111111111,325.0,3.4126984126984126,0.5555555555555556,-166.26984126984127
-325.0,-25.158730158730158,325.0,143.57142857142856,-325.0,54.2063492063492,3.4126984126984126,161.984126984127,132.93650793650792,3.888888888888889,-325.0,-37.06349206349206,321.8253968253968,-1.349206349206349,-325.0,6.904761904761904,-172.93650793650792,175.95238095238093,165.15873015873015,196.11111111111111,325.0,3.4126984126984126,0.5555555555555556,-166.26984126984127
-325.0,-25.158730158730158,325.0,143.57142857142856,-325.0,54.2063492063492,3.4126984126984126,161.984126984127,132.93650793650792,3.888888888888889,-325.0,-37.06349206349206,321.8253968253968,-1.349206349206349,-325.0,6.904761904761904,-172.93650793650792,175.95238095238093,165.15873015873015,196.11111111111111,325.0,3.4126984126984126,0.5555555555555556,-166.26984126984127
-325.0,-25.158730158730158,325.0,143.57142857142856,-325.0,54.2063492063492,3.4126984126984126,161.984126984127,132.93650793650792,3.888888888888889,-325.0,-37.06349206349206,321.8253968253968,-1.349206349206349,-325.0,6.904761904761904,-172.93650793650792,175.95238095238093,165.15873015873015,196.11111111111111,325.0,3.4126984126984126,0.5555555555555556,-166.26984126984127
-325.0,-25.158730158730158,325.0,143.57142857142856,-325.0,54.2063492063492,3.4126984126984126,161.984126984127,132.93650793650792,3.888888888888889,-325.0,-37.06349206349206,321.8253968253968,-1.349206349206349,-325.0,6.904761904761904,-172.93650793650792,175.95238095238093,165.15873015873015,196.11111111111111,325.0,3.4126984126984126,0.5555555555555556,-166.26984126984127
-308.6507936507936,3.095238095238095,325.0,122.93650793650794,-325.0,46.58730158730158,107.22222222222221,158.33333333333331,114.04761904761904,2.46031746031746,-325.0,-31.98412698412698,276.4285714285714,-4.365079365079365,-325.0,4.2063492063492065,-148.33333333333331,151.66666666666666,151.984126984127,168.4920634920635,299.9206349206349,3.253968253968254,0.873015873015873,-166.26984126984127
-308.6507936507936,3.095238095238095,325.0,122.93650793650794,-325.0,46.58730158730158,107.22222222222221,158.33333333333331,114.04761904761904,2.46031746031746,-325.0,-31.98412698412698,276.4285714285714,-4.365079365079365,-325.0,4.2063492063492065,-148.33333333333331,151.66666666666666,151.984126984127,168.4920634920635,299.9206349206349,3.253968253968254,0.873015873015873,-166.26984126984127
-288.8095238095238,36.904761904761905,325.0,100.87301587301587,-325.0,38.65079365079365,111.82539682539682,155.47619047619048,94.04761904761904,5.476190476190476,-325.0,-26.11111111111111,228.015873015873,-2.619047619047619,-325.0,5.7936507936507935,-122.30158730158729,125.79365079365078,139.44444444444443,138.96825396825395,271.031746031746,-0.7142857142857142,-0.3968253968253968,-321.8253968253968
-288.8095238095238,36.904761904761905,325.0,100.87301587301587,-325.0,38.65079365079365,111.82539682539682,155.47619047619048,94.04761904761904,5.476190476190476,-325.0,-26.11111111111111,228.015873015873,-2.619047619047619,-325.0,5.7936507936507935,-122.30158730158729,125.79365079365078,139.44444444444443,138.96825396825395,271.031746031746,-0.7142857142857142,-0.3968253968253968,-321.8253968253968
-283.73015873015873,44.047619047619044,325.0,99.12698412698413,-325.0,38.01587301587301,241.03174603174602,151.8253968253968,92.30158730158729,8.015873015873016,-325.0,-25.634920634920633,224.2063492063492,-0.7142857142857142,-325.0,7.698412698412698,-120.23809523809523,123.88888888888889,132.93650793650792,136.58730158730157,266.4285714285714,-0.23809523809523808,0.07936507936507936,-321.8253968253968
-283.73015873015873,44.047619047619044,325.0,99.12698412698413,-325.0,38.01587301587301,241.03174603174602,151.8253968253968,92.30158730158729,8.015873015873016,-325.0,-25.634920634920633,224.2063492063492,-0.7142857142857142,-325.0,7.698412698412698,-120.23809523809523,123.88888888888889,132.93650793650792,136.58730158730157,266.4285714285714,-0.23809523809523808,0.07936507936507936,-321.8253968253968
-280.23809523809524,49.6031746031746,323.25396825396825,97.85714285714285,-325.0,37.698412698412696,164.84126984126982,159.9206349206349,91.5079365079365,2.7777777777777777,-325.0,-25.317460317460316,221.03174603174602,-5.0,-325.0,2.9365079365079363,-118.8095238095238,122.30158730158729,146.42857142857142,134.68253968253967,263.0952380952381,2.619047619047619,0.23809523809523808,-321.8253968253968
-280.23809523809524,49.6031746031746,323.25396825396825,97.85714285714285,-325.0,37.698412698412696,164.84126984126982,159.9206349206349,91.5079365079365,2.7777777777777777,-325.0,-25.317460317460316,221.03174603174602,-5.0,-325.0,2.9365079365079363,-118.8095238095238,122.30158730158729,146.42857142857142,134.68253968253967,263.0952380952381,2.619047619047619,0.23809523809523808,-321.8253968253968
-276.74603174603175,54.36507936507936,319.1269841269841,96.42857142857142,-325.0,37.22222222222222,234.52380952380952,157.69841269841268,90.23809523809523,6.904761904761904,-325.0,-25.158730158730158,218.33333333333331,-1.507936507936508,-325.0,6.428571428571428,-117.22222222222221,120.71428571428571,149.28571428571428,133.0952380952381,259.76190476190476,3.253968253968254,0.7142857142857142,-321.8253968253968
-276.74603174603175,54.36507936507936,319.1269841269841,96.42857142857142,-325.0,37.22222222222222,234.52380952380952,157.69841269841268,90.23809523809523,6.904761904761904,-325.0,-25.158730158730158,218.33333333333331,-1.507936507936508,-325.0,6.428571428571428,-117.22222222222221,120.71428571428571,149.28571428571428,133.0952380952381,259.76190476190476,3.253968253968254,0.7142857142857142,-321.8253968253968
-237.85714285714283,159.44444444444443,274.04761904761904,82.46031746031746,-325.0,28.174603174603174,314.5238095238095,147.85714285714286,77.38095238095238,7.857142857142857,-325.0,19.6031746031746,187.69841269841268,-1.8253968253968254,-295.3174603174603,6.111111111111111,-100.71428571428571,104.2063492063492,142.61904761904762,114.36507936507935,222.77777777777777,1.6666666666666665,0.23809523809523808,-321.8253968253968
-237.85714285714283,159.44444444444443,274.04761904761904,82.46031746031746,-325.0,28.174603174603174,314.5238095238095,147.85714285714286,77.38095238095238,7.857142857142857,-325.0,19.6031746031746,187.69841269841268,-1.8253968253968254,-295.3174603174603,6.111111111111111,-100.71428571428571,104.2063492063492,142.61904761904762,114.36507936507935,222.77777777777777,1.6666666666666665,0.23809523809523808,-321.8253968253968
-200.55555555555554,325.0,231.19047619047618,69.76190476190476,-325.0,23.730158730158728,313.4126984126984,144.04761904761904,65.47619047619047,8.174603174603174,-325.0,67.6984126984127,158.33333333333331,-0.23809523809523808,-263.4126984126984,7.063492063492063,-85.0,88.4920634920635,137.85714285714286,96.58730158730158,187.2222222222222,4.2063492063492065,1.507936507936508,-166.26984126984127
-200.55555555555554,325.0,231.19047619047618,69.76190476190476,-325.0,23.730158730158728,313.4126984126984,144.04761904761904,65.47619047619047,8.174603174603174,-325.0,67.6984126984127,158.33333333333331,-0.23809523809523808,-263.4126984126984,7.063492063492063,-85.0,88.4920634920635,137.85714285714286,96.58730158730158,187.2222222222222,4.2063492063492065,1.507936507936508,-166.26984126984127
-196.26984126984127,301.66666666666663,226.1111111111111,68.01587301587301,-325.0,16.746031746031743,268.4920634920635,133.0952380952381,64.04761904761905,1.0317460317460316,-325.0,76.1111111111111,155.0,-8.65079365079365,-258.17460317460313,-0.7142857142857142,-83.09523809523809,86.58730158730158,123.4126984126984,94.68253968253968,183.09523809523807,-2.7777777777777777,-1.1904761904761905,-166.26984126984127
-196.26984126984127,301.66666666666663,226.1111111111111,68.01587301587301,-325.0,16.746031746031743,268.4920634920635,133.0952380952381,64.04761904761905,1.0317460317460316,-325.0,76.1111111111111,155.0,-8.65079365079365,-258.17460317460313,-0.7142857142857142,-83.09523809523809,86.58730158730158,123.4126984126984,94.68253968253968,183.09523809523807,-2.7777777777777777,-1.1904761904761905,-166.26984126984127
-192.77777777777777,325.0,222.3015873015873,67.06349206349206,-325.0,22.3015873015873,222.14285714285714,136.42857142857142,62.93650793650793,-3.73015873015873,-322.46031746031747,82.93650793650794,152.3015873015873,-13.095238095238095,-253.88888888888889,-5.317460317460317,-81.66666666666666,85.15873015873015,129.76190476190476,93.09523809523809,179.9206349206349,2.3015873015873014,1.6666666666666665,-166.26984126984127
-192.77777777777777,325.0,222.3015873015873,67.06349206349206,-325.0,22.3015873015873,222.14285714285714,136.42857142857142,62.93650793650793,-3.73015873015873,-322.46031746031747,82.93650793650794,152.3015873015873,-13.095238095238095,-253.88888888888889,-5.317460317460317,-81.66666666666666,85.15873015873015,129.76190476190476,93.09523809523809,179.9206349206349,2.3015873015873014,1.6666666666666665,-166.26984126984127
-188.015873015873,308.4920634920635,216.58730158730157,65.15873015873015,-325.0,12.936507936507935,273.0952380952381,148.8095238095238,61.34920634920635,0.5555555555555556,-314.8412698412698,91.66666666666666,148.33333333333331,-8.809523809523808,-247.85714285714283,-1.1904761904761905,-79.6031746031746,83.09523809523809,144.84126984126982,90.71428571428571,175.3174603174603,1.984126984126984,0.3968253968253968,-166.26984126984127
-188.015873015873,308.4920634920635,216.58730158730157,65.15873015873015,-325.0,12.936507936507935,273.0952380952381,148.8095238095238,61.34920634920635,0.5555555555555556,-314.8412698412698,91.66666666666666,148.33333333333331,-8.809523809523808,-247.85714285714283,-1.1904761904761905,-79.6031746031746,83.09523809523809,144.84126984126982,90.71428571428571,175.3174603174603,1.984126984126984,0.3968253968253968,-166.26984126984127
-184.68253968253967,325.0,212.93650793650792,64.04761904761905,-325.0,20.238095238095237,192.3015873015873,147.85714285714286,60.39682539682539,5.317460317460317,-309.6031746031746,96.74603174603175,145.79365079365078,-4.365079365079365,-243.7301587301587,3.888888888888889,-78.17460317460316,81.82539682539682,145.3174603174603,88.96825396825396,172.14285714285714,-3.571428571428571,-2.3015873015873014,-166.26984126984127
-184.68253968253967,325.0,212.93650793650792,64.04761904761905,-325.0,20.238095238095237,192.3015873015873,147.85714285714286,60.39682539682539,5.317460317460317,-309.6031746031746,96.74603174603175,145.79365079365078,-4.365079365079365,-243.7301587301587,3.888888888888889,-78.17460317460316,81.82539682539682,145.3174603174603,88.96825396825396,172.14285714285714,-3.571428571428571,-2.3015873015873014,-166.26984126984127
-181.66666666666666,310.7142857142857,209.12698412698413,62.93650793650793,-325.0,3.095238095238095,303.73015873015873,147.85714285714286,59.285714285714285,4.365079365079365,-304.8412698412698,102.14285714285714,143.25396825396825,-5.317460317460317,-239.9206349206349,2.142857142857143,-77.06349206349206,80.39682539682539,141.984126984127,87.38095238095238,169.12698412698413,1.8253968253968254,1.1904761904761905,-321.8253968253968
-181.66666666666666,310.7142857142857,209.12698412698413,62.93650793650793,-325.0,3.095238095238095,303.73015873015873,147.85714285714286,59.285714285714285,4.365079365079365,-304.8412698412698,102.14285714285714,143.25396825396825,-5.317460317460317,-239.9206349206349,2.142857142857143,-77.06349206349206,80.39682539682539,141.984126984127,87.38095238095238,169.12698412698413,1.8253968253968254,1.1904761904761905,-321.8253968253968
-179.28571428571428,325.0,206.58730158730157,61.98412698412698,-325.0,11.507936507936508,247.2222222222222,150.7142857142857,58.49206349206349,4.0476190476190474,-301.031746031746,105.79365079365078,141.5079365079365,-5.7936507936507935,-237.06349206349205,2.46031746031746,-76.1111111111111,79.44444444444444,145.0,86.42857142857143,167.06349206349205,-0.7142857142857142,-0.3968253968253968,-321.8253968253968
-179.28571428571428,325.0,206.58730158730157,61.98412698412698,-325.0,11.507936507936508,247.2222222222222,150.7142857142857,58.49206349206349,4.0476190476190474,-301.031746031746,105.79365079365078,141.5079365079365,-5.7936507936507935,-237.06349206349205,2.46031746031746,-76.1111111111111,79.44444444444444,145.0,86.42857142857143,167.06349206349205,-0.7142857142857142,-0.3968253968253968,-321.8253968253968
-175.47619047619045,325.0,202.14285714285714,60.71428571428571,-325.0,-5.158730158730158,286.26984126984127,142.3015873015873,57.22222222222222,8.015873015873016,-295.1587301587301,111.82539682539682,138.4920634920635,-1.984126984126984,-231.98412698412696,5.634920634920634,-74.36507936507937,77.6984126984127,137.53968253968253,84.68253968253968,163.25396825396825,2.142857142857143,0.5555555555555556,-321.8253968253968
-175.47619047619045,325.0,202.14285714285714,60.71428571428571,-325.0,-5.158730158730158,286.26984126984127,142.3015873015873,57.22222222222222,8.015873015873016,-295.1587301587301,111.82539682539682,138.4920634920635,-1.984126984126984,-231.98412698412696,5.634920634920634,-74.36507936507937,77.6984126984127,137.53968253968253,84.68253968253968,163.25396825396825,2.142857142857143,0.5555555555555556,-321.8253968253968
-172.46031746031744,325.0,198.65079365079364,59.76190476190476,-325.0,9.761904761904761,185.79365079365078,143.09523809523807,56.269841269841265,8.174603174603174,-290.39682539682536,116.58730158730158,135.95238095238093,-1.984126984126984,-228.17460317460316,6.26984126984127,-73.09523809523809,76.42857142857143,142.93650793650792,83.25396825396825,160.3968253968254,-4.365079365079365,-1.984126984126984,-321.8253968253968
-172.46031746031744,325.0,198.65079365079364,59.76190476190476,-325.0,9.761904761904761,185.79365079365078,143.09523809523807,56.269841269841265,8.174603174603174,-290.39682539682536,116.58730158730158,135.95238095238093,-1.984126984126984,-228.17460317460316,6.26984126984127,-73.09523809523809,76.42857142857143,142.93650793650792,83.25396825396825,160.3968253968254,-4.365079365079365,-1.984126984126984,-321.8253968253968
-169.44444444444443,325.0,195.3174603174603,58.650793650793645,-325.0,-13.888888888888888,258.3333333333333,142.77777777777777,55.317460317460316,2.142857142857143,-285.4761904761905,121.03174603174602,133.73015873015873,-8.015873015873016,-224.52380952380952,-0.3968253968253968,-71.82539682539682,75.15873015873015,139.76190476190476,81.66666666666666,157.69841269841268,2.3015873015873014,0.07936507936507936,-321.8253968253968
-169.44444444444443,325.0,195.3174603174603,58.650793650793645,-325.0,-13.888888888888888,258.3333333333333,142.77777777777777,55.317460317460316,2.142857142857143,-285.4761904761905,121.03174603174602,133.73015873015873,-8.015873015873016,-224.52380952380952,-0.3968253968253968,-71.82539682539682,75.15873015873015,139.76190476190476,81.66666666666666,157.69841269841268,2.3015873015873014,0.07936507936507936,-321.8253968253968
-166.58730158730157,325.0,191.98412698412696,57.698412698412696,-325.0,0.3968253968253968,135.15873015873015,137.69841269841268,54.52380952380952,10.079365079365079,-281.19047619047615,125.47619047619047,131.34920634920636,0.23809523809523808,-220.87301587301587,8.65079365079365,-70.71428571428571,74.04761904761904,130.87301587301587,80.39682539682539,154.84126984126982,-3.571428571428571,-2.3015873015873014,-166.26984126984127
-166.58730158730157,325.0,191.98412698412696,57.698412698412696,-325.0,0.3968253968253968,135.15873015873015,137.69841269841268,54.52380952380952,10.079365079365079,-281.19047619047615,125.47619047619047,131.34920634920636,0.23809523809523808,-220.87301587301587,8.65079365079365,-70.71428571428571,74.04761904761904,130.87301587301587,80.39682539682539,154.84126984126982,-3.571428571428571,-2.3015873015873014,-166.26984126984127
-163.73015873015873,325.0,188.4920634920635,56.58730158730158,-325.0,-25.79365079365079,255.79365079365078,136.42857142857142,53.41269841269841,16.428571428571427,-276.58730158730157,128.96825396825395,129.28571428571428,5.952380952380952,-217.38095238095238,13.888888888888888,-69.28571428571428,72.77777777777777,118.65079365079364,79.12698412698413,152.14285714285714,2.3015873015873014,1.6666666666666665,-166.26984126984127
-163.73015873015873,325.0,188.4920634920635,56.58730158730158,-325.0,-25.79365079365079,255.79365079365078,136.42857142857142,53.41269841269841,16.428571428571427,-276.58730158730157,128.96825396825395,129.28571428571428,5.952380952380952,-217.38095238095238,13.888888888888888,-69.28571428571428,72.77777777777777,118.65079365079364,79.12698412698413,152.14285714285714,2.3015873015873014,1.6666666666666665,-166.26984126984127
-161.03174603174602,325.0,185.3174603174603,55.79365079365079,-325.0,-12.777777777777777,143.88888888888889,137.69841269841268,52.61904761904761,10.714285714285714,-272.1428571428571,133.25396825396825,126.9047619047619,0.5555555555555556,-213.7301587301587,8.809523809523808,-68.17460317460318,71.5079365079365,115.47619047619047,77.53968253968253,149.6031746031746,-3.571428571428571,-2.3015873015873014,-166.26984126984127
-161.03174603174602,325.0,185.3174603174603,55.79365079365079,-325.0,-12.777777777777777,143.88888888888889,137.69841269841268,52.61904761904761,10.714285714285714,-272.1428571428571,133.25396825396825,126.9047619047619,0.5555555555555556,-213.7301587301587,8.809523809523808,-68.17460317460318,71.5079365079365,115.47619047619047,77.53968253968253,149.6031746031746,-3.571428571428571,-2.3015873015873014,-166.26984126984127
-158.17460317460316,325.0,182.14285714285714,54.68253968253968,-325.0,-25.79365079365079,234.2063492063492,146.42857142857142,51.666666666666664,6.746031746031746,-267.6984126984127,136.9047619047619,124.68253968253967,-3.571428571428571,-210.3968253968254,4.365079365079365,-67.06349206349206,70.23809523809524,126.58730158730158,76.42857142857143,146.9047619047619,2.142857142857143,-0.07936507936507936,-166.26984126984127
-158.17460317460316,325.0,182.14285714285714,54.68253968253968,-325.0,-25.79365079365079,234.2063492063492,146.42857142857142,51.666666666666664,6.746031746031746,-267.6984126984127,136.9047619047619,124.68253968253967,-3.571428571428571,-210.3968253968254,4.365079365079365,-67.06349206349206,70.23809523809524,126.58730158730158,76.42857142857143,146.9047619047619,2.142857142857143,-0.07936507936507936,-166.26984126984127
-154.84126984126982,325.0,178.33333333333331,53.57142857142857,-325.0,-18.174603174603174,207.53968253968253,152.77777777777777,50.55555555555555,-1.507936507936508,-262.3015873015873,141.5079365079365,122.14285714285714,-11.349206349206348,-206.1111111111111,-3.4126984126984126,-65.63492063492063,68.96825396825396,143.4126984126984,74.84126984126983,143.73015873015873,-0.5555555555555556,-0.7142857142857142,-166.26984126984127
-154.84126984126982,325.0,178.33333333333331,53.57142857142857,-325.0,-18.174603174603174,207.53968253968253,152.77777777777777,50.55555555555555,-1.507936507936508,-262.3015873015873,141.5079365079365,122.14285714285714,-11.349206349206348,-206.1111111111111,-3.4126984126984126,-65.63492063492063,68.96825396825396,143.4126984126984,74.84126984126983,143.73015873015873,-0.5555555555555556,-0.7142857142857142,-166.26984126984127
-151.34920634920633,325.0,174.52380952380952,52.460317460317455,-325.0,-16.11111111111111,325.0,153.25396825396825,49.44444444444444,-1.8253968253968254,-257.06349206349205,147.38095238095238,119.6031746031746,-11.825396825396824,-201.98412698412696,-3.571428571428571,-64.2063492063492,67.53968253968253,147.69841269841268,73.09523809523809,140.7142857142857,-0.23809523809523808,-0.23809523809523808,-321.8253968253968
-151.34920634920633,325.0,174.52380952380952,52.460317460317455,-325.0,-16.11111111111111,325.0,153.25396825396825,49.44444444444444,-1.8253968253968254,-257.06349206349205,147.38095238095238,119.6031746031746,-11.825396825396824,-201.98412698412696,-3.571428571428571,-64.2063492063492,67.53968253968253,147.69841269841268,73.09523809523809,140.7142857142857,-0.23809523809523808,-0.23809523809523808,-321.8253968253968
-148.8095238095238,325.0,171.34920634920633,51.666666666666664,-325.0,-45.15873015873016,325.0,137.53968253968253,48.650793650793645,6.746031746031746,-252.93650793650792,148.33333333333331,117.53968253968253,-3.888888888888889,-198.65079365079364,4.523809523809524,-63.25396825396825,66.26984126984127,128.33333333333331,71.98412698412697,138.17460317460316,-1.349206349206349,-1.349206349206349,-321.8253968253968
-148.8095238095238,325.0,171.34920634920633,51.666666666666664,-325.0,-45.15873015873016,325.0,137.53968253968253,48.650793650793645,6.746031746031746,-252.93650793650792,148.33333333333331,117.53968253968253,-3.888888888888889,-198.65079365079364,4.523809523809524,-63.25396825396825,66.26984126984127,128.33333333333331,71.98412698412697,138.17460317460316,-1.349206349206349,-1.349206349206349,-321.8253968253968
-146.26984126984127,325.0,168.33333333333331,50.55555555555555,-322.1428571428571,-25.952380952380953,325.0,139.28571428571428,47.857142857142854,5.0,-248.96825396825395,177.69841269841268,115.47619047619047,-5.0,-195.47619047619045,3.253968253968254,-62.14285714285714,65.31746031746032,136.9047619047619,70.71428571428571,135.63492063492063,0.5555555555555556,-0.07936507936507936,-321.8253968253968
-146.26984126984127,325.0,168.33333333333331,50.55555555555555,-322.1428571428571,-25.952380952380953,325.0,139.28571428571428,47.857142857142854,5.0,-248.96825396825395,177.69841269841268,115.47619047619047,-5.0,-195.47619047619045,3.253968253968254,-62.14285714285714,65.31746031746032,136.9047619047619,70.71428571428571,135.63492063492063,0.5555555555555556,-0.07936507936507936,-321.8253968253968
-144.36507936507937,325.0,166.26984126984127,50.079365079365076,-318.3333333333333,-38.01587301587301,325.0,139.28571428571428,47.22222222222222,6.111111111111111,-245.79365079365078,163.25396825396825,113.88888888888889,-3.4126984126984126,-193.09523809523807,4.523809523809524,-61.34920634920635,64.52380952380952,135.47619047619048,69.6031746031746,133.88888888888889,-0.3968253968253968,0.3968253968253968,-321.8253968253968
-144.36507936507937,325.0,166.26984126984127,50.079365079365076,-318.3333333333333,-38.01587301587301,325.0,139.28571428571428,47.22222222222222,6.111111111111111,-245.79365079365078,163.25396825396825,113.88888888888889,-3.4126984126984126,-193.09523809523807,4.523809523809524,-61.34920634920635,64.52380952380952,135.47619047619048,69.6031746031746,133.88888888888889,-0.3968253968253968,0.3968253968253968,-321.8253968253968
-141.34920634920636,325.0,162.77777777777777,48.80952380952381,-311.984126984127,-27.857142857142854,325.0,142.77777777777777,46.269841269841265,4.0476190476190474,-240.87301587301587,216.1111111111111,111.34920634920634,-5.952380952380952,-189.12698412698413,2.3015873015873014,-60.079365079365076,63.095238095238095,141.03174603174602,68.33333333333333,131.03174603174602,-0.5555555555555556,-0.23809523809523808,-321.8253968253968
-141.34920634920636,325.0,162.77777777777777,48.80952380952381,-311.984126984127,-27.857142857142854,325.0,142.77777777777777,46.269841269841265,4.0476190476190474,-240.87301587301587,216.1111111111111,111.34920634920634,-5.952380952380952,-189.12698412698413,2.3015873015873014,-60.079365079365076,63.095238095238095,141.03174603174602,68.33333333333333,131.03174603174602,-0.5555555555555556,-0.23809523809523808,-321.8253968253968
-138.96825396825395,325.0,159.9206349206349,48.01587301587301,-306.90476190476187,-48.33333333333333,325.0,135.15873015873015,45.476190476190474,7.5396825396825395,-237.06349206349205,186.74603174603175,109.6031746031746,-2.9365079365079363,-186.11111111111111,5.0,-59.12698412698413,61.98412698412698,136.74603174603175,67.22222222222221,128.8095238095238,-0.873015873015873,-0.23809523809523808,-166.26984126984127
-138.96825396825395,325.0,159.9206349206349,48.01587301587301,-306.90476190476187,-48.33333333333333,325.0,135.15873015873015,45.476190476190474,7.5396825396825395,-237.06349206349205,186.74603174603175,109.6031746031746,-2.9365079365079363,-186.11111111111111,5.0,-59.12698412698413,61.98412698412698,136.74603174603175,67.22222222222221,128.8095238095238,-0.873015873015873,-0.23809523809523808,-166.26984126984127
-136.58730158730157,325.0,157.2222222222222,47.22222222222222,-301.984126984127,-31.19047619047619,325.0,137.22222222222223,44.84126984126984,6.904761904761904,-233.09523809523807,259.6031746031746,107.53968253968253,-3.253968253968254,-183.09523809523807,5.158730158730158,-58.01587301587301,61.03174603174603,138.96825396825395,65.95238095238095,126.42857142857142,0.3968253968253968,-0.23809523809523808,-166.26984126984127
-136.58730158730157,325.0,157.2222222222222,47.22222222222222,-301.984126984127,-31.19047619047619,325.0,137.22222222222223,44.84126984126984,6.904761904761904,-233.09523809523807,259.6031746031746,107.53968253968253,-3.253968253968254,-183.09523809523807,5.158730158730158,-58.01587301587301,61.03174603174603,138.96825396825395,65.95238095238095,126.42857142857142,0.3968253968253968,-0.23809523809523808,-166.26984126984127
-134.2063492063492,325.0,154.36507936507937,46.42857142857142,-297.06349206349205,-59.92063492063492,325.0,132.14285714285714,44.047619047619044,8.809523809523808,-229.44444444444443,210.87301587301587,105.79365079365078,-1.507936507936508,-180.07936507936506,6.746031746031746,-57.06349206349206,60.079365079365076,125.63492063492063,64.84126984126983,124.2063492063492,-0.873015873015873,-0.7142857142857142,-166.26984126984127
-134.2063492063492,325.0,154.36507936507937,46.42857142857142,-297.06349206349205,-59.92063492063492,325.0,132.14285714285714,44.047619047619044,8.809523809523808,-229.44444444444443,210.87301587301587,105.79365079365078,-1.507936507936508,-180.07936507936506,6.746031746031746,-57.06349206349206,60.079365079365076,125.63492063492063,64.84126984126983,124.2063492063492,-0.873015873015873,-0.7142857142857142,-166.26984126984127
-132.3015873015873,325.0,152.46031746031744,45.79365079365079,-293.57142857142856,-52.77777777777777,126.1111111111111,136.58730158730157,43.41269841269841,6.428571428571428,-226.42857142857142,221.34920634920633,104.68253968253968,-3.888888888888889,-178.015873015873,5.0,-56.269841269841265,59.44444444444444,127.38095238095238,64.04761904761905,122.6190476190476,0.07936507936507936,-1.0317460317460316,-166.26984126984127
-132.3015873015873,325.0,152.46031746031744,45.79365079365079,-293.57142857142856,-52.77777777777777,126.1111111111111,136.58730158730157,43.41269841269841,6.428571428571428,-226.42857142857142,221.34920634920633,104.68253968253968,-3.888888888888889,-178.015873015873,5.0,-56.269841269841265,59.44444444444444,127.38095238095238,64.04761904761905,122.6190476190476,0.07936507936507936,-1.0317460317460316,-166.26984126984127
-129.6031746031746,325.0,149.12698412698413,44.84126984126984,-287.53968253968253,-66.74603174603175,31.825396825396822,142.61904761904762,42.460317460317455,8.174603174603174,-221.98412698412696,242.6190476190476,102.30158730158729,-1.984126984126984,-174.04761904761904,6.428571428571428,-55.15873015873016,58.01587301587301,124.84126984126983,62.77777777777777,119.92063492063491,-0.5555555555555556,-0.23809523809523808,-166.26984126984127
-129.6031746031746,325.0,149.12698412698413,44.84126984126984,-287.53968253968253,-66.74603174603175,31.825396825396822,142.61904761904762,42.460317460317455,8.174603174603174,-221.98412698412696,242.6190476190476,102.30158730158729,-1.984126984126984,-174.04761904761904,6.428571428571428,-55.15873015873016,58.01587301587301,124.84126984126983,62.77777777777777,119.92063492063491,-0.5555555555555556,-0.23809523809523808,-166.26984126984127
-126.26984126984127,325.0,145.3174603174603,43.57142857142857,-280.87301587301585,-42.3015873015873,-187.69841269841268,150.07936507936506,41.507936507936506,8.65079365079365,-216.58730158730157,321.5079365079365,99.44444444444444,-1.349206349206349,-169.9206349206349,7.857142857142857,-53.73015873015873,56.74603174603174,138.4920634920635,61.03174603174603,117.06349206349206,-3.73015873015873,-2.142857142857143,-321.8253968253968
-126.26984126984127,325.0,145.3174603174603,43.57142857142857,-280.87301587301585,-42.3015873015873,-187.69841269841268,150.07936507936506,41.507936507936506,8.65079365079365,-216.58730158730157,321.5079365079365,99.44444444444444,-1.349206349206349,-169.9206349206349,7.857142857142857,-53.73015873015873,56.74603174603174,138.4920634920635,61.03174603174603,117.06349206349206,-3.73015873015873,-2.142857142857143,-321.8253968253968
-124.52380952380952,325.0,143.4126984126984,43.095238095238095,-277.22222222222223,-69.76190476190476,-117.6984126984127,142.14285714285714,40.87301587301587,13.412698412698411,-213.88888888888889,211.8253968253968,98.33333333333333,2.9365079365079363,-167.69841269841268,11.666666666666666,-52.77777777777777,56.11111111111111,134.68253968253967,60.39682539682539,115.31746031746032,3.095238095238095,2.3015873015873014,-321.8253968253968
-124.52380952380952,325.0,143.4126984126984,43.095238095238095,-277.22222222222223,-69.76190476190476,-117.6984126984127,142.14285714285714,40.87301587301587,13.412698412698411,-213.88888888888889,211.8253968253968,98.33333333333333,2.9365079365079363,-167.69841269841268,11.666666666666666,-52.77777777777777,56.11111111111111,134.68253968253967,60.39682539682539,115.31746031746032,3.095238095238095,2.3015873015873014,-321.8253968253968
-121.98412698412697,325.0,140.23809523809524,42.14285714285714,-271.8253968253968,-51.19047619047619,-249.60317460317458,140.7142857142857,40.079365079365076,8.968253968253968,-209.76190476190476,325.0,96.1111111111111,-0.873015873015873,-164.36507936507937,8.174603174603174,-51.82539682539682,54.841269841269835,139.12698412698413,59.12698412698413,112.77777777777777,-3.73015873015873,-1.984126984126984,-321.8253968253968
-121.98412698412697,325.0,140.23809523809524,42.14285714285714,-271.8253968253968,-51.19047619047619,-249.60317460317458,140.7142857142857,40.079365079365076,8.968253968253968,-209.76190476190476,325.0,96.1111111111111,-0.873015873015873,-164.36507936507937,8.174603174603174,-51.82539682539682,54.841269841269835,139.12698412698413,59.12698412698413,112.77777777777777,-3.73015873015873,-1.984126984126984,-321.8253968253968
-119.76190476190476,325.0,137.85714285714286,41.507936507936506,-267.53968253968253,-76.58730158730158,-197.38095238095238,131.03174603174602,39.285714285714285,11.19047619047619,-206.26984126984127,282.6190476190476,94.52380952380952,1.6666666666666665,-161.66666666666666,10.238095238095237,-50.87301587301587,54.047619047619044,126.9047619047619,58.01587301587301,110.71428571428571,4.0476190476190474,0.07936507936507936,-321.8253968253968
-119.76190476190476,325.0,137.85714285714286,41.507936507936506,-267.53968253968253,-76.58730158730158,-197.38095238095238,131.03174603174602,39.285714285714285,11.19047619047619,-206.26984126984127,282.6190476190476,94.52380952380952,1.6666666666666665,-161.66666666666666,10.238095238095237,-50.87301587301587,54.047619047619044,126.9047619047619,58.01587301587301,110.71428571428571,4.0476190476190474,0.07936507936507936,-321.8253968253968
-117.85714285714285,325.0,135.47619047619048,40.714285714285715,-263.25396825396825,-82.77777777777777,-289.76190476190476,117.38095238095238,38.65079365079365,6.904761904761904,-202.93650793650792,325.0,92.93650793650794,-2.619047619047619,-159.12698412698413,7.222222222222221,-50.238095238095234,52.93650793650794,111.34920634920634,57.22222222222222,108.65079365079364,-4.0476190476190474,-1.8253968253968254,-321.8253968253968
-117.85714285714285,325.0,135.47619047619048,40.714285714285715,-263.25396825396825,-82.77777777777777,-289.76190476190476,117.38095238095238,38.65079365079365,6.904761904761904,-202.93650793650792,325.0,92.93650793650794,-2.619047619047619,-159.12698412698413,7.222222222222221,-50.238095238095234,52.93650793650794,111.34920634920634,57.22222222222222,108.65079365079364,-4.0476190476190474,-1.8253968253968254,-321.8253968253968
-117.22222222222221,325.0,135.0,40.714285714285715,-262.3015873015873,-98.33333333333333,-254.52380952380952,111.98412698412697,38.49206349206349,7.698412698412698,-201.98412698412696,325.0,92.61904761904762,-1.6666666666666665,-158.4920634920635,8.015873015873016,-49.92063492063492,52.77777777777777,105.15873015873015,56.904761904761905,108.33333333333333,-4.523809523809524,-1.984126984126984,-166.26984126984127
-117.22222222222221,325.0,135.0,40.714285714285715,-262.3015873015873,-98.33333333333333,-254.52380952380952,111.98412698412697,38.49206349206349,7.698412698412698,-201.98412698412696,325.0,92.61904761904762,-1.6666666666666665,-158.4920634920635,8.015873015873016,-49.92063492063492,52.77777777777777,105.15873015873015,56.904761904761905,108.33333333333333,-4.523809523809524,-1.984126984126984,-166.26984126984127
-115.15873015873015,325.0,132.46031746031744,39.92063492063492,-258.17460317460313,-100.39682539682539,-258.3333333333333,113.4126984126984,37.857142857142854,2.619047619047619,-198.8095238095238,325.0,91.03174603174602,-6.904761904761904,-155.95238095238093,2.9365079365079363,-49.12698412698413,51.82539682539682,105.47619047619047,55.79365079365079,106.42857142857142,-4.0476190476190474,-2.142857142857143,-166.26984126984127
-115.15873015873015,325.0,132.46031746031744,39.92063492063492,-258.17460317460313,-100.39682539682539,-258.3333333333333,113.4126984126984,37.857142857142854,2.619047619047619,-198.8095238095238,325.0,91.03174603174602,-6.904761904761904,-155.95238095238093,2.9365079365079363,-49.12698412698413,51.82539682539682,105.47619047619047,55.79365079365079,106.42857142857142,-4.0476190476190474,-2.142857142857143,-166.26984126984127
-112.14285714285714,325.0,128.96825396825395,38.80952380952381,-251.8253968253968,-89.28571428571428,-293.57142857142856,126.42857142857142,36.904761904761905,-0.7142857142857142,-193.88888888888889,325.0,88.65079365079364,-10.079365079365079,-152.14285714285714,-0.07936507936507936,-47.857142857142854,50.71428571428571,115.79365079365078,54.36507936507936,103.57142857142857,-0.5555555555555556,-1.0317460317460316,-166.26984126984127
-112.14285714285714,325.0,128.96825396825395,38.80952380952381,-251.8253968253968,-89.28571428571428,-293.57142857142856,126.42857142857142,36.904761904761905,-0.7142857142857142,-193.88888888888889,325.0,88.65079365079364,-10.079365079365079,-152.14285714285714,-0.07936507936507936,-47.857142857142854,50.71428571428571,115.79365079365078,54.36507936507936,103.57142857142857,-0.5555555555555556,-1.0317460317460316,-166.26984126984127
-110.23809523809523,325.0,126.74603174603173,38.17460317460317,-247.69841269841268,-59.76190476190476,-325.0,145.47619047619048,36.269841269841265,1.349206349206349,-191.03174603174602,325.0,87.06349206349206,-7.5396825396825395,-149.28571428571428,2.3015873015873014,-46.74603174603175,49.76190476190476,131.984126984127,53.73015873015873,101.66666666666666,-4.682539682539682,-2.619047619047619,-166.26984126984127
-110.23809523809523,325.0,126.74603174603173,38.17460317460317,-247.69841269841268,-59.76190476190476,-325.0,145.47619047619048,36.269841269841265,1.349206349206349,-191.03174603174602,325.0,87.06349206349206,-7.5396825396825395,-149.28571428571428,2.3015873015873014,-46.74603174603175,49.76190476190476,131.984126984127,53.73015873015873,101.66666666666666,-4.682539682539682,-2.619047619047619,-166.26984126984127
-110.23809523809523,325.0,126.74603174603173,38.17460317460317,-247.69841269841268,-59.76190476190476,-325.0,145.47619047619048,36.269841269841265,1.349206349206349,-191.03174603174602,325.0,87.06349206349206,-7.5396825396825395,-149.28571428571428,2.3015873015873014,-46.74603174603175,49.76190476190476,131.984126984127,53.73015873015873,101.66666666666666,-4.682539682539682,-2.619047619047619,-166.26984126984127
-110.23809523809523,325.0,126.74603174603173,38.17460317460317,-247.69841269841268,-59.76190476190476,-325.0,145.47619047619048,36.269841269841265,1.349206349206349,-191.03174603174602,325.0,87.06349206349206,-7.5396825396825395,-149.28571428571428,2.3015873015873014,-46.74603174603175,49.76190476190476,131.984126984127,53.73015873015873,101.66666666666666,-4.682539682539682,-2.619047619047619,-166.26984126984127
-106.1111111111111,325.0,121.98412698412697,36.74603174603175,-238.96825396825395,-64.36507936507937,-259.9206349206349,148.96825396825395,35.0,1.507936507936508,-184.04761904761904,325.0,83.73015873015872,-7.5396825396825395,-144.04761904761904,2.46031746031746,-45.15873015873016,48.01587301587301,145.15873015873015,51.507936507936506,97.85714285714285,-3.253968253968254,-2.142857142857143,-321.8253968253968
-106.1111111111111,325.0,121.98412698412697,36.74603174603175,-238.96825396825395,-64.36507936507937,-259.9206349206349,148.96825396825395,35.0,1.507936507936508,-184.04761904761904,325.0,83.73015873015872,-7.5396825396825395,-144.04761904761904,2.46031746031746,-45.15873015873016,48.01587301587301,145.15873015873015,51.507936507936506,97.85714285714285,-3.253968253968254,-2.142857142857143,-321.8253968253968
-104.2063492063492,325.0,119.76190476190476,36.269841269841265,-235.0,-71.82539682539682,-218.4920634920635,147.69841269841268,34.36507936507936,2.9365079365079363,-181.03174603174602,325.0,82.14285714285714,-5.634920634920634,-141.66666666666666,4.2063492063492065,-44.52380952380952,47.06349206349206,146.11111111111111,50.71428571428571,96.1111111111111,2.619047619047619,0.7142857142857142,-321.8253968253968
-104.2063492063492,325.0,119.76190476190476,36.269841269841265,-235.0,-71.82539682539682,-218.4920634920635,147.69841269841268,34.36507936507936,2.9365079365079363,-181.03174603174602,325.0,82.14285714285714,-5.634920634920634,-141.66666666666666,4.2063492063492065,-44.52380952380952,47.06349206349206,146.11111111111111,50.71428571428571,96.1111111111111,2.619047619047619,0.7142857142857142,-321.8253968253968
-102.61904761904762,325.0,117.6984126984127,35.476190476190474,-231.19047619047618,-75.63492063492063,-253.57142857142856,137.69841269841268,33.888888888888886,2.3015873015873014,-178.17460317460316,325.0,80.87301587301587,-6.26984126984127,-139.28571428571428,3.73015873015873,-43.73015873015873,46.269841269841265,131.34920634920636,49.92063492063492,94.36507936507935,-3.888888888888889,-2.142857142857143,-321.8253968253968
-102.61904761904762,325.0,117.6984126984127,35.476190476190474,-231.19047619047618,-75.63492063492063,-253.57142857142856,137.69841269841268,33.888888888888886,2.3015873015873014,-178.17460317460316,325.0,80.87301587301587,-6.26984126984127,-139.28571428571428,3.73015873015873,-43.73015873015873,46.269841269841265,131.34920634920636,49.92063492063492,94.36507936507935,-3.888888888888889,-2.142857142857143,-321.8253968253968
-101.03174603174602,325.0,116.1111111111111,35.0,-228.33333333333331,-98.33333333333333,-172.77777777777777,138.015873015873,33.57142857142857,4.2063492063492065,-175.79365079365078,325.0,79.44444444444444,-3.73015873015873,-137.53968253968253,5.634920634920634,-43.25396825396825,45.63492063492063,127.85714285714285,49.285714285714285,93.09523809523809,4.365079365079365,2.7777777777777777,-321.8253968253968
-101.03174603174602,325.0,116.1111111111111,35.0,-228.33333333333331,-98.33333333333333,-172.77777777777777,138.015873015873,33.57142857142857,4.2063492063492065,-175.79365079365078,325.0,79.44444444444444,-3.73015873015873,-137.53968253968253,5.634920634920634,-43.25396825396825,45.63492063492063,127.85714285714285,49.285714285714285,93.09523809523809,4.365079365079365,2.7777777777777777,-321.8253968253968
-98.96825396825396,325.0,113.73015873015872,34.2063492063492,-223.88888888888889,-80.39682539682539,-252.46031746031744,139.9206349206349,32.77777777777778,0.7142857142857142,-172.46031746031744,325.0,78.01587301587301,-7.698412698412698,-134.68253968253967,2.46031746031746,-42.3015873015873,44.84126984126984,130.07936507936506,48.01587301587301,91.03174603174602,-2.7777777777777777,-0.7142857142857142,-321.8253968253968
-98.96825396825396,325.0,113.73015873015872,34.2063492063492,-223.88888888888889,-80.39682539682539,-252.46031746031744,139.9206349206349,32.77777777777778,0.7142857142857142,-172.46031746031744,325.0,78.01587301587301,-7.698412698412698,-134.68253968253967,2.46031746031746,-42.3015873015873,44.84126984126984,130.07936507936506,48.01587301587301,91.03174603174602,-2.7777777777777777,-0.7142857142857142,-321.8253968253968
-97.38095238095238,325.0,111.82539682539682,33.73015873015873,-220.3968253968254,-85.47619047619047,-103.57142857142857,139.6031746031746,32.14285714285714,-0.5555555555555556,-169.60317460317458,325.0,76.58730158730158,-8.492063492063492,-132.61904761904762,1.1904761904761905,-41.666666666666664,44.2063492063492,129.76190476190476,47.22222222222222,89.6031746031746,3.4126984126984126,0.5555555555555556,-166.26984126984127
-97.38095238095238,325.0,111.82539682539682,33.73015873015873,-220.3968253968254,-85.47619047619047,-103.57142857142857,139.6031746031746,32.14285714285714,-0.5555555555555556,-169.60317460317458,325.0,76.58730158730158,-8.492063492063492,-132.61904761904762,1.1904761904761905,-41.666666666666664,44.2063492063492,129.76190476190476,47.22222222222222,89.6031746031746,3.4126984126984126,0.5555555555555556,-166.26984126984127
-95.63492063492063,325.0,109.76190476190476,33.25396825396825,-216.9047619047619,-88.4920634920635,261.3492063492063,129.9206349206349,31.666666666666664,1.0317460317460316,-166.9047619047619,325.0,75.31746031746032,-7.063492063492063,-130.3968253968254,2.9365079365079363,-40.87301587301587,43.41269841269841,119.12698412698413,46.58730158730158,87.85714285714285,-4.2063492063492065,-2.46031746031746,-166.26984126984127
-95.63492063492063,325.0,109.76190476190476,33.25396825396825,-216.9047619047619,-88.4920634920635,261.3492063492063,129.9206349206349,31.666666666666664,1.0317460317460316,-166.9047619047619,325.0,75.31746031746032,-7.063492063492063,-130.3968253968254,2.9365079365079363,-40.87301587301587,43.41269841269841,119.12698412698413,46.58730158730158,87.85714285714285,-4.2063492063492065,-2.46031746031746,-166.26984126984127
-94.04761904761904,325.0,107.85714285714285,32.460317460317455,-213.4126984126984,-91.5079365079365,325.0,129.44444444444443,31.19047619047619,3.253968253968254,-164.2063492063492,325.0,74.04761904761904,-4.0476190476190474,-128.33333333333331,5.317460317460317,-40.238095238095234,42.61904761904761,121.03174603174602,45.63492063492063,86.42857142857143,3.095238095238095,0.873015873015873,-166.26984126984127
-94.04761904761904,325.0,107.85714285714285,32.460317460317455,-213.4126984126984,-91.5079365079365,325.0,129.44444444444443,31.19047619047619,3.253968253968254,-164.2063492063492,325.0,74.04761904761904,-4.0476190476190474,-128.33333333333331,5.317460317460317,-40.238095238095234,42.61904761904761,121.03174603174602,45.63492063492063,86.42857142857143,3.095238095238095,0.873015873015873,-166.26984126984127
-92.93650793650794,325.0,106.42857142857142,32.14285714285714,-210.55555555555554,-92.46031746031746,325.0,127.06349206349206,30.71428571428571,2.142857142857143,-162.3015873015873,325.0,73.09523809523809,-5.634920634920634,-126.58730158730158,3.888888888888889,-39.76190476190476,42.14285714285714,116.26984126984127,45.317460317460316,85.15873015873015,0.5555555555555556,0.3968253968253968,-166.26984126984127
-92.93650793650794,325.0,106.42857142857142,32.14285714285714,-210.55555555555554,-92.46031746031746,325.0,127.06349206349206,30.71428571428571,2.142857142857143,-162.3015873015873,325.0,73.09523809523809,-5.634920634920634,-126.58730158730158,3.888888888888889,-39.76190476190476,42.14285714285714,116.26984126984127,45.317460317460316,85.15873015873015,0.5555555555555556,0.3968253968253968,-166.26984126984127
-90.71428571428571,325.0,104.04761904761904,31.507936507936506,-206.58730158730157,-92.30158730158729,325.0,128.96825396825395,30.238095238095237,-2.46031746031746,-158.8095238095238,325.0,71.5079365079365,-9.603174603174603,-124.2063492063492,-0.07936507936507936,-38.96825396825397,41.34920634920635,112.77777777777777,44.2063492063492,83.25396825396825,3.571428571428571,-0.07936507936507936,-166.26984126984127
-90.71428571428571,325.0,104.04761904761904,31.507936507936506,-206.58730158730157,-92.30158730158729,325.0,128.96825396825395,30.238095238095237,-2.46031746031746,-158.8095238095238,325.0,71.5079365079365,-9.603174603174603,-124.2063492063492,-0.07936507936507936,-38.96825396825397,41.34920634920635,112.77777777777777,44.2063492063492,83.25396825396825,3.571428571428571,-0.07936507936507936,-166.26984126984127
-89.12698412698413,325.0,102.30158730158729,31.03174603174603,-203.25396825396825,-92.46031746031746,325.0,132.61904761904762,29.6031746031746,0.07936507936507936,-156.42857142857142,325.0,70.39682539682539,-6.904761904761904,-122.14285714285714,2.9365079365079363,-38.17460317460317,40.714285714285715,114.36507936507935,43.57142857142857,81.82539682539682,3.4126984126984126,-0.7142857142857142,-321.8253968253968
-89.12698412698413,325.0,102.30158730158729,31.03174603174603,-203.25396825396825,-92.46031746031746,325.0,132.61904761904762,29.6031746031746,0.07936507936507936,-156.42857142857142,325.0,70.39682539682539,-6.904761904761904,-122.14285714285714,2.9365079365079363,-38.17460317460317,40.714285714285715,114.36507936507935,43.57142857142857,81.82539682539682,3.4126984126984126,-0.7142857142857142,-321.8253968253968
-86.9047619047619,325.0,99.6031746031746,30.07936507936508,-198.33333333333331,-75.31746031746032,-153.88888888888889,138.17460317460316,28.809523809523807,6.746031746031746,-152.46031746031744,325.0,68.4920634920635,-0.07936507936507936,-119.12698412698413,10.238095238095237,-37.38095238095238,39.6031746031746,127.06349206349206,42.3015873015873,79.6031746031746,-1.507936507936508,-1.507936507936508,-321.8253968253968
-86.9047619047619,325.0,99.6031746031746,30.07936507936508,-198.33333333333331,-75.31746031746032,-153.88888888888889,138.17460317460316,28.809523809523807,6.746031746031746,-152.46031746031744,325.0,68.4920634920635,-0.07936507936507936,-119.12698412698413,10.238095238095237,-37.38095238095238,39.6031746031746,127.06349206349206,42.3015873015873,79.6031746031746,-1.507936507936508,-1.507936507936508,-321.8253968253968
-85.79365079365078,325.0,98.01587301587301,29.76190476190476,-195.79365079365078,-97.38095238095238,-231.8253968253968,136.58730158730157,28.65079365079365,7.5396825396825395,-150.3968253968254,325.0,67.53968253968253,0.7142857142857142,-117.53968253968253,10.555555555555555,-36.74603174603175,38.80952380952381,125.47619047619047,41.82539682539682,78.65079365079364,-1.507936507936508,-0.5555555555555556,-321.8253968253968
-85.79365079365078,325.0,98.01587301587301,29.76190476190476,-195.79365079365078,-97.38095238095238,-231.8253968253968,136.58730158730157,28.65079365079365,7.5396825396825395,-150.3968253968254,325.0,67.53968253968253,0.7142857142857142,-117.53968253968253,10.555555555555555,-36.74603174603175,38.80952380952381,125.47619047619047,41.82539682539682,78.65079365079364,-1.507936507936508,-0.5555555555555556,-321.8253968253968
-84.68253968253968,325.0,96.9047619047619,29.444444444444443,-193.57142857142856,-86.1111111111111,-278.4920634920635,135.3174603174603,28.015873015873016,5.634920634920634,-148.65079365079364,325.0,66.74603174603175,-1.1904761904761905,-116.1111111111111,8.809523809523808,-36.269841269841265,38.65079365079365,124.36507936507935,41.34920634920635,77.53968253968253,-3.095238095238095,-1.6666666666666665,-321.8253968253968
-84.68253968253968,325.0,96.9047619047619,29.444444444444443,-193.57142857142856,-86.1111111111111,-278.4920634920635,135.3174603174603,28.015873015873016,5.634920634920634,-148.65079365079364,325.0,66.74603174603175,-1.1904761904761905,-116.1111111111111,8.809523809523808,-36.269841269841265,38.65079365079365,124.36507936507935,41.34920634920635,77.53968253968253,-3.095238095238095,-1.6666666666666665,-321.8253968253968
-82.77777777777777,325.0,95.0,28.96825396825397,-189.76190476190476,-102.77777777777777,-221.66666666666666,126.9047619047619,27.857142857142854,3.095238095238095,-145.63492063492063,325.0,65.15873015873015,-3.253968253968254,-113.88888888888889,6.746031746031746,-35.63492063492063,38.01587301587301,115.63492063492063,40.55555555555555,75.95238095238095,-1.507936507936508,-1.0317460317460316,-321.8253968253968
-82.77777777777777,325.0,95.0,28.96825396825397,-189.76190476190476,-102.77777777777777,-221.66666666666666,126.9047619047619,27.857142857142854,3.095238095238095,-145.63492063492063,325.0,65.15873015873015,-3.253968253968254,-113.88888888888889,6.746031746031746,-35.63492063492063,38.01587301587301,115.63492063492063,40.55555555555555,75.95238095238095,-1.507936507936508,-1.0317460317460316,-321.8253968253968
-81.03174603174602,325.0,92.77777777777777,28.174603174603174,-185.79365079365078,-75.79365079365078,-325.0,127.85714285714285,27.063492063492063,-1.349206349206349,-142.77777777777777,325.0,63.73015873015873,-7.222222222222221,-111.5079365079365,2.9365079365079363,-34.84126984126984,37.06349206349206,124.2063492063492,39.6031746031746,74.2063492063492,-1.349206349206349,-1.507936507936508,-166.26984126984127
-81.03174603174602,325.0,92.77777777777777,28.174603174603174,-185.79365079365078,-75.79365079365078,-325.0,127.85714285714285,27.063492063492063,-1.349206349206349,-142.77777777777777,325.0,63.73015873015873,-7.222222222222221,-111.5079365079365,2.9365079365079363,-34.84126984126984,37.06349206349206,124.2063492063492,39.6031746031746,74.2063492063492,-1.349206349206349,-1.507936507936508,-166.26984126984127
-79.76190476190476,325.0,91.66666666666666,28.015873015873016,-183.57142857142856,-106.58730158730158,-257.85714285714283,120.39682539682539,26.746031746031743,1.6666666666666665,-140.87301587301587,325.0,63.25396825396825,-4.365079365079365,-110.23809523809523,5.634920634920634,-34.36507936507936,36.74603174603175,115.47619047619047,39.285714285714285,73.25396825396825,-1.6666666666666665,-0.07936507936507936,-166.26984126984127
-79.76190476190476,325.0,91.66666666666666,28.015873015873016,-183.57142857142856,-106.58730158730158,-257.85714285714283,120.39682539682539,26.746031746031743,1.6666666666666665,-140.87301587301587,325.0,63.25396825396825,-4.365079365079365,-110.23809523809523,5.634920634920634,-34.36507936507936,36.74603174603175,115.47619047619047,39.285714285714285,73.25396825396825,-1.6666666666666665,-0.07936507936507936,-166.26984126984127
-78.96825396825396,325.0,90.39682539682539,27.539682539682538,-181.34920634920633,-88.65079365079364,-291.5079365079365,123.73015873015872,26.26984126984127,3.888888888888889,-139.28571428571428,325.0,62.3015873015873,-2.619047619047619,-108.80952380952381,7.5396825396825395,-34.047619047619044,36.269841269841265,121.03174603174602,38.80952380952381,72.3015873015873,-3.4126984126984126,-1.349206349206349,-166.26984126984127
-78.96825396825396,325.0,90.39682539682539,27.539682539682538,-181.34920634920633,-88.65079365079364,-291.5079365079365,123.73015873015872,26.26984126984127,3.888888888888889,-139.28571428571428,325.0,62.3015873015873,-2.619047619047619,-108.80952380952381,7.5396825396825395,-34.047619047619044,36.269841269841265,121.03174603174602,38.80952380952381,72.3015873015873,-3.4126984126984126,-1.349206349206349,-166.26984126984127
-77.06349206349206,325.0,88.4920634920635,27.063492063492063,-178.015873015873,-93.57142857142857,-286.74603174603175,125.95238095238095,25.79365079365079,8.65079365079365,-136.42857142857142,325.0,61.03174603174603,2.142857142857143,-106.42857142857142,12.3015873015873,-33.095238095238095,35.476190476190474,121.98412698412697,37.857142857142854,70.71428571428571,-1.984126984126984,-1.0317460317460316,-166.26984126984127
-77.06349206349206,325.0,88.4920634920635,27.063492063492063,-178.015873015873,-93.57142857142857,-286.74603174603175,125.95238095238095,25.79365079365079,8.65079365079365,-136.42857142857142,325.0,61.03174603174603,2.142857142857143,-106.42857142857142,12.3015873015873,-33.095238095238095,35.476190476190474,121.98412698412697,37.857142857142854,70.71428571428571,-1.984126984126984,-1.0317460317460316,-166.26984126984127
-75.79365079365078,325.0,87.06349206349206,26.428571428571427,-175.0,-54.52380952380952,-325.0,134.52380952380952,25.476190476190474,9.920634920634921,-134.04761904761904,325.0,59.92063492063492,3.73015873015873,-104.84126984126983,14.523809523809524,-32.77777777777778,35.0,134.68253968253967,37.06349206349206,69.6031746031746,1.507936507936508,-1.507936507936508,-166.26984126984127
-75.79365079365078,325.0,87.06349206349206,26.428571428571427,-175.0,-54.52380952380952,-325.0,134.52380952380952,25.476190476190474,9.920634920634921,-134.04761904761904,325.0,59.92063492063492,3.73015873015873,-104.84126984126983,14.523809523809524,-32.77777777777778,35.0,134.68253968253967,37.06349206349206,69.6031746031746,1.507936507936508,-1.507936507936508,-166.26984126984127
-74.52380952380952,325.0,85.31746031746032,25.79365079365079,-171.984126984127,-90.07936507936508,-230.07936507936506,126.1111111111111,25.0,9.126984126984127,-131.984126984127,325.0,58.8095238095238,2.46031746031746,-103.4126984126984,12.619047619047619,-32.3015873015873,34.36507936507936,119.44444444444444,36.58730158730159,68.33333333333333,-0.873015873015873,-0.07936507936507936,-321.8253968253968
-74.52380952380952,325.0,85.31746031746032,25.79365079365079,-171.984126984127,-90.07936507936508,-230.07936507936506,126.1111111111111,25.0,9.126984126984127,-131.984126984127,325.0,58.8095238095238,2.46031746031746,-103.4126984126984,12.619047619047619,-32.3015873015873,34.36507936507936,119.44444444444444,36.58730158730159,68.33333333333333,-0.873015873015873,-0.07936507936507936,-321.8253968253968
-74.52380952380952,325.0,85.31746031746032,25.79365079365079,-171.984126984127,-90.07936507936508,-230.07936507936506,126.1111111111111,25.0,9.126984126984127,-131.984126984127,325.0,58.8095238095238,2.46031746031746,-103.4126984126984,12.619047619047619,-32.3015873015873,34.36507936507936,119.44444444444444,36.58730158730159,68.33333333333333,-0.873015873015873,-0.07936507936507936,-321.8253968253968
-74.52380952380952,325.0,85.31746031746032,25.79365079365079,-171.984126984127,-90.07936507936508,-230.07936507936506,126.1111111111111,25.0,9.126984126984127,-131.984126984127,325.0,58.8095238095238,2.46031746031746,-103.4126984126984,12.619047619047619,-32.3015873015873,34.36507936507936,119.44444444444444,36.58730158730159,68.33333333333333,-0.873015873015873,-0.07936507936507936,-321.8253968253968
-72.14285714285714,325.0,82.46031746031746,25.0,-166.26984126984127,-91.66666666666666,-224.52380952380952,128.96825396825395,24.206349206349206,5.634920634920634,-127.53968253968253,325.0,56.74603174603174,-0.7142857142857142,-99.76190476190476,9.603174603174603,-31.349206349206348,33.25396825396825,123.73015873015872,35.476190476190474,65.95238095238095,-1.8253968253968254,-1.1904761904761905,-321.8253968253968
-72.14285714285714,325.0,82.46031746031746,25.0,-166.26984126984127,-91.66666666666666,-224.52380952380952,128.96825396825395,24.206349206349206,5.634920634920634,-127.53968253968253,325.0,56.74603174603174,-0.7142857142857142,-99.76190476190476,9.603174603174603,-31.349206349206348,33.25396825396825,123.73015873015872,35.476190476190474,65.95238095238095,-1.8253968253968254,-1.1904761904761905,-321.8253968253968
-72.14285714285714,325.0,82.46031746031746,25.0,-166.26984126984127,-91.66666666666666,-224.52380952380952,128.96825396825395,24.206349206349206,5.634920634920634,-127.53968253968253,325.0,56.74603174603174,-0.7142857142857142,-99.76190476190476,9.603174603174603,-31.349206349206348,33.25396825396825,123.73015873015872,35.476190476190474,65.95238095238095,-1.8253968253968254,-1.1904761904761905,-321.8253968253968
-72.14285714285714,325.0,82.46031746031746,25.0,-166.26984126984127,-91.66666666666666,-224.52380952380952,128.96825396825395,24.206349206349206,5.634920634920634,-127.53968253968253,325.0,56.74603174603174,-0.7142857142857142,-99.76190476190476,9.603174603174603,-31.349206349206348,33.25396825396825,123.73015873015872,35.476190476190474,65.95238095238095,-1.8253968253968254,-1.1904761904761905,-321.8253968253968
-70.55555555555556,325.0,80.55555555555556,24.523809523809522,-163.09523809523807,-86.74603174603175,-251.66666666666666,130.55555555555554,23.730158730158728,3.253968253968254,-125.15873015873015,325.0,55.476190476190474,-2.619047619047619,-97.6984126984127,7.063492063492063,-30.555555555555554,32.61904761904762,124.36507936507935,34.682539682539684,64.36507936507937,1.507936507936508,-1.0317460317460316,-321.8253968253968
-70.55555555555556,325.0,80.55555555555556,24.523809523809522,-163.09523809523807,-86.74603174603175,-251.66666666666666,130.55555555555554,23.730158730158728,3.253968253968254,-125.15873015873015,325.0,55.476190476190474,-2.619047619047619,-97.6984126984127,7.063492063492063,-30.555555555555554,32.61904761904762,124.36507936507935,34.682539682539684,64.36507936507937,1.507936507936508,-1.0317460317460316,-321.8253968253968
-68.01587301587301,325.0,77.85714285714285,23.88888888888889,-158.015873015873,-71.66666666666666,-325.0,122.77777777777777,22.936507936507937,1.349206349206349,-121.03174603174602,325.0,53.73015873015873,-3.73015873015873,-94.52380952380952,6.111111111111111,-29.6031746031746,31.507936507936506,113.88888888888889,33.57142857142857,62.3015873015873,-1.1904761904761905,-3.095238095238095,-166.26984126984127
-68.01587301587301,325.0,77.85714285714285,23.88888888888889,-158.015873015873,-71.66666666666666,-325.0,122.77777777777777,22.936507936507937,1.349206349206349,-121.03174603174602,325.0,53.73015873015873,-3.73015873015873,-94.52380952380952,6.111111111111111,-29.6031746031746,31.507936507936506,113.88888888888889,33.57142857142857,62.3015873015873,-1.1904761904761905,-3.095238095238095,-166.26984126984127
-67.06349206349206,325.0,76.9047619047619,23.57142857142857,-155.95238095238093,-113.57142857142857,-258.8095238095238,110.55555555555554,22.619047619047617,6.746031746031746,-119.6031746031746,325.0,53.25396825396825,0.873015873015873,-93.25396825396825,10.873015873015872,-29.285714285714285,31.19047619047619,96.58730158730158,33.25396825396825,61.507936507936506,-0.7142857142857142,-1.507936507936508,-166.26984126984127
-67.06349206349206,325.0,76.9047619047619,23.57142857142857,-155.95238095238093,-113.57142857142857,-258.8095238095238,110.55555555555554,22.619047619047617,6.746031746031746,-119.6031746031746,325.0,53.25396825396825,0.873015873015873,-93.25396825396825,10.873015873015872,-29.285714285714285,31.19047619047619,96.58730158730158,33.25396825396825,61.507936507936506,-0.7142857142857142,-1.507936507936508,-166.26984126984127
-67.06349206349206,325.0,76.9047619047619,23.57142857142857,-155.95238095238093,-113.57142857142857,-258.8095238095238,110.55555555555554,22.619047619047617,6.746031746031746,-119.6031746031746,325.0,53.25396825396825,0.873015873015873,-93.25396825396825,10.873015873015872,-29.285714285714285,31.19047619047619,96.58730158730158,33.25396825396825,61.507936507936506,-0.7142857142857142,-1.507936507936508,-166.26984126984127
-67.06349206349206,325.0,76.9047619047619,23.57142857142857,-155.95238095238093,-113.57142857142857,-258.8095238095238,110.55555555555554,22.619047619047617,6.746031746031746,-119.6031746031746,325.0,53.25396825396825,0.873015873015873,-93.25396825396825,10.873015873015872,-29.285714285714285,31.19047619047619,96.58730158730158,33.25396825396825,61.507936507936506,-0.7142857142857142,-1.507936507936508,-166.26984126984127
-64.68253968253968,325.0,73.73015873015872,22.619047619047617,-150.3968253968254,-125.15873015873015,-251.8253968253968,87.6984126984127,21.825396825396822,12.142857142857142,-115.31746031746032,325.0,51.03174603174603,7.5396825396825395,-89.92063492063491,16.587301587301585,-28.015873015873016,29.920634920634917,68.80952380952381,31.98412698412698,58.96825396825397,2.46031746031746,0.07936507936507936,-166.26984126984127
-64.68253968253968,325.0,73.73015873015872,22.619047619047617,-150.3968253968254,-125.15873015873015,-251.8253968253968,87.6984126984127,21.825396825396822,12.142857142857142,-115.31746031746032,325.0,51.03174603174603,7.5396825396825395,-89.92063492063491,16.587301587301585,-28.015873015873016,29.920634920634917,68.80952380952381,31.98412698412698,58.96825396825397,2.46031746031746,0.07936507936507936,-166.26984126984127
-63.888888888888886,325.0,72.61904761904762,22.3015873015873,-148.4920634920635,-115.47619047619047,-288.4920634920635,86.58730158730158,21.507936507936506,7.857142857142857,-113.88888888888889,325.0,50.238095238095234,3.888888888888889,-88.80952380952381,12.777777777777777,-27.698412698412696,29.444444444444443,66.11111111111111,31.507936507936506,58.17460317460317,1.0317460317460316,-0.873015873015873,-166.26984126984127
-63.888888888888886,325.0,72.61904761904762,22.3015873015873,-148.4920634920635,-115.47619047619047,-288.4920634920635,86.58730158730158,21.507936507936506,7.857142857142857,-113.88888888888889,325.0,50.238095238095234,3.888888888888889,-88.80952380952381,12.777777777777777,-27.698412698412696,29.444444444444443,66.11111111111111,31.507936507936506,58.17460317460317,1.0317460317460316,-0.873015873015873,-166.26984126984127
-62.77777777777777,325.0,71.34920634920634,21.984126984126984,-146.26984126984127,-113.09523809523809,-271.031746031746,91.34920634920634,21.19047619047619,6.26984126984127,-111.98412698412697,325.0,49.44444444444444,2.142857142857143,-87.38095238095238,10.873015873015872,-27.22222222222222,28.96825396825397,72.77777777777777,31.03174603174603,57.06349206349206,0.7142857142857142,-0.7142857142857142,-321.8253968253968
-62.77777777777777,325.0,71.34920634920634,21.984126984126984,-146.26984126984127,-113.09523809523809,-271.031746031746,91.34920634920634,21.19047619047619,6.26984126984127,-111.98412698412697,325.0,49.44444444444444,2.142857142857143,-87.38095238095238,10.873015873015872,-27.22222222222222,28.96825396825397,72.77777777777777,31.03174603174603,57.06349206349206,0.7142857142857142,-0.7142857142857142,-321.8253968253968
-61.507936507936506,325.0,70.07936507936508,21.507936507936506,-143.09523809523807,-95.31746031746032,-278.3333333333333,106.58730158730158,20.71428571428571,5.317460317460317,-109.76190476190476,325.0,48.33333333333333,1.507936507936508,-85.47619047619047,11.349206349206348,-26.746031746031743,28.49206349206349,88.65079365079364,30.396825396825395,55.79365079365079,-3.095238095238095,-2.619047619047619,-321.8253968253968
-61.507936507936506,325.0,70.07936507936508,21.507936507936506,-143.09523809523807,-95.31746031746032,-278.3333333333333,106.58730158730158,20.71428571428571,5.317460317460317,-109.76190476190476,325.0,48.33333333333333,1.507936507936508,-85.47619047619047,11.349206349206348,-26.746031746031743,28.49206349206349,88.65079365079364,30.396825396825395,55.79365079365079,-3.095238095238095,-2.619047619047619,-321.8253968253968
-60.079365079365076,325.0,68.33333333333333,20.873015873015873,-139.76190476190476,-97.38095238095238,-254.52380952380952,115.79365079365078,20.238095238095237,0.873015873015873,-107.06349206349206,325.0,47.06349206349206,-2.3015873015873014,-83.4126984126984,7.698412698412698,-26.11111111111111,27.857142857142854,101.98412698412697,29.444444444444443,54.36507936507936,1.6666666666666665,-0.07936507936507936,-321.8253968253968
-60.079365079365076,325.0,68.33333333333333,20.873015873015873,-139.76190476190476,-97.38095238095238,-254.52380952380952,115.79365079365078,20.238095238095237,0.873015873015873,-107.06349206349206,325.0,47.06349206349206,-2.3015873015873014,-83.4126984126984,7.698412698412698,-26.11111111111111,27.857142857142854,101.98412698412697,29.444444444444443,54.36507936507936,1.6666666666666665,-0.07936507936507936,-321.8253968253968
-59.76190476190476,325.0,68.17460317460318,20.71428571428571,-139.12698412698413,-86.58730158730158,-288.3333333333333,115.47619047619047,20.07936507936508,-0.7142857142857142,-106.58730158730158,325.0,47.06349206349206,-4.0476190476190474,-82.93650793650794,6.111111111111111,-25.952380952380953,28.015873015873016,104.84126984126983,29.285714285714285,54.2063492063492,-1.6666666666666665,-1.1904761904761905,-321.8253968253968
-59.76190476190476,325.0,68.17460317460318,20.71428571428571,-139.12698412698413,-86.58730158730158,-288.3333333333333,115.47619047619047,20.07936507936508,-0.7142857142857142,-106.58730158730158,325.0,47.06349206349206,-4.0476190476190474,-82.93650793650794,6.111111111111111,-25.952380952380953,28.015873015873016,104.84126984126983,29.285714285714285,54.2063492063492,-1.6666666666666665,-1.1904761904761905,-321.8253968253968
-59.76190476190476,325.0,68.17460317460318,20.71428571428571,-139.12698412698413,-86.58730158730158,-288.3333333333333,115.47619047619047,20.07936507936508,-0.7142857142857142,-106.58730158730158,325.0,47.06349206349206,-4.0476190476190474,-82.93650793650794,6.111111111111111,-25.952380952380953,28.015873015873016,104.84126984126983,29.285714285714285,54.2063492063492,-1.6666666666666665,-1.1904761904761905,-321.8253968253968
-59.76190476190476,325.0,68.17460317460318,20.71428571428571,-139.12698412698413,-86.58730158730158,-288.3333333333333,115.47619047619047,20.07936507936508,-0.7142857142857142,-106.58730158730158,325.0,47.06349206349206,-4.0476190476190474,-82.93650793650794,6.111111111111111,-25.952380952380953,28.015873015873016,104.84126984126983,29.285714285714285,54.2063492063492,-1.6666666666666665,-1.1904761904761905,-321.8253968253968
-58.17460317460317,325.0,66.26984126984127,20.238095238095237,-135.79365079365078,-111.82539682539682,-202.3015873015873,104.36507936507935,19.444444444444443,1.6666666666666665,-104.04761904761904,325.0,45.95238095238095,-1.984126984126984,-81.03174603174602,7.857142857142857,-25.317460317460316,27.22222222222222,94.68253968253968,28.65079365079365,52.77777777777777,-0.7142857142857142,-0.873015873015873,-166.26984126984127
-58.17460317460317,325.0,66.26984126984127,20.238095238095237,-135.79365079365078,-111.82539682539682,-202.3015873015873,104.36507936507935,19.444444444444443,1.6666666666666665,-104.04761904761904,325.0,45.95238095238095,-1.984126984126984,-81.03174603174602,7.857142857142857,-25.317460317460316,27.22222222222222,94.68253968253968,28.65079365079365,52.77777777777777,-0.7142857142857142,-0.873015873015873,-166.26984126984127
-56.11111111111111,325.0,63.73015873015873,19.6031746031746,-131.34920634920636,-124.36507936507935,-185.3174603174603,91.82539682539682,18.96825396825397,2.46031746031746,-100.71428571428571,325.0,44.36507936507936,-1.0317460317460316,-78.33333333333333,8.492063492063492,-24.523809523809522,26.11111111111111,80.87301587301587,27.857142857142854,50.87301587301587,0.23809523809523808,-1.1904761904761905,-166.26984126984127
-56.11111111111111,325.0,63.73015873015873,19.6031746031746,-131.34920634920636,-124.36507936507935,-185.3174603174603,91.82539682539682,18.96825396825397,2.46031746031746,-100.71428571428571,325.0,44.36507936507936,-1.0317460317460316,-78.33333333333333,8.492063492063492,-24.523809523809522,26.11111111111111,80.87301587301587,27.857142857142854,50.87301587301587,0.23809523809523808,-1.1904761904761905,-166.26984126984127
-55.15873015873016,325.0,62.61904761904761,19.285714285714285,-129.28571428571428,-131.03174603174602,-167.38095238095238,87.22222222222221,18.80952380952381,-3.73015873015873,-98.96825396825396,325.0,43.25396825396825,-34.84126984126984,-77.06349206349206,2.3015873015873014,-24.047619047619047,25.634920634920633,69.44444444444444,27.38095238095238,49.92063492063492,0.873015873015873,-0.5555555555555556,-166.26984126984127
-55.15873015873016,325.0,62.61904761904761,19.285714285714285,-129.28571428571428,-131.03174603174602,-167.38095238095238,87.22222222222221,18.80952380952381,-3.73015873015873,-98.96825396825396,325.0,43.25396825396825,-34.84126984126984,-77.06349206349206,2.3015873015873014,-24.047619047619047,25.634920634920633,69.44444444444444,27.38095238095238,49.92063492063492,0.873015873015873,-0.5555555555555556,-166.26984126984127
-54.047619047619044,325.0,61.666666666666664,19.444444444444443,-127.22222222222221,-133.25396825396825,-136.42857142857142,85.63492063492063,18.333333333333332,-7.5396825396825395,-97.38095238095238,325.0,42.93650793650794,-49.12698412698413,-75.95238095238095,-0.7142857142857142,-23.57142857142857,25.317460317460316,63.41269841269841,26.9047619047619,49.285714285714285,4.523809523809524,0.873015873015873,-166.26984126984127
-54.047619047619044,325.0,61.666666666666664,19.444444444444443,-127.22222222222221,-133.25396825396825,-136.42857142857142,85.63492063492063,18.333333333333332,-7.5396825396825395,-97.38095238095238,325.0,42.93650793650794,-49.12698412698413,-75.95238095238095,-0.7142857142857142,-23.57142857142857,25.317460317460316,63.41269841269841,26.9047619047619,49.285714285714285,4.523809523809524,0.873015873015873,-166.26984126984127
-53.57142857142857,325.0,60.71428571428571,18.96825396825397,-125.47619047619047,-148.65079365079364,-105.95238095238095,72.46031746031746,18.174603174603174,-4.523809523809524,-96.26984126984127,325.0,42.14285714285714,-187.06349206349205,-75.0,1.507936507936508,-23.41269841269841,25.0,45.79365079365079,26.587301587301585,48.49206349206349,3.253968253968254,1.0317460317460316,-166.26984126984127
-53.57142857142857,325.0,60.71428571428571,18.96825396825397,-125.47619047619047,-148.65079365079364,-105.95238095238095,72.46031746031746,18.174603174603174,-4.523809523809524,-96.26984126984127,325.0,42.14285714285714,-187.06349206349205,-75.0,1.507936507936508,-23.41269841269841,25.0,45.79365079365079,26.587301587301585,48.49206349206349,3.253968253968254,1.0317460317460316,-166.26984126984127
-52.3015873015873,325.0,59.44444444444444,18.65079365079365,-123.25396825396825,-145.47619047619048,-125.63492063492063,61.82539682539682,17.857142857142858,-1.349206349206349,-94.04761904761904,325.0,41.19047619047619,-325.0,-73.4126984126984,5.634920634920634,-23.095238095238095,24.523809523809522,33.095238095238095,25.952380952380953,47.53968253968254,4.523809523809524,0.873015873015873,-321.8253968253968
-52.3015873015873,325.0,59.44444444444444,18.65079365079365,-123.25396825396825,-145.47619047619048,-125.63492063492063,61.82539682539682,17.857142857142858,-1.349206349206349,-94.04761904761904,325.0,41.19047619047619,-325.0,-73.4126984126984,5.634920634920634,-23.095238095238095,24.523809523809522,33.095238095238095,25.952380952380953,47.53968253968254,4.523809523809524,0.873015873015873,-321.8253968253968
-51.19047619047619,325.0,58.17460317460317,18.015873015873016,-120.71428571428571,-147.06349206349205,-73.73015873015872,66.42857142857143,17.38095238095238,-1.1904761904761905,-92.30158730158729,325.0,40.39682539682539,-325.0,-71.82539682539682,4.841269841269841,-22.3015873015873,24.047619047619047,39.44444444444444,25.476190476190474,46.42857142857142,-1.349206349206349,-0.873015873015873,-321.8253968253968
-51.19047619047619,325.0,58.17460317460317,18.015873015873016,-120.71428571428571,-147.06349206349205,-73.73015873015872,66.42857142857143,17.38095238095238,-1.1904761904761905,-92.30158730158729,325.0,40.39682539682539,-325.0,-71.82539682539682,4.841269841269841,-22.3015873015873,24.047619047619047,39.44444444444444,25.476190476190474,46.42857142857142,-1.349206349206349,-0.873015873015873,-321.8253968253968
-50.39682539682539,325.0,57.06349206349206,17.539682539682538,-118.49206349206348,-120.87301587301586,-142.3015873015873,77.85714285714285,17.22222222222222,-2.142857142857143,-90.87301587301587,325.0,39.76190476190476,-325.0,-70.71428571428571,4.2063492063492065,-22.142857142857142,23.57142857142857,56.58730158730158,25.158730158730158,45.63492063492063,1.0317460317460316,-0.23809523809523808,-321.8253968253968
-50.39682539682539,325.0,57.06349206349206,17.539682539682538,-118.49206349206348,-120.87301587301586,-142.3015873015873,77.85714285714285,17.22222222222222,-2.142857142857143,-90.87301587301587,325.0,39.76190476190476,-325.0,-70.71428571428571,4.2063492063492065,-22.142857142857142,23.57142857142857,56.58730158730158,25.158730158730158,45.63492063492063,1.0317460317460316,-0.23809523809523808,-321.8253968253968
-49.285714285714285,325.0,56.11111111111111,17.38095238095238,-116.74603174603173,-141.19047619047618,-60.238095238095234,75.95238095238095,17.063492063492063,-3.73015873015873,-89.28571428571428,325.0,39.12698412698413,-325.0,-69.44444444444444,1.984126984126984,-21.666666666666664,23.253968253968253,53.888888888888886,24.68253968253968,44.84126984126984,-1.507936507936508,-0.5555555555555556,-321.8253968253968
-49.285714285714285,325.0,56.11111111111111,17.38095238095238,-116.74603174603173,-141.19047619047618,-60.238095238095234,75.95238095238095,17.063492063492063,-3.73015873015873,-89.28571428571428,325.0,39.12698412698413,-325.0,-69.44444444444444,1.984126984126984,-21.666666666666664,23.253968253968253,53.888888888888886,24.68253968253968,44.84126984126984,-1.507936507936508,-0.5555555555555556,-321.8253968253968
-48.80952380952381,325.0,55.476190476190474,17.22222222222222,-115.15873015873015,-125.15873015873015,-90.87301587301587,81.5079365079365,16.746031746031743,-2.46031746031746,-88.01587301587301,325.0,38.49206349206349,-325.0,-68.4920634920635,3.888888888888889,-21.507936507936506,23.095238095238095,67.06349206349206,24.365079365079364,44.36507936507936,4.2063492063492065,0.23809523809523808,-321.8253968253968
-48.80952380952381,325.0,55.476190476190474,17.22222222222222,-115.15873015873015,-125.15873015873015,-90.87301587301587,81.5079365079365,16.746031746031743,-2.46031746031746,-88.01587301587301,325.0,38.49206349206349,-325.0,-68.4920634920635,3.888888888888889,-21.507936507936506,23.095238095238095,67.06349206349206,24.365079365079364,44.36507936507936,4.2063492063492065,0.23809523809523808,-321.8253968253968
-47.857142857142854,325.0,54.2063492063492,16.746031746031743,-112.93650793650794,-135.3174603174603,-46.269841269841265,73.09523809523809,16.428571428571427,-3.571428571428571,-86.26984126984127,325.0,37.698412698412696,-325.0,-67.22222222222221,2.142857142857143,-21.03174603174603,22.46031746031746,61.03174603174603,23.730158730158728,43.25396825396825,-1.1904761904761905,-1.6666666666666665,-166.26984126984127
-47.857142857142854,325.0,54.2063492063492,16.746031746031743,-112.93650793650794,-135.3174603174603,-46.269841269841265,73.09523809523809,16.428571428571427,-3.571428571428571,-86.26984126984127,325.0,37.698412698412696,-325.0,-67.22222222222221,2.142857142857143,-21.03174603174603,22.46031746031746,61.03174603174603,23.730158730158728,43.25396825396825,-1.1904761904761905,-1.6666666666666665,-166.26984126984127
-46.904761904761905,325.0,53.25396825396825,16.428571428571427,-111.19047619047619,-116.74603174603173,-117.06349206349206,74.52380952380952,16.26984126984127,-6.746031746031746,-84.84126984126983,325.0,36.904761904761905,-325.0,-66.11111111111111,-0.7142857142857142,-20.873015873015873,22.142857142857142,63.73015873015873,23.253968253968253,42.460317460317455,0.873015873015873,-0.07936507936507936,-166.26984126984127
-46.904761904761905,325.0,53.25396825396825,16.428571428571427,-111.19047619047619,-116.74603174603173,-117.06349206349206,74.52380952380952,16.26984126984127,-6.746031746031746,-84.84126984126983,325.0,36.904761904761905,-325.0,-66.11111111111111,-0.7142857142857142,-20.873015873015873,22.142857142857142,63.73015873015873,23.253968253968253,42.460317460317455,0.873015873015873,-0.07936507936507936,-166.26984126984127
-46.269841269841265,322.1428571428571,52.3015873015873,16.26984126984127,-109.28571428571428,-144.84126984126982,-36.11111111111111,65.15873015873015,15.793650793650793,-3.095238095238095,-83.57142857142857,325.0,36.42857142857142,-325.0,-65.15873015873015,2.46031746031746,-20.238095238095237,21.825396825396822,53.095238095238095,23.095238095238095,41.82539682539682,-0.7142857142857142,-0.3968253968253968,-166.26984126984127
-46.269841269841265,322.1428571428571,52.3015873015873,16.26984126984127,-109.28571428571428,-144.84126984126982,-36.11111111111111,65.15873015873015,15.793650793650793,-3.095238095238095,-83.57142857142857,325.0,36.42857142857142,-325.0,-65.15873015873015,2.46031746031746,-20.238095238095237,21.825396825396822,53.095238095238095,23.095238095238095,41.82539682539682,-0.7142857142857142,-0.3968253968253968,-166.26984126984127
-45.476190476190474,316.74603174603175,51.19047619047619,16.11111111111111,-107.53968253968253,-123.09523809523809,-103.88888888888889,64.36507936507937,15.476190476190474,-1.6666666666666665,-82.3015873015873,325.0,35.79365079365079,-325.0,-64.04761904761905,3.4126984126984126,-20.07936507936508,21.349206349206348,61.666666666666664,22.777777777777775,41.03174603174603,0.873015873015873,-1.0317460317460316,-166.26984126984127
-45.476190476190474,316.74603174603175,51.19047619047619,16.11111111111111,-107.53968253968253,-123.09523809523809,-103.88888888888889,64.36507936507937,15.476190476190474,-1.6666666666666665,-82.3015873015873,325.0,35.79365079365079,-325.0,-64.04761904761905,3.4126984126984126,-20.07936507936508,21.349206349206348,61.666666666666664,22.777777777777775,41.03174603174603,0.873015873015873,-1.0317460317460316,-166.26984126984127
-44.36507936507936,310.23809523809524,50.39682539682539,15.634920634920634,-105.15873015873015,-137.06349206349205,-39.44444444444444,56.74603174603174,15.158730158730158,-4.2063492063492065,-80.55555555555556,325.0,35.15873015873016,-325.0,-62.61904761904761,-0.873015873015873,-19.6031746031746,21.19047619047619,48.650793650793645,22.142857142857142,40.079365079365076,-0.873015873015873,-0.7142857142857142,-166.26984126984127
-44.36507936507936,310.23809523809524,50.39682539682539,15.634920634920634,-105.15873015873015,-137.06349206349205,-39.44444444444444,56.74603174603174,15.158730158730158,-4.2063492063492065,-80.55555555555556,325.0,35.15873015873016,-325.0,-62.61904761904761,-0.873015873015873,-19.6031746031746,21.19047619047619,48.650793650793645,22.142857142857142,40.079365079365076,-0.873015873015873,-0.7142857142857142,-166.26984126984127
-41.34920634920635,290.39682539682536,46.904761904761905,14.682539682539682,-98.65079365079364,-141.19047619047618,102.46031746031746,66.11111111111111,14.523809523809524,-5.952380952380952,-75.31746031746032,325.0,32.77777777777778,-325.0,-58.650793650793645,-2.46031746031746,-18.333333333333332,19.76190476190476,70.71428571428571,20.396825396825395,37.53968253968254,2.3015873015873014,-0.3968253968253968,-321.8253968253968
-41.34920634920635,290.39682539682536,46.904761904761905,14.682539682539682,-98.65079365079364,-141.19047619047618,102.46031746031746,66.11111111111111,14.523809523809524,-5.952380952380952,-75.31746031746032,325.0,32.77777777777778,-325.0,-58.650793650793645,-2.46031746031746,-18.333333333333332,19.76190476190476,70.71428571428571,20.396825396825395,37.53968253968254,2.3015873015873014,-0.3968253968253968,-321.8253968253968
-40.55555555555555,285.6349206349206,46.11111111111111,14.84126984126984,-97.06349206349206,-104.52380952380952,-48.33333333333333,70.07936507936508,14.206349206349206,-6.746031746031746,-74.04761904761904,325.0,32.460317460317455,-325.0,-57.698412698412696,-2.142857142857143,-18.015873015873016,19.444444444444443,82.3015873015873,19.92063492063492,36.74603174603175,-2.9365079365079363,-2.9365079365079363,-321.8253968253968
-40.55555555555555,285.6349206349206,46.11111111111111,14.84126984126984,-97.06349206349206,-104.52380952380952,-48.33333333333333,70.07936507936508,14.206349206349206,-6.746031746031746,-74.04761904761904,325.0,32.460317460317455,-325.0,-57.698412698412696,-2.142857142857143,-18.015873015873016,19.444444444444443,82.3015873015873,19.92063492063492,36.74603174603175,-2.9365079365079363,-2.9365079365079363,-321.8253968253968
-38.65079365079365,271.66666666666663,43.888888888888886,13.73015873015873,-92.61904761904762,-134.84126984126982,187.85714285714283,57.06349206349206,13.412698412698411,-7.698412698412698,-70.55555555555556,325.0,30.71428571428571,-325.0,-54.841269841269835,-4.2063492063492065,-17.38095238095238,18.49206349206349,72.14285714285714,18.65079365079365,34.84126984126984,2.9365079365079363,1.1904761904761905,-321.8253968253968
-38.65079365079365,271.66666666666663,43.888888888888886,13.73015873015873,-92.61904761904762,-134.84126984126982,187.85714285714283,57.06349206349206,13.412698412698411,-7.698412698412698,-70.55555555555556,325.0,30.71428571428571,-325.0,-54.841269841269835,-4.2063492063492065,-17.38095238095238,18.49206349206349,72.14285714285714,18.65079365079365,34.84126984126984,2.9365079365079363,1.1904761904761905,-321.8253968253968
-33.888888888888886,237.85714285714283,38.01587301587301,11.984126984126984,-80.87301587301587,-125.95238095238095,313.0952380952381,67.53968253968253,11.507936507936508,-10.714285714285714,-61.82539682539682,325.0,27.063492063492063,-325.0,-48.17460317460317,-8.492063492063492,-15.158730158730158,16.428571428571427,71.34920634920634,9.603174603174603,30.396825396825395,4.2063492063492065,1.1904761904761905,-321.8253968253968
-33.888888888888886,237.85714285714283,38.01587301587301,11.984126984126984,-80.87301587301587,-125.95238095238095,313.0952380952381,67.53968253968253,11.507936507936508,-10.714285714285714,-61.82539682539682,325.0,27.063492063492063,-325.0,-48.17460317460317,-8.492063492063492,-15.158730158730158,16.428571428571427,71.34920634920634,9.603174603174603,30.396825396825395,4.2063492063492065,1.1904761904761905,-321.8253968253968
-33.25396825396825,232.93650793650792,37.22222222222222,11.666666666666666,-79.44444444444444,-103.09523809523809,200.23809523809524,77.85714285714285,11.507936507936508,-10.555555555555555,-60.71428571428571,320.23809523809524,26.11111111111111,-325.0,-47.22222222222222,-7.698412698412698,-15.0,15.95238095238095,85.79365079365078,13.73015873015873,29.6031746031746,-2.46031746031746,-1.507936507936508,-321.8253968253968
-33.25396825396825,232.93650793650792,37.22222222222222,11.666666666666666,-79.44444444444444,-103.09523809523809,200.23809523809524,77.85714285714285,11.507936507936508,-10.555555555555555,-60.71428571428571,320.23809523809524,26.11111111111111,-325.0,-47.22222222222222,-7.698412698412698,-15.0,15.95238095238095,85.79365079365078,13.73015873015873,29.6031746031746,-2.46031746031746,-1.507936507936508,-321.8253968253968
-32.3015873015873,228.015873015873,36.269841269841265,11.507936507936508,-77.85714285714285,-93.4126984126984,176.74603174603175,84.68253968253968,11.349206349206348,0.23809523809523808,-59.44444444444444,313.73015873015873,25.634920634920633,-325.0,-46.269841269841265,3.73015873015873,-14.682539682539682,15.634920634920634,94.52380952380952,7.3809523809523805,29.126984126984127,1.8253968253968254,-0.3968253968253968,-166.26984126984127
-32.3015873015873,228.015873015873,36.269841269841265,11.507936507936508,-77.85714285714285,-93.4126984126984,176.74603174603175,84.68253968253968,11.349206349206348,0.23809523809523808,-59.44444444444444,313.73015873015873,25.634920634920633,-325.0,-46.269841269841265,3.73015873015873,-14.682539682539682,15.634920634920634,94.52380952380952,7.3809523809523805,29.126984126984127,1.8253968253968254,-0.3968253968253968,-166.26984126984127
-32.14285714285714,225.15873015873015,35.79365079365079,11.349206349206348,-76.74603174603175,-108.80952380952381,207.53968253968253,78.17460317460316,11.349206349206348,-1.6666666666666665,-58.8095238095238,309.76190476190476,25.317460317460316,-323.57142857142856,-45.63492063492063,0.873015873015873,-14.523809523809524,15.317460317460316,84.36507936507937,-9.126984126984127,28.65079365079365,3.095238095238095,0.23809523809523808,-166.26984126984127
-32.14285714285714,225.15873015873015,35.79365079365079,11.349206349206348,-76.74603174603175,-108.80952380952381,207.53968253968253,78.17460317460316,11.349206349206348,-1.6666666666666665,-58.8095238095238,309.76190476190476,25.317460317460316,-323.57142857142856,-45.63492063492063,0.873015873015873,-14.523809523809524,15.317460317460316,84.36507936507937,-9.126984126984127,28.65079365079365,3.095238095238095,0.23809523809523808,-166.26984126984127
-31.19047619047619,220.55555555555554,35.15873015873016,11.19047619047619,-75.47619047619047,-99.76190476190476,109.12698412698413,71.98412698412697,11.031746031746032,-7.063492063492063,-57.38095238095238,303.0952380952381,25.0,-319.4444444444444,-45.0,-4.365079365079365,-14.206349206349206,15.158730158730158,74.2063492063492,-13.73015873015873,28.015873015873016,1.6666666666666665,-0.3968253968253968,-166.26984126984127
-31.19047619047619,220.55555555555554,35.15873015873016,11.19047619047619,-75.47619047619047,-99.76190476190476,109.12698412698413,71.98412698412697,11.031746031746032,-7.063492063492063,-57.38095238095238,303.0952380952381,25.0,-319.4444444444444,-45.0,-4.365079365079365,-14.206349206349206,15.158730158730158,74.2063492063492,-13.73015873015873,28.015873015873016,1.6666666666666665,-0.3968253968253968,-166.26984126984127
-31.19047619047619,220.55555555555554,35.15873015873016,11.19047619047619,-75.47619047619047,-99.76190476190476,109.12698412698413,71.98412698412697,11.031746031746032,-7.063492063492063,-57.38095238095238,303.0952380952381,25.0,-319.4444444444444,-45.0,-4.365079365079365,-14.206349206349206,15.158730158730158,74.2063492063492,-13.73015873015873,28.015873015873016,1.6666666666666665,-0.3968253968253968,-166.26984126984127
-31.19047619047619,220.55555555555554,35.15873015873016,11.19047619047619,-75.47619047619047,-99.76190476190476,109.12698412698413,71.98412698412697,11.031746031746032,-7.063492063492063,-57.38095238095238,303.0952380952381,25.0,-319.4444444444444,-45.0,-4.365079365079365,-14.206349206349206,15.158730158730158,74.2063492063492,-13.73015873015873,28.015873015873016,1.6666666666666665,-0.3968253968253968,-166.26984126984127
-31.19047619047619,220.55555555555554,35.15873015873016,11.19047619047619,-75.47619047619047,-99.76190476190476,109.12698412698413,71.98412698412697,11.031746031746032,-7.063492063492063,-57.38095238095238,303.0952380952381,25.0,-319.4444444444444,-45.0,-4.365079365079365,-14.206349206349206,15.158730158730158,74.2063492063492,-13.73015873015873,28.015873015873016,1.6666666666666665,-0.3968253968253968,-166.26984126984127
-31.19047619047619,220.55555555555554,35.15873015873016,11.19047619047619,-75.47619047619047,-99.76190476190476,109.12698412698413,71.98412698412697,11.031746031746032,-7.063492063492063,-57.38095238095238,303.0952380952381,25.0,-319.4444444444444,-45.0,-4.365079365079365,-14.206349206349206,15.158730158730158,74.2063492063492,-13.73015873015873,28.015873015873016,1.6666666666666665,-0.3968253968253968,-166.26984126984127
-30.396825396825395,214.2063492063492,34.047619047619044,10.873015873015872,-73.25396825396825,-119.6031746031746,161.5079365079365,61.19047619047619,10.714285714285714,-6.746031746031746,-55.79365079365079,294.5238095238095,24.047619047619047,-309.76190476190476,-43.73015873015873,-4.682539682539682,-13.888888888888888,14.682539682539682,49.44444444444444,-38.96825396825397,27.063492063492063,3.095238095238095,0.23809523809523808,-321.8253968253968
-30.396825396825395,214.2063492063492,34.047619047619044,10.873015873015872,-73.25396825396825,-119.6031746031746,161.5079365079365,61.19047619047619,10.714285714285714,-6.746031746031746,-55.79365079365079,294.5238095238095,24.047619047619047,-309.76190476190476,-43.73015873015873,-4.682539682539682,-13.888888888888888,14.682539682539682,49.44444444444444,-38.96825396825397,27.063492063492063,3.095238095238095,0.23809523809523808,-321.8253968253968
-29.126984126984127,205.3174603174603,32.460317460317455,10.555555555555555,-70.23809523809524,-116.58730158730158,85.95238095238095,51.98412698412698,10.238095238095237,-8.015873015873016,-53.57142857142857,282.1428571428571,23.095238095238095,-295.95238095238096,-41.666666666666664,-5.476190476190476,-13.253968253968253,14.047619047619047,26.746031746031743,-20.07936507936508,26.11111111111111,-1.1904761904761905,-1.6666666666666665,-321.8253968253968
-29.126984126984127,205.3174603174603,32.460317460317455,10.555555555555555,-70.23809523809524,-116.58730158730158,85.95238095238095,51.98412698412698,10.238095238095237,-8.015873015873016,-53.57142857142857,282.1428571428571,23.095238095238095,-295.95238095238096,-41.666666666666664,-5.476190476190476,-13.253968253968253,14.047619047619047,26.746031746031743,-20.07936507936508,26.11111111111111,-1.1904761904761905,-1.6666666666666665,-321.8253968253968
-28.96825396825397,204.68253968253967,32.3015873015873,10.396825396825395,-69.92063492063491,-118.8095238095238,78.33333333333333,50.55555555555555,10.238095238095237,-6.26984126984127,-53.25396825396825,281.19047619047615,23.095238095238095,-294.5238095238095,-41.507936507936506,-3.888888888888889,-12.936507936507935,14.047619047619047,24.047619047619047,1.349206349206349,25.79365079365079,-4.365079365079365,-2.619047619047619,-321.8253968253968
-28.96825396825397,204.68253968253967,32.3015873015873,10.396825396825395,-69.92063492063491,-118.8095238095238,78.33333333333333,50.55555555555555,10.238095238095237,-6.26984126984127,-53.25396825396825,281.19047619047615,23.095238095238095,-294.5238095238095,-41.507936507936506,-3.888888888888889,-12.936507936507935,14.047619047619047,24.047619047619047,1.349206349206349,25.79365079365079,-4.365079365079365,-2.619047619047619,-321.8253968253968
-28.49206349206349,199.44444444444443,31.666666666666664,10.079365079365079,-68.17460317460318,-98.80952380952381,111.5079365079365,68.01587301587301,9.920634920634921,-6.587301587301587,-51.98412698412698,273.73015873015873,22.619047619047617,-286.90476190476187,-40.55555555555555,-4.523809523809524,-12.777777777777777,13.888888888888888,53.41269841269841,-55.63492063492063,25.317460317460316,1.1904761904761905,-0.3968253968253968,-321.8253968253968
-28.49206349206349,199.44444444444443,31.666666666666664,10.079365079365079,-68.17460317460318,-98.80952380952381,111.5079365079365,68.01587301587301,9.920634920634921,-6.587301587301587,-51.98412698412698,273.73015873015873,22.619047619047617,-286.90476190476187,-40.55555555555555,-4.523809523809524,-12.777777777777777,13.888888888888888,53.41269841269841,-55.63492063492063,25.317460317460316,1.1904761904761905,-0.3968253968253968,-321.8253968253968
-28.174603174603174,196.9047619047619,31.03174603174603,10.079365079365079,-67.38095238095238,-104.52380952380952,148.96825396825395,71.66666666666666,9.920634920634921,-7.857142857142857,-51.507936507936506,270.39682539682536,22.142857142857142,-283.0952380952381,-40.079365079365076,-6.111111111111111,-12.777777777777777,13.412698412698411,64.36507936507937,-94.2063492063492,25.0,3.73015873015873,0.7142857142857142,-321.8253968253968
-28.174603174603174,196.9047619047619,31.03174603174603,10.079365079365079,-67.38095238095238,-104.52380952380952,148.96825396825395,71.66666666666666,9.920634920634921,-7.857142857142857,-51.507936507936506,270.39682539682536,22.142857142857142,-283.0952380952381,-40.079365079365076,-6.111111111111111,-12.777777777777777,13.412698412698411,64.36507936507937,-94.2063492063492,25.0,3.73015873015873,0.7142857142857142,-321.8253968253968
-27.22222222222222,191.98412698412696,30.238095238095237,9.761904761904761,-65.79365079365078,-89.12698412698413,72.61904761904762,70.39682539682539,9.761904761904761,-2.3015873015873014,-50.238095238095234,263.88888888888886,21.507936507936506,-275.4761904761905,-39.12698412698413,0.23809523809523808,-12.46031746031746,13.253968253968253,77.22222222222221,-52.61904761904761,24.206349206349206,-1.984126984126984,-1.984126984126984,-166.26984126984127
-27.22222222222222,191.98412698412696,30.238095238095237,9.761904761904761,-65.79365079365078,-89.12698412698413,72.61904761904762,70.39682539682539,9.761904761904761,-2.3015873015873014,-50.238095238095234,263.88888888888886,21.507936507936506,-275.4761904761905,-39.12698412698413,0.23809523809523808,-12.46031746031746,13.253968253968253,77.22222222222221,-52.61904761904761,24.206349206349206,-1.984126984126984,-1.984126984126984,-166.26984126984127
-26.9047619047619,188.8095238095238,29.76190476190476,9.920634920634921,-64.84126984126983,-119.92063492063491,204.52380952380952,63.888888888888886,9.603174603174603,1.0317460317460316,-49.44444444444444,259.2857142857143,21.19047619047619,-270.7142857142857,-38.65079365079365,2.619047619047619,-12.3015873015873,12.936507936507935,69.28571428571428,-105.95238095238095,23.88888888888889,1.1904761904761905,0.7142857142857142,-166.26984126984127
-26.9047619047619,188.8095238095238,29.76190476190476,9.920634920634921,-64.84126984126983,-119.92063492063491,204.52380952380952,63.888888888888886,9.603174603174603,1.0317460317460316,-49.44444444444444,259.2857142857143,21.19047619047619,-270.7142857142857,-38.65079365079365,2.619047619047619,-12.3015873015873,12.936507936507935,69.28571428571428,-105.95238095238095,23.88888888888889,1.1904761904761905,0.7142857142857142,-166.26984126984127
-26.428571428571427,185.63492063492063,29.285714285714285,9.603174603174603,-63.73015873015873,-99.76190476190476,73.57142857142857,64.2063492063492,9.444444444444445,-1.6666666666666665,-48.650793650793645,255.0,20.71428571428571,-265.95238095238096,-37.857142857142854,0.3968253968253968,-12.142857142857142,12.777777777777777,67.38095238095238,-78.4920634920635,23.41269841269841,-1.8253968253968254,-1.8253968253968254,-166.26984126984127
