Fp1[1],Fp2[2],F3[3],F4[4],C3[5],C4[6],P3[7],P4[8],O1[9],O2[10],F7[11],F8[12],T3[13],T4[14],T5[15],T6[16],Fz[17],Pz[18],Cz[19],Pg1[20],Pg2[21],EOGR[22],EOOGL[23],EMG[24]
-28.49206349206349,-44.36507936507936,10.714285714285714,-29.76190476190476,34.047619047619044,-37.53968253968254,3.571428571428571,-28.49206349206349,-11.825396825396824,325.0,-71.66666666666666,-26.9047619047619,-0.23809523809523808,-49.76190476190476,1.8253968253968254,-17.539682539682538,-4.365079365079365,1.349206349206349,-325.0,-325.0,-325.0,-325.0,-325.0,-7.5396825396825395
-28.49206349206349,-44.36507936507936,10.714285714285714,-29.76190476190476,34.047619047619044,-37.53968253968254,3.571428571428571,-28.49206349206349,-11.825396825396824,325.0,-71.66666666666666,-26.9047619047619,-0.23809523809523808,-49.76190476190476,1.8253968253968254,-17.539682539682538,-4.365079365079365,1.349206349206349,-325.0,-325.0,-325.0,-325.0,-325.0,-7.5396825396825395
-40.39682539682539,-57.53968253968254,-3.4126984126984126,-47.698412698412696,43.57142857142857,-39.44444444444444,15.476190476190474,-30.07936507936508,5.158730158730158,129.12698412698413,-73.57142857142857,-34.047619047619044,-1.6666666666666665,-55.317460317460316,12.3015873015873,-6.111111111111111,-3.4126984126984126,0.7142857142857142,-325.0,-325.0,-325.0,-325.0,-325.0,-7.5396825396825395
-40.39682539682539,-57.53968253968254,-3.4126984126984126,-47.698412698412696,43.57142857142857,-39.44444444444444,15.476190476190474,-30.07936507936508,5.158730158730158,129.12698412698413,-73.57142857142857,-34.047619047619044,-1.6666666666666665,-55.317460317460316,12.3015873015873,-6.111111111111111,-3.4126984126984126,0.7142857142857142,-325.0,-325.0,-325.0,-325.0,-325.0,-7.5396825396825395
-39.12698412698413,-64.04761904761905,1.6666666666666665,-50.079365079365076,42.61904761904761,-39.44444444444444,5.158730158730158,-41.82539682539682,1.8253968253968254,-127.53968253968253,-95.79365079365078,-38.49206349206349,-1.6666666666666665,-62.77777777777777,1.507936507936508,-6.746031746031746,-4.2063492063492065,0.873015873015873,-325.0,-325.0,-325.0,-325.0,-325.0,-7.5396825396825395
-39.12698412698413,-64.04761904761905,1.6666666666666665,-50.079365079365076,42.61904761904761,-39.44444444444444,5.158730158730158,-41.82539682539682,1.8253968253968254,-127.53968253968253,-95.79365079365078,-38.49206349206349,-1.6666666666666665,-62.77777777777777,1.507936507936508,-6.746031746031746,-4.2063492063492065,0.873015873015873,-325.0,-325.0,-325.0,-325.0,-325.0,-7.5396825396825395
-45.476190476190474,-75.63492063492063,-2.7777777777777777,-70.07936507936508,37.857142857142854,-62.77777777777777,0.23809523809523808,-67.38095238095238,-1.6666666666666665,-154.04761904761904,-128.4920634920635,-54.52380952380952,1.349206349206349,-78.01587301587301,2.142857142857143,-27.38095238095238,-4.682539682539682,1.1904761904761905,-325.0,-325.0,-325.0,-325.0,-325.0,-7.5396825396825395
-45.476190476190474,-75.63492063492063,-2.7777777777777777,-70.07936507936508,37.857142857142854,-62.77777777777777,0.23809523809523808,-67.38095238095238,-1.6666666666666665,-154.04761904761904,-128.4920634920635,-54.52380952380952,1.349206349206349,-78.01587301587301,2.142857142857143,-27.38095238095238,-4.682539682539682,1.1904761904761905,-325.0,-325.0,-325.0,-325.0,-325.0,-7.5396825396825395
-44.2063492063492,-82.93650793650794,0.23809523809523808,-70.07936507936508,31.19047619047619,-49.6031746031746,5.158730158730158,-74.2063492063492,-0.7142857142857142,-284.5238095238095,-106.42857142857142,-61.98412698412698,-0.3968253968253968,-85.95238095238095,2.7777777777777777,-84.2063492063492,-4.523809523809524,1.1904761904761905,-325.0,-325.0,-325.0,-325.0,-325.0,-7.5396825396825395
-44.2063492063492,-82.93650793650794,0.23809523809523808,-70.07936507936508,31.19047619047619,-49.6031746031746,5.158730158730158,-74.2063492063492,-0.7142857142857142,-284.5238095238095,-106.42857142857142,-61.98412698412698,-0.3968253968253968,-85.95238095238095,2.7777777777777777,-84.2063492063492,-4.523809523809524,1.1904761904761905,-325.0,-325.0,-325.0,-325.0,-325.0,-7.5396825396825395
-57.06349206349206,-90.87301587301587,-8.65079365079365,-68.33333333333333,18.174603174603174,-48.01587301587301,-1.1904761904761905,-79.44444444444444,-11.825396825396824,-325.0,-98.33333333333333,-65.95238095238095,-6.746031746031746,-87.6984126984127,-8.333333333333332,-124.2063492063492,-4.682539682539682,1.1904761904761905,-325.0,-325.0,-325.0,-325.0,-325.0,-321.8253968253968
-57.06349206349206,-90.87301587301587,-8.65079365079365,-68.33333333333333,18.174603174603174,-48.01587301587301,-1.1904761904761905,-79.44444444444444,-11.825396825396824,-325.0,-98.33333333333333,-65.95238095238095,-6.746031746031746,-87.6984126984127,-8.333333333333332,-124.2063492063492,-4.682539682539682,1.1904761904761905,-325.0,-325.0,-325.0,-325.0,-325.0,-321.8253968253968
-68.01587301587301,-83.09523809523809,-13.571428571428571,-51.19047619047619,19.285714285714285,-36.58730158730159,-3.888888888888889,-78.80952380952381,-10.873015873015872,-325.0,-76.58730158730158,-54.52380952380952,-8.809523809523808,-86.1111111111111,-9.920634920634921,-118.96825396825396,-3.73015873015873,0.873015873015873,-325.0,-325.0,-325.0,-325.0,-325.0,-321.8253968253968
-68.01587301587301,-83.09523809523809,-13.571428571428571,-51.19047619047619,19.285714285714285,-36.58730158730159,-3.888888888888889,-78.80952380952381,-10.873015873015872,-325.0,-76.58730158730158,-54.52380952380952,-8.809523809523808,-86.1111111111111,-9.920634920634921,-118.96825396825396,-3.73015873015873,0.873015873015873,-325.0,-325.0,-325.0,-325.0,-325.0,-321.8253968253968
-78.17460317460316,-75.63492063492063,-14.84126984126984,-49.285714285714285,18.174603174603174,-35.79365079365079,-0.3968253968253968,-71.19047619047619,-14.365079365079364,-325.0,-38.17460317460317,-45.476190476190474,-8.015873015873016,-83.73015873015872,-6.587301587301587,-91.19047619047619,-3.888888888888889,0.5555555555555556,-325.0,-325.0,-325.0,-325.0,-325.0,-321.8253968253968
-78.17460317460316,-75.63492063492063,-14.84126984126984,-49.285714285714285,18.174603174603174,-35.79365079365079,-0.3968253968253968,-71.19047619047619,-14.365079365079364,-325.0,-38.17460317460317,-45.476190476190474,-8.015873015873016,-83.73015873015872,-6.587301587301587,-91.19047619047619,-3.888888888888889,0.5555555555555556,-325.0,-325.0,-325.0,-325.0,-325.0,-321.8253968253968
-82.77777777777777,-65.15873015873015,-9.761904761904761,-40.87301587301587,20.396825396825395,-23.095238095238095,3.73015873015873,-58.96825396825397,-11.984126984126984,-325.0,-44.68253968253968,-34.84126984126984,-5.634920634920634,-74.52380952380952,-6.587301587301587,-64.2063492063492,-3.253968253968254,1.0317460317460316,-325.0,-325.0,-325.0,-325.0,-325.0,-321.8253968253968
-82.77777777777777,-65.15873015873015,-9.761904761904761,-40.87301587301587,20.396825396825395,-23.095238095238095,3.73015873015873,-58.96825396825397,-11.984126984126984,-325.0,-44.68253968253968,-34.84126984126984,-5.634920634920634,-74.52380952380952,-6.587301587301587,-64.2063492063492,-3.253968253968254,1.0317460317460316,-325.0,-325.0,-325.0,-325.0,-325.0,-321.8253968253968
-76.9047619047619,-53.73015873015873,-7.063492063492063,-33.25396825396825,29.920634920634917,-6.746031746031746,7.3809523809523805,-44.52380952380952,-8.968253968253968,-325.0,-65.15873015873015,-23.253968253968253,-8.015873015873016,-65.0,-4.523809523809524,-60.079365079365076,-3.4126984126984126,0.873015873015873,-325.0,-325.0,-325.0,-325.0,-325.0,-321.8253968253968
-76.9047619047619,-53.73015873015873,-7.063492063492063,-33.25396825396825,29.920634920634917,-6.746031746031746,7.3809523809523805,-44.52380952380952,-8.968253968253968,-325.0,-65.15873015873015,-23.253968253968253,-8.015873015873016,-65.0,-4.523809523809524,-60.079365079365076,-3.4126984126984126,0.873015873015873,-325.0,-325.0,-325.0,-325.0,-325.0,-321.8253968253968
-63.73015873015873,-58.33333333333333,0.873015873015873,-35.15873015873016,39.76190476190476,-7.3809523809523805,9.920634920634921,-46.11111111111111,-8.968253968253968,-325.0,-58.49206349206349,-20.555555555555554,-3.73015873015873,-61.19047619047619,-3.888888888888889,-76.58730158730158,-3.4126984126984126,1.349206349206349,-325.0,-325.0,-325.0,-325.0,-325.0,-7.5396825396825395
-63.73015873015873,-58.33333333333333,0.873015873015873,-35.15873015873016,39.76190476190476,-7.3809523809523805,9.920634920634921,-46.11111111111111,-8.968253968253968,-325.0,-58.49206349206349,-20.555555555555554,-3.73015873015873,-61.19047619047619,-3.888888888888889,-76.58730158730158,-3.4126984126984126,1.349206349206349,-325.0,-325.0,-325.0,-325.0,-325.0,-7.5396825396825395
-60.71428571428571,-58.96825396825397,-5.634920634920634,-33.41269841269841,38.49206349206349,-16.904761904761905,5.0,-58.650793650793645,-17.063492063492063,-325.0,-72.61904761904762,-27.22222222222222,-4.0476190476190474,-68.4920634920635,-9.761904761904761,-113.57142857142857,-2.619047619047619,1.6666666666666665,-325.0,-325.0,-325.0,-325.0,-325.0,-7.5396825396825395
-60.71428571428571,-58.96825396825397,-5.634920634920634,-33.41269841269841,38.49206349206349,-16.904761904761905,5.0,-58.650793650793645,-17.063492063492063,-325.0,-72.61904761904762,-27.22222222222222,-4.0476190476190474,-68.4920634920635,-9.761904761904761,-113.57142857142857,-2.619047619047619,1.6666666666666665,-325.0,-325.0,-325.0,-325.0,-325.0,-7.5396825396825395
-56.269841269841265,-64.04761904761905,-3.253968253968254,-41.82539682539682,40.39682539682539,-24.523809523809522,7.698412698412698,-49.76190476190476,-10.873015873015872,-325.0,-90.39682539682539,-28.809523809523807,-3.4126984126984126,-64.52380952380952,-4.365079365079365,-128.8095238095238,-2.46031746031746,1.507936507936508,-325.0,-325.0,-325.0,-325.0,-325.0,-7.5396825396825395
-56.269841269841265,-64.04761904761905,-3.253968253968254,-41.82539682539682,40.39682539682539,-24.523809523809522,7.698412698412698,-49.76190476190476,-10.873015873015872,-325.0,-90.39682539682539,-28.809523809523807,-3.4126984126984126,-64.52380952380952,-4.365079365079365,-128.8095238095238,-2.46031746031746,1.507936507936508,-325.0,-325.0,-325.0,-325.0,-325.0,-7.5396825396825395
-44.2063492063492,-61.666666666666664,-0.5555555555555556,-32.93650793650794,46.269841269841265,-32.61904761904762,9.444444444444445,-56.904761904761905,-11.507936507936508,-325.0,-123.09523809523809,-30.87301587301587,-0.07936507936507936,-64.84126984126983,-1.349206349206349,-142.61904761904762,-2.46031746031746,1.507936507936508,-325.0,-325.0,-325.0,-325.0,-325.0,-7.5396825396825395
-44.2063492063492,-61.666666666666664,-0.5555555555555556,-32.93650793650794,46.269841269841265,-32.61904761904762,9.444444444444445,-56.904761904761905,-11.507936507936508,-325.0,-123.09523809523809,-30.87301587301587,-0.07936507936507936,-64.84126984126983,-1.349206349206349,-142.61904761904762,-2.46031746031746,1.507936507936508,-325.0,-325.0,-325.0,-325.0,-325.0,-7.5396825396825395
-29.920634920634917,-43.25396825396825,1.349206349206349,-14.365079365079364,43.41269841269841,-26.9047619047619,6.746031746031746,-45.79365079365079,-4.2063492063492065,-325.0,-176.42857142857142,-19.6031746031746,3.095238095238095,-46.74603174603175,5.0,-133.73015873015873,-2.142857142857143,1.349206349206349,-325.0,-325.0,-325.0,-325.0,-325.0,-7.5396825396825395
-29.920634920634917,-43.25396825396825,1.349206349206349,-14.365079365079364,43.41269841269841,-26.9047619047619,6.746031746031746,-45.79365079365079,-4.2063492063492065,-325.0,-176.42857142857142,-19.6031746031746,3.095238095238095,-46.74603174603175,5.0,-133.73015873015873,-2.142857142857143,1.349206349206349,-325.0,-325.0,-325.0,-325.0,-325.0,-7.5396825396825395
-15.0,-33.095238095238095,2.619047619047619,-7.857142857142857,35.15873015873016,-21.349206349206348,-1.8253968253968254,-27.857142857142854,-9.444444444444445,-325.0,-141.03174603174602,-6.26984126984127,4.0476190476190474,-31.825396825396822,-4.365079365079365,-116.42857142857142,-2.3015873015873014,1.1904761904761905,-325.0,-325.0,-325.0,-325.0,-325.0,-321.8253968253968
-15.0,-33.095238095238095,2.619047619047619,-7.857142857142857,35.15873015873016,-21.349206349206348,-1.8253968253968254,-27.857142857142854,-9.444444444444445,-325.0,-141.03174603174602,-6.26984126984127,4.0476190476190474,-31.825396825396822,-4.365079365079365,-116.42857142857142,-2.3015873015873014,1.1904761904761905,-325.0,-325.0,-325.0,-325.0,-325.0,-321.8253968253968
-25.634920634920633,-21.666666666666664,-6.428571428571428,9.444444444444445,31.825396825396822,-0.873015873015873,0.07936507936507936,-12.46031746031746,-9.126984126984127,-325.0,-151.34920634920633,7.3809523809523805,1.6666666666666665,-17.857142857142858,-1.6666666666666665,-83.73015873015872,-2.46031746031746,0.7142857142857142,-325.0,-325.0,-325.0,-325.0,-325.0,-321.8253968253968
-25.634920634920633,-21.666666666666664,-6.428571428571428,9.444444444444445,31.825396825396822,-0.873015873015873,0.07936507936507936,-12.46031746031746,-9.126984126984127,-325.0,-151.34920634920633,7.3809523809523805,1.6666666666666665,-17.857142857142858,-1.6666666666666665,-83.73015873015872,-2.46031746031746,0.7142857142857142,-325.0,-325.0,-325.0,-325.0,-325.0,-321.8253968253968
-17.38095238095238,10.238095238095237,-7.222222222222221,32.77777777777778,13.571428571428571,31.825396825396822,-3.73015873015873,18.174603174603174,-6.587301587301587,-325.0,-109.44444444444444,33.095238095238095,-3.095238095238095,12.142857142857142,-0.5555555555555556,-38.96825396825397,-2.619047619047619,1.349206349206349,-325.0,-325.0,-325.0,-325.0,-325.0,-321.8253968253968
-17.38095238095238,10.238095238095237,-7.222222222222221,32.77777777777778,13.571428571428571,31.825396825396822,-3.73015873015873,18.174603174603174,-6.587301587301587,-325.0,-109.44444444444444,33.095238095238095,-3.095238095238095,12.142857142857142,-0.5555555555555556,-38.96825396825397,-2.619047619047619,1.349206349206349,-325.0,-325.0,-325.0,-325.0,-325.0,-321.8253968253968
-15.634920634920634,77.06349206349206,-4.841269841269841,84.36507936507937,21.349206349206348,94.84126984126983,8.174603174603174,86.1111111111111,-0.873015873015873,-314.8412698412698,-69.12698412698413,100.07936507936508,0.7142857142857142,81.66666666666666,4.841269841269841,55.95238095238095,-2.46031746031746,1.1904761904761905,-325.0,-325.0,-325.0,-325.0,-325.0,-321.8253968253968
-15.634920634920634,77.06349206349206,-4.841269841269841,84.36507936507937,21.349206349206348,94.84126984126983,8.174603174603174,86.1111111111111,-0.873015873015873,-314.8412698412698,-69.12698412698413,100.07936507936508,0.7142857142857142,81.66666666666666,4.841269841269841,55.95238095238095,-2.46031746031746,1.1904761904761905,-325.0,-325.0,-325.0,-325.0,-325.0,-321.8253968253968
-18.333333333333332,104.36507936507935,-10.238095238095237,113.88888888888889,17.857142857142858,110.55555555555554,5.476190476190476,111.66666666666666,-4.2063492063492065,-300.55555555555554,-68.01587301587301,130.55555555555554,0.7142857142857142,113.09523809523809,3.888888888888889,103.4126984126984,-2.142857142857143,1.1904761904761905,-325.0,-325.0,-325.0,-325.0,-325.0,-321.8253968253968
-18.333333333333332,104.36507936507935,-10.238095238095237,113.88888888888889,17.857142857142858,110.55555555555554,5.476190476190476,111.66666666666666,-4.2063492063492065,-300.55555555555554,-68.01587301587301,130.55555555555554,0.7142857142857142,113.09523809523809,3.888888888888889,103.4126984126984,-2.142857142857143,1.1904761904761905,-325.0,-325.0,-325.0,-325.0,-325.0,-321.8253968253968
-11.349206349206348,111.82539682539682,-1.1904761904761905,123.88888888888889,13.253968253968253,99.6031746031746,-6.587301587301587,101.5079365079365,-16.428571428571427,-286.4285714285714,-110.23809523809523,135.95238095238093,-1.0317460317460316,112.93650793650794,-2.619047619047619,91.34920634920634,-1.984126984126984,1.0317460317460316,-325.0,-325.0,-325.0,-325.0,-325.0,-7.5396825396825395
-11.349206349206348,111.82539682539682,-1.1904761904761905,123.88888888888889,13.253968253968253,99.6031746031746,-6.587301587301587,101.5079365079365,-16.428571428571427,-286.4285714285714,-110.23809523809523,135.95238095238093,-1.0317460317460316,112.93650793650794,-2.619047619047619,91.34920634920634,-1.984126984126984,1.0317460317460316,-325.0,-325.0,-325.0,-325.0,-325.0,-7.5396825396825395
-8.333333333333332,103.09523809523809,2.9365079365079363,114.52380952380952,22.777777777777775,95.47619047619047,7.063492063492063,98.17460317460316,-13.253968253968253,-272.1428571428571,-62.14285714285714,123.73015873015872,4.523809523809524,101.66666666666666,2.3015873015873014,77.06349206349206,-3.4126984126984126,1.6666666666666665,-325.0,-325.0,-325.0,-325.0,-325.0,-7.5396825396825395
-8.333333333333332,103.09523809523809,2.9365079365079363,114.52380952380952,22.777777777777775,95.47619047619047,7.063492063492063,98.17460317460316,-13.253968253968253,-272.1428571428571,-62.14285714285714,123.73015873015872,4.523809523809524,101.66666666666666,2.3015873015873014,77.06349206349206,-3.4126984126984126,1.6666666666666665,-325.0,-325.0,-325.0,-325.0,-325.0,-7.5396825396825395
-18.65079365079365,94.68253968253968,-2.46031746031746,106.58730158730158,24.206349206349206,89.12698412698413,14.206349206349206,101.98412698412697,2.46031746031746,-258.968253968254,-15.634920634920634,116.74603174603173,3.888888888888889,99.92063492063491,6.26984126984127,68.4920634920635,-3.253968253968254,1.6666666666666665,-325.0,-325.0,-325.0,-325.0,-325.0,-7.5396825396825395
-18.65079365079365,94.68253968253968,-2.46031746031746,106.58730158730158,24.206349206349206,89.12698412698413,14.206349206349206,101.98412698412697,2.46031746031746,-258.968253968254,-15.634920634920634,116.74603174603173,3.888888888888889,99.92063492063491,6.26984126984127,68.4920634920635,-3.253968253968254,1.6666666666666665,-325.0,-325.0,-325.0,-325.0,-325.0,-7.5396825396825395
-12.777777777777777,85.95238095238095,7.222222222222221,100.39682539682539,16.587301587301585,70.87301587301587,1.6666666666666665,80.23809523809523,-8.015873015873016,-245.95238095238093,21.666666666666664,105.95238095238095,1.6666666666666665,85.15873015873015,-1.507936507936508,-4.682539682539682,-2.46031746031746,1.6666666666666665,-325.0,-325.0,-325.0,-325.0,-325.0,-7.5396825396825395
-12.777777777777777,85.95238095238095,7.222222222222221,100.39682539682539,16.587301587301585,70.87301587301587,1.6666666666666665,80.23809523809523,-8.015873015873016,-245.95238095238093,21.666666666666664,105.95238095238095,1.6666666666666665,85.15873015873015,-1.507936507936508,-4.682539682539682,-2.46031746031746,1.6666666666666665,-325.0,-325.0,-325.0,-325.0,-325.0,-7.5396825396825395
-0.873015873015873,74.36507936507937,3.73015873015873,93.4126984126984,2.3015873015873014,42.61904761904761,-1.349206349206349,64.84126984126983,1.6666666666666665,-232.46031746031744,46.269841269841265,87.85714285714285,1.6666666666666665,70.71428571428571,1.507936507936508,-39.12698412698413,-2.619047619047619,1.0317460317460316,-325.0,-325.0,-325.0,-325.0,-325.0,-7.5396825396825395
-0.873015873015873,74.36507936507937,3.73015873015873,93.4126984126984,2.3015873015873014,42.61904761904761,-1.349206349206349,64.84126984126983,1.6666666666666665,-232.46031746031744,46.269841269841265,87.85714285714285,1.6666666666666665,70.71428571428571,1.507936507936508,-39.12698412698413,-2.619047619047619,1.0317460317460316,-325.0,-325.0,-325.0,-325.0,-325.0,-7.5396825396825395
-1.984126984126984,57.698412698412696,-4.365079365079365,70.87301587301587,3.4126984126984126,25.79365079365079,1.6666666666666665,39.76190476190476,0.873015873015873,-219.60317460317458,24.68253968253968,66.74603174603175,3.571428571428571,54.047619047619044,3.4126984126984126,-107.53968253968253,-2.46031746031746,1.349206349206349,-325.0,-325.0,-325.0,-325.0,-325.0,-321.8253968253968
-1.984126984126984,57.698412698412696,-4.365079365079365,70.87301587301587,3.4126984126984126,25.79365079365079,1.6666666666666665,39.76190476190476,0.873015873015873,-219.60317460317458,24.68253968253968,66.74603174603175,3.571428571428571,54.047619047619044,3.4126984126984126,-107.53968253968253,-2.46031746031746,1.349206349206349,-325.0,-325.0,-325.0,-325.0,-325.0,-321.8253968253968
9.920634920634921,53.888888888888886,-2.7777777777777777,65.79365079365078,3.4126984126984126,25.476190476190474,-6.26984126984127,28.809523809523807,-6.26984126984127,-207.53968253968253,-12.777777777777777,54.047619047619044,3.253968253968254,46.11111111111111,1.6666666666666665,-136.11111111111111,-2.3015873015873014,1.349206349206349,-325.0,-325.0,-325.0,-325.0,-325.0,-321.8253968253968
9.920634920634921,53.888888888888886,-2.7777777777777777,65.79365079365078,3.4126984126984126,25.476190476190474,-6.26984126984127,28.809523809523807,-6.26984126984127,-207.53968253968253,-12.777777777777777,54.047619047619044,3.253968253968254,46.11111111111111,1.6666666666666665,-136.11111111111111,-2.3015873015873014,1.349206349206349,-325.0,-325.0,-325.0,-325.0,-325.0,-321.8253968253968
27.539682539682538,49.76190476190476,3.888888888888889,55.15873015873016,-0.07936507936507936,25.634920634920633,-13.571428571428571,18.333333333333332,-6.587301587301587,-194.04761904761904,-10.555555555555555,39.6031746031746,3.4126984126984126,37.857142857142854,-3.253968253968254,-136.26984126984127,-1.984126984126984,1.1904761904761905,-325.0,-325.0,-325.0,-325.0,-325.0,-321.8253968253968
27.539682539682538,49.76190476190476,3.888888888888889,55.15873015873016,-0.07936507936507936,25.634920634920633,-13.571428571428571,18.333333333333332,-6.587301587301587,-194.04761904761904,-10.555555555555555,39.6031746031746,3.4126984126984126,37.857142857142854,-3.253968253968254,-136.26984126984127,-1.984126984126984,1.1904761904761905,-325.0,-325.0,-325.0,-325.0,-325.0,-321.8253968253968
31.03174603174603,33.888888888888886,3.4126984126984126,39.12698412698413,0.07936507936507936,14.84126984126984,0.3968253968253968,17.857142857142858,6.587301587301587,-101.34920634920634,-15.0,20.873015873015873,2.619047619047619,23.88888888888889,-28.174603174603174,-137.53968253968253,-2.142857142857143,1.0317460317460316,-325.0,-325.0,-325.0,-325.0,-325.0,-321.8253968253968
31.03174603174603,33.888888888888886,3.4126984126984126,39.12698412698413,0.07936507936507936,14.84126984126984,0.3968253968253968,17.857142857142858,6.587301587301587,-101.34920634920634,-15.0,20.873015873015873,2.619047619047619,23.88888888888889,-28.174603174603174,-137.53968253968253,-2.142857142857143,1.0317460317460316,-325.0,-325.0,-325.0,-325.0,-325.0,-321.8253968253968
36.74603174603175,15.95238095238095,2.7777777777777777,14.365079365079364,5.317460317460317,-24.206349206349206,-5.0,-4.2063492063492065,3.571428571428571,325.0,-11.825396825396824,1.349206349206349,0.07936507936507936,9.603174603174603,-47.857142857142854,-153.88888888888889,-3.095238095238095,0.5555555555555556,-325.0,-325.0,-325.0,-325.0,-325.0,-321.8253968253968
36.74603174603175,15.95238095238095,2.7777777777777777,14.365079365079364,5.317460317460317,-24.206349206349206,-5.0,-4.2063492063492065,3.571428571428571,325.0,-11.825396825396824,1.349206349206349,0.07936507936507936,9.603174603174603,-47.857142857142854,-153.88888888888889,-3.095238095238095,0.5555555555555556,-325.0,-325.0,-325.0,-325.0,-325.0,-321.8253968253968
36.11111111111111,9.444444444444445,0.873015873015873,3.253968253968254,13.888888888888888,-40.714285714285715,-3.253968253968254,-16.428571428571427,4.2063492063492065,325.0,2.7777777777777777,-9.920634920634921,1.349206349206349,2.3015873015873014,-48.80952380952381,-166.58730158730157,-2.3015873015873014,1.1904761904761905,-325.0,-325.0,-325.0,-325.0,-325.0,-7.5396825396825395
36.11111111111111,9.444444444444445,0.873015873015873,3.253968253968254,13.888888888888888,-40.714285714285715,-3.253968253968254,-16.428571428571427,4.2063492063492065,325.0,2.7777777777777777,-9.920634920634921,1.349206349206349,2.3015873015873014,-48.80952380952381,-166.58730158730157,-2.3015873015873014,1.1904761904761905,-325.0,-325.0,-325.0,-325.0,-325.0,-7.5396825396825395
51.34920634920635,-0.07936507936507936,8.492063492063492,-10.873015873015872,7.857142857142857,-36.58730158730159,-2.7777777777777777,-18.333333333333332,11.825396825396824,325.0,-2.7777777777777777,-24.047619047619047,0.873015873015873,-10.079365079365079,-48.96825396825397,-213.57142857142856,-2.46031746031746,0.873015873015873,-325.0,-325.0,-325.0,-325.0,-325.0,-7.5396825396825395
51.34920634920635,-0.07936507936507936,8.492063492063492,-10.873015873015872,7.857142857142857,-36.58730158730159,-2.7777777777777777,-18.333333333333332,11.825396825396824,325.0,-2.7777777777777777,-24.047619047619047,0.873015873015873,-10.079365079365079,-48.96825396825397,-213.57142857142856,-2.46031746031746,0.873015873015873,-325.0,-325.0,-325.0,-325.0,-325.0,-7.5396825396825395
52.460317460317455,-24.523809523809522,10.079365079365079,-29.285714285714285,9.603174603174603,-39.44444444444444,-2.619047619047619,-34.84126984126984,4.2063492063492065,325.0,-36.74603174603175,-41.03174603174603,2.619047619047619,-26.587301587301585,-43.57142857142857,-210.7142857142857,-3.253968253968254,1.0317460317460316,-325.0,-325.0,-325.0,-325.0,-325.0,-7.5396825396825395
52.460317460317455,-24.523809523809522,10.079365079365079,-29.285714285714285,9.603174603174603,-39.44444444444444,-2.619047619047619,-34.84126984126984,4.2063492063492065,325.0,-36.74603174603175,-41.03174603174603,2.619047619047619,-26.587301587301585,-43.57142857142857,-210.7142857142857,-3.253968253968254,1.0317460317460316,-325.0,-325.0,-325.0,-325.0,-325.0,-7.5396825396825395
51.666666666666664,-35.15873015873016,11.825396825396824,-45.15873015873016,10.396825396825395,-54.841269841269835,-6.904761904761904,-58.33333333333333,-3.888888888888889,325.0,-76.58730158730158,-53.888888888888886,4.682539682539682,-39.12698412698413,-37.22222222222222,-196.11111111111111,-3.253968253968254,0.873015873015873,-325.0,-325.0,-325.0,-325.0,-325.0,-7.5396825396825395
51.666666666666664,-35.15873015873016,11.825396825396824,-45.15873015873016,10.396825396825395,-54.841269841269835,-6.904761904761904,-58.33333333333333,-3.888888888888889,325.0,-76.58730158730158,-53.888888888888886,4.682539682539682,-39.12698412698413,-37.22222222222222,-196.11111111111111,-3.253968253968254,0.873015873015873,-325.0,-325.0,-325.0,-325.0,-325.0,-7.5396825396825395
49.6031746031746,-49.92063492063492,5.952380952380952,-58.8095238095238,-4.682539682539682,-65.63492063492063,-4.682539682539682,-66.42857142857143,-1.8253968253968254,325.0,-119.6031746031746,-68.96825396825396,4.523809523809524,-48.80952380952381,-9.761904761904761,-160.07936507936506,-3.253968253968254,0.3968253968253968,-325.0,-325.0,-325.0,-325.0,-325.0,-7.5396825396825395
49.6031746031746,-49.92063492063492,5.952380952380952,-58.8095238095238,-4.682539682539682,-65.63492063492063,-4.682539682539682,-66.42857142857143,-1.8253968253968254,325.0,-119.6031746031746,-68.96825396825396,4.523809523809524,-48.80952380952381,-9.761904761904761,-160.07936507936506,-3.253968253968254,0.3968253968253968,-325.0,-325.0,-325.0,-325.0,-325.0,-7.5396825396825395
53.888888888888886,-45.95238095238095,-0.5555555555555556,-60.079365079365076,-45.476190476190474,-82.77777777777777,-8.809523809523808,-61.666666666666664,7.698412698412698,325.0,-194.36507936507937,-70.07936507936508,1.1904761904761905,-48.96825396825397,2.142857142857143,-121.66666666666666,-2.7777777777777777,0.5555555555555556,-325.0,-325.0,-325.0,-325.0,-325.0,-321.8253968253968
53.888888888888886,-45.95238095238095,-0.5555555555555556,-60.079365079365076,-45.476190476190474,-82.77777777777777,-8.809523809523808,-61.666666666666664,7.698412698412698,325.0,-194.36507936507937,-70.07936507936508,1.1904761904761905,-48.96825396825397,2.142857142857143,-121.66666666666666,-2.7777777777777777,0.5555555555555556,-325.0,-325.0,-325.0,-325.0,-325.0,-321.8253968253968
25.476190476190474,-61.19047619047619,-4.682539682539682,-59.6031746031746,-38.01587301587301,-84.2063492063492,-3.253968253968254,-63.57142857142857,15.476190476190474,325.0,-219.12698412698413,-70.07936507936508,-1.349206349206349,-52.61904761904761,16.11111111111111,-81.03174603174602,-3.253968253968254,0.5555555555555556,-325.0,-325.0,-325.0,-325.0,-325.0,-321.8253968253968
25.476190476190474,-61.19047619047619,-4.682539682539682,-59.6031746031746,-38.01587301587301,-84.2063492063492,-3.253968253968254,-63.57142857142857,15.476190476190474,325.0,-219.12698412698413,-70.07936507936508,-1.349206349206349,-52.61904761904761,16.11111111111111,-81.03174603174602,-3.253968253968254,0.5555555555555556,-325.0,-325.0,-325.0,-325.0,-325.0,-321.8253968253968
15.793650793650793,-47.698412698412696,-11.984126984126984,-63.41269841269841,-28.65079365079365,-88.01587301587301,-1.6666666666666665,-70.07936507936508,16.11111111111111,325.0,-278.17460317460313,-57.698412698412696,-2.142857142857143,-47.22222222222222,25.952380952380953,-34.682539682539684,-3.4126984126984126,0.873015873015873,-325.0,-325.0,-325.0,-325.0,-325.0,-321.8253968253968
15.793650793650793,-47.698412698412696,-11.984126984126984,-63.41269841269841,-28.65079365079365,-88.01587301587301,-1.6666666666666665,-70.07936507936508,16.11111111111111,325.0,-278.17460317460313,-57.698412698412696,-2.142857142857143,-47.22222222222222,25.952380952380953,-34.682539682539684,-3.4126984126984126,0.873015873015873,-325.0,-325.0,-325.0,-325.0,-325.0,-321.8253968253968
18.96825396825397,-49.12698412698413,-10.555555555555555,-68.4920634920635,-14.523809523809524,-90.87301587301587,-1.0317460317460316,-71.34920634920634,4.841269841269841,325.0,-251.5079365079365,-62.93650793650793,-0.07936507936507936,-55.95238095238095,27.539682539682538,-9.285714285714285,-4.365079365079365,0.873015873015873,-325.0,-325.0,-325.0,-325.0,-325.0,-321.8253968253968
18.96825396825397,-49.12698412698413,-10.555555555555555,-68.4920634920635,-14.523809523809524,-90.87301587301587,-1.0317460317460316,-71.34920634920634,4.841269841269841,325.0,-251.5079365079365,-62.93650793650793,-0.07936507936507936,-55.95238095238095,27.539682539682538,-9.285714285714285,-4.365079365079365,0.873015873015873,-325.0,-325.0,-325.0,-325.0,-325.0,-321.8253968253968
16.11111111111111,-45.0,-9.761904761904761,-56.11111111111111,-6.587301587301587,-74.04761904761904,-7.063492063492063,-65.47619047619047,1.984126984126984,325.0,-177.06349206349205,-56.42857142857142,-2.142857142857143,-48.80952380952381,25.952380952380953,-25.952380952380953,-3.4126984126984126,0.3968253968253968,-325.0,-325.0,-325.0,-325.0,-325.0,-321.8253968253968
16.11111111111111,-45.0,-9.761904761904761,-56.11111111111111,-6.587301587301587,-74.04761904761904,-7.063492063492063,-65.47619047619047,1.984126984126984,325.0,-177.06349206349205,-56.42857142857142,-2.142857142857143,-48.80952380952381,25.952380952380953,-25.952380952380953,-3.4126984126984126,0.3968253968253968,-325.0,-325.0,-325.0,-325.0,-325.0,-321.8253968253968
15.95238095238095,-35.15873015873016,-3.571428571428571,-40.079365079365076,0.7142857142857142,-49.44444444444444,-2.619047619047619,-51.03174603174603,4.2063492063492065,325.0,-111.98412698412697,-49.12698412698413,0.3968253968253968,-41.34920634920635,29.444444444444443,-74.52380952380952,-4.0476190476190474,0.873015873015873,-325.0,-325.0,-325.0,-325.0,-325.0,-7.5396825396825395
15.95238095238095,-35.15873015873016,-3.571428571428571,-40.079365079365076,0.7142857142857142,-49.44444444444444,-2.619047619047619,-51.03174603174603,4.2063492063492065,325.0,-111.98412698412697,-49.12698412698413,0.3968253968253968,-41.34920634920635,29.444444444444443,-74.52380952380952,-4.0476190476190474,0.873015873015873,-325.0,-325.0,-325.0,-325.0,-325.0,-7.5396825396825395
7.063492063492063,-31.98412698412698,-5.952380952380952,-36.42857142857142,3.095238095238095,-45.476190476190474,-6.746031746031746,-51.98412698412698,-9.285714285714285,325.0,-92.61904761904762,-42.14285714285714,-3.4126984126984126,-34.2063492063492,20.873015873015873,-62.77777777777777,-3.253968253968254,1.0317460317460316,-325.0,-325.0,-325.0,-325.0,-325.0,-7.5396825396825395
7.063492063492063,-31.98412698412698,-5.952380952380952,-36.42857142857142,3.095238095238095,-45.476190476190474,-6.746031746031746,-51.98412698412698,-9.285714285714285,325.0,-92.61904761904762,-42.14285714285714,-3.4126984126984126,-34.2063492063492,20.873015873015873,-62.77777777777777,-3.253968253968254,1.0317460317460316,-325.0,-325.0,-325.0,-325.0,-325.0,-7.5396825396825395
3.4126984126984126,-24.523809523809522,-2.619047619047619,-25.634920634920633,9.603174603174603,-28.015873015873016,9.126984126984127,-20.238095238095237,11.19047619047619,325.0,-64.68253968253968,-28.809523809523807,-2.3015873015873014,-20.238095238095237,29.126984126984127,-61.19047619047619,-3.73015873015873,1.0317460317460316,-325.0,-325.0,-325.0,-325.0,-325.0,-7.5396825396825395
3.4126984126984126,-24.523809523809522,-2.619047619047619,-25.634920634920633,9.603174603174603,-28.015873015873016,9.126984126984127,-20.238095238095237,11.19047619047619,325.0,-64.68253968253968,-28.809523809523807,-2.3015873015873014,-20.238095238095237,29.126984126984127,-61.19047619047619,-3.73015873015873,1.0317460317460316,-325.0,-325.0,-325.0,-325.0,-325.0,-7.5396825396825395
4.523809523809524,-19.126984126984127,-5.634920634920634,-20.873015873015873,5.7936507936507935,-21.507936507936506,2.142857142857143,-11.349206349206348,14.523809523809524,325.0,-3.095238095238095,-20.238095238095237,-2.142857142857143,-11.666666666666666,26.428571428571427,-70.39682539682539,-3.095238095238095,1.1904761904761905,-325.0,-325.0,-325.0,-325.0,-325.0,-7.5396825396825395
4.523809523809524,-19.126984126984127,-5.634920634920634,-20.873015873015873,5.7936507936507935,-21.507936507936506,2.142857142857143,-11.349206349206348,14.523809523809524,325.0,-3.095238095238095,-20.238095238095237,-2.142857142857143,-11.666666666666666,26.428571428571427,-70.39682539682539,-3.095238095238095,1.1904761904761905,-325.0,-325.0,-325.0,-325.0,-325.0,-7.5396825396825395
9.603174603174603,-19.285714285714285,-4.365079365079365,-27.857142857142854,9.126984126984127,-30.07936507936508,-2.3015873015873014,-15.95238095238095,9.126984126984127,325.0,13.888888888888888,-25.317460317460316,-4.523809523809524,-12.936507936507935,19.92063492063492,-90.55555555555556,-3.571428571428571,0.873015873015873,-325.0,-325.0,-325.0,-325.0,-325.0,-7.5396825396825395
9.603174603174603,-19.285714285714285,-4.365079365079365,-27.857142857142854,9.126984126984127,-30.07936507936508,-2.3015873015873014,-15.95238095238095,9.126984126984127,325.0,13.888888888888888,-25.317460317460316,-4.523809523809524,-12.936507936507935,19.92063492063492,-90.55555555555556,-3.571428571428571,0.873015873015873,-325.0,-325.0,-325.0,-325.0,-325.0,-7.5396825396825395
20.71428571428571,-14.047619047619047,4.523809523809524,-24.365079365079364,22.142857142857142,-22.46031746031746,7.063492063492063,-10.714285714285714,21.507936507936506,325.0,24.047619047619047,-20.07936507936508,1.349206349206349,-10.396825396825395,25.0,-86.26984126984127,-3.253968253968254,0.873015873015873,-325.0,-325.0,-325.0,-325.0,-325.0,-321.8253968253968
20.71428571428571,-14.047619047619047,4.523809523809524,-24.365079365079364,22.142857142857142,-22.46031746031746,7.063492063492063,-10.714285714285714,21.507936507936506,325.0,24.047619047619047,-20.07936507936508,1.349206349206349,-10.396825396825395,25.0,-86.26984126984127,-3.253968253968254,0.873015873015873,-325.0,-325.0,-325.0,-325.0,-325.0,-321.8253968253968
22.46031746031746,-14.365079365079364,5.0,-27.38095238095238,17.22222222222222,-19.6031746031746,2.9365079365079363,-13.253968253968253,21.19047619047619,140.55555555555554,38.33333333333333,-21.984126984126984,3.888888888888889,-10.079365079365079,25.158730158730158,-86.26984126984127,-3.095238095238095,1.0317460317460316,-325.0,-325.0,-325.0,-325.0,-325.0,-321.8253968253968
22.46031746031746,-14.365079365079364,5.0,-27.38095238095238,17.22222222222222,-19.6031746031746,2.9365079365079363,-13.253968253968253,21.19047619047619,140.55555555555554,38.33333333333333,-21.984126984126984,3.888888888888889,-10.079365079365079,25.158730158730158,-86.26984126984127,-3.095238095238095,1.0317460317460316,-325.0,-325.0,-325.0,-325.0,-325.0,-321.8253968253968
5.0,-22.619047619047617,-11.984126984126984,-43.095238095238095,-1.349206349206349,-26.26984126984127,-8.809523809523808,-17.857142857142858,-4.2063492063492065,141.03174603174602,15.0,-25.0,-2.7777777777777777,-13.571428571428571,8.174603174603174,-81.19047619047619,-2.9365079365079363,1.349206349206349,-325.0,-325.0,-325.0,-325.0,-325.0,-321.8253968253968
5.0,-22.619047619047617,-11.984126984126984,-43.095238095238095,-1.349206349206349,-26.26984126984127,-8.809523809523808,-17.857142857142858,-4.2063492063492065,141.03174603174602,15.0,-25.0,-2.7777777777777777,-13.571428571428571,8.174603174603174,-81.19047619047619,-2.9365079365079363,1.349206349206349,-325.0,-325.0,-325.0,-325.0,-325.0,-321.8253968253968
3.571428571428571,-10.396825396825395,-13.412698412698411,-29.285714285714285,-10.873015873015872,-21.507936507936506,-15.476190476190474,-13.571428571428571,-2.142857142857143,-150.7142857142857,17.539682539682538,-11.349206349206348,-6.904761904761904,-3.095238095238095,6.428571428571428,-30.396825396825395,-2.7777777777777777,1.1904761904761905,-325.0,-325.0,-325.0,-325.0,-325.0,-321.8253968253968
3.571428571428571,-10.396825396825395,-13.412698412698411,-29.285714285714285,-10.873015873015872,-21.507936507936506,-15.476190476190474,-13.571428571428571,-2.142857142857143,-150.7142857142857,17.539682539682538,-11.349206349206348,-6.904761904761904,-3.095238095238095,6.428571428571428,-30.396825396825395,-2.7777777777777777,1.1904761904761905,-325.0,-325.0,-325.0,-325.0,-325.0,-321.8253968253968
2.142857142857143,-12.142857142857142,-4.2063492063492065,-24.523809523809522,4.523809523809524,-20.07936507936508,3.4126984126984126,-7.222222222222221,8.492063492063492,-325.0,62.460317460317455,-12.936507936507935,-3.095238095238095,-5.476190476190476,13.253968253968253,28.65079365079365,-3.73015873015873,0.5555555555555556,-325.0,-325.0,-325.0,-325.0,-325.0,-321.8253968253968
2.142857142857143,-12.142857142857142,-4.2063492063492065,-24.523809523809522,4.523809523809524,-20.07936507936508,3.4126984126984126,-7.222222222222221,8.492063492063492,-325.0,62.460317460317455,-12.936507936507935,-3.095238095238095,-5.476190476190476,13.253968253968253,28.65079365079365,-3.73015873015873,0.5555555555555556,-325.0,-325.0,-325.0,-325.0,-325.0,-321.8253968253968
0.873015873015873,-4.0476190476190474,2.619047619047619,-1.0317460317460316,-1.0317460317460316,1.1904761904761905,-2.9365079365079363,-1.0317460317460316,0.5555555555555556,-325.0,45.79365079365079,-6.111111111111111,-3.253968253968254,-5.7936507936507935,6.904761904761904,56.904761904761905,-3.571428571428571,0.873015873015873,-325.0,-325.0,-325.0,-325.0,-325.0,-7.5396825396825395
0.873015873015873,-4.0476190476190474,2.619047619047619,-1.0317460317460316,-1.0317460317460316,1.1904761904761905,-2.9365079365079363,-1.0317460317460316,0.5555555555555556,-325.0,45.79365079365079,-6.111111111111111,-3.253968253968254,-5.7936507936507935,6.904761904761904,56.904761904761905,-3.571428571428571,0.873015873015873,-325.0,-325.0,-325.0,-325.0,-325.0,-7.5396825396825395
9.285714285714285,-1.984126984126984,10.396825396825395,-0.5555555555555556,-0.7142857142857142,5.952380952380952,2.3015873015873014,5.952380952380952,6.111111111111111,-325.0,70.39682539682539,-0.3968253968253968,-5.7936507936507935,-1.349206349206349,7.222222222222221,96.26984126984127,-2.619047619047619,1.0317460317460316,-325.0,-325.0,-325.0,-325.0,-325.0,-7.5396825396825395
9.285714285714285,-1.984126984126984,10.396825396825395,-0.5555555555555556,-0.7142857142857142,5.952380952380952,2.3015873015873014,5.952380952380952,6.111111111111111,-325.0,70.39682539682539,-0.3968253968253968,-5.7936507936507935,-1.349206349206349,7.222222222222221,96.26984126984127,-2.619047619047619,1.0317460317460316,-325.0,-325.0,-325.0,-325.0,-325.0,-7.5396825396825395
-16.26984126984127,-8.492063492063492,-10.238095238095237,-9.603174603174603,-4.365079365079365,2.9365079365079363,12.777777777777777,4.365079365079365,12.142857142857142,-325.0,87.6984126984127,-1.507936507936508,-1.507936507936508,-3.73015873015873,11.666666666666666,144.52380952380952,-3.4126984126984126,0.873015873015873,-325.0,-325.0,-325.0,-325.0,-325.0,-7.5396825396825395
-16.26984126984127,-8.492063492063492,-10.238095238095237,-9.603174603174603,-4.365079365079365,2.9365079365079363,12.777777777777777,4.365079365079365,12.142857142857142,-325.0,87.6984126984127,-1.507936507936508,-1.507936507936508,-3.73015873015873,11.666666666666666,144.52380952380952,-3.4126984126984126,0.873015873015873,-325.0,-325.0,-325.0,-325.0,-325.0,-7.5396825396825395
-17.22222222222222,-16.11111111111111,-7.857142857142857,-16.746031746031743,-19.92063492063492,5.634920634920634,-4.523809523809524,-3.888888888888889,-2.3015873015873014,-325.0,93.09523809523809,-0.7142857142857142,-4.0476190476190474,-6.587301587301587,0.3968253968253968,146.9047619047619,-3.73015873015873,1.1904761904761905,-325.0,-325.0,-325.0,-325.0,-325.0,-7.5396825396825395
-17.22222222222222,-16.11111111111111,-7.857142857142857,-16.746031746031743,-19.92063492063492,5.634920634920634,-4.523809523809524,-3.888888888888889,-2.3015873015873014,-325.0,93.09523809523809,-0.7142857142857142,-4.0476190476190474,-6.587301587301587,0.3968253968253968,146.9047619047619,-3.73015873015873,1.1904761904761905,-325.0,-325.0,-325.0,-325.0,-325.0,-7.5396825396825395
-20.07936507936508,-21.507936507936506,-7.222222222222221,-19.285714285714285,-16.26984126984127,-2.9365079365079363,1.6666666666666665,-7.698412698412698,-2.46031746031746,-325.0,73.09523809523809,-5.158730158730158,0.07936507936507936,-12.936507936507935,3.095238095238095,152.93650793650792,-2.7777777777777777,0.5555555555555556,-325.0,-325.0,-325.0,-325.0,-325.0,-7.5396825396825395
-20.07936507936508,-21.507936507936506,-7.222222222222221,-19.285714285714285,-16.26984126984127,-2.9365079365079363,1.6666666666666665,-7.698412698412698,-2.46031746031746,-325.0,73.09523809523809,-5.158730158730158,0.07936507936507936,-12.936507936507935,3.095238095238095,152.93650793650792,-2.7777777777777777,0.5555555555555556,-325.0,-325.0,-325.0,-325.0,-325.0,-7.5396825396825395
-21.03174603174603,-12.46031746031746,-3.095238095238095,-0.873015873015873,-33.095238095238095,22.142857142857142,-2.9365079365079363,0.873015873015873,-15.476190476190474,-325.0,41.82539682539682,-0.3968253968253968,-0.23809523809523808,-15.476190476190474,-2.142857142857143,174.36507936507937,-3.253968253968254,1.6666666666666665,-325.0,-325.0,-325.0,-325.0,-325.0,-321.8253968253968
-21.03174603174603,-12.46031746031746,-3.095238095238095,-0.873015873015873,-33.095238095238095,22.142857142857142,-2.9365079365079363,0.873015873015873,-15.476190476190474,-325.0,41.82539682539682,-0.3968253968253968,-0.23809523809523808,-15.476190476190474,-2.142857142857143,174.36507936507937,-3.253968253968254,1.6666666666666665,-325.0,-325.0,-325.0,-325.0,-325.0,-321.8253968253968
-21.825396825396822,-23.88888888888889,-7.3809523809523805,-5.476190476190476,-46.269841269841265,11.031746031746032,-6.428571428571428,-5.158730158730158,-19.126984126984127,-325.0,-30.71428571428571,-3.73015873015873,-3.095238095238095,-18.65079365079365,-5.476190476190476,176.11111111111111,-3.73015873015873,1.0317460317460316,-325.0,-325.0,-325.0,-325.0,-325.0,-321.8253968253968
-21.825396825396822,-23.88888888888889,-7.3809523809523805,-5.476190476190476,-46.269841269841265,11.031746031746032,-6.428571428571428,-5.158730158730158,-19.126984126984127,-325.0,-30.71428571428571,-3.73015873015873,-3.095238095238095,-18.65079365079365,-5.476190476190476,176.11111111111111,-3.73015873015873,1.0317460317460316,-325.0,-325.0,-325.0,-325.0,-325.0,-321.8253968253968
-28.49206349206349,-22.46031746031746,-2.9365079365079363,-8.809523809523808,-25.158730158730158,-6.26984126984127,7.3809523809523805,-10.873015873015872,-11.666666666666666,-325.0,-48.96825396825397,-3.73015873015873,3.253968253968254,-24.84126984126984,3.73015873015873,193.25396825396825,-3.73015873015873,1.1904761904761905,-325.0,-325.0,-325.0,-325.0,-325.0,-321.8253968253968
-28.49206349206349,-22.46031746031746,-2.9365079365079363,-8.809523809523808,-25.158730158730158,-6.26984126984127,7.3809523809523805,-10.873015873015872,-11.666666666666666,-325.0,-48.96825396825397,-3.73015873015873,3.253968253968254,-24.84126984126984,3.73015873015873,193.25396825396825,-3.73015873015873,1.1904761904761905,-325.0,-325.0,-325.0,-325.0,-325.0,-321.8253968253968
-26.26984126984127,-17.063492063492063,3.253968253968254,6.26984126984127,-19.444444444444443,12.777777777777777,17.698412698412696,15.317460317460316,7.857142857142857,-325.0,-115.95238095238095,4.2063492063492065,1.6666666666666665,-16.587301587301585,7.857142857142857,222.61904761904762,-3.571428571428571,0.873015873015873,-325.0,-325.0,-325.0,-325.0,-325.0,-321.8253968253968
-26.26984126984127,-17.063492063492063,3.253968253968254,6.26984126984127,-19.444444444444443,12.777777777777777,17.698412698412696,15.317460317460316,7.857142857142857,-325.0,-115.95238095238095,4.2063492063492065,1.6666666666666665,-16.587301587301585,7.857142857142857,222.61904761904762,-3.571428571428571,0.873015873015873,-325.0,-325.0,-325.0,-325.0,-325.0,-321.8253968253968
-29.76190476190476,-10.238095238095237,-6.26984126984127,-3.253968253968254,-21.507936507936506,8.492063492063492,8.65079365079365,11.666666666666666,-0.873015873015873,-325.0,-118.65079365079364,5.158730158730158,-1.0317460317460316,-15.0,1.0317460317460316,209.60317460317458,-2.7777777777777777,1.349206349206349,-325.0,-325.0,-325.0,-325.0,-325.0,-321.8253968253968
-29.76190476190476,-10.238095238095237,-6.26984126984127,-3.253968253968254,-21.507936507936506,8.492063492063492,8.65079365079365,11.666666666666666,-0.873015873015873,-325.0,-118.65079365079364,5.158730158730158,-1.0317460317460316,-15.0,1.0317460317460316,209.60317460317458,-2.7777777777777777,1.349206349206349,-325.0,-325.0,-325.0,-325.0,-325.0,-321.8253968253968
-22.3015873015873,-15.317460317460316,1.8253968253968254,-2.7777777777777777,-21.19047619047619,5.476190476190476,4.2063492063492065,-1.6666666666666665,-0.07936507936507936,-325.0,-11.507936507936508,2.9365079365079363,1.6666666666666665,-18.49206349206349,0.873015873015873,181.984126984127,-2.9365079365079363,1.0317460317460316,-325.0,-325.0,-325.0,-325.0,-325.0,-7.5396825396825395
-22.3015873015873,-15.317460317460316,1.8253968253968254,-2.7777777777777777,-21.19047619047619,5.476190476190476,4.2063492063492065,-1.6666666666666665,-0.07936507936507936,-325.0,-11.507936507936508,2.9365079365079363,1.6666666666666665,-18.49206349206349,0.873015873015873,181.984126984127,-2.9365079365079363,1.0317460317460316,-325.0,-325.0,-325.0,-325.0,-325.0,-7.5396825396825395
-43.095238095238095,-25.476190476190474,-13.253968253968253,-8.809523809523808,-29.920634920634917,-12.777777777777777,-1.507936507936508,-14.84126984126984,-11.349206349206348,-325.0,-5.158730158730158,-2.7777777777777777,-4.523809523809524,-33.095238095238095,-4.0476190476190474,165.0,-3.4126984126984126,0.7142857142857142,-325.0,-325.0,-325.0,-325.0,-325.0,-7.5396825396825395
-43.095238095238095,-25.476190476190474,-13.253968253968253,-8.809523809523808,-29.920634920634917,-12.777777777777777,-1.507936507936508,-14.84126984126984,-11.349206349206348,-325.0,-5.158730158730158,-2.7777777777777777,-4.523809523809524,-33.095238095238095,-4.0476190476190474,165.0,-3.4126984126984126,0.7142857142857142,-325.0,-325.0,-325.0,-325.0,-325.0,-7.5396825396825395
-54.047619047619044,-31.825396825396822,-5.7936507936507935,2.7777777777777777,-24.68253968253968,-9.761904761904761,-0.07936507936507936,-11.031746031746032,-15.95238095238095,-325.0,-34.682539682539684,-2.9365079365079363,-5.7936507936507935,-35.63492063492063,-5.952380952380952,163.73015873015873,-2.7777777777777777,0.3968253968253968,-325.0,-325.0,-325.0,-325.0,-325.0,-7.5396825396825395
-54.047619047619044,-31.825396825396822,-5.7936507936507935,2.7777777777777777,-24.68253968253968,-9.761904761904761,-0.07936507936507936,-11.031746031746032,-15.95238095238095,-325.0,-34.682539682539684,-2.9365079365079363,-5.7936507936507935,-35.63492063492063,-5.952380952380952,163.73015873015873,-2.7777777777777777,0.3968253968253968,-325.0,-325.0,-325.0,-325.0,-325.0,-7.5396825396825395
-116.74603174603173,-80.87301587301587,-31.19047619047619,-17.698412698412696,-28.65079365079365,-25.317460317460316,-0.3968253968253968,-15.634920634920634,-14.84126984126984,-325.0,-30.238095238095237,-12.46031746031746,-9.920634920634921,-38.80952380952381,-5.317460317460317,134.84126984126982,-3.095238095238095,1.0317460317460316,-325.0,-325.0,-325.0,-325.0,-325.0,-7.5396825396825395
-116.74603174603173,-80.87301587301587,-31.19047619047619,-17.698412698412696,-28.65079365079365,-25.317460317460316,-0.3968253968253968,-15.634920634920634,-14.84126984126984,-325.0,-30.238095238095237,-12.46031746031746,-9.920634920634921,-38.80952380952381,-5.317460317460317,134.84126984126982,-3.095238095238095,1.0317460317460316,-325.0,-325.0,-325.0,-325.0,-325.0,-7.5396825396825395
-139.76190476190476,-124.2063492063492,-55.0,-37.53968253968254,-21.507936507936506,-31.825396825396822,-0.3968253968253968,-22.3015873015873,-9.761904761904761,-320.7142857142857,-8.174603174603174,-17.539682539682538,-12.936507936507935,-41.19047619047619,-7.222222222222221,113.25396825396825,-3.095238095238095,0.873015873015873,-325.0,-325.0,-325.0,-325.0,-325.0,-7.5396825396825395
-139.76190476190476,-124.2063492063492,-55.0,-37.53968253968254,-21.507936507936506,-31.825396825396822,-0.3968253968253968,-22.3015873015873,-9.761904761904761,-320.7142857142857,-8.174603174603174,-17.539682539682538,-12.936507936507935,-41.19047619047619,-7.222222222222221,113.25396825396825,-3.095238095238095,0.873015873015873,-325.0,-325.0,-325.0,-325.0,-325.0,-7.5396825396825395
-148.33333333333331,-108.33333333333333,-43.888888888888886,-28.96825396825397,-28.174603174603174,-27.22222222222222,-9.920634920634921,-27.539682539682538,-19.285714285714285,-306.26984126984127,0.07936507936507936,-6.587301587301587,-17.063492063492063,-35.63492063492063,-19.285714285714285,94.2063492063492,-2.9365079365079363,1.349206349206349,-325.0,-325.0,-325.0,-325.0,-325.0,-321.8253968253968
-148.33333333333331,-108.33333333333333,-43.888888888888886,-28.96825396825397,-28.174603174603174,-27.22222222222222,-9.920634920634921,-27.539682539682538,-19.285714285714285,-306.26984126984127,0.07936507936507936,-6.587301587301587,-17.063492063492063,-35.63492063492063,-19.285714285714285,94.2063492063492,-2.9365079365079363,1.349206349206349,-325.0,-325.0,-325.0,-325.0,-325.0,-321.8253968253968
-115.63492063492063,-105.47619047619047,-34.52380952380952,-30.396825396825395,-51.507936507936506,-33.095238095238095,-0.873015873015873,-23.88888888888889,-15.158730158730158,-291.8253968253968,-76.26984126984127,-3.253968253968254,-15.317460317460316,-34.52380952380952,-11.349206349206348,100.55555555555554,-2.9365079365079363,1.1904761904761905,-325.0,-325.0,-325.0,-325.0,-325.0,-321.8253968253968
-115.63492063492063,-105.47619047619047,-34.52380952380952,-30.396825396825395,-51.507936507936506,-33.095238095238095,-0.873015873015873,-23.88888888888889,-15.158730158730158,-291.8253968253968,-76.26984126984127,-3.253968253968254,-15.317460317460316,-34.52380952380952,-11.349206349206348,100.55555555555554,-2.9365079365079363,1.1904761904761905,-325.0,-325.0,-325.0,-325.0,-325.0,-321.8253968253968
-86.1111111111111,-86.1111111111111,-26.26984126984127,-15.158730158730158,-68.65079365079364,-12.46031746031746,-7.5396825396825395,-19.126984126984127,-24.047619047619047,-277.22222222222223,-54.68253968253968,3.73015873015873,-13.571428571428571,-27.063492063492063,-18.015873015873016,129.76190476190476,-3.095238095238095,0.873015873015873,-325.0,-325.0,-325.0,-325.0,-325.0,-321.8253968253968
-86.1111111111111,-86.1111111111111,-26.26984126984127,-15.158730158730158,-68.65079365079364,-12.46031746031746,-7.5396825396825395,-19.126984126984127,-24.047619047619047,-277.22222222222223,-54.68253968253968,3.73015873015873,-13.571428571428571,-27.063492063492063,-18.015873015873016,129.76190476190476,-3.095238095238095,0.873015873015873,-325.0,-325.0,-325.0,-325.0,-325.0,-321.8253968253968
-43.888888888888886,-69.92063492063491,-12.46031746031746,-11.19047619047619,-54.52380952380952,0.5555555555555556,-8.492063492063492,-24.84126984126984,-18.49206349206349,-263.4126984126984,14.047619047619047,5.0,-11.19047619047619,-22.619047619047617,-13.095238095238095,120.71428571428571,-3.253968253968254,0.5555555555555556,-325.0,-325.0,-325.0,-325.0,-325.0,-321.8253968253968
-43.888888888888886,-69.92063492063491,-12.46031746031746,-11.19047619047619,-54.52380952380952,0.5555555555555556,-8.492063492063492,-24.84126984126984,-18.49206349206349,-263.4126984126984,14.047619047619047,5.0,-11.19047619047619,-22.619047619047617,-13.095238095238095,120.71428571428571,-3.253968253968254,0.5555555555555556,-325.0,-325.0,-325.0,-325.0,-325.0,-321.8253968253968
-35.15873015873016,-65.79365079365078,-1.0317460317460316,0.3968253968253968,-46.269841269841265,-2.619047619047619,-3.571428571428571,-14.047619047619047,-4.0476190476190474,-249.9206349206349,14.206349206349206,2.9365079365079363,-9.285714285714285,-19.76190476190476,-8.65079365079365,63.25396825396825,-3.571428571428571,0.7142857142857142,-325.0,-325.0,-325.0,-325.0,-325.0,-321.8253968253968
-35.15873015873016,-65.79365079365078,-1.0317460317460316,0.3968253968253968,-46.269841269841265,-2.619047619047619,-3.571428571428571,-14.047619047619047,-4.0476190476190474,-249.9206349206349,14.206349206349206,2.9365079365079363,-9.285714285714285,-19.76190476190476,-8.65079365079365,63.25396825396825,-3.571428571428571,0.7142857142857142,-325.0,-325.0,-325.0,-325.0,-325.0,-321.8253968253968
-19.92063492063492,-58.49206349206349,10.238095238095237,5.0,-19.6031746031746,-2.3015873015873014,-0.07936507936507936,-14.523809523809524,-17.698412698412696,-236.9047619047619,26.9047619047619,5.7936507936507935,-0.873015873015873,-14.047619047619047,-11.666666666666666,28.333333333333332,-3.4126984126984126,0.3968253968253968,-325.0,-325.0,-325.0,-325.0,-325.0,-7.5396825396825395
-19.92063492063492,-58.49206349206349,10.238095238095237,5.0,-19.6031746031746,-2.3015873015873014,-0.07936507936507936,-14.523809523809524,-17.698412698412696,-236.9047619047619,26.9047619047619,5.7936507936507935,-0.873015873015873,-14.047619047619047,-11.666666666666666,28.333333333333332,-3.4126984126984126,0.3968253968253968,-325.0,-325.0,-325.0,-325.0,-325.0,-7.5396825396825395
-19.444444444444443,-31.666666666666664,-5.158730158730158,17.38095238095238,-18.49206349206349,22.619047619047617,0.23809523809523808,11.031746031746032,-8.492063492063492,-224.2063492063492,14.206349206349206,18.65079365079365,-3.253968253968254,2.9365079365079363,-6.428571428571428,47.06349206349206,-3.253968253968254,0.3968253968253968,-325.0,-325.0,-325.0,-325.0,-325.0,-7.5396825396825395
-19.444444444444443,-31.666666666666664,-5.158730158730158,17.38095238095238,-18.49206349206349,22.619047619047617,0.23809523809523808,11.031746031746032,-8.492063492063492,-224.2063492063492,14.206349206349206,18.65079365079365,-3.253968253968254,2.9365079365079363,-6.428571428571428,47.06349206349206,-3.253968253968254,0.3968253968253968,-325.0,-325.0,-325.0,-325.0,-325.0,-7.5396825396825395
-19.92063492063492,-31.666666666666664,1.984126984126984,20.07936507936508,-9.761904761904761,11.031746031746032,-0.7142857142857142,2.7777777777777777,-1.0317460317460316,-211.98412698412696,7.222222222222221,19.444444444444443,-2.9365079365079363,-1.0317460317460316,-3.095238095238095,47.53968253968254,-2.9365079365079363,0.5555555555555556,-325.0,-325.0,-325.0,-325.0,-325.0,-7.5396825396825395
-19.92063492063492,-31.666666666666664,1.984126984126984,20.07936507936508,-9.761904761904761,11.031746031746032,-0.7142857142857142,2.7777777777777777,-1.0317460317460316,-211.98412698412696,7.222222222222221,19.444444444444443,-2.9365079365079363,-1.0317460317460316,-3.095238095238095,47.53968253968254,-2.9365079365079363,0.5555555555555556,-325.0,-325.0,-325.0,-325.0,-325.0,-7.5396825396825395
-18.65079365079365,-34.84126984126984,11.984126984126984,20.07936507936508,-7.063492063492063,17.698412698412696,3.888888888888889,-2.142857142857143,-3.571428571428571,-200.23809523809524,27.857142857142854,17.063492063492063,-1.0317460317460316,-11.19047619047619,-1.6666666666666665,35.317460317460316,-3.253968253968254,0.3968253968253968,-325.0,-325.0,-325.0,-325.0,-325.0,-7.5396825396825395
-18.65079365079365,-34.84126984126984,11.984126984126984,20.07936507936508,-7.063492063492063,17.698412698412696,3.888888888888889,-2.142857142857143,-3.571428571428571,-200.23809523809524,27.857142857142854,17.063492063492063,-1.0317460317460316,-11.19047619047619,-1.6666666666666665,35.317460317460316,-3.253968253968254,0.3968253968253968,-325.0,-325.0,-325.0,-325.0,-325.0,-7.5396825396825395
-45.95238095238095,-45.317460317460316,3.095238095238095,7.063492063492063,-25.634920634920633,20.396825396825395,-0.3968253968253968,-3.571428571428571,-8.174603174603174,-188.33333333333331,17.22222222222222,11.666666666666666,-4.523809523809524,-16.587301587301585,-5.476190476190476,15.317460317460316,-2.46031746031746,0.7142857142857142,-325.0,-325.0,-325.0,-325.0,-325.0,-7.5396825396825395
-45.95238095238095,-45.317460317460316,3.095238095238095,7.063492063492063,-25.634920634920633,20.396825396825395,-0.3968253968253968,-3.571428571428571,-8.174603174603174,-188.33333333333331,17.22222222222222,11.666666666666666,-4.523809523809524,-16.587301587301585,-5.476190476190476,15.317460317460316,-2.46031746031746,0.7142857142857142,-325.0,-325.0,-325.0,-325.0,-325.0,-7.5396825396825395
-58.33333333333333,-45.95238095238095,3.73015873015873,15.158730158730158,-13.73015873015873,20.555555555555554,5.634920634920634,-2.7777777777777777,-10.873015873015872,-177.53968253968253,-18.96825396825397,12.936507936507935,-1.984126984126984,-17.22222222222222,-8.015873015873016,1.6666666666666665,-2.3015873015873014,0.5555555555555556,-325.0,-325.0,-325.0,-325.0,-325.0,-321.8253968253968
-58.33333333333333,-45.95238095238095,3.73015873015873,15.158730158730158,-13.73015873015873,20.555555555555554,5.634920634920634,-2.7777777777777777,-10.873015873015872,-177.53968253968253,-18.96825396825397,12.936507936507935,-1.984126984126984,-17.22222222222222,-8.015873015873016,1.6666666666666665,-2.3015873015873014,0.5555555555555556,-325.0,-325.0,-325.0,-325.0,-325.0,-321.8253968253968
-40.39682539682539,-37.22222222222222,10.555555555555555,19.126984126984127,-8.333333333333332,21.19047619047619,5.317460317460317,-3.095238095238095,-7.5396825396825395,-167.06349206349205,-41.82539682539682,12.46031746031746,-1.349206349206349,-17.539682539682538,-8.809523809523808,-8.174603174603174,-2.619047619047619,1.1904761904761905,-325.0,-325.0,-325.0,-325.0,-325.0,-321.8253968253968
-40.39682539682539,-37.22222222222222,10.555555555555555,19.126984126984127,-8.333333333333332,21.19047619047619,5.317460317460317,-3.095238095238095,-7.5396825396825395,-167.06349206349205,-41.82539682539682,12.46031746031746,-1.349206349206349,-17.539682539682538,-8.809523809523808,-8.174603174603174,-2.619047619047619,1.1904761904761905,-325.0,-325.0,-325.0,-325.0,-325.0,-321.8253968253968
-41.507936507936506,-27.539682539682538,4.523809523809524,21.507936507936506,-3.73015873015873,21.984126984126984,2.3015873015873014,0.7142857142857142,-15.95238095238095,-157.38095238095238,-11.666666666666666,13.888888888888888,0.873015873015873,-15.158730158730158,-11.19047619047619,-31.825396825396822,-3.253968253968254,0.23809523809523808,-325.0,-325.0,-325.0,-325.0,-325.0,-321.8253968253968
-41.507936507936506,-27.539682539682538,4.523809523809524,21.507936507936506,-3.73015873015873,21.984126984126984,2.3015873015873014,0.7142857142857142,-15.95238095238095,-157.38095238095238,-11.666666666666666,13.888888888888888,0.873015873015873,-15.158730158730158,-11.19047619047619,-31.825396825396822,-3.253968253968254,0.23809523809523808,-325.0,-325.0,-325.0,-325.0,-325.0,-321.8253968253968
-34.2063492063492,-11.507936507936508,9.603174603174603,23.57142857142857,1.1904761904761905,13.73015873015873,0.23809523809523808,0.7142857142857142,-15.634920634920634,-147.69841269841268,-1.6666666666666665,16.746031746031743,0.3968253968253968,-11.825396825396824,-12.46031746031746,-32.77777777777778,-3.253968253968254,1.1904761904761905,-325.0,-325.0,-325.0,-325.0,-325.0,-321.8253968253968
-34.2063492063492,-11.507936507936508,9.603174603174603,23.57142857142857,1.1904761904761905,13.73015873015873,0.23809523809523808,0.7142857142857142,-15.634920634920634,-147.69841269841268,-1.6666666666666665,16.746031746031743,0.3968253968253968,-11.825396825396824,-12.46031746031746,-32.77777777777778,-3.253968253968254,1.1904761904761905,-325.0,-325.0,-325.0,-325.0,-325.0,-321.8253968253968
-2.7777777777777777,2.9365079365079363,21.19047619047619,32.93650793650794,14.523809523809524,25.158730158730158,4.365079365079365,1.1904761904761905,-17.539682539682538,-138.96825396825395,16.11111111111111,23.095238095238095,8.809523809523808,-3.73015873015873,-7.063492063492063,-35.15873015873016,-2.7777777777777777,0.7142857142857142,-325.0,-325.0,-325.0,-325.0,-325.0,-321.8253968253968
-2.7777777777777777,2.9365079365079363,21.19047619047619,32.93650793650794,14.523809523809524,25.158730158730158,4.365079365079365,1.1904761904761905,-17.539682539682538,-138.96825396825395,16.11111111111111,23.095238095238095,8.809523809523808,-3.73015873015873,-7.063492063492063,-35.15873015873016,-2.7777777777777777,0.7142857142857142,-325.0,-325.0,-325.0,-325.0,-325.0,-321.8253968253968
-16.746031746031743,15.793650793650793,13.095238095238095,33.73015873015873,10.873015873015872,35.79365079365079,2.619047619047619,24.523809523809522,-15.95238095238095,-130.07936507936506,-14.84126984126984,28.174603174603174,3.888888888888889,9.444444444444445,-15.0,-38.33333333333333,-3.253968253968254,0.3968253968253968,-325.0,-325.0,-325.0,-325.0,-325.0,-7.5396825396825395
-16.746031746031743,15.793650793650793,13.095238095238095,33.73015873015873,10.873015873015872,35.79365079365079,2.619047619047619,24.523809523809522,-15.95238095238095,-130.07936507936506,-14.84126984126984,28.174603174603174,3.888888888888889,9.444444444444445,-15.0,-38.33333333333333,-3.253968253968254,0.3968253968253968,-325.0,-325.0,-325.0,-325.0,-325.0,-7.5396825396825395
0.07936507936507936,21.507936507936506,13.253968253968253,28.809523809523807,14.523809523809524,29.920634920634917,3.888888888888889,22.142857142857142,-3.888888888888889,-122.46031746031746,-41.507936507936506,22.777777777777775,2.9365079365079363,11.666666666666666,-8.492063492063492,-22.142857142857142,-2.7777777777777777,1.0317460317460316,-325.0,-325.0,-325.0,-325.0,-325.0,-7.5396825396825395
0.07936507936507936,21.507936507936506,13.253968253968253,28.809523809523807,14.523809523809524,29.920634920634917,3.888888888888889,22.142857142857142,-3.888888888888889,-122.46031746031746,-41.507936507936506,22.777777777777775,2.9365079365079363,11.666666666666666,-8.492063492063492,-22.142857142857142,-2.7777777777777777,1.0317460317460316,-325.0,-325.0,-325.0,-325.0,-325.0,-7.5396825396825395
5.158730158730158,32.93650793650794,13.571428571428571,36.904761904761905,16.11111111111111,32.460317460317455,2.46031746031746,20.873015873015873,-1.1904761904761905,-114.84126984126983,-31.666666666666664,27.38095238095238,5.158730158730158,14.523809523809524,-7.063492063492063,-16.587301587301585,-2.9365079365079363,1.0317460317460316,-325.0,-325.0,-325.0,-325.0,-325.0,-7.5396825396825395
5.158730158730158,32.93650793650794,13.571428571428571,36.904761904761905,16.11111111111111,32.460317460317455,2.46031746031746,20.873015873015873,-1.1904761904761905,-114.84126984126983,-31.666666666666664,27.38095238095238,5.158730158730158,14.523809523809524,-7.063492063492063,-16.587301587301585,-2.9365079365079363,1.0317460317460316,-325.0,-325.0,-325.0,-325.0,-325.0,-7.5396825396825395
0.5555555555555556,26.11111111111111,6.111111111111111,29.76190476190476,18.80952380952381,29.920634920634917,11.031746031746032,22.936507936507937,4.523809523809524,-107.6984126984127,-86.9047619047619,22.46031746031746,3.73015873015873,8.333333333333332,-1.8253968253968254,-29.76190476190476,-2.46031746031746,0.7142857142857142,-325.0,-325.0,-325.0,-325.0,-325.0,-7.5396825396825395
0.5555555555555556,26.11111111111111,6.111111111111111,29.76190476190476,18.80952380952381,29.920634920634917,11.031746031746032,22.936507936507937,4.523809523809524,-107.6984126984127,-86.9047619047619,22.46031746031746,3.73015873015873,8.333333333333332,-1.8253968253968254,-29.76190476190476,-2.46031746031746,0.7142857142857142,-325.0,-325.0,-325.0,-325.0,-325.0,-7.5396825396825395
-19.126984126984127,18.333333333333332,6.904761904761904,28.809523809523807,20.07936507936508,40.87301587301587,11.984126984126984,19.126984126984127,-0.07936507936507936,-100.87301587301587,-97.85714285714285,21.507936507936506,0.23809523809523808,0.23809523809523808,-2.619047619047619,-35.317460317460316,-2.7777777777777777,0.7142857142857142,-325.0,-325.0,-325.0,-325.0,-325.0,-7.5396825396825395
-19.126984126984127,18.333333333333332,6.904761904761904,28.809523809523807,20.07936507936508,40.87301587301587,11.984126984126984,19.126984126984127,-0.07936507936507936,-100.87301587301587,-97.85714285714285,21.507936507936506,0.23809523809523808,0.23809523809523808,-2.619047619047619,-35.317460317460316,-2.7777777777777777,0.7142857142857142,-325.0,-325.0,-325.0,-325.0,-325.0,-7.5396825396825395
-22.46031746031746,22.619047619047617,-2.619047619047619,22.46031746031746,6.904761904761904,30.238095238095237,5.634920634920634,20.555555555555554,-6.904761904761904,-94.2063492063492,-104.52380952380952,31.507936507936506,-1.349206349206349,6.111111111111111,-7.063492063492063,-23.253968253968253,-2.46031746031746,0.5555555555555556,-325.0,-325.0,-325.0,-325.0,-325.0,-321.8253968253968
-22.46031746031746,22.619047619047617,-2.619047619047619,22.46031746031746,6.904761904761904,30.238095238095237,5.634920634920634,20.555555555555554,-6.904761904761904,-94.2063492063492,-104.52380952380952,31.507936507936506,-1.349206349206349,6.111111111111111,-7.063492063492063,-23.253968253968253,-2.46031746031746,0.5555555555555556,-325.0,-325.0,-325.0,-325.0,-325.0,-321.8253968253968
-8.492063492063492,44.52380952380952,8.65079365079365,28.49206349206349,11.507936507936508,29.285714285714285,-1.984126984126984,10.555555555555555,-10.873015873015872,-88.33333333333333,-33.57142857142857,36.74603174603175,1.6666666666666665,6.904761904761904,-15.95238095238095,-38.65079365079365,-2.46031746031746,0.5555555555555556,-325.0,-325.0,-325.0,-325.0,-325.0,-321.8253968253968
-8.492063492063492,44.52380952380952,8.65079365079365,28.49206349206349,11.507936507936508,29.285714285714285,-1.984126984126984,10.555555555555555,-10.873015873015872,-88.33333333333333,-33.57142857142857,36.74603174603175,1.6666666666666665,6.904761904761904,-15.95238095238095,-38.65079365079365,-2.46031746031746,0.5555555555555556,-325.0,-325.0,-325.0,-325.0,-325.0,-321.8253968253968
26.746031746031743,61.34920634920635,30.396825396825395,48.80952380952381,29.76190476190476,61.666666666666664,24.365079365079364,34.047619047619044,6.587301587301587,-81.98412698412697,40.714285714285715,35.476190476190474,11.984126984126984,13.412698412698411,-0.07936507936507936,-10.079365079365079,-3.253968253968254,0.07936507936507936,-325.0,-325.0,-325.0,-325.0,-325.0,-321.8253968253968
26.746031746031743,61.34920634920635,30.396825396825395,48.80952380952381,29.76190476190476,61.666666666666664,24.365079365079364,34.047619047619044,6.587301587301587,-81.98412698412697,40.714285714285715,35.476190476190474,11.984126984126984,13.412698412698411,-0.07936507936507936,-10.079365079365079,-3.253968253968254,0.07936507936507936,-325.0,-325.0,-325.0,-325.0,-325.0,-321.8253968253968
60.55555555555555,91.03174603174602,39.76190476190476,56.74603174603174,38.33333333333333,72.61904761904762,22.936507936507937,42.14285714285714,2.9365079365079363,-76.9047619047619,115.31746031746032,38.33333333333333,13.253968253968253,18.174603174603174,1.349206349206349,28.015873015873016,-3.095238095238095,-0.5555555555555556,-325.0,-325.0,-325.0,-325.0,-325.0,-321.8253968253968
60.55555555555555,91.03174603174602,39.76190476190476,56.74603174603174,38.33333333333333,72.61904761904762,22.936507936507937,42.14285714285714,2.9365079365079363,-76.9047619047619,115.31746031746032,38.33333333333333,13.253968253968253,18.174603174603174,1.349206349206349,28.015873015873016,-3.095238095238095,-0.5555555555555556,-325.0,-325.0,-325.0,-325.0,-325.0,-321.8253968253968
78.01587301587301,96.42857142857142,40.39682539682539,51.507936507936506,24.84126984126984,56.42857142857142,8.333333333333332,31.349206349206348,-6.111111111111111,-72.14285714285714,142.14285714285714,31.19047619047619,11.507936507936508,16.904761904761905,-2.9365079365079363,57.06349206349206,-2.3015873015873014,-0.07936507936507936,-325.0,-325.0,-325.0,-325.0,-325.0,-321.8253968253968
78.01587301587301,96.42857142857142,40.39682539682539,51.507936507936506,24.84126984126984,56.42857142857142,8.333333333333332,31.349206349206348,-6.111111111111111,-72.14285714285714,142.14285714285714,31.19047619047619,11.507936507936508,16.904761904761905,-2.9365079365079363,57.06349206349206,-2.3015873015873014,-0.07936507936507936,-325.0,-325.0,-325.0,-325.0,-325.0,-321.8253968253968
91.98412698412697,101.5079365079365,49.285714285714285,58.650793650793645,24.68253968253968,60.873015873015866,28.174603174603174,40.39682539682539,13.253968253968253,-67.38095238095238,239.76190476190476,36.269841269841265,18.96825396825397,24.523809523809522,10.396825396825395,89.92063492063491,-1.6666666666666665,0.07936507936507936,-325.0,-325.0,-325.0,-325.0,-325.0,-7.5396825396825395
91.98412698412697,101.5079365079365,49.285714285714285,58.650793650793645,24.68253968253968,60.873015873015866,28.174603174603174,40.39682539682539,13.253968253968253,-67.38095238095238,239.76190476190476,36.269841269841265,18.96825396825397,24.523809523809522,10.396825396825395,89.92063492063491,-1.6666666666666665,0.07936507936507936,-325.0,-325.0,-325.0,-325.0,-325.0,-7.5396825396825395
86.58730158730158,92.77777777777777,41.98412698412698,57.38095238095238,0.07936507936507936,48.01587301587301,18.65079365079365,39.285714285714285,5.317460317460317,-62.3015873015873,251.19047619047618,35.15873015873016,16.428571428571427,27.857142857142854,4.841269841269841,94.68253968253968,-1.8253968253968254,0.23809523809523808,-325.0,-325.0,-325.0,-325.0,-325.0,-7.5396825396825395
86.58730158730158,92.77777777777777,41.98412698412698,57.38095238095238,0.07936507936507936,48.01587301587301,18.65079365079365,39.285714285714285,5.317460317460317,-62.3015873015873,251.19047619047618,35.15873015873016,16.428571428571427,27.857142857142854,4.841269841269841,94.68253968253968,-1.8253968253968254,0.23809523809523808,-325.0,-325.0,-325.0,-325.0,-325.0,-7.5396825396825395
82.3015873015873,82.3015873015873,34.36507936507936,37.22222222222222,-3.73015873015873,34.047619047619044,3.253968253968254,26.26984126984127,-7.857142857142857,-58.33333333333333,282.46031746031747,26.11111111111111,15.634920634920634,23.41269841269841,-0.7142857142857142,56.42857142857142,-2.3015873015873014,0.23809523809523808,-325.0,-325.0,-325.0,-325.0,-325.0,-7.5396825396825395
82.3015873015873,82.3015873015873,34.36507936507936,37.22222222222222,-3.73015873015873,34.047619047619044,3.253968253968254,26.26984126984127,-7.857142857142857,-58.33333333333333,282.46031746031747,26.11111111111111,15.634920634920634,23.41269841269841,-0.7142857142857142,56.42857142857142,-2.3015873015873014,0.23809523809523808,-325.0,-325.0,-325.0,-325.0,-325.0,-7.5396825396825395
82.14285714285714,71.82539682539682,27.38095238095238,24.68253968253968,4.841269841269841,30.07936507936508,6.428571428571428,20.71428571428571,-8.809523809523808,-54.2063492063492,283.4126984126984,24.68253968253968,17.063492063492063,23.730158730158728,3.888888888888889,52.460317460317455,-2.3015873015873014,0.3968253968253968,-325.0,-325.0,-325.0,-325.0,-325.0,-7.5396825396825395
82.14285714285714,71.82539682539682,27.38095238095238,24.68253968253968,4.841269841269841,30.07936507936508,6.428571428571428,20.71428571428571,-8.809523809523808,-54.2063492063492,283.4126984126984,24.68253968253968,17.063492063492063,23.730158730158728,3.888888888888889,52.460317460317455,-2.3015873015873014,0.3968253968253968,-325.0,-325.0,-325.0,-325.0,-325.0,-7.5396825396825395
75.95238095238095,70.55555555555556,12.619047619047619,13.73015873015873,6.587301587301587,18.65079365079365,4.2063492063492065,21.666666666666664,-0.3968253968253968,-49.92063492063492,312.77777777777777,16.904761904761905,12.619047619047619,22.142857142857142,6.26984126984127,68.17460317460318,-2.46031746031746,0.23809523809523808,-325.0,-325.0,-325.0,-325.0,-325.0,-7.5396825396825395
75.95238095238095,70.55555555555556,12.619047619047619,13.73015873015873,6.587301587301587,18.65079365079365,4.2063492063492065,21.666666666666664,-0.3968253968253968,-49.92063492063492,312.77777777777777,16.904761904761905,12.619047619047619,22.142857142857142,6.26984126984127,68.17460317460318,-2.46031746031746,0.23809523809523808,-325.0,-325.0,-325.0,-325.0,-325.0,-7.5396825396825395
81.5079365079365,60.55555555555555,15.476190476190474,13.412698412698411,6.746031746031746,21.349206349206348,-3.253968253968254,12.3015873015873,0.07936507936507936,-45.79365079365079,314.04761904761904,10.714285714285714,8.65079365079365,15.158730158730158,-2.142857142857143,29.76190476190476,-2.142857142857143,1.0317460317460316,-325.0,-325.0,-325.0,-325.0,-325.0,-321.8253968253968
81.5079365079365,60.55555555555555,15.476190476190474,13.412698412698411,6.746031746031746,21.349206349206348,-3.253968253968254,12.3015873015873,0.07936507936507936,-45.79365079365079,314.04761904761904,10.714285714285714,8.65079365079365,15.158730158730158,-2.142857142857143,29.76190476190476,-2.142857142857143,1.0317460317460316,-325.0,-325.0,-325.0,-325.0,-325.0,-321.8253968253968
73.09523809523809,50.39682539682539,5.634920634920634,1.507936507936508,10.238095238095237,4.365079365079365,-5.7936507936507935,-2.142857142857143,-1.984126984126984,188.65079365079364,296.4285714285714,2.619047619047619,5.634920634920634,11.825396825396824,-0.5555555555555556,3.253968253968254,-1.6666666666666665,1.349206349206349,-325.0,-325.0,-325.0,-325.0,-325.0,-321.8253968253968
73.09523809523809,50.39682539682539,5.634920634920634,1.507936507936508,10.238095238095237,4.365079365079365,-5.7936507936507935,-2.142857142857143,-1.984126984126984,188.65079365079364,296.4285714285714,2.619047619047619,5.634920634920634,11.825396825396824,-0.5555555555555556,3.253968253968254,-1.6666666666666665,1.349206349206349,-325.0,-325.0,-325.0,-325.0,-325.0,-321.8253968253968
78.33333333333333,47.53968253968254,2.7777777777777777,-3.4126984126984126,7.063492063492063,-2.142857142857143,-10.238095238095237,-9.444444444444445,5.317460317460317,325.0,245.15873015873015,-3.253968253968254,4.523809523809524,10.238095238095237,1.8253968253968254,-46.904761904761905,-1.6666666666666665,0.873015873015873,-325.0,-325.0,-325.0,-325.0,-325.0,-321.8253968253968
78.33333333333333,47.53968253968254,2.7777777777777777,-3.4126984126984126,7.063492063492063,-2.142857142857143,-10.238095238095237,-9.444444444444445,5.317460317460317,325.0,245.15873015873015,-3.253968253968254,4.523809523809524,10.238095238095237,1.8253968253968254,-46.904761904761905,-1.6666666666666665,0.873015873015873,-325.0,-325.0,-325.0,-325.0,-325.0,-321.8253968253968
81.03174603174602,54.52380952380952,5.952380952380952,-2.46031746031746,-0.873015873015873,6.746031746031746,-7.222222222222221,-5.634920634920634,11.507936507936508,325.0,116.1111111111111,-2.142857142857143,6.904761904761904,15.793650793650793,5.634920634920634,-61.34920634920635,-2.3015873015873014,0.23809523809523808,-325.0,-325.0,-325.0,-325.0,-325.0,-321.8253968253968
81.03174603174602,54.52380952380952,5.952380952380952,-2.46031746031746,-0.873015873015873,6.746031746031746,-7.222222222222221,-5.634920634920634,11.507936507936508,325.0,116.1111111111111,-2.142857142857143,6.904761904761904,15.793650793650793,5.634920634920634,-61.34920634920635,-2.3015873015873014,0.23809523809523808,-325.0,-325.0,-325.0,-325.0,-325.0,-321.8253968253968
81.98412698412697,51.82539682539682,-2.619047619047619,-1.507936507936508,-19.76190476190476,13.73015873015873,-8.968253968253968,3.253968253968254,11.19047619047619,325.0,19.126984126984127,1.8253968253968254,2.3015873015873014,28.333333333333332,7.063492063492063,-35.15873015873016,-2.7777777777777777,0.7142857142857142,-325.0,-325.0,-325.0,-325.0,-325.0,-321.8253968253968
81.98412698412697,51.82539682539682,-2.619047619047619,-1.507936507936508,-19.76190476190476,13.73015873015873,-8.968253968253968,3.253968253968254,11.19047619047619,325.0,19.126984126984127,1.8253968253968254,2.3015873015873014,28.333333333333332,7.063492063492063,-35.15873015873016,-2.7777777777777777,0.7142857142857142,-325.0,-325.0,-325.0,-325.0,-325.0,-321.8253968253968
81.66666666666666,56.269841269841265,0.7142857142857142,3.253968253968254,-18.80952380952381,21.03174603174603,-6.904761904761904,8.492063492063492,11.507936507936508,325.0,16.746031746031743,1.507936507936508,4.0476190476190474,29.920634920634917,7.698412698412698,-19.6031746031746,-1.984126984126984,0.7142857142857142,-325.0,-325.0,-325.0,-325.0,-325.0,-7.5396825396825395
81.66666666666666,56.269841269841265,0.7142857142857142,3.253968253968254,-18.80952380952381,21.03174603174603,-6.904761904761904,8.492063492063492,11.507936507936508,325.0,16.746031746031743,1.507936507936508,4.0476190476190474,29.920634920634917,7.698412698412698,-19.6031746031746,-1.984126984126984,0.7142857142857142,-325.0,-325.0,-325.0,-325.0,-325.0,-7.5396825396825395
73.57142857142857,46.74603174603175,-7.857142857142857,-15.634920634920634,-27.063492063492063,4.682539682539682,-10.396825396825395,7.5396825396825395,11.349206349206348,325.0,3.253968253968254,-9.603174603174603,1.984126984126984,21.19047619047619,4.841269841269841,-41.98412698412698,-2.46031746031746,0.7142857142857142,-325.0,-325.0,-325.0,-325.0,-325.0,-7.5396825396825395
73.57142857142857,46.74603174603175,-7.857142857142857,-15.634920634920634,-27.063492063492063,4.682539682539682,-10.396825396825395,7.5396825396825395,11.349206349206348,325.0,3.253968253968254,-9.603174603174603,1.984126984126984,21.19047619047619,4.841269841269841,-41.98412698412698,-2.46031746031746,0.7142857142857142,-325.0,-325.0,-325.0,-325.0,-325.0,-7.5396825396825395
76.74603174603175,40.87301587301587,-7.3809523809523805,-11.19047619047619,-35.476190476190474,8.333333333333332,-9.603174603174603,-2.142857142857143,13.571428571428571,325.0,1.0317460317460316,-11.507936507936508,1.1904761904761905,14.84126984126984,8.809523809523808,-82.77777777777777,-1.984126984126984,0.873015873015873,-325.0,-325.0,-325.0,-325.0,-325.0,-7.5396825396825395
76.74603174603175,40.87301587301587,-7.3809523809523805,-11.19047619047619,-35.476190476190474,8.333333333333332,-9.603174603174603,-2.142857142857143,13.571428571428571,325.0,1.0317460317460316,-11.507936507936508,1.1904761904761905,14.84126984126984,8.809523809523808,-82.77777777777777,-1.984126984126984,0.873015873015873,-325.0,-325.0,-325.0,-325.0,-325.0,-7.5396825396825395
77.22222222222221,42.14285714285714,-1.8253968253968254,-6.746031746031746,-33.41269841269841,21.825396825396822,-0.23809523809523808,8.65079365079365,18.174603174603174,325.0,42.14285714285714,-6.746031746031746,1.349206349206349,21.349206349206348,14.206349206349206,-113.57142857142857,-2.46031746031746,1.8253968253968254,-325.0,-325.0,-325.0,-325.0,-325.0,-7.5396825396825395
77.22222222222221,42.14285714285714,-1.8253968253968254,-6.746031746031746,-33.41269841269841,21.825396825396822,-0.23809523809523808,8.65079365079365,18.174603174603174,325.0,42.14285714285714,-6.746031746031746,1.349206349206349,21.349206349206348,14.206349206349206,-113.57142857142857,-2.46031746031746,1.8253968253968254,-325.0,-325.0,-325.0,-325.0,-325.0,-7.5396825396825395
74.52380952380952,48.96825396825397,0.5555555555555556,2.46031746031746,-20.555555555555554,23.253968253968253,-4.841269841269841,11.19047619047619,14.523809523809524,325.0,21.984126984126984,-1.1904761904761905,1.8253968253968254,27.063492063492063,7.857142857142857,-96.42857142857142,-1.984126984126984,1.507936507936508,-325.0,-325.0,-325.0,-325.0,-325.0,-7.5396825396825395
74.52380952380952,48.96825396825397,0.5555555555555556,2.46031746031746,-20.555555555555554,23.253968253968253,-4.841269841269841,11.19047619047619,14.523809523809524,325.0,21.984126984126984,-1.1904761904761905,1.8253968253968254,27.063492063492063,7.857142857142857,-96.42857142857142,-1.984126984126984,1.507936507936508,-325.0,-325.0,-325.0,-325.0,-325.0,-7.5396825396825395
59.76190476190476,42.77777777777778,-11.19047619047619,-2.46031746031746,-5.7936507936507935,26.11111111111111,4.841269841269841,14.365079365079364,20.238095238095237,325.0,-19.6031746031746,-1.1904761904761905,2.3015873015873014,27.22222222222222,11.666666666666666,-63.41269841269841,-2.46031746031746,1.349206349206349,-325.0,-325.0,-325.0,-325.0,-325.0,-321.8253968253968
59.76190476190476,42.77777777777778,-11.19047619047619,-2.46031746031746,-5.7936507936507935,26.11111111111111,4.841269841269841,14.365079365079364,20.238095238095237,325.0,-19.6031746031746,-1.1904761904761905,2.3015873015873014,27.22222222222222,11.666666666666666,-63.41269841269841,-2.46031746031746,1.349206349206349,-325.0,-325.0,-325.0,-325.0,-325.0,-321.8253968253968
50.55555555555555,41.507936507936506,-12.936507936507935,-4.0476190476190474,-5.0,14.682539682539682,-7.3809523809523805,11.349206349206348,15.793650793650793,325.0,8.492063492063492,5.317460317460317,1.0317460317460316,29.126984126984127,10.238095238095237,-53.888888888888886,-2.3015873015873014,1.507936507936508,-325.0,-325.0,-325.0,-325.0,-325.0,-321.8253968253968
50.55555555555555,41.507936507936506,-12.936507936507935,-4.0476190476190474,-5.0,14.682539682539682,-7.3809523809523805,11.349206349206348,15.793650793650793,325.0,8.492063492063492,5.317460317460317,1.0317460317460316,29.126984126984127,10.238095238095237,-53.888888888888886,-2.3015873015873014,1.507936507936508,-325.0,-325.0,-325.0,-325.0,-325.0,-321.8253968253968
39.76190476190476,44.68253968253968,-5.634920634920634,5.158730158730158,-2.3015873015873014,22.46031746031746,-5.634920634920634,22.619047619047617,15.0,325.0,-45.63492063492063,8.492063492063492,-2.7777777777777777,28.49206349206349,13.571428571428571,-101.98412698412697,-2.142857142857143,1.507936507936508,-325.0,-325.0,-325.0,-325.0,-325.0,-321.8253968253968
39.76190476190476,44.68253968253968,-5.634920634920634,5.158730158730158,-2.3015873015873014,22.46031746031746,-5.634920634920634,22.619047619047617,15.0,325.0,-45.63492063492063,8.492063492063492,-2.7777777777777777,28.49206349206349,13.571428571428571,-101.98412698412697,-2.142857142857143,1.507936507936508,-325.0,-325.0,-325.0,-325.0,-325.0,-321.8253968253968
40.87301587301587,35.79365079365079,3.888888888888889,2.142857142857143,17.063492063492063,22.619047619047617,11.349206349206348,31.507936507936506,22.777777777777775,325.0,-171.5079365079365,3.253968253968254,2.46031746031746,29.76190476190476,19.285714285714285,-112.77777777777777,-2.619047619047619,1.0317460317460316,-325.0,-325.0,-325.0,-325.0,-325.0,-321.8253968253968
40.87301587301587,35.79365079365079,3.888888888888889,2.142857142857143,17.063492063492063,22.619047619047617,11.349206349206348,31.507936507936506,22.777777777777775,325.0,-171.5079365079365,3.253968253968254,2.46031746031746,29.76190476190476,19.285714285714285,-112.77777777777777,-2.619047619047619,1.0317460317460316,-325.0,-325.0,-325.0,-325.0,-325.0,-321.8253968253968
37.53968253968254,41.34920634920635,-2.619047619047619,2.142857142857143,17.22222222222222,22.619047619047617,-5.158730158730158,21.03174603174603,17.38095238095238,325.0,-264.8412698412698,7.063492063492063,-2.46031746031746,33.41269841269841,10.079365079365079,-110.39682539682539,-1.984126984126984,0.3968253968253968,-325.0,-325.0,-325.0,-325.0,-325.0,-321.8253968253968
37.53968253968254,41.34920634920635,-2.619047619047619,2.142857142857143,17.22222222222222,22.619047619047617,-5.158730158730158,21.03174603174603,17.38095238095238,325.0,-264.8412698412698,7.063492063492063,-2.46031746031746,33.41269841269841,10.079365079365079,-110.39682539682539,-1.984126984126984,0.3968253968253968,-325.0,-325.0,-325.0,-325.0,-325.0,-321.8253968253968
23.253968253968253,35.0,-21.666666666666664,-1.8253968253968254,28.333333333333332,15.0,-1.984126984126984,14.047619047619047,13.412698412698411,325.0,-296.26984126984127,4.0476190476190474,0.7142857142857142,31.349206349206348,12.46031746031746,-87.85714285714285,-2.142857142857143,1.1904761904761905,-325.0,-325.0,-325.0,-325.0,-325.0,-7.5396825396825395
23.253968253968253,35.0,-21.666666666666664,-1.8253968253968254,28.333333333333332,15.0,-1.984126984126984,14.047619047619047,13.412698412698411,325.0,-296.26984126984127,4.0476190476190474,0.7142857142857142,31.349206349206348,12.46031746031746,-87.85714285714285,-2.142857142857143,1.1904761904761905,-325.0,-325.0,-325.0,-325.0,-325.0,-7.5396825396825395
25.158730158730158,29.444444444444443,-18.96825396825397,-14.206349206349206,15.317460317460316,-1.1904761904761905,-7.063492063492063,13.888888888888888,11.666666666666666,325.0,-323.4126984126984,-1.349206349206349,-4.841269841269841,29.126984126984127,9.126984126984127,-71.03174603174602,-2.3015873015873014,1.1904761904761905,-325.0,-325.0,-325.0,-325.0,-325.0,-7.5396825396825395
25.158730158730158,29.444444444444443,-18.96825396825397,-14.206349206349206,15.317460317460316,-1.1904761904761905,-7.063492063492063,13.888888888888888,11.666666666666666,325.0,-323.4126984126984,-1.349206349206349,-4.841269841269841,29.126984126984127,9.126984126984127,-71.03174603174602,-2.3015873015873014,1.1904761904761905,-325.0,-325.0,-325.0,-325.0,-325.0,-7.5396825396825395
38.49206349206349,45.476190476190474,1.8253968253968254,16.904761904761905,26.587301587301585,17.857142857142858,-2.619047619047619,15.158730158730158,9.126984126984127,325.0,-280.07936507936506,11.031746031746032,-0.7142857142857142,34.047619047619044,9.920634920634921,-40.87301587301587,-2.46031746031746,1.349206349206349,-325.0,-325.0,-325.0,-325.0,-325.0,-7.5396825396825395
38.49206349206349,45.476190476190474,1.8253968253968254,16.904761904761905,26.587301587301585,17.857142857142858,-2.619047619047619,15.158730158730158,9.126984126984127,325.0,-280.07936507936506,11.031746031746032,-0.7142857142857142,34.047619047619044,9.920634920634921,-40.87301587301587,-2.46031746031746,1.349206349206349,-325.0,-325.0,-325.0,-325.0,-325.0,-7.5396825396825395
30.71428571428571,36.904761904761905,-3.095238095238095,16.11111111111111,34.682539682539684,33.095238095238095,2.7777777777777777,30.238095238095237,17.857142857142858,325.0,-202.46031746031744,17.22222222222222,-0.5555555555555556,38.33333333333333,15.793650793650793,-3.571428571428571,-2.619047619047619,1.1904761904761905,-325.0,-325.0,-325.0,-325.0,-325.0,-7.5396825396825395
30.71428571428571,36.904761904761905,-3.095238095238095,16.11111111111111,34.682539682539684,33.095238095238095,2.7777777777777777,30.238095238095237,17.857142857142858,325.0,-202.46031746031744,17.22222222222222,-0.5555555555555556,38.33333333333333,15.793650793650793,-3.571428571428571,-2.619047619047619,1.1904761904761905,-325.0,-325.0,-325.0,-325.0,-325.0,-7.5396825396825395
13.095238095238095,30.71428571428571,-16.904761904761905,15.0,-0.23809523809523808,19.285714285714285,-17.22222222222222,19.285714285714285,2.3015873015873014,325.0,-148.17460317460316,21.349206349206348,-10.555555555555555,37.698412698412696,4.365079365079365,21.03174603174603,-1.0317460317460316,1.1904761904761905,-325.0,-325.0,-325.0,-325.0,-325.0,-7.5396825396825395
13.095238095238095,30.71428571428571,-16.904761904761905,15.0,-0.23809523809523808,19.285714285714285,-17.22222222222222,19.285714285714285,2.3015873015873014,325.0,-148.17460317460316,21.349206349206348,-10.555555555555555,37.698412698412696,4.365079365079365,21.03174603174603,-1.0317460317460316,1.1904761904761905,-325.0,-325.0,-325.0,-325.0,-325.0,-7.5396825396825395
12.46031746031746,40.714285714285715,-1.984126984126984,31.825396825396822,0.873015873015873,21.825396825396822,-2.3015873015873014,25.952380952380953,-3.095238095238095,325.0,-102.30158730158729,30.396825396825395,-1.507936507936508,39.92063492063492,9.761904761904761,29.444444444444443,-2.3015873015873014,0.5555555555555556,-325.0,-325.0,-325.0,-325.0,-325.0,-321.8253968253968
12.46031746031746,40.714285714285715,-1.984126984126984,31.825396825396822,0.873015873015873,21.825396825396822,-2.3015873015873014,25.952380952380953,-3.095238095238095,325.0,-102.30158730158729,30.396825396825395,-1.507936507936508,39.92063492063492,9.761904761904761,29.444444444444443,-2.3015873015873014,0.5555555555555556,-325.0,-325.0,-325.0,-325.0,-325.0,-321.8253968253968
9.920634920634921,39.76190476190476,-1.507936507936508,32.14285714285714,16.587301587301585,22.142857142857142,4.841269841269841,28.015873015873016,7.222222222222221,325.0,-143.4126984126984,31.03174603174603,1.0317460317460316,41.19047619047619,14.523809523809524,47.857142857142854,-2.3015873015873014,0.7142857142857142,-325.0,-325.0,-325.0,-325.0,-325.0,-321.8253968253968
9.920634920634921,39.76190476190476,-1.507936507936508,32.14285714285714,16.587301587301585,22.142857142857142,4.841269841269841,28.015873015873016,7.222222222222221,325.0,-143.4126984126984,31.03174603174603,1.0317460317460316,41.19047619047619,14.523809523809524,47.857142857142854,-2.3015873015873014,0.7142857142857142,-325.0,-325.0,-325.0,-325.0,-325.0,-321.8253968253968
-3.571428571428571,28.333333333333332,-15.476190476190474,19.6031746031746,25.79365079365079,11.984126984126984,2.7777777777777777,33.095238095238095,15.317460317460316,325.0,-164.52380952380952,29.920634920634917,-4.841269841269841,44.36507936507936,11.984126984126984,44.2063492063492,-2.46031746031746,0.7142857142857142,-325.0,-325.0,-325.0,-325.0,-325.0,-321.8253968253968
-3.571428571428571,28.333333333333332,-15.476190476190474,19.6031746031746,25.79365079365079,11.984126984126984,2.7777777777777777,33.095238095238095,15.317460317460316,325.0,-164.52380952380952,29.920634920634917,-4.841269841269841,44.36507936507936,11.984126984126984,44.2063492063492,-2.46031746031746,0.7142857142857142,-325.0,-325.0,-325.0,-325.0,-325.0,-321.8253968253968
-7.698412698412698,35.317460317460316,-15.158730158730158,32.14285714285714,25.158730158730158,16.904761904761905,-3.888888888888889,32.61904761904762,12.619047619047619,325.0,-85.63492063492063,35.95238095238095,-3.888888888888889,43.888888888888886,10.555555555555555,29.6031746031746,-2.142857142857143,0.07936507936507936,-325.0,-325.0,-325.0,-325.0,-325.0,-321.8253968253968
-7.698412698412698,35.317460317460316,-15.158730158730158,32.14285714285714,25.158730158730158,16.904761904761905,-3.888888888888889,32.61904761904762,12.619047619047619,325.0,-85.63492063492063,35.95238095238095,-3.888888888888889,43.888888888888886,10.555555555555555,29.6031746031746,-2.142857142857143,0.07936507936507936,-325.0,-325.0,-325.0,-325.0,-325.0,-321.8253968253968
1.349206349206349,46.58730158730158,-5.476190476190476,33.73015873015873,24.68253968253968,10.714285714285714,-15.476190476190474,16.746031746031743,7.222222222222221,325.0,-19.76190476190476,38.80952380952381,-4.682539682539682,42.93650793650794,4.2063492063492065,2.46031746031746,-1.6666666666666665,0.23809523809523808,-325.0,-325.0,-325.0,-325.0,-325.0,-321.8253968253968
1.349206349206349,46.58730158730158,-5.476190476190476,33.73015873015873,24.68253968253968,10.714285714285714,-15.476190476190474,16.746031746031743,7.222222222222221,325.0,-19.76190476190476,38.80952380952381,-4.682539682539682,42.93650793650794,4.2063492063492065,2.46031746031746,-1.6666666666666665,0.23809523809523808,-325.0,-325.0,-325.0,-325.0,-325.0,-321.8253968253968
-1.6666666666666665,31.349206349206348,-4.0476190476190474,39.92063492063492,35.317460317460316,27.698412698412696,-6.904761904761904,30.71428571428571,5.634920634920634,325.0,-8.174603174603174,30.87301587301587,0.3968253968253968,40.714285714285715,11.031746031746032,-0.5555555555555556,-2.142857142857143,0.3968253968253968,-325.0,-325.0,-325.0,-325.0,-325.0,-7.5396825396825395
-1.6666666666666665,31.349206349206348,-4.0476190476190474,39.92063492063492,35.317460317460316,27.698412698412696,-6.904761904761904,30.71428571428571,5.634920634920634,325.0,-8.174603174603174,30.87301587301587,0.3968253968253968,40.714285714285715,11.031746031746032,-0.5555555555555556,-2.142857142857143,0.3968253968253968,-325.0,-325.0,-325.0,-325.0,-325.0,-7.5396825396825395
1.507936507936508,25.79365079365079,3.095238095238095,33.41269841269841,44.52380952380952,28.174603174603174,-1.1904761904761905,30.87301587301587,10.079365079365079,325.0,10.555555555555555,20.396825396825395,3.4126984126984126,31.507936507936506,13.571428571428571,0.07936507936507936,-1.984126984126984,0.873015873015873,-325.0,-325.0,-325.0,-325.0,-325.0,-7.5396825396825395
1.507936507936508,25.79365079365079,3.095238095238095,33.41269841269841,44.52380952380952,28.174603174603174,-1.1904761904761905,30.87301587301587,10.079365079365079,325.0,10.555555555555555,20.396825396825395,3.4126984126984126,31.507936507936506,13.571428571428571,0.07936507936507936,-1.984126984126984,0.873015873015873,-325.0,-325.0,-325.0,-325.0,-325.0,-7.5396825396825395
4.2063492063492065,22.3015873015873,1.507936507936508,29.920634920634917,44.36507936507936,23.57142857142857,-0.5555555555555556,21.825396825396822,7.698412698412698,323.0952380952381,42.77777777777778,16.11111111111111,2.142857142857143,26.26984126984127,11.984126984126984,-8.809523809523808,-2.3015873015873014,0.7142857142857142,-325.0,-325.0,-325.0,-325.0,-325.0,-7.5396825396825395
4.2063492063492065,22.3015873015873,1.507936507936508,29.920634920634917,44.36507936507936,23.57142857142857,-0.5555555555555556,21.825396825396822,7.698412698412698,323.0952380952381,42.77777777777778,16.11111111111111,2.142857142857143,26.26984126984127,11.984126984126984,-8.809523809523808,-2.3015873015873014,0.7142857142857142,-325.0,-325.0,-325.0,-325.0,-325.0,-7.5396825396825395
-9.285714285714285,12.142857142857142,-9.603174603174603,16.11111111111111,35.15873015873016,7.698412698412698,-8.174603174603174,25.317460317460316,1.6666666666666665,311.031746031746,94.04761904761904,11.19047619047619,-1.349206349206349,23.253968253968253,8.174603174603174,-17.857142857142858,-2.46031746031746,0.23809523809523808,-325.0,-325.0,-325.0,-325.0,-325.0,-7.5396825396825395
-9.285714285714285,12.142857142857142,-9.603174603174603,16.11111111111111,35.15873015873016,7.698412698412698,-8.174603174603174,25.317460317460316,1.6666666666666665,311.031746031746,94.04761904761904,11.19047619047619,-1.349206349206349,23.253968253968253,8.174603174603174,-17.857142857142858,-2.46031746031746,0.23809523809523808,-325.0,-325.0,-325.0,-325.0,-325.0,-7.5396825396825395
-3.095238095238095,11.666666666666666,4.682539682539682,12.619047619047619,41.507936507936506,-3.571428571428571,-4.365079365079365,9.444444444444445,-0.3968253968253968,298.17460317460313,127.85714285714285,4.841269841269841,-0.07936507936507936,16.428571428571427,8.809523809523808,-85.0,-2.3015873015873014,0.07936507936507936,-325.0,-325.0,-325.0,-325.0,-325.0,-7.5396825396825395
-3.095238095238095,11.666666666666666,4.682539682539682,12.619047619047619,41.507936507936506,-3.571428571428571,-4.365079365079365,9.444444444444445,-0.3968253968253968,298.17460317460313,127.85714285714285,4.841269841269841,-0.07936507936507936,16.428571428571427,8.809523809523808,-85.0,-2.3015873015873014,0.07936507936507936,-325.0,-325.0,-325.0,-325.0,-325.0,-7.5396825396825395
4.365079365079365,11.19047619047619,5.317460317460317,12.46031746031746,27.698412698412696,-17.22222222222222,-14.047619047619047,-5.476190476190476,-6.587301587301587,281.8253968253968,69.76190476190476,-3.888888888888889,0.07936507936507936,7.3809523809523805,0.23809523809523808,-103.73015873015872,-2.9365079365079363,0.07936507936507936,-325.0,-325.0,-325.0,-325.0,-325.0,-321.8253968253968
4.365079365079365,11.19047619047619,5.317460317460317,12.46031746031746,27.698412698412696,-17.22222222222222,-14.047619047619047,-5.476190476190476,-6.587301587301587,281.8253968253968,69.76190476190476,-3.888888888888889,0.07936507936507936,7.3809523809523805,0.23809523809523808,-103.73015873015872,-2.9365079365079363,0.07936507936507936,-325.0,-325.0,-325.0,-325.0,-325.0,-321.8253968253968
9.285714285714285,1.984126984126984,6.904761904761904,12.3015873015873,35.317460317460316,-21.984126984126984,0.3968253968253968,5.0,9.920634920634921,200.7142857142857,15.317460317460316,-7.698412698412698,0.07936507936507936,5.317460317460317,8.015873015873016,-82.93650793650794,-2.46031746031746,0.07936507936507936,-325.0,-325.0,-325.0,-325.0,-325.0,-321.8253968253968
9.285714285714285,1.984126984126984,6.904761904761904,12.3015873015873,35.317460317460316,-21.984126984126984,0.3968253968253968,5.0,9.920634920634921,200.7142857142857,15.317460317460316,-7.698412698412698,0.07936507936507936,5.317460317460317,8.015873015873016,-82.93650793650794,-2.46031746031746,0.07936507936507936,-325.0,-325.0,-325.0,-325.0,-325.0,-321.8253968253968
8.65079365079365,-6.111111111111111,2.9365079365079363,-7.857142857142857,26.26984126984127,-26.746031746031743,-3.571428571428571,0.23809523809523808,11.031746031746032,-40.87301587301587,-48.49206349206349,-16.904761904761905,-0.873015873015873,-4.682539682539682,1.8253968253968254,-83.57142857142857,-1.507936507936508,0.07936507936507936,-325.0,-325.0,-325.0,-325.0,-325.0,-321.8253968253968
8.65079365079365,-6.111111111111111,2.9365079365079363,-7.857142857142857,26.26984126984127,-26.746031746031743,-3.571428571428571,0.23809523809523808,11.031746031746032,-40.87301587301587,-48.49206349206349,-16.904761904761905,-0.873015873015873,-4.682539682539682,1.8253968253968254,-83.57142857142857,-1.507936507936508,0.07936507936507936,-325.0,-325.0,-325.0,-325.0,-325.0,-321.8253968253968
1.507936507936508,-10.873015873015872,-4.523809523809524,-19.126984126984127,11.507936507936508,-41.19047619047619,-3.095238095238095,-6.26984126984127,16.428571428571427,-75.79365079365078,-63.57142857142857,-24.206349206349206,1.984126984126984,-9.761904761904761,5.0,-57.38095238095238,-1.8253968253968254,0.5555555555555556,-325.0,-325.0,-325.0,-325.0,-325.0,-321.8253968253968
1.507936507936508,-10.873015873015872,-4.523809523809524,-19.126984126984127,11.507936507936508,-41.19047619047619,-3.095238095238095,-6.26984126984127,16.428571428571427,-75.79365079365078,-63.57142857142857,-24.206349206349206,1.984126984126984,-9.761904761904761,5.0,-57.38095238095238,-1.8253968253968254,0.5555555555555556,-325.0,-325.0,-325.0,-325.0,-325.0,-321.8253968253968
-7.3809523809523805,-15.793650793650793,-7.857142857142857,-28.333333333333332,-1.8253968253968254,-47.53968253968254,-5.0,-13.412698412698411,13.095238095238095,-25.476190476190474,-86.42857142857143,-25.952380952380953,0.5555555555555556,-10.873015873015872,1.1904761904761905,-66.26984126984127,-2.46031746031746,0.3968253968253968,-325.0,-325.0,-325.0,-325.0,-325.0,-321.8253968253968
-7.3809523809523805,-15.793650793650793,-7.857142857142857,-28.333333333333332,-1.8253968253968254,-47.53968253968254,-5.0,-13.412698412698411,13.095238095238095,-25.476190476190474,-86.42857142857143,-25.952380952380953,0.5555555555555556,-10.873015873015872,1.1904761904761905,-66.26984126984127,-2.46031746031746,0.3968253968253968,-325.0,-325.0,-325.0,-325.0,-325.0,-321.8253968253968
1.6666666666666665,-9.920634920634921,5.158730158730158,-19.444444444444443,-2.3015873015873014,-28.49206349206349,2.142857142857143,-13.095238095238095,10.714285714285714,11.666666666666666,-80.07936507936508,-21.666666666666664,2.46031746031746,-12.3015873015873,3.253968253968254,-67.85714285714285,-1.984126984126984,0.3968253968253968,-325.0,-325.0,-325.0,-325.0,-325.0,-7.5396825396825395
1.6666666666666665,-9.920634920634921,5.158730158730158,-19.444444444444443,-2.3015873015873014,-28.49206349206349,2.142857142857143,-13.095238095238095,10.714285714285714,11.666666666666666,-80.07936507936508,-21.666666666666664,2.46031746031746,-12.3015873015873,3.253968253968254,-67.85714285714285,-1.984126984126984,0.3968253968253968,-325.0,-325.0,-325.0,-325.0,-325.0,-7.5396825396825395
5.7936507936507935,-12.142857142857142,8.174603174603174,-9.920634920634921,-6.111111111111111,-22.3015873015873,1.1904761904761905,-10.396825396825395,11.031746031746032,161.984126984127,-59.76190476190476,-18.80952380952381,0.7142857142857142,-10.079365079365079,-0.5555555555555556,-31.03174603174603,-2.619047619047619,0.23809523809523808,-325.0,-325.0,-325.0,-325.0,-325.0,-7.5396825396825395
5.7936507936507935,-12.142857142857142,8.174603174603174,-9.920634920634921,-6.111111111111111,-22.3015873015873,1.1904761904761905,-10.396825396825395,11.031746031746032,161.984126984127,-59.76190476190476,-18.80952380952381,0.7142857142857142,-10.079365079365079,-0.5555555555555556,-31.03174603174603,-2.619047619047619,0.23809523809523808,-325.0,-325.0,-325.0,-325.0,-325.0,-7.5396825396825395
-8.809523809523808,-11.19047619047619,-6.587301587301587,-19.444444444444443,-17.22222222222222,-25.952380952380953,0.7142857142857142,-7.857142857142857,7.3809523809523805,268.3333333333333,21.507936507936506,-10.555555555555555,0.873015873015873,-6.587301587301587,-1.8253968253968254,17.857142857142858,-2.619047619047619,0.7142857142857142,-325.0,-325.0,-325.0,-325.0,-325.0,-7.5396825396825395
-8.809523809523808,-11.19047619047619,-6.587301587301587,-19.444444444444443,-17.22222222222222,-25.952380952380953,0.7142857142857142,-7.857142857142857,7.3809523809523805,268.3333333333333,21.507936507936506,-10.555555555555555,0.873015873015873,-6.587301587301587,-1.8253968253968254,17.857142857142858,-2.619047619047619,0.7142857142857142,-325.0,-325.0,-325.0,-325.0,-325.0,-7.5396825396825395
-10.079365079365079,-7.222222222222221,5.158730158730158,-8.809523809523808,-14.84126984126984,-14.047619047619047,2.142857142857143,-4.0476190476190474,4.523809523809524,255.95238095238093,82.14285714285714,-4.365079365079365,4.682539682539682,-4.365079365079365,-0.873015873015873,40.238095238095234,-2.142857142857143,0.5555555555555556,-325.0,-325.0,-325.0,-325.0,-325.0,-7.5396825396825395
-10.079365079365079,-7.222222222222221,5.158730158730158,-8.809523809523808,-14.84126984126984,-14.047619047619047,2.142857142857143,-4.0476190476190474,4.523809523809524,255.95238095238093,82.14285714285714,-4.365079365079365,4.682539682539682,-4.365079365079365,-0.873015873015873,40.238095238095234,-2.142857142857143,0.5555555555555556,-325.0,-325.0,-325.0,-325.0,-325.0,-7.5396825396825395
-26.428571428571427,16.587301587301585,-8.968253968253968,18.333333333333332,-30.555555555555554,18.65079365079365,-0.3968253968253968,31.507936507936506,-18.65079365079365,243.88888888888889,74.36507936507937,21.666666666666664,-5.317460317460317,25.952380952380953,-6.904761904761904,98.49206349206348,-2.619047619047619,0.5555555555555556,-325.0,-325.0,-325.0,-325.0,-325.0,-7.5396825396825395
-26.428571428571427,16.587301587301585,-8.968253968253968,18.333333333333332,-30.555555555555554,18.65079365079365,-0.3968253968253968,31.507936507936506,-18.65079365079365,243.88888888888889,74.36507936507937,21.666666666666664,-5.317460317460317,25.952380952380953,-6.904761904761904,98.49206349206348,-2.619047619047619,0.5555555555555556,-325.0,-325.0,-325.0,-325.0,-325.0,-7.5396825396825395
-27.22222222222222,31.507936507936506,-5.7936507936507935,30.555555555555554,-53.57142857142857,21.825396825396822,-5.952380952380952,41.666666666666664,-41.98412698412698,232.14285714285714,57.38095238095238,37.22222222222222,-0.873015873015873,37.38095238095238,-8.492063492063492,125.47619047619047,-2.7777777777777777,1.0317460317460316,-325.0,-325.0,-325.0,-325.0,-325.0,-321.8253968253968
-27.22222222222222,31.507936507936506,-5.7936507936507935,30.555555555555554,-53.57142857142857,21.825396825396822,-5.952380952380952,41.666666666666664,-41.98412698412698,232.14285714285714,57.38095238095238,37.22222222222222,-0.873015873015873,37.38095238095238,-8.492063492063492,125.47619047619047,-2.7777777777777777,1.0317460317460316,-325.0,-325.0,-325.0,-325.0,-325.0,-321.8253968253968
-30.238095238095237,43.25396825396825,-4.841269841269841,50.55555555555555,-44.36507936507936,41.03174603174603,1.984126984126984,50.55555555555555,-51.03174603174603,215.3174603174603,71.03174603174602,54.047619047619044,3.73015873015873,49.12698412698413,-1.984126984126984,137.69841269841268,-3.095238095238095,0.873015873015873,-325.0,-325.0,-325.0,-325.0,-325.0,-321.8253968253968
-30.238095238095237,43.25396825396825,-4.841269841269841,50.55555555555555,-44.36507936507936,41.03174603174603,1.984126984126984,50.55555555555555,-51.03174603174603,215.3174603174603,71.03174603174602,54.047619047619044,3.73015873015873,49.12698412698413,-1.984126984126984,137.69841269841268,-3.095238095238095,0.873015873015873,-325.0,-325.0,-325.0,-325.0,-325.0,-321.8253968253968
-42.61904761904761,36.11111111111111,-18.65079365079365,42.14285714285714,-56.74603174603174,38.80952380952381,-1.6666666666666665,48.17460317460317,-61.34920634920635,209.12698412698413,53.25396825396825,53.888888888888886,-2.9365079365079363,50.87301587301587,-1.0317460317460316,130.3968253968254,-3.253968253968254,0.873015873015873,-325.0,-325.0,-325.0,-325.0,-325.0,-321.8253968253968
-42.61904761904761,36.11111111111111,-18.65079365079365,42.14285714285714,-56.74603174603174,38.80952380952381,-1.6666666666666665,48.17460317460317,-61.34920634920635,209.12698412698413,53.25396825396825,53.888888888888886,-2.9365079365079363,50.87301587301587,-1.0317460317460316,130.3968253968254,-3.253968253968254,0.873015873015873,-325.0,-325.0,-325.0,-325.0,-325.0,-321.8253968253968
-33.25396825396825,46.904761904761905,-6.26984126984127,50.55555555555555,-60.55555555555555,38.96825396825397,2.142857142857143,50.87301587301587,-67.06349206349206,197.06349206349205,66.58730158730158,63.095238095238095,-1.1904761904761905,53.888888888888886,2.142857142857143,145.95238095238093,-3.253968253968254,0.23809523809523808,-325.0,-325.0,-325.0,-325.0,-325.0,-321.8253968253968
-33.25396825396825,46.904761904761905,-6.26984126984127,50.55555555555555,-60.55555555555555,38.96825396825397,2.142857142857143,50.87301587301587,-67.06349206349206,197.06349206349205,66.58730158730158,63.095238095238095,-1.1904761904761905,53.888888888888886,2.142857142857143,145.95238095238093,-3.253968253968254,0.23809523809523808,-325.0,-325.0,-325.0,-325.0,-325.0,-321.8253968253968
-23.095238095238095,42.460317460317455,9.126984126984127,52.14285714285714,-42.77777777777778,38.96825396825397,8.174603174603174,43.888888888888886,-66.11111111111111,189.60317460317458,75.0,59.6031746031746,5.634920634920634,44.84126984126984,4.365079365079365,146.11111111111111,-3.253968253968254,0.3968253968253968,-325.0,-325.0,-325.0,-325.0,-325.0,-321.8253968253968
-23.095238095238095,42.460317460317455,9.126984126984127,52.14285714285714,-42.77777777777778,38.96825396825397,8.174603174603174,43.888888888888886,-66.11111111111111,189.60317460317458,75.0,59.6031746031746,5.634920634920634,44.84126984126984,4.365079365079365,146.11111111111111,-3.253968253968254,0.3968253968253968,-325.0,-325.0,-325.0,-325.0,-325.0,-321.8253968253968
-33.888888888888886,35.15873015873016,-3.571428571428571,41.98412698412698,-38.01587301587301,34.682539682539684,-1.1904761904761905,32.460317460317455,-79.6031746031746,180.87301587301587,74.84126984126983,54.841269841269835,3.73015873015873,35.476190476190474,-3.095238095238095,133.0952380952381,-3.571428571428571,0.5555555555555556,-325.0,-325.0,-325.0,-325.0,-325.0,-7.5396825396825395
-33.888888888888886,35.15873015873016,-3.571428571428571,41.98412698412698,-38.01587301587301,34.682539682539684,-1.1904761904761905,32.460317460317455,-79.6031746031746,180.87301587301587,74.84126984126983,54.841269841269835,3.73015873015873,35.476190476190474,-3.095238095238095,133.0952380952381,-3.571428571428571,0.5555555555555556,-325.0,-325.0,-325.0,-325.0,-325.0,-7.5396825396825395
-35.15873015873016,22.142857142857142,-0.873015873015873,36.42857142857142,-29.920634920634917,28.96825396825397,-0.7142857142857142,37.06349206349206,-71.19047619047619,171.8253968253968,33.73015873015873,45.317460317460316,-2.142857142857143,31.03174603174603,2.46031746031746,101.98412698412697,-3.571428571428571,0.07936507936507936,-325.0,-325.0,-325.0,-325.0,-325.0,-7.5396825396825395
-35.15873015873016,22.142857142857142,-0.873015873015873,36.42857142857142,-29.920634920634917,28.96825396825397,-0.7142857142857142,37.06349206349206,-71.19047619047619,171.8253968253968,33.73015873015873,45.317460317460316,-2.142857142857143,31.03174603174603,2.46031746031746,101.98412698412697,-3.571428571428571,0.07936507936507936,-325.0,-325.0,-325.0,-325.0,-325.0,-7.5396825396825395
-25.952380952380953,8.174603174603174,-3.888888888888889,27.698412698412696,-22.777777777777775,-18.015873015873016,-7.698412698412698,25.317460317460316,-69.28571428571428,162.93650793650792,62.3015873015873,34.36507936507936,-2.3015873015873014,23.88888888888889,3.888888888888889,99.76190476190476,-2.7777777777777777,0.07936507936507936,-325.0,-325.0,-325.0,-325.0,-325.0,-7.5396825396825395
-25.952380952380953,8.174603174603174,-3.888888888888889,27.698412698412696,-22.777777777777775,-18.015873015873016,-7.698412698412698,25.317460317460316,-69.28571428571428,162.93650793650792,62.3015873015873,34.36507936507936,-2.3015873015873014,23.88888888888889,3.888888888888889,99.76190476190476,-2.7777777777777777,0.07936507936507936,-325.0,-325.0,-325.0,-325.0,-325.0,-7.5396825396825395
-17.063492063492063,10.873015873015872,-3.73015873015873,19.126984126984127,-4.365079365079365,-22.3015873015873,-2.619047619047619,25.952380952380953,-65.15873015873015,153.88888888888889,99.44444444444444,27.539682539682538,3.253968253968254,21.349206349206348,4.841269841269841,101.34920634920634,-2.619047619047619,0.23809523809523808,-325.0,-325.0,-325.0,-325.0,-325.0,-7.5396825396825395
-17.063492063492063,10.873015873015872,-3.73015873015873,19.126984126984127,-4.365079365079365,-22.3015873015873,-2.619047619047619,25.952380952380953,-65.15873015873015,153.88888888888889,99.44444444444444,27.539682539682538,3.253968253968254,21.349206349206348,4.841269841269841,101.34920634920634,-2.619047619047619,0.23809523809523808,-325.0,-325.0,-325.0,-325.0,-325.0,-7.5396825396825395
-4.682539682539682,3.571428571428571,2.7777777777777777,18.96825396825397,8.015873015873016,6.746031746031746,-2.619047619047619,20.71428571428571,-61.507936507936506,145.79365079365078,108.33333333333333,16.587301587301585,6.26984126984127,15.634920634920634,5.317460317460317,54.36507936507936,-2.7777777777777777,0.873015873015873,-325.0,-325.0,-325.0,-325.0,-325.0,-7.5396825396825395
-4.682539682539682,3.571428571428571,2.7777777777777777,18.96825396825397,8.015873015873016,6.746031746031746,-2.619047619047619,20.71428571428571,-61.507936507936506,145.79365079365078,108.33333333333333,16.587301587301585,6.26984126984127,15.634920634920634,5.317460317460317,54.36507936507936,-2.7777777777777777,0.873015873015873,-325.0,-325.0,-325.0,-325.0,-325.0,-7.5396825396825395
-14.682539682539682,10.079365079365079,-12.46031746031746,17.539682539682538,3.73015873015873,15.476190476190474,-11.19047619047619,18.333333333333332,-76.42857142857143,137.69841269841268,112.6190476190476,14.523809523809524,2.7777777777777777,13.73015873015873,-1.984126984126984,18.333333333333332,-2.9365079365079363,0.07936507936507936,-325.0,-325.0,-325.0,-325.0,-325.0,-321.8253968253968
-14.682539682539682,10.079365079365079,-12.46031746031746,17.539682539682538,3.73015873015873,15.476190476190474,-11.19047619047619,18.333333333333332,-76.42857142857143,137.69841269841268,112.6190476190476,14.523809523809524,2.7777777777777777,13.73015873015873,-1.984126984126984,18.333333333333332,-2.9365079365079363,0.07936507936507936,-325.0,-325.0,-325.0,-325.0,-325.0,-321.8253968253968
3.73015873015873,14.047619047619047,1.507936507936508,24.206349206349206,8.65079365079365,15.634920634920634,-4.841269841269841,16.904761904761905,-66.26984126984127,129.76190476190476,143.4126984126984,18.333333333333332,6.428571428571428,12.46031746031746,1.6666666666666665,-3.73015873015873,-2.142857142857143,0.07936507936507936,-325.0,-325.0,-325.0,-325.0,-325.0,-321.8253968253968
3.73015873015873,14.047619047619047,1.507936507936508,24.206349206349206,8.65079365079365,15.634920634920634,-4.841269841269841,16.904761904761905,-66.26984126984127,129.76190476190476,143.4126984126984,18.333333333333332,6.428571428571428,12.46031746031746,1.6666666666666665,-3.73015873015873,-2.142857142857143,0.07936507936507936,-325.0,-325.0,-325.0,-325.0,-325.0,-321.8253968253968
-5.158730158730158,-1.0317460317460316,9.444444444444445,18.49206349206349,11.984126984126984,24.365079365079364,-5.317460317460317,17.063492063492063,-54.52380952380952,121.66666666666666,166.58730158730157,14.206349206349206,6.111111111111111,3.73015873015873,0.5555555555555556,24.206349206349206,-2.619047619047619,-0.07936507936507936,-325.0,-325.0,-325.0,-325.0,-325.0,-321.8253968253968
-5.158730158730158,-1.0317460317460316,9.444444444444445,18.49206349206349,11.984126984126984,24.365079365079364,-5.317460317460317,17.063492063492063,-54.52380952380952,121.66666666666666,166.58730158730157,14.206349206349206,6.111111111111111,3.73015873015873,0.5555555555555556,24.206349206349206,-2.619047619047619,-0.07936507936507936,-325.0,-325.0,-325.0,-325.0,-325.0,-321.8253968253968
-13.253968253968253,-4.2063492063492065,9.444444444444445,17.063492063492063,24.68253968253968,18.96825396825397,17.22222222222222,12.619047619047619,-31.349206349206348,95.0,171.984126984127,12.3015873015873,6.111111111111111,-5.0,15.158730158730158,37.06349206349206,-1.984126984126984,-0.07936507936507936,-325.0,-325.0,-325.0,-325.0,-325.0,-321.8253968253968
-13.253968253968253,-4.2063492063492065,9.444444444444445,17.063492063492063,24.68253968253968,18.96825396825397,17.22222222222222,12.619047619047619,-31.349206349206348,95.0,171.984126984127,12.3015873015873,6.111111111111111,-5.0,15.158730158730158,37.06349206349206,-1.984126984126984,-0.07936507936507936,-325.0,-325.0,-325.0,-325.0,-325.0,-321.8253968253968
-22.3015873015873,-8.174603174603174,0.3968253968253968,11.349206349206348,15.634920634920634,19.76190476190476,0.23809523809523808,7.5396825396825395,-39.6031746031746,20.396825396825395,145.3174603174603,11.666666666666666,2.619047619047619,-4.841269841269841,4.841269841269841,31.03174603174603,-2.142857142857143,0.873015873015873,-325.0,-325.0,-325.0,-325.0,-325.0,-321.8253968253968
-22.3015873015873,-8.174603174603174,0.3968253968253968,11.349206349206348,15.634920634920634,19.76190476190476,0.23809523809523808,7.5396825396825395,-39.6031746031746,20.396825396825395,145.3174603174603,11.666666666666666,2.619047619047619,-4.841269841269841,4.841269841269841,31.03174603174603,-2.142857142857143,0.873015873015873,-325.0,-325.0,-325.0,-325.0,-325.0,-321.8253968253968
-21.19047619047619,-13.888888888888888,-0.3968253968253968,2.619047619047619,24.206349206349206,12.3015873015873,-0.7142857142857142,3.571428571428571,-34.2063492063492,-37.38095238095238,76.58730158730158,2.9365079365079363,1.6666666666666665,-7.063492063492063,2.7777777777777777,37.857142857142854,-2.7777777777777777,0.3968253968253968,-325.0,-325.0,-325.0,-325.0,-325.0,-7.5396825396825395
-21.19047619047619,-13.888888888888888,-0.3968253968253968,2.619047619047619,24.206349206349206,12.3015873015873,-0.7142857142857142,3.571428571428571,-34.2063492063492,-37.38095238095238,76.58730158730158,2.9365079365079363,1.6666666666666665,-7.063492063492063,2.7777777777777777,37.857142857142854,-2.7777777777777777,0.3968253968253968,-325.0,-325.0,-325.0,-325.0,-325.0,-7.5396825396825395
-15.317460317460316,-9.920634920634921,3.253968253968254,-4.2063492063492065,34.84126984126984,1.1904761904761905,12.3015873015873,2.142857142857143,-18.96825396825397,-204.68253968253967,45.15873015873016,1.6666666666666665,7.3809523809523805,-7.222222222222221,13.571428571428571,14.84126984126984,-2.3015873015873014,0.7142857142857142,-325.0,-325.0,-325.0,-325.0,-325.0,-7.5396825396825395
-15.317460317460316,-9.920634920634921,3.253968253968254,-4.2063492063492065,34.84126984126984,1.1904761904761905,12.3015873015873,2.142857142857143,-18.96825396825397,-204.68253968253967,45.15873015873016,1.6666666666666665,7.3809523809523805,-7.222222222222221,13.571428571428571,14.84126984126984,-2.3015873015873014,0.7142857142857142,-325.0,-325.0,-325.0,-325.0,-325.0,-7.5396825396825395
-17.38095238095238,-10.714285714285714,5.7936507936507935,-0.873015873015873,21.507936507936506,1.8253968253968254,-4.2063492063492065,-5.317460317460317,-27.539682539682538,-60.238095238095234,28.49206349206349,3.73015873015873,1.984126984126984,-7.698412698412698,1.8253968253968254,-8.809523809523808,-2.619047619047619,0.5555555555555556,-325.0,-325.0,-325.0,-325.0,-325.0,-7.5396825396825395
-17.38095238095238,-10.714285714285714,5.7936507936507935,-0.873015873015873,21.507936507936506,1.8253968253968254,-4.2063492063492065,-5.317460317460317,-27.539682539682538,-60.238095238095234,28.49206349206349,3.73015873015873,1.984126984126984,-7.698412698412698,1.8253968253968254,-8.809523809523808,-2.619047619047619,0.5555555555555556,-325.0,-325.0,-325.0,-325.0,-325.0,-7.5396825396825395
-27.539682539682538,-22.142857142857142,-2.46031746031746,-2.3015873015873014,22.46031746031746,0.3968253968253968,3.571428571428571,-9.761904761904761,-22.3015873015873,104.04761904761904,-15.793650793650793,3.571428571428571,2.142857142857143,-7.857142857142857,1.349206349206349,-15.793650793650793,-2.46031746031746,0.7142857142857142,-325.0,-325.0,-325.0,-325.0,-325.0,-7.5396825396825395
-27.539682539682538,-22.142857142857142,-2.46031746031746,-2.3015873015873014,22.46031746031746,0.3968253968253968,3.571428571428571,-9.761904761904761,-22.3015873015873,104.04761904761904,-15.793650793650793,3.571428571428571,2.142857142857143,-7.857142857142857,1.349206349206349,-15.793650793650793,-2.46031746031746,0.7142857142857142,-325.0,-325.0,-325.0,-325.0,-325.0,-7.5396825396825395
-68.4920634920635,-55.79365079365079,-25.476190476190474,-26.11111111111111,8.968253968253968,-7.222222222222221,-4.682539682539682,-5.952380952380952,-15.476190476190474,122.14285714285714,-52.460317460317455,-9.285714285714285,-5.158730158730158,-12.142857142857142,-2.3015873015873014,-16.904761904761905,-2.142857142857143,0.23809523809523808,-325.0,-325.0,-325.0,-325.0,-325.0,-7.5396825396825395
