Fp1[1],Fp2[2],F3[3],F4[4],C3[5],C4[6],P3[7],P4[8],O1[9],O2[10],F7[11],F8[12],T3[13],T4[14],T5[15],T6[16],Fz[17],Pz[18],Cz[19],Pg1[20],Pg2[21],EOGR[22],EOOGL[23],EMG[24]
325.0,148.015873015873,325.0,114.52380952380952,325.0,325.0,325.0,325.0,325.0,146.74603174603175,325.0,325.0,325.0,268.3333333333333,325.0,79.92063492063491,325.0,145.15873015873015,5.158730158730158,-325.0,-325.0,6.111111111111111,14.523809523809524,-166.26984126984127
325.0,148.015873015873,325.0,114.52380952380952,325.0,325.0,325.0,325.0,325.0,146.74603174603175,325.0,325.0,325.0,268.3333333333333,325.0,79.92063492063491,325.0,145.15873015873015,5.158730158730158,-325.0,-325.0,6.111111111111111,14.523809523809524,-166.26984126984127
325.0,64.84126984126983,325.0,34.682539682539684,325.0,325.0,325.0,-325.0,325.0,42.14285714285714,325.0,325.0,325.0,189.76190476190476,325.0,36.269841269841265,325.0,43.888888888888886,18.96825396825397,-325.0,-325.0,0.23809523809523808,3.4126984126984126,-166.26984126984127
325.0,64.84126984126983,325.0,34.682539682539684,325.0,325.0,325.0,-325.0,325.0,42.14285714285714,325.0,325.0,325.0,189.76190476190476,325.0,36.269841269841265,325.0,43.888888888888886,18.96825396825397,-325.0,-325.0,0.23809523809523808,3.4126984126984126,-166.26984126984127
325.0,56.904761904761905,325.0,27.539682539682538,325.0,325.0,325.0,-325.0,325.0,34.36507936507936,325.0,325.0,325.0,184.68253968253967,325.0,30.555555555555554,325.0,35.79365079365079,17.063492063492063,-325.0,-325.0,10.396825396825395,14.047619047619047,-166.26984126984127
325.0,56.904761904761905,325.0,27.539682539682538,325.0,325.0,325.0,-325.0,325.0,34.36507936507936,325.0,325.0,325.0,184.68253968253967,325.0,30.555555555555554,325.0,35.79365079365079,17.063492063492063,-325.0,-325.0,10.396825396825395,14.047619047619047,-166.26984126984127
325.0,56.269841269841265,325.0,27.698412698412696,325.0,325.0,325.0,-325.0,325.0,34.047619047619044,325.0,325.0,325.0,179.76190476190476,325.0,33.25396825396825,325.0,35.95238095238095,23.253968253968253,-325.0,-325.0,0.7142857142857142,-4.0476190476190474,-166.26984126984127
325.0,56.269841269841265,325.0,27.698412698412696,325.0,325.0,325.0,-325.0,325.0,34.047619047619044,325.0,325.0,325.0,179.76190476190476,325.0,33.25396825396825,325.0,35.95238095238095,23.253968253968253,-325.0,-325.0,0.7142857142857142,-4.0476190476190474,-166.26984126984127
325.0,50.71428571428571,325.0,26.11111111111111,325.0,325.0,325.0,-325.0,325.0,30.87301587301587,325.0,325.0,325.0,175.95238095238093,325.0,32.77777777777778,325.0,32.93650793650794,24.523809523809522,-325.0,-325.0,10.555555555555555,18.96825396825397,-166.26984126984127
325.0,50.71428571428571,325.0,26.11111111111111,325.0,325.0,325.0,-325.0,325.0,30.87301587301587,325.0,325.0,325.0,175.95238095238093,325.0,32.77777777777778,325.0,32.93650793650794,24.523809523809522,-325.0,-325.0,10.555555555555555,18.96825396825397,-166.26984126984127
325.0,38.65079365079365,325.0,15.95238095238095,325.0,325.0,325.0,-325.0,325.0,19.444444444444443,325.0,325.0,325.0,170.55555555555554,325.0,23.57142857142857,325.0,21.349206349206348,18.96825396825397,-318.4920634920635,-320.07936507936506,0.7142857142857142,3.888888888888889,-321.8253968253968
325.0,38.65079365079365,325.0,15.95238095238095,325.0,325.0,325.0,-325.0,325.0,19.444444444444443,325.0,325.0,325.0,170.55555555555554,325.0,23.57142857142857,325.0,21.349206349206348,18.96825396825397,-318.4920634920635,-320.07936507936506,0.7142857142857142,3.888888888888889,-321.8253968253968
325.0,31.98412698412698,325.0,7.698412698412698,325.0,325.0,325.0,-325.0,325.0,11.507936507936508,325.0,325.0,325.0,167.69841269841268,325.0,17.063492063492063,325.0,13.888888888888888,15.158730158730158,-312.9365079365079,-314.36507936507934,-1.1904761904761905,-6.587301587301587,-321.8253968253968
325.0,31.98412698412698,325.0,7.698412698412698,325.0,325.0,325.0,-325.0,325.0,11.507936507936508,325.0,325.0,325.0,167.69841269841268,325.0,17.063492063492063,325.0,13.888888888888888,15.158730158730158,-312.9365079365079,-314.36507936507934,-1.1904761904761905,-6.587301587301587,-321.8253968253968
325.0,28.333333333333332,325.0,7.222222222222221,325.0,325.0,325.0,-325.0,325.0,9.761904761904761,325.0,325.0,325.0,164.68253968253967,325.0,16.587301587301585,325.0,11.666666666666666,16.428571428571427,-307.69841269841265,-308.8095238095238,1.0317460317460316,4.682539682539682,-321.8253968253968
325.0,28.333333333333332,325.0,7.222222222222221,325.0,325.0,325.0,-325.0,325.0,9.761904761904761,325.0,325.0,325.0,164.68253968253967,325.0,16.587301587301585,325.0,11.666666666666666,16.428571428571427,-307.69841269841265,-308.8095238095238,1.0317460317460316,4.682539682539682,-321.8253968253968
325.0,32.77777777777778,325.0,11.031746031746032,325.0,325.0,325.0,-325.0,325.0,14.047619047619047,325.0,325.0,325.0,161.8253968253968,325.0,21.984126984126984,325.0,16.26984126984127,23.41269841269841,-302.3015873015873,-303.25396825396825,-0.5555555555555556,-4.841269841269841,-321.8253968253968
325.0,32.77777777777778,325.0,11.031746031746032,325.0,325.0,325.0,-325.0,325.0,14.047619047619047,325.0,325.0,325.0,161.8253968253968,325.0,21.984126984126984,325.0,16.26984126984127,23.41269841269841,-302.3015873015873,-303.25396825396825,-0.5555555555555556,-4.841269841269841,-321.8253968253968
325.0,29.126984126984127,325.0,11.19047619047619,325.0,325.0,325.0,-325.0,325.0,11.984126984126984,325.0,325.0,325.0,158.96825396825395,325.0,21.666666666666664,325.0,14.365079365079364,24.523809523809522,-297.22222222222223,-298.015873015873,1.1904761904761905,3.73015873015873,-321.8253968253968
325.0,29.126984126984127,325.0,11.19047619047619,325.0,325.0,325.0,-325.0,325.0,11.984126984126984,325.0,325.0,325.0,158.96825396825395,325.0,21.666666666666664,325.0,14.365079365079364,24.523809523809522,-297.22222222222223,-298.015873015873,1.1904761904761905,3.73015873015873,-321.8253968253968
325.0,27.38095238095238,325.0,7.698412698412698,325.0,325.0,325.0,-325.0,325.0,9.761904761904761,325.0,325.0,325.0,156.9047619047619,325.0,19.92063492063492,325.0,12.3015873015873,24.523809523809522,-293.4126984126984,-294.04761904761904,9.603174603174603,8.015873015873016,-166.26984126984127
325.0,27.38095238095238,325.0,7.698412698412698,325.0,325.0,325.0,-325.0,325.0,9.761904761904761,325.0,325.0,325.0,156.9047619047619,325.0,19.92063492063492,325.0,12.3015873015873,24.523809523809522,-293.4126984126984,-294.04761904761904,9.603174603174603,8.015873015873016,-166.26984126984127
325.0,17.22222222222222,325.0,0.7142857142857142,325.0,325.0,325.0,-325.0,325.0,1.349206349206349,325.0,325.0,325.0,154.2063492063492,325.0,13.095238095238095,237.69841269841268,3.888888888888889,18.333333333333332,-288.17460317460313,-288.4920634920635,-8.333333333333332,-8.174603174603174,-166.26984126984127
325.0,17.22222222222222,325.0,0.7142857142857142,325.0,325.0,325.0,-325.0,325.0,1.349206349206349,325.0,325.0,325.0,154.2063492063492,325.0,13.095238095238095,237.69841269841268,3.888888888888889,18.333333333333332,-288.17460317460313,-288.4920634920635,-8.333333333333332,-8.174603174603174,-166.26984126984127
325.0,-5.158730158730158,325.0,-17.698412698412696,223.57142857142856,325.0,305.3174603174603,-325.0,325.0,-19.444444444444443,307.69841269841265,325.0,296.74603174603175,139.76190476190476,325.0,-3.4126984126984126,159.6031746031746,-17.063492063492063,9.285714285714285,-262.3015873015873,-261.8253968253968,0.23809523809523808,-0.873015873015873,-166.26984126984127
325.0,-5.158730158730158,325.0,-17.698412698412696,223.57142857142856,325.0,305.3174603174603,-325.0,325.0,-19.444444444444443,307.69841269841265,325.0,296.74603174603175,139.76190476190476,325.0,-3.4126984126984126,159.6031746031746,-17.063492063492063,9.285714285714285,-262.3015873015873,-261.8253968253968,0.23809523809523808,-0.873015873015873,-166.26984126984127
140.3968253968254,-150.23809523809524,-51.98412698412698,-94.52380952380952,-97.22222222222221,31.98412698412698,-244.68253968253967,-269.44444444444446,1.6666666666666665,-24.047619047619047,-201.19047619047618,40.238095238095234,231.98412698412696,-111.66666666666666,261.1904761904762,-68.96825396825396,-273.25396825396825,-188.4920634920635,86.9047619047619,-15.0,-129.12698412698413,111.34920634920634,138.4920634920635,-166.26984126984127
140.3968253968254,-150.23809523809524,-51.98412698412698,-94.52380952380952,-97.22222222222221,31.98412698412698,-244.68253968253967,-269.44444444444446,1.6666666666666665,-24.047619047619047,-201.19047619047618,40.238095238095234,231.98412698412696,-111.66666666666666,261.1904761904762,-68.96825396825396,-273.25396825396825,-188.4920634920635,86.9047619047619,-15.0,-129.12698412698413,111.34920634920634,138.4920634920635,-166.26984126984127
126.58730158730158,-33.57142857142857,126.58730158730158,-13.412698412698411,-262.1428571428571,144.36507936507937,-267.6984126984127,-156.42857142857142,134.2063492063492,-22.619047619047617,-265.6349206349206,142.14285714285714,-64.68253968253968,197.38095238095238,137.38095238095238,-11.825396825396824,-258.17460317460313,-24.365079365079364,2.46031746031746,116.26984126984127,40.39682539682539,10.873015873015872,18.49206349206349,-166.26984126984127
126.58730158730158,-33.57142857142857,126.58730158730158,-13.412698412698411,-262.1428571428571,144.36507936507937,-267.6984126984127,-156.42857142857142,134.2063492063492,-22.619047619047617,-265.6349206349206,142.14285714285714,-64.68253968253968,197.38095238095238,137.38095238095238,-11.825396825396824,-258.17460317460313,-24.365079365079364,2.46031746031746,116.26984126984127,40.39682539682539,10.873015873015872,18.49206349206349,-166.26984126984127
72.93650793650794,-19.76190476190476,73.4126984126984,8.65079365079365,-199.12698412698413,88.33333333333333,-210.3968253968254,-96.1111111111111,80.23809523809523,0.07936507936507936,-206.26984126984127,90.71428571428571,-269.1269841269841,325.0,81.66666666666666,3.253968253968254,-191.19047619047618,-3.095238095238095,10.079365079365079,325.0,211.03174603174602,10.714285714285714,18.015873015873016,-321.8253968253968
72.93650793650794,-19.76190476190476,73.4126984126984,8.65079365079365,-199.12698412698413,88.33333333333333,-210.3968253968254,-96.1111111111111,80.23809523809523,0.07936507936507936,-206.26984126984127,90.71428571428571,-269.1269841269841,325.0,81.66666666666666,3.253968253968254,-191.19047619047618,-3.095238095238095,10.079365079365079,325.0,211.03174603174602,10.714285714285714,18.015873015873016,-321.8253968253968
52.77777777777777,-35.15873015873016,-325.0,-4.682539682539682,-69.44444444444444,-296.4285714285714,-68.01587301587301,84.84126984126983,-190.55555555555554,-11.507936507936508,-78.17460317460316,-313.0952380952381,-129.9206349206349,-325.0,60.079365079365076,-11.19047619047619,-60.079365079365076,-14.206349206349206,-8.968253968253968,215.3174603174603,208.4920634920635,8.968253968253968,14.206349206349206,-321.8253968253968
52.77777777777777,-35.15873015873016,-325.0,-4.682539682539682,-69.44444444444444,-296.4285714285714,-68.01587301587301,84.84126984126983,-190.55555555555554,-11.507936507936508,-78.17460317460316,-313.0952380952381,-129.9206349206349,-325.0,60.079365079365076,-11.19047619047619,-60.079365079365076,-14.206349206349206,-8.968253968253968,215.3174603174603,208.4920634920635,8.968253968253968,14.206349206349206,-321.8253968253968
52.61904761904761,-28.015873015873016,-325.0,2.7777777777777777,-138.015873015873,-267.85714285714283,-148.015873015873,43.41269841269841,-211.03174603174602,-5.7936507936507935,-143.25396825396825,-301.031746031746,-212.14285714285714,-325.0,59.76190476190476,-5.7936507936507935,-125.63492063492063,-8.809523809523808,-2.619047619047619,325.0,246.42857142857142,12.3015873015873,18.015873015873016,-321.8253968253968
52.61904761904761,-28.015873015873016,-325.0,2.7777777777777777,-138.015873015873,-267.85714285714283,-148.015873015873,43.41269841269841,-211.03174603174602,-5.7936507936507935,-143.25396825396825,-301.031746031746,-212.14285714285714,-325.0,59.76190476190476,-5.7936507936507935,-125.63492063492063,-8.809523809523808,-2.619047619047619,325.0,246.42857142857142,12.3015873015873,18.015873015873016,-321.8253968253968
51.03174603174603,-31.825396825396822,-325.0,-3.73015873015873,-72.46031746031746,-325.0,-72.14285714285714,-63.888888888888886,38.49206349206349,-11.825396825396824,-81.82539682539682,-325.0,-133.57142857142856,-325.0,58.01587301587301,-11.19047619047619,-61.82539682539682,-14.047619047619047,-9.126984126984127,224.52380952380952,199.76190476190476,6.746031746031746,12.777777777777777,-321.8253968253968
51.03174603174603,-31.825396825396822,-325.0,-3.73015873015873,-72.46031746031746,-325.0,-72.14285714285714,-63.888888888888886,38.49206349206349,-11.825396825396824,-81.82539682539682,-325.0,-133.57142857142856,-325.0,58.01587301587301,-11.19047619047619,-61.82539682539682,-14.047619047619047,-9.126984126984127,224.52380952380952,199.76190476190476,6.746031746031746,12.777777777777777,-321.8253968253968
50.39682539682539,-22.619047619047617,-325.0,4.2063492063492065,-105.79365079365078,-325.0,-113.88888888888889,-68.65079365079364,-98.49206349206348,-4.682539682539682,-121.34920634920634,-325.0,-157.06349206349205,-325.0,57.22222222222222,-3.73015873015873,-95.63492063492063,-6.587301587301587,-1.0317460317460316,293.88888888888886,281.031746031746,-1.984126984126984,-1.349206349206349,-321.8253968253968
50.39682539682539,-22.619047619047617,-325.0,4.2063492063492065,-105.79365079365078,-325.0,-113.88888888888889,-68.65079365079364,-98.49206349206348,-4.682539682539682,-121.34920634920634,-325.0,-157.06349206349205,-325.0,57.22222222222222,-3.73015873015873,-95.63492063492063,-6.587301587301587,-1.0317460317460316,293.88888888888886,281.031746031746,-1.984126984126984,-1.349206349206349,-321.8253968253968
49.285714285714285,-33.888888888888886,-325.0,-5.7936507936507935,-70.55555555555556,-325.0,-70.07936507936508,-69.28571428571428,42.14285714285714,-13.73015873015873,-79.76190476190476,-325.0,-131.984126984127,-325.0,55.95238095238095,-13.412698412698411,-60.079365079365076,-15.793650793650793,-11.666666666666666,231.34920634920633,195.47619047619045,7.3809523809523805,13.253968253968253,-166.26984126984127
49.285714285714285,-33.888888888888886,-325.0,-5.7936507936507935,-70.55555555555556,-325.0,-70.07936507936508,-69.28571428571428,42.14285714285714,-13.73015873015873,-79.76190476190476,-325.0,-131.984126984127,-325.0,55.95238095238095,-13.412698412698411,-60.079365079365076,-15.793650793650793,-11.666666666666666,231.34920634920633,195.47619047619045,7.3809523809523805,13.253968253968253,-166.26984126984127
48.49206349206349,-24.047619047619047,-325.0,3.253968253968254,-104.04761904761904,-325.0,-111.82539682539682,-69.92063492063491,-96.74603174603175,-5.0,-119.28571428571428,-325.0,-154.36507936507937,-325.0,55.317460317460316,-4.841269841269841,-94.2063492063492,-7.3809523809523805,-2.142857142857143,289.4444444444444,278.17460317460313,-2.142857142857143,-1.6666666666666665,-166.26984126984127
48.49206349206349,-24.047619047619047,-325.0,3.253968253968254,-104.04761904761904,-325.0,-111.82539682539682,-69.92063492063491,-96.74603174603175,-5.0,-119.28571428571428,-325.0,-154.36507936507937,-325.0,55.317460317460316,-4.841269841269841,-94.2063492063492,-7.3809523809523805,-2.142857142857143,289.4444444444444,278.17460317460313,-2.142857142857143,-1.6666666666666665,-166.26984126984127
48.01587301587301,-20.238095238095237,-325.0,5.0,-76.42857142857143,-325.0,-81.98412698412697,-71.19047619047619,-324.5238095238095,-2.142857142857143,-101.98412698412697,-325.0,-103.4126984126984,-325.0,54.841269841269835,-1.507936507936508,-71.34920634920634,-4.2063492063492065,1.1904761904761905,254.04761904761904,325.0,-14.206349206349206,-19.92063492063492,-166.26984126984127
48.01587301587301,-20.238095238095237,-325.0,5.0,-76.42857142857143,-325.0,-81.98412698412697,-71.19047619047619,-324.5238095238095,-2.142857142857143,-101.98412698412697,-325.0,-103.4126984126984,-325.0,54.841269841269835,-1.507936507936508,-71.34920634920634,-4.2063492063492065,1.1904761904761905,254.04761904761904,325.0,-14.206349206349206,-19.92063492063492,-166.26984126984127
45.63492063492063,-8.809523809523808,-325.0,18.80952380952381,-121.66666666666666,-315.1587301587301,-132.14285714285714,-71.98412698412697,135.95238095238093,9.761904761904761,-126.58730158730158,-325.0,-195.0,-325.0,52.14285714285714,8.968253968253968,-106.26984126984127,6.746031746031746,10.714285714285714,325.0,220.2380952380952,8.809523809523808,16.904761904761905,-166.26984126984127
45.63492063492063,-8.809523809523808,-325.0,18.80952380952381,-121.66666666666666,-315.1587301587301,-132.14285714285714,-71.98412698412697,135.95238095238093,9.761904761904761,-126.58730158730158,-325.0,-195.0,-325.0,52.14285714285714,8.968253968253968,-106.26984126984127,6.746031746031746,10.714285714285714,325.0,220.2380952380952,8.809523809523808,16.904761904761905,-166.26984126984127
44.68253968253968,-11.825396825396824,-325.0,15.634920634920634,-119.44444444444444,-320.07936507936506,-130.07936507936506,56.74603174603174,136.26984126984127,7.3809523809523805,-124.36507936507935,-325.0,-192.3015873015873,-306.1111111111111,51.19047619047619,6.587301587301587,-103.88888888888889,4.682539682539682,8.015873015873016,325.0,217.53968253968253,8.968253968253968,16.26984126984127,-166.26984126984127
44.68253968253968,-11.825396825396824,-325.0,15.634920634920634,-119.44444444444444,-320.07936507936506,-130.07936507936506,56.74603174603174,136.26984126984127,7.3809523809523805,-124.36507936507935,-325.0,-192.3015873015873,-306.1111111111111,51.19047619047619,6.587301587301587,-103.88888888888889,4.682539682539682,8.015873015873016,325.0,217.53968253968253,8.968253968253968,16.26984126984127,-166.26984126984127
43.888888888888886,-14.682539682539682,-325.0,12.619047619047619,-117.22222222222221,-325.0,-128.015873015873,185.63492063492063,136.58730158730157,5.158730158730158,-122.14285714285714,-325.0,-189.60317460317458,-287.06349206349205,50.39682539682539,4.2063492063492065,-101.34920634920634,2.7777777777777777,5.317460317460317,325.0,215.0,9.285714285714285,15.634920634920634,-321.8253968253968
43.888888888888886,-14.682539682539682,-325.0,12.619047619047619,-117.22222222222221,-325.0,-128.015873015873,185.63492063492063,136.58730158730157,5.158730158730158,-122.14285714285714,-325.0,-189.60317460317458,-287.06349206349205,50.39682539682539,4.2063492063492065,-101.34920634920634,2.7777777777777777,5.317460317460317,325.0,215.0,9.285714285714285,15.634920634920634,-321.8253968253968
43.888888888888886,-14.682539682539682,-325.0,12.619047619047619,-117.22222222222221,-325.0,-128.015873015873,185.63492063492063,136.58730158730157,5.158730158730158,-122.14285714285714,-325.0,-189.60317460317458,-287.06349206349205,50.39682539682539,4.2063492063492065,-101.34920634920634,2.7777777777777777,5.317460317460317,325.0,215.0,9.285714285714285,15.634920634920634,-321.8253968253968
43.888888888888886,-14.682539682539682,-325.0,12.619047619047619,-117.22222222222221,-325.0,-128.015873015873,185.63492063492063,136.58730158730157,5.158730158730158,-122.14285714285714,-325.0,-189.60317460317458,-287.06349206349205,50.39682539682539,4.2063492063492065,-101.34920634920634,2.7777777777777777,5.317460317460317,325.0,215.0,9.285714285714285,15.634920634920634,-321.8253968253968
-325.0,-18.333333333333332,-325.0,-0.7142857142857142,-11.19047619047619,-325.0,-5.7936507936507935,325.0,-325.0,-2.3015873015873014,-27.38095238095238,-325.0,-66.74603174603175,-306.74603174603175,-180.23809523809524,-2.7777777777777777,-16.428571428571427,-1.984126984126984,-5.7936507936507935,215.95238095238093,95.63492063492063,6.746031746031746,14.206349206349206,-321.8253968253968
-325.0,-18.333333333333332,-325.0,-0.7142857142857142,-11.19047619047619,-325.0,-5.7936507936507935,325.0,-325.0,-2.3015873015873014,-27.38095238095238,-325.0,-66.74603174603175,-306.74603174603175,-180.23809523809524,-2.7777777777777777,-16.428571428571427,-1.984126984126984,-5.7936507936507935,215.95238095238093,95.63492063492063,6.746031746031746,14.206349206349206,-321.8253968253968
-325.0,-18.333333333333332,-325.0,-0.7142857142857142,-11.19047619047619,-325.0,-5.7936507936507935,325.0,-325.0,-2.3015873015873014,-27.38095238095238,-325.0,-66.74603174603175,-306.74603174603175,-180.23809523809524,-2.7777777777777777,-16.428571428571427,-1.984126984126984,-5.7936507936507935,215.95238095238093,95.63492063492063,6.746031746031746,14.206349206349206,-321.8253968253968
-325.0,-18.333333333333332,-325.0,-0.7142857142857142,-11.19047619047619,-325.0,-5.7936507936507935,325.0,-325.0,-2.3015873015873014,-27.38095238095238,-325.0,-66.74603174603175,-306.74603174603175,-180.23809523809524,-2.7777777777777777,-16.428571428571427,-1.984126984126984,-5.7936507936507935,215.95238095238093,95.63492063492063,6.746031746031746,14.206349206349206,-321.8253968253968
-325.0,-9.761904761904761,-325.0,3.095238095238095,-61.34920634920635,-325.0,-61.34920634920635,125.79365079365078,-322.46031746031747,1.8253968253968254,-78.17460317460316,-325.0,-90.23809523809523,-273.0952380952381,-308.015873015873,1.0317460317460316,-64.84126984126983,1.984126984126984,-1.507936507936508,153.09523809523807,204.52380952380952,-4.2063492063492065,-2.142857142857143,-321.8253968253968
-325.0,-9.761904761904761,-325.0,3.095238095238095,-61.34920634920635,-325.0,-61.34920634920635,125.79365079365078,-322.46031746031747,1.8253968253968254,-78.17460317460316,-325.0,-90.23809523809523,-273.0952380952381,-308.015873015873,1.0317460317460316,-64.84126984126983,1.984126984126984,-1.507936507936508,153.09523809523807,204.52380952380952,-4.2063492063492065,-2.142857142857143,-321.8253968253968
-325.0,11.031746031746032,-325.0,21.507936507936506,-68.4920634920635,-325.0,-74.2063492063492,-118.8095238095238,-261.984126984127,18.174603174603174,-77.06349206349206,-325.0,-97.85714285714285,-257.85714285714283,-308.015873015873,16.904761904761905,-57.698412698412696,17.38095238095238,15.158730158730158,185.3174603174603,196.9047619047619,-4.0476190476190474,-2.46031746031746,-166.26984126984127
-325.0,11.031746031746032,-325.0,21.507936507936506,-68.4920634920635,-325.0,-74.2063492063492,-118.8095238095238,-261.984126984127,18.174603174603174,-77.06349206349206,-325.0,-97.85714285714285,-257.85714285714283,-308.015873015873,16.904761904761905,-57.698412698412696,17.38095238095238,15.158730158730158,185.3174603174603,196.9047619047619,-4.0476190476190474,-2.46031746031746,-166.26984126984127
-325.0,4.2063492063492065,-325.0,11.507936507936508,-81.98412698412697,-325.0,-96.42857142857142,-19.444444444444443,-163.88888888888889,6.746031746031746,-85.79365079365078,-325.0,-95.0,-253.4126984126984,-246.42857142857142,3.571428571428571,-67.6984126984127,4.365079365079365,3.571428571428571,65.79365079365078,161.984126984127,-3.095238095238095,-12.936507936507935,-166.26984126984127
-325.0,4.2063492063492065,-325.0,11.507936507936508,-81.98412698412697,-325.0,-96.42857142857142,-19.444444444444443,-163.88888888888889,6.746031746031746,-85.79365079365078,-325.0,-95.0,-253.4126984126984,-246.42857142857142,3.571428571428571,-67.6984126984127,4.365079365079365,3.571428571428571,65.79365079365078,161.984126984127,-3.095238095238095,-12.936507936507935,-166.26984126984127
-325.0,-9.603174603174603,-325.0,3.888888888888889,-19.6031746031746,-325.0,-21.825396825396822,325.0,-238.33333333333331,2.7777777777777777,-28.174603174603174,-325.0,-74.68253968253968,-145.79365079365078,-325.0,0.7142857142857142,-13.253968253968253,1.984126984126984,-1.507936507936508,226.58730158730157,67.38095238095238,7.222222222222221,12.777777777777777,-166.26984126984127
-325.0,-9.603174603174603,-325.0,3.888888888888889,-19.6031746031746,-325.0,-21.825396825396822,325.0,-238.33333333333331,2.7777777777777777,-28.174603174603174,-325.0,-74.68253968253968,-145.79365079365078,-325.0,0.7142857142857142,-13.253968253968253,1.984126984126984,-1.507936507936508,226.58730158730157,67.38095238095238,7.222222222222221,12.777777777777777,-166.26984126984127
-325.0,4.841269841269841,-325.0,17.22222222222222,-89.28571428571428,-325.0,-96.9047619047619,286.58730158730157,-239.28571428571428,15.476190476190474,-97.53968253968253,-325.0,-94.36507936507935,-138.015873015873,-250.3968253968254,13.73015873015873,-81.5079365079365,14.365079365079364,11.666666666666666,67.22222222222221,247.53968253968253,-10.079365079365079,-15.476190476190474,-166.26984126984127
-325.0,4.841269841269841,-325.0,17.22222222222222,-89.28571428571428,-325.0,-96.9047619047619,286.58730158730157,-239.28571428571428,15.476190476190474,-97.53968253968253,-325.0,-94.36507936507935,-138.015873015873,-250.3968253968254,13.73015873015873,-81.5079365079365,14.365079365079364,11.666666666666666,67.22222222222221,247.53968253968253,-10.079365079365079,-15.476190476190474,-166.26984126984127
-325.0,-2.7777777777777777,-325.0,10.396825396825395,-18.49206349206349,-325.0,-20.396825396825395,325.0,-228.015873015873,9.126984126984127,-26.746031746031743,-325.0,-71.66666666666666,20.555555555555554,-325.0,7.063492063492063,-12.142857142857142,8.333333333333332,4.682539682539682,220.2380952380952,57.857142857142854,8.174603174603174,14.682539682539682,-166.26984126984127
-325.0,-2.7777777777777777,-325.0,10.396825396825395,-18.49206349206349,-325.0,-20.396825396825395,325.0,-228.015873015873,9.126984126984127,-26.746031746031743,-325.0,-71.66666666666666,20.555555555555554,-325.0,7.063492063492063,-12.142857142857142,8.333333333333332,4.682539682539682,220.2380952380952,57.857142857142854,8.174603174603174,14.682539682539682,-166.26984126984127
-325.0,5.634920634920634,-325.0,16.11111111111111,-94.68253968253968,-325.0,-102.14285714285714,259.76190476190476,-236.26984126984127,14.523809523809524,-102.61904761904762,-325.0,-99.12698412698413,42.3015873015873,-233.4126984126984,12.46031746031746,-85.63492063492063,13.095238095238095,10.396825396825395,63.41269841269841,247.06349206349205,-9.603174603174603,-14.84126984126984,-321.8253968253968
-325.0,5.634920634920634,-325.0,16.11111111111111,-94.68253968253968,-325.0,-102.14285714285714,259.76190476190476,-236.26984126984127,14.523809523809524,-102.61904761904762,-325.0,-99.12698412698413,42.3015873015873,-233.4126984126984,12.46031746031746,-85.63492063492063,13.095238095238095,10.396825396825395,63.41269841269841,247.06349206349205,-9.603174603174603,-14.84126984126984,-321.8253968253968
-325.0,-10.238095238095237,-323.4126984126984,2.7777777777777777,-16.11111111111111,-325.0,-18.333333333333332,325.0,-221.8253968253968,2.9365079365079363,-24.523809523809522,-325.0,-68.80952380952381,322.77777777777777,-325.0,0.873015873015873,-9.920634920634921,2.3015873015873014,-1.8253968253968254,215.15873015873015,51.666666666666664,8.174603174603174,14.206349206349206,-321.8253968253968
-325.0,-10.238095238095237,-323.4126984126984,2.7777777777777777,-16.11111111111111,-325.0,-18.333333333333332,325.0,-221.8253968253968,2.9365079365079363,-24.523809523809522,-325.0,-68.80952380952381,322.77777777777777,-325.0,0.873015873015873,-9.920634920634921,2.3015873015873014,-1.8253968253968254,215.15873015873015,51.666666666666664,8.174603174603174,14.206349206349206,-321.8253968253968
-325.0,6.428571428571428,-322.3015873015873,19.126984126984127,-9.126984126984127,-325.0,-16.11111111111111,325.0,-181.5079365079365,17.38095238095238,-9.285714285714285,-325.0,-61.507936507936506,325.0,-325.0,14.365079365079364,13.571428571428571,15.476190476190474,12.619047619047619,250.87301587301585,41.82539682539682,7.3809523809523805,11.19047619047619,-321.8253968253968
-325.0,6.428571428571428,-322.3015873015873,19.126984126984127,-9.126984126984127,-325.0,-16.11111111111111,325.0,-181.5079365079365,17.38095238095238,-9.285714285714285,-325.0,-61.507936507936506,325.0,-325.0,14.365079365079364,13.571428571428571,15.476190476190474,12.619047619047619,250.87301587301585,41.82539682539682,7.3809523809523805,11.19047619047619,-321.8253968253968
-325.0,9.126984126984127,-307.38095238095235,17.38095238095238,-90.23809523809523,-325.0,-97.85714285714285,226.9047619047619,-228.65079365079364,15.476190476190474,-97.38095238095238,-325.0,-92.46031746031746,56.42857142857142,-158.4920634920635,13.253968253968253,-80.87301587301587,14.047619047619047,11.19047619047619,54.36507936507936,243.09523809523807,-9.285714285714285,-15.158730158730158,-321.8253968253968
-325.0,9.126984126984127,-307.38095238095235,17.38095238095238,-90.23809523809523,-325.0,-97.85714285714285,226.9047619047619,-228.65079365079364,15.476190476190474,-97.38095238095238,-325.0,-92.46031746031746,56.42857142857142,-158.4920634920635,13.253968253968253,-80.87301587301587,14.047619047619047,11.19047619047619,54.36507936507936,243.09523809523807,-9.285714285714285,-15.158730158730158,-321.8253968253968
-325.0,-3.571428571428571,-302.46031746031747,6.746031746031746,-11.825396825396824,-325.0,-13.571428571428571,231.19047619047618,-204.52380952380952,6.26984126984127,-19.92063492063492,-325.0,-62.93650793650793,207.2222222222222,-325.0,4.365079365079365,-5.7936507936507935,5.7936507936507935,1.6666666666666665,205.0,39.44444444444444,8.968253968253968,14.206349206349206,-321.8253968253968
-325.0,-3.571428571428571,-302.46031746031747,6.746031746031746,-11.825396825396824,-325.0,-13.571428571428571,231.19047619047618,-204.52380952380952,6.26984126984127,-19.92063492063492,-325.0,-62.93650793650793,207.2222222222222,-325.0,4.365079365079365,-5.7936507936507935,5.7936507936507935,1.6666666666666665,205.0,39.44444444444444,8.968253968253968,14.206349206349206,-321.8253968253968
-325.0,15.317460317460316,-297.22222222222223,20.238095238095237,-93.57142857142857,-325.0,-101.19047619047619,110.87301587301587,-237.2222222222222,17.857142857142858,-100.39682539682539,-325.0,-94.04761904761904,-209.12698412698413,-124.52380952380952,16.11111111111111,-83.25396825396825,16.904761904761905,14.047619047619047,49.92063492063492,245.0,-9.126984126984127,-14.84126984126984,-166.26984126984127
-325.0,15.317460317460316,-297.22222222222223,20.238095238095237,-93.57142857142857,-325.0,-101.19047619047619,110.87301587301587,-237.2222222222222,17.857142857142858,-100.39682539682539,-325.0,-94.04761904761904,-209.12698412698413,-124.52380952380952,16.11111111111111,-83.25396825396825,16.904761904761905,14.047619047619047,49.92063492063492,245.0,-9.126984126984127,-14.84126984126984,-166.26984126984127
-325.0,8.015873015873016,-292.6190476190476,16.11111111111111,-12.142857142857142,-325.0,-14.206349206349206,-231.98412698412696,-204.52380952380952,15.158730158730158,-20.238095238095237,-325.0,-62.460317460317455,-275.3174603174603,-186.11111111111111,13.571428571428571,-6.746031746031746,15.158730158730158,11.349206349206348,198.96825396825395,32.93650793650794,7.5396825396825395,13.253968253968253,-166.26984126984127
-325.0,8.015873015873016,-292.6190476190476,16.11111111111111,-12.142857142857142,-325.0,-14.206349206349206,-231.98412698412696,-204.52380952380952,15.158730158730158,-20.238095238095237,-325.0,-62.460317460317455,-275.3174603174603,-186.11111111111111,13.571428571428571,-6.746031746031746,15.158730158730158,11.349206349206348,198.96825396825395,32.93650793650794,7.5396825396825395,13.253968253968253,-166.26984126984127
-325.0,26.9047619047619,-288.8095238095238,33.25396825396825,-56.904761904761905,-325.0,-60.238095238095234,-193.09523809523807,-217.2222222222222,31.349206349206348,-61.98412698412698,-325.0,-79.76190476190476,-264.8412698412698,-114.84126984126983,29.6031746031746,-43.888888888888886,30.396825396825395,27.063492063492063,133.57142857142856,168.65079365079364,-4.2063492063492065,-2.46031746031746,-166.26984126984127
-325.0,26.9047619047619,-288.8095238095238,33.25396825396825,-56.904761904761905,-325.0,-60.238095238095234,-193.09523809523807,-217.2222222222222,31.349206349206348,-61.98412698412698,-325.0,-79.76190476190476,-264.8412698412698,-114.84126984126983,29.6031746031746,-43.888888888888886,30.396825396825395,27.063492063492063,133.57142857142856,168.65079365079364,-4.2063492063492065,-2.46031746031746,-166.26984126984127
-325.0,27.539682539682538,-284.04761904761904,33.41269841269841,-53.57142857142857,-325.0,-56.58730158730158,-76.74603174603175,-212.77777777777777,31.825396825396822,-58.49206349206349,-325.0,-76.1111111111111,-258.17460317460313,-0.5555555555555556,29.920634920634917,-41.03174603174603,31.03174603174603,27.857142857142854,129.9206349206349,164.04761904761904,-4.0476190476190474,-2.7777777777777777,-166.26984126984127
-325.0,27.539682539682538,-284.04761904761904,33.41269841269841,-53.57142857142857,-325.0,-56.58730158730158,-76.74603174603175,-212.77777777777777,31.825396825396822,-58.49206349206349,-325.0,-76.1111111111111,-258.17460317460313,-0.5555555555555556,29.920634920634917,-41.03174603174603,31.03174603174603,27.857142857142854,129.9206349206349,164.04761904761904,-4.0476190476190474,-2.7777777777777777,-166.26984126984127
-325.0,26.746031746031743,-278.015873015873,31.19047619047619,-92.30158730158729,-325.0,-98.80952380952381,15.158730158730158,-228.96825396825395,29.920634920634917,-97.53968253968253,-325.0,-91.66666666666666,-252.14285714285714,-16.428571428571427,27.857142857142854,-81.03174603174602,28.809523809523807,25.634920634920633,39.6031746031746,241.19047619047618,-8.015873015873016,-14.682539682539682,-166.26984126984127
-325.0,26.746031746031743,-278.015873015873,31.19047619047619,-92.30158730158729,-325.0,-98.80952380952381,15.158730158730158,-228.96825396825395,29.920634920634917,-97.53968253968253,-325.0,-91.66666666666666,-252.14285714285714,-16.428571428571427,27.857142857142854,-81.03174603174602,28.809523809523807,25.634920634920633,39.6031746031746,241.19047619047618,-8.015873015873016,-14.682539682539682,-166.26984126984127
-325.0,13.253968253968253,-273.88888888888886,22.3015873015873,-6.428571428571428,-325.0,-8.492063492063492,325.0,-183.4126984126984,22.777777777777775,-14.206349206349206,-325.0,-57.38095238095238,-247.85714285714283,204.36507936507937,21.03174603174603,-2.3015873015873014,23.095238095238095,18.333333333333332,186.9047619047619,21.825396825396822,6.746031746031746,13.412698412698411,-321.8253968253968
-325.0,13.253968253968253,-273.88888888888886,22.3015873015873,-6.428571428571428,-325.0,-8.492063492063492,325.0,-183.4126984126984,22.777777777777775,-14.206349206349206,-325.0,-57.38095238095238,-247.85714285714283,204.36507936507937,21.03174603174603,-2.3015873015873014,23.095238095238095,18.333333333333332,186.9047619047619,21.825396825396822,6.746031746031746,13.412698412698411,-321.8253968253968
-325.0,19.285714285714285,-268.968253968254,24.68253968253968,-87.53968253968253,-325.0,-93.88888888888889,158.015873015873,-219.12698412698413,23.730158730158728,-92.14285714285714,-325.0,-85.95238095238095,-243.09523809523807,-9.920634920634921,21.349206349206348,-75.95238095238095,22.3015873015873,19.126984126984127,37.22222222222222,234.36507936507934,-7.857142857142857,-14.84126984126984,-321.8253968253968
-325.0,19.285714285714285,-268.968253968254,24.68253968253968,-87.53968253968253,-325.0,-93.88888888888889,158.015873015873,-219.12698412698413,23.730158730158728,-92.14285714285714,-325.0,-85.95238095238095,-243.09523809523807,-9.920634920634921,21.349206349206348,-75.95238095238095,22.3015873015873,19.126984126984127,37.22222222222222,234.36507936507934,-7.857142857142857,-14.84126984126984,-321.8253968253968
-325.0,14.682539682539682,-262.46031746031747,21.19047619047619,-14.365079365079364,-325.0,-22.777777777777775,236.74603174603175,-152.14285714285714,19.76190476190476,-13.412698412698411,-325.0,-36.74603174603175,-236.58730158730157,168.17460317460316,17.22222222222222,6.111111111111111,18.65079365079365,15.793650793650793,135.95238095238093,67.22222222222221,0.23809523809523808,-2.619047619047619,-321.8253968253968
-325.0,14.682539682539682,-262.46031746031747,21.19047619047619,-14.365079365079364,-325.0,-22.777777777777775,236.74603174603175,-152.14285714285714,19.76190476190476,-13.412698412698411,-325.0,-36.74603174603175,-236.58730158730157,168.17460317460316,17.22222222222222,6.111111111111111,18.65079365079365,15.793650793650793,135.95238095238093,67.22222222222221,0.23809523809523808,-2.619047619047619,-321.8253968253968
-325.0,11.349206349206348,-261.031746031746,16.428571428571427,-53.57142857142857,-325.0,-65.31746031746032,305.3174603174603,-178.65079365079364,14.682539682539682,-53.095238095238095,-325.0,-51.82539682539682,-235.15873015873015,96.9047619047619,12.46031746031746,-33.57142857142857,13.888888888888888,11.349206349206348,54.047619047619044,151.19047619047618,-3.73015873015873,-15.0,-321.8253968253968
-325.0,11.349206349206348,-261.031746031746,16.428571428571427,-53.57142857142857,-325.0,-65.31746031746032,305.3174603174603,-178.65079365079364,14.682539682539682,-53.095238095238095,-325.0,-51.82539682539682,-235.15873015873015,96.9047619047619,12.46031746031746,-33.57142857142857,13.888888888888888,11.349206349206348,54.047619047619044,151.19047619047618,-3.73015873015873,-15.0,-321.8253968253968
-325.0,11.349206349206348,-261.031746031746,16.428571428571427,-53.57142857142857,-325.0,-65.31746031746032,305.3174603174603,-178.65079365079364,14.682539682539682,-53.095238095238095,-325.0,-51.82539682539682,-235.15873015873015,96.9047619047619,12.46031746031746,-33.57142857142857,13.888888888888888,11.349206349206348,54.047619047619044,151.19047619047618,-3.73015873015873,-15.0,-321.8253968253968
-325.0,11.349206349206348,-261.031746031746,16.428571428571427,-53.57142857142857,-325.0,-65.31746031746032,305.3174603174603,-178.65079365079364,14.682539682539682,-53.095238095238095,-325.0,-51.82539682539682,-235.15873015873015,96.9047619047619,12.46031746031746,-33.57142857142857,13.888888888888888,11.349206349206348,54.047619047619044,151.19047619047618,-3.73015873015873,-15.0,-321.8253968253968
-325.0,11.349206349206348,-261.031746031746,16.428571428571427,-53.57142857142857,-325.0,-65.31746031746032,305.3174603174603,-178.65079365079364,14.682539682539682,-53.095238095238095,-325.0,-51.82539682539682,-235.15873015873015,96.9047619047619,12.46031746031746,-33.57142857142857,13.888888888888888,11.349206349206348,54.047619047619044,151.19047619047618,-3.73015873015873,-15.0,-166.26984126984127
-325.0,11.349206349206348,-261.031746031746,16.428571428571427,-53.57142857142857,-325.0,-65.31746031746032,305.3174603174603,-178.65079365079364,14.682539682539682,-53.095238095238095,-325.0,-51.82539682539682,-235.15873015873015,96.9047619047619,12.46031746031746,-33.57142857142857,13.888888888888888,11.349206349206348,54.047619047619044,151.19047619047618,-3.73015873015873,-15.0,-166.26984126984127
-325.0,29.6031746031746,-246.74603174603172,35.95238095238095,38.65079365079365,-325.0,34.047619047619044,242.6190476190476,-101.03174603174602,35.476190476190474,38.96825396825397,-313.4126984126984,-8.015873015873016,-221.66666666666666,260.87301587301585,32.77777777777778,56.11111111111111,34.52380952380952,30.71428571428571,206.58730158730157,-34.36507936507936,4.365079365079365,9.444444444444445,-166.26984126984127
-325.0,29.6031746031746,-246.74603174603172,35.95238095238095,38.65079365079365,-325.0,34.047619047619044,242.6190476190476,-101.03174603174602,35.476190476190474,38.96825396825397,-313.4126984126984,-8.015873015873016,-221.66666666666666,260.87301587301585,32.77777777777778,56.11111111111111,34.52380952380952,30.71428571428571,206.58730158730157,-34.36507936507936,4.365079365079365,9.444444444444445,-166.26984126984127
-325.0,13.888888888888888,-243.57142857142856,20.396825396825395,-0.3968253968253968,-323.88888888888886,-2.142857142857143,283.73015873015873,-158.015873015873,21.825396825396822,-7.857142857142857,-309.1269841269841,-49.76190476190476,-218.65079365079364,207.06349206349205,19.92063492063492,0.5555555555555556,22.142857142857142,17.063492063492063,166.26984126984127,2.46031746031746,5.7936507936507935,13.095238095238095,-166.26984126984127
-325.0,13.888888888888888,-243.57142857142856,20.396825396825395,-0.3968253968253968,-323.88888888888886,-2.142857142857143,283.73015873015873,-158.015873015873,21.825396825396822,-7.857142857142857,-309.1269841269841,-49.76190476190476,-218.65079365079364,207.06349206349205,19.92063492063492,0.5555555555555556,22.142857142857142,17.063492063492063,166.26984126984127,2.46031746031746,5.7936507936507935,13.095238095238095,-166.26984126984127
-325.0,5.634920634920634,-238.17460317460316,10.555555555555555,-41.666666666666664,-320.23809523809524,-46.74603174603175,325.0,-193.25396825396825,11.984126984126984,-48.80952380952381,-302.46031746031747,-64.84126984126983,-213.88888888888889,110.71428571428571,9.761904761904761,-38.80952380952381,11.984126984126984,7.063492063492063,88.80952380952381,89.28571428571428,2.3015873015873014,0.5555555555555556,-166.26984126984127
-325.0,5.634920634920634,-238.17460317460316,10.555555555555555,-41.666666666666664,-320.23809523809524,-46.74603174603175,325.0,-193.25396825396825,11.984126984126984,-48.80952380952381,-302.46031746031747,-64.84126984126983,-213.88888888888889,110.71428571428571,9.761904761904761,-38.80952380952381,11.984126984126984,7.063492063492063,88.80952380952381,89.28571428571428,2.3015873015873014,0.5555555555555556,-166.26984126984127
-325.0,-1.507936507936508,-216.9047619047619,5.476190476190476,-46.58730158730158,-292.6190476190476,-46.904761904761905,325.0,-208.96825396825395,11.031746031746032,-63.095238095238095,-275.95238095238096,-97.85714285714285,-194.2063492063492,152.3015873015873,10.555555555555555,-63.41269841269841,13.095238095238095,5.952380952380952,107.22222222222221,38.17460317460317,7.5396825396825395,17.857142857142858,-166.26984126984127
-325.0,-1.507936507936508,-216.9047619047619,5.476190476190476,-46.58730158730158,-292.6190476190476,-46.904761904761905,325.0,-208.96825396825395,11.031746031746032,-63.095238095238095,-275.95238095238096,-97.85714285714285,-194.2063492063492,152.3015873015873,10.555555555555555,-63.41269841269841,13.095238095238095,5.952380952380952,107.22222222222221,38.17460317460317,7.5396825396825395,17.857142857142858,-166.26984126984127
-325.0,-1.507936507936508,-216.9047619047619,5.476190476190476,-46.58730158730158,-292.6190476190476,-46.904761904761905,325.0,-208.96825396825395,11.031746031746032,-63.095238095238095,-275.95238095238096,-97.85714285714285,-194.2063492063492,152.3015873015873,10.555555555555555,-63.41269841269841,13.095238095238095,5.952380952380952,107.22222222222221,38.17460317460317,7.5396825396825395,17.857142857142858,-321.8253968253968
-325.0,-1.507936507936508,-216.9047619047619,5.476190476190476,-46.58730158730158,-292.6190476190476,-46.904761904761905,325.0,-208.96825396825395,11.031746031746032,-63.095238095238095,-275.95238095238096,-97.85714285714285,-194.2063492063492,152.3015873015873,10.555555555555555,-63.41269841269841,13.095238095238095,5.952380952380952,107.22222222222221,38.17460317460317,7.5396825396825395,17.857142857142858,-321.8253968253968
-325.0,-1.507936507936508,-216.9047619047619,5.476190476190476,-46.58730158730158,-312.9365079365079,-46.904761904761905,325.0,-208.96825396825395,11.031746031746032,-63.095238095238095,-275.95238095238096,-97.85714285714285,-194.2063492063492,152.3015873015873,10.555555555555555,-63.41269841269841,13.095238095238095,5.952380952380952,107.22222222222221,38.17460317460317,7.5396825396825395,17.857142857142858,-321.8253968253968
-325.0,-1.507936507936508,-216.9047619047619,5.476190476190476,-46.58730158730158,-312.9365079365079,-46.904761904761905,325.0,-208.96825396825395,11.031746031746032,-63.095238095238095,-275.95238095238096,-97.85714285714285,-194.2063492063492,152.3015873015873,10.555555555555555,-63.41269841269841,13.095238095238095,5.952380952380952,107.22222222222221,38.17460317460317,7.5396825396825395,17.857142857142858,-321.8253968253968
-325.0,-1.507936507936508,-216.9047619047619,5.476190476190476,-46.58730158730158,-312.9365079365079,-46.904761904761905,325.0,-208.96825396825395,11.031746031746032,-63.095238095238095,-275.95238095238096,-97.85714285714285,-194.2063492063492,152.3015873015873,10.555555555555555,-63.41269841269841,13.095238095238095,5.952380952380952,107.22222222222221,38.17460317460317,7.5396825396825395,17.857142857142858,-321.8253968253968
-325.0,-1.507936507936508,-216.9047619047619,5.476190476190476,-46.58730158730158,-312.9365079365079,-46.904761904761905,325.0,-208.96825396825395,11.031746031746032,-63.095238095238095,-275.95238095238096,-97.85714285714285,-194.2063492063492,152.3015873015873,10.555555555555555,-63.41269841269841,13.095238095238095,5.952380952380952,107.22222222222221,38.17460317460317,7.5396825396825395,17.857142857142858,-321.8253968253968
-325.0,-1.507936507936508,-216.9047619047619,5.476190476190476,-46.58730158730158,-312.9365079365079,-46.904761904761905,325.0,-208.96825396825395,11.031746031746032,-63.095238095238095,-275.95238095238096,-97.85714285714285,-194.2063492063492,152.3015873015873,10.555555555555555,-63.41269841269841,13.095238095238095,5.952380952380952,107.22222222222221,38.17460317460317,7.5396825396825395,17.857142857142858,-321.8253968253968
-325.0,-1.507936507936508,-216.9047619047619,5.476190476190476,-46.58730158730158,-312.9365079365079,-46.904761904761905,325.0,-208.96825396825395,11.031746031746032,-63.095238095238095,-275.95238095238096,-97.85714285714285,-194.2063492063492,152.3015873015873,10.555555555555555,-63.41269841269841,13.095238095238095,5.952380952380952,107.22222222222221,38.17460317460317,7.5396825396825395,17.857142857142858,-321.8253968253968
-325.0,-1.507936507936508,-216.9047619047619,5.476190476190476,-46.58730158730158,-312.9365079365079,-46.904761904761905,325.0,-208.96825396825395,11.031746031746032,-63.095238095238095,-275.95238095238096,-97.85714285714285,-194.2063492063492,152.3015873015873,10.555555555555555,-63.41269841269841,13.095238095238095,5.952380952380952,107.22222222222221,38.17460317460317,7.5396825396825395,17.857142857142858,-321.8253968253968
-325.0,-1.507936507936508,-216.9047619047619,5.476190476190476,-46.58730158730158,-312.9365079365079,-46.904761904761905,325.0,-208.96825396825395,11.031746031746032,-63.095238095238095,-275.95238095238096,-97.85714285714285,-194.2063492063492,152.3015873015873,10.555555555555555,-63.41269841269841,13.095238095238095,5.952380952380952,107.22222222222221,38.17460317460317,7.5396825396825395,17.857142857142858,-321.8253968253968
-325.0,-1.507936507936508,-216.9047619047619,5.476190476190476,-46.58730158730158,-312.9365079365079,-46.904761904761905,325.0,-208.96825396825395,11.031746031746032,-63.095238095238095,-275.95238095238096,-97.85714285714285,-194.2063492063492,152.3015873015873,10.555555555555555,-63.41269841269841,13.095238095238095,5.952380952380952,107.22222222222221,38.17460317460317,7.5396825396825395,17.857142857142858,-166.26984126984127
-325.0,-1.507936507936508,-216.9047619047619,5.476190476190476,-46.58730158730158,-312.9365079365079,-46.904761904761905,325.0,-208.96825396825395,11.031746031746032,-63.095238095238095,-275.95238095238096,-97.85714285714285,-194.2063492063492,152.3015873015873,10.555555555555555,-63.41269841269841,13.095238095238095,5.952380952380952,107.22222222222221,38.17460317460317,7.5396825396825395,17.857142857142858,-166.26984126984127
-325.0,-1.507936507936508,-216.9047619047619,5.476190476190476,-46.58730158730158,-312.9365079365079,-46.904761904761905,325.0,-208.96825396825395,11.031746031746032,-63.095238095238095,-275.95238095238096,-97.85714285714285,-194.2063492063492,152.3015873015873,10.555555555555555,-63.41269841269841,13.095238095238095,5.952380952380952,107.22222222222221,38.17460317460317,7.5396825396825395,17.857142857142858,-166.26984126984127
-325.0,-1.507936507936508,-216.9047619047619,5.476190476190476,-46.58730158730158,-312.9365079365079,-46.904761904761905,325.0,-208.96825396825395,11.031746031746032,-63.095238095238095,-275.95238095238096,-97.85714285714285,-194.2063492063492,152.3015873015873,10.555555555555555,-63.41269841269841,13.095238095238095,5.952380952380952,107.22222222222221,38.17460317460317,7.5396825396825395,17.857142857142858,-166.26984126984127
-325.0,-1.507936507936508,-216.9047619047619,5.476190476190476,-46.58730158730158,-312.9365079365079,-46.904761904761905,325.0,-208.96825396825395,11.031746031746032,-63.095238095238095,-275.95238095238096,-97.85714285714285,-194.2063492063492,152.3015873015873,10.555555555555555,-63.41269841269841,13.095238095238095,5.952380952380952,107.22222222222221,38.17460317460317,7.5396825396825395,17.857142857142858,-166.26984126984127
-325.0,-1.507936507936508,-216.9047619047619,5.476190476190476,-46.58730158730158,-312.9365079365079,-46.904761904761905,325.0,-208.96825396825395,11.031746031746032,-63.095238095238095,-275.95238095238096,-97.85714285714285,-194.2063492063492,152.3015873015873,10.555555555555555,-63.41269841269841,13.095238095238095,5.952380952380952,107.22222222222221,38.17460317460317,7.5396825396825395,17.857142857142858,-166.26984126984127
-307.06349206349205,4.841269841269841,-201.03174603174602,12.3015873015873,-77.38095238095238,-280.55555555555554,-76.1111111111111,325.0,-201.98412698412696,18.333333333333332,-86.9047619047619,-220.87301587301587,-97.22222222222221,65.31746031746032,-6.746031746031746,17.539682539682538,-80.07936507936508,19.285714285714285,11.507936507936508,36.11111111111111,138.65079365079364,-1.8253968253968254,4.2063492063492065,-166.26984126984127
-307.06349206349205,4.841269841269841,-201.03174603174602,12.3015873015873,-77.38095238095238,-280.55555555555554,-76.1111111111111,325.0,-201.98412698412696,18.333333333333332,-86.9047619047619,-220.87301587301587,-97.22222222222221,65.31746031746032,-6.746031746031746,17.539682539682538,-80.07936507936508,19.285714285714285,11.507936507936508,36.11111111111111,138.65079365079364,-1.8253968253968254,4.2063492063492065,-166.26984126984127
-286.90476190476187,12.619047619047619,-183.88888888888889,21.825396825396822,-14.206349206349206,-61.82539682539682,-13.571428571428571,325.0,-109.12698412698413,26.9047619047619,-15.95238095238095,-39.6031746031746,-30.87301587301587,325.0,37.06349206349206,25.158730158730158,-3.73015873015873,26.746031746031743,19.444444444444443,55.317460317460316,79.44444444444444,-3.253968253968254,-1.349206349206349,-166.26984126984127
-286.90476190476187,12.619047619047619,-183.88888888888889,21.825396825396822,-14.206349206349206,-61.82539682539682,-13.571428571428571,325.0,-109.12698412698413,26.9047619047619,-15.95238095238095,-39.6031746031746,-30.87301587301587,325.0,37.06349206349206,25.158730158730158,-3.73015873015873,26.746031746031743,19.444444444444443,55.317460317460316,79.44444444444444,-3.253968253968254,-1.349206349206349,-166.26984126984127
-284.5238095238095,14.047619047619047,-182.61904761904762,24.523809523809522,79.92063492063491,124.52380952380952,78.01587301587301,325.0,-23.253968253968253,28.174603174603174,78.80952380952381,86.58730158730158,34.84126984126984,325.0,239.9206349206349,25.952380952380953,89.28571428571428,28.174603174603174,21.984126984126984,145.79365079365078,-80.07936507936508,4.523809523809524,6.904761904761904,-321.8253968253968
-284.5238095238095,14.047619047619047,-182.61904761904762,24.523809523809522,79.92063492063491,124.52380952380952,78.01587301587301,325.0,-23.253968253968253,28.174603174603174,78.80952380952381,86.58730158730158,34.84126984126984,325.0,239.9206349206349,25.952380952380953,89.28571428571428,28.174603174603174,21.984126984126984,145.79365079365078,-80.07936507936508,4.523809523809524,6.904761904761904,-321.8253968253968
-279.9206349206349,10.238095238095237,-179.60317460317458,20.238095238095237,81.03174603174602,224.68253968253967,78.96825396825396,325.0,-19.444444444444443,24.68253968253968,79.6031746031746,205.79365079365078,36.11111111111111,325.0,239.60317460317458,21.984126984126984,89.92063492063491,24.365079365079364,17.698412698412696,143.09523809523807,-81.98412698412697,3.4126984126984126,6.746031746031746,-321.8253968253968
-279.9206349206349,10.238095238095237,-179.60317460317458,20.238095238095237,81.03174603174602,224.68253968253967,78.96825396825396,325.0,-19.444444444444443,24.68253968253968,79.6031746031746,205.79365079365078,36.11111111111111,325.0,239.60317460317458,21.984126984126984,89.92063492063491,24.365079365079364,17.698412698412696,143.09523809523807,-81.98412698412697,3.4126984126984126,6.746031746031746,-321.8253968253968
-272.6190476190476,5.7936507936507935,-174.84126984126982,13.73015873015873,-10.396825396825395,54.2063492063492,-9.920634920634921,325.0,-101.66666666666666,19.444444444444443,-11.984126984126984,89.44444444444444,-26.11111111111111,94.52380952380952,21.666666666666664,16.746031746031743,0.23809523809523808,18.49206349206349,10.873015873015872,49.76190476190476,69.92063492063491,-2.7777777777777777,-0.5555555555555556,-321.8253968253968
-272.6190476190476,5.7936507936507935,-174.84126984126982,13.73015873015873,-10.396825396825395,54.2063492063492,-9.920634920634921,325.0,-101.66666666666666,19.444444444444443,-11.984126984126984,89.44444444444444,-26.11111111111111,94.52380952380952,21.666666666666664,16.746031746031743,0.23809523809523808,18.49206349206349,10.873015873015872,49.76190476190476,69.92063492063491,-2.7777777777777777,-0.5555555555555556,-321.8253968253968
-267.06349206349205,8.65079365079365,-171.19047619047618,15.95238095238095,9.126984126984127,-89.28571428571428,6.26984126984127,325.0,-109.92063492063491,21.666666666666664,-0.07936507936507936,-65.47619047619047,-37.38095238095238,-265.7936507936508,185.47619047619045,19.92063492063492,1.6666666666666665,22.46031746031746,15.634920634920634,92.30158730158729,-21.03174603174603,6.26984126984127,11.984126984126984,-321.8253968253968
-267.06349206349205,8.65079365079365,-171.19047619047618,15.95238095238095,9.126984126984127,-89.28571428571428,6.26984126984127,325.0,-109.92063492063491,21.666666666666664,-0.07936507936507936,-65.47619047619047,-37.38095238095238,-265.7936507936508,185.47619047619045,19.92063492063492,1.6666666666666665,22.46031746031746,15.634920634920634,92.30158730158729,-21.03174603174603,6.26984126984127,11.984126984126984,-321.8253968253968
-263.4126984126984,19.285714285714285,-168.8095238095238,22.46031746031746,-18.174603174603174,-102.93650793650794,-17.38095238095238,310.23809523809524,-102.93650793650794,25.317460317460316,-19.92063492063492,-108.17460317460316,-36.58730158730159,-307.22222222222223,-3.095238095238095,22.936507936507937,-9.444444444444445,25.0,18.80952380952381,49.92063492063492,58.96825396825397,-2.46031746031746,-1.349206349206349,-321.8253968253968
-263.4126984126984,19.285714285714285,-168.8095238095238,22.46031746031746,-18.174603174603174,-102.93650793650794,-17.38095238095238,310.23809523809524,-102.93650793650794,25.317460317460316,-19.92063492063492,-108.17460317460316,-36.58730158730159,-307.22222222222223,-3.095238095238095,22.936507936507937,-9.444444444444445,25.0,18.80952380952381,49.92063492063492,58.96825396825397,-2.46031746031746,-1.349206349206349,-321.8253968253968
-256.26984126984127,26.746031746031743,-164.2063492063492,21.03174603174603,-126.74603174603173,-263.57142857142856,-123.57142857142857,-14.682539682539682,-206.26984126984127,22.3015873015873,-128.33333333333331,-258.015873015873,-116.1111111111111,-325.0,-255.47619047619045,20.555555555555554,-115.79365079365078,21.507936507936506,16.11111111111111,-31.98412698412698,199.44444444444443,-9.126984126984127,-8.65079365079365,-166.26984126984127
-256.26984126984127,26.746031746031743,-164.2063492063492,21.03174603174603,-126.74603174603173,-263.57142857142856,-123.57142857142857,-14.682539682539682,-206.26984126984127,22.3015873015873,-128.33333333333331,-258.015873015873,-116.1111111111111,-325.0,-255.47619047619045,20.555555555555554,-115.79365079365078,21.507936507936506,16.11111111111111,-31.98412698412698,199.44444444444443,-9.126984126984127,-8.65079365079365,-166.26984126984127
-251.8253968253968,28.49206349206349,-161.19047619047618,18.65079365079365,-133.88888888888889,-261.8253968253968,-131.19047619047618,-325.0,-215.15873015873015,18.174603174603174,-135.79365079365078,-253.09523809523807,-122.46031746031746,-325.0,-265.95238095238096,16.904761904761905,-123.25396825396825,17.698412698412696,12.777777777777777,-28.174603174603174,192.93650793650792,-9.444444444444445,-8.809523809523808,-166.26984126984127
-251.8253968253968,28.49206349206349,-161.19047619047618,18.65079365079365,-133.88888888888889,-261.8253968253968,-131.19047619047618,-325.0,-215.15873015873015,18.174603174603174,-135.79365079365078,-253.09523809523807,-122.46031746031746,-325.0,-265.95238095238096,16.904761904761905,-123.25396825396825,17.698412698412696,12.777777777777777,-28.174603174603174,192.93650793650792,-9.444444444444445,-8.809523809523808,-166.26984126984127
-251.8253968253968,28.49206349206349,-161.19047619047618,18.65079365079365,-133.88888888888889,-261.8253968253968,-131.19047619047618,-325.0,-215.15873015873015,18.174603174603174,-135.79365079365078,-253.09523809523807,-122.46031746031746,-325.0,-265.95238095238096,16.904761904761905,-123.25396825396825,17.698412698412696,12.777777777777777,-28.174603174603174,192.93650793650792,-9.444444444444445,-8.809523809523808,-166.26984126984127
-251.8253968253968,28.49206349206349,-161.19047619047618,18.65079365079365,-133.88888888888889,-261.8253968253968,-131.19047619047618,-325.0,-215.15873015873015,18.174603174603174,-135.79365079365078,-253.09523809523807,-122.46031746031746,-325.0,-265.95238095238096,16.904761904761905,-123.25396825396825,17.698412698412696,12.777777777777777,-28.174603174603174,192.93650793650792,-9.444444444444445,-8.809523809523808,-166.26984126984127
-245.79365079365078,21.03174603174603,-157.38095238095238,11.19047619047619,-41.666666666666664,-255.63492063492063,-42.61904761904761,-325.0,-105.79365079365078,9.285714285714285,-44.84126984126984,-246.58730158730157,-59.44444444444444,-325.0,-149.28571428571428,7.222222222222221,-36.269841269841265,8.65079365079365,4.682539682539682,52.3015873015873,41.34920634920635,-1.6666666666666665,-0.873015873015873,-166.26984126984127
-245.79365079365078,21.03174603174603,-157.38095238095238,11.19047619047619,-41.666666666666664,-255.63492063492063,-42.61904761904761,-325.0,-105.79365079365078,9.285714285714285,-44.84126984126984,-246.58730158730157,-59.44444444444444,-325.0,-149.28571428571428,7.222222222222221,-36.269841269841265,8.65079365079365,4.682539682539682,52.3015873015873,41.34920634920635,-1.6666666666666665,-0.873015873015873,-166.26984126984127
-239.60317460317458,13.73015873015873,-153.57142857142856,3.888888888888889,50.71428571428571,-249.44444444444443,46.11111111111111,-325.0,3.571428571428571,0.3968253968253968,46.11111111111111,-240.07936507936506,3.571428571428571,-325.0,-32.61904761904762,-2.3015873015873014,50.87301587301587,-0.23809523809523808,-3.253968253968254,132.77777777777777,-110.07936507936508,6.111111111111111,7.222222222222221,-166.26984126984127
-239.60317460317458,13.73015873015873,-153.57142857142856,3.888888888888889,50.71428571428571,-249.44444444444443,46.11111111111111,-325.0,3.571428571428571,0.3968253968253968,46.11111111111111,-240.07936507936506,3.571428571428571,-325.0,-32.61904761904762,-2.3015873015873014,50.87301587301587,-0.23809523809523808,-3.253968253968254,132.77777777777777,-110.07936507936508,6.111111111111111,7.222222222222221,-166.26984126984127
-232.46031746031744,10.555555555555555,-148.8095238095238,1.6666666666666665,-22.46031746031746,-242.14285714285714,-25.79365079365079,-325.0,-98.33333333333333,-0.3968253968253968,-32.14285714285714,-232.77777777777777,-70.07936507936508,-320.7142857142857,-201.66666666666666,-1.984126984126984,-32.93650793650794,0.3968253968253968,-3.095238095238095,77.06349206349206,-32.460317460317455,6.111111111111111,12.3015873015873,-321.8253968253968
-232.46031746031744,10.555555555555555,-148.8095238095238,1.6666666666666665,-22.46031746031746,-242.14285714285714,-25.79365079365079,-325.0,-98.33333333333333,-0.3968253968253968,-32.14285714285714,-232.77777777777777,-70.07936507936508,-320.7142857142857,-201.66666666666666,-1.984126984126984,-32.93650793650794,0.3968253968253968,-3.095238095238095,77.06349206349206,-32.460317460317455,6.111111111111111,12.3015873015873,-321.8253968253968
-229.44444444444443,16.904761904761905,-146.9047619047619,7.5396825396825395,-39.6031746031746,-239.12698412698413,-40.238095238095234,-325.0,-97.6984126984127,4.523809523809524,-42.3015873015873,-229.76190476190476,-59.285714285714285,-316.1111111111111,-183.7301587301587,2.46031746031746,-34.2063492063492,4.0476190476190474,0.5555555555555556,46.58730158730158,35.317460317460316,-2.619047619047619,-1.349206349206349,-321.8253968253968
-229.44444444444443,16.904761904761905,-146.9047619047619,7.5396825396825395,-39.6031746031746,-239.12698412698413,-40.238095238095234,-325.0,-97.6984126984127,4.523809523809524,-42.3015873015873,-229.76190476190476,-59.285714285714285,-316.1111111111111,-183.7301587301587,2.46031746031746,-34.2063492063492,4.0476190476190474,0.5555555555555556,46.58730158730158,35.317460317460316,-2.619047619047619,-1.349206349206349,-321.8253968253968
-224.52380952380952,4.523809523809524,-143.88888888888889,-3.253968253968254,-18.015873015873016,-234.2063492063492,-22.3015873015873,-325.0,-92.46031746031746,-4.523809523809524,-28.015873015873016,-225.15873015873015,-65.0,-308.968253968254,-199.60317460317458,-5.952380952380952,-28.96825396825397,-3.73015873015873,-7.3809523809523805,69.6031746031746,-30.71428571428571,6.904761904761904,12.777777777777777,-321.8253968253968
-224.52380952380952,4.523809523809524,-143.88888888888889,-3.253968253968254,-18.015873015873016,-234.2063492063492,-22.3015873015873,-325.0,-92.46031746031746,-4.523809523809524,-28.015873015873016,-225.15873015873015,-65.0,-308.968253968254,-199.60317460317458,-5.952380952380952,-28.96825396825397,-3.73015873015873,-7.3809523809523805,69.6031746031746,-30.71428571428571,6.904761904761904,12.777777777777777,-321.8253968253968
-223.7301587301587,11.031746031746032,-143.25396825396825,3.095238095238095,57.698412698412696,-233.4126984126984,52.460317460317455,-325.0,8.968253968253968,-0.07936507936507936,52.460317460317455,-224.36507936507934,11.349206349206348,-307.69841269841265,-74.04761904761904,-2.7777777777777777,56.58730158730158,-0.3968253968253968,-3.888888888888889,120.39682539682539,-109.6031746031746,4.523809523809524,6.26984126984127,-321.8253968253968
-223.7301587301587,11.031746031746032,-143.25396825396825,3.095238095238095,57.698412698412696,-233.4126984126984,52.460317460317455,-325.0,8.968253968253968,-0.07936507936507936,52.460317460317455,-224.36507936507934,11.349206349206348,-307.69841269841265,-74.04761904761904,-2.7777777777777777,56.58730158730158,-0.3968253968253968,-3.888888888888889,120.39682539682539,-109.6031746031746,4.523809523809524,6.26984126984127,-321.8253968253968
-218.015873015873,4.523809523809524,-139.6031746031746,-2.142857142857143,-96.1111111111111,-227.38095238095238,-99.92063492063491,-325.0,-195.15873015873015,0.7142857142857142,-111.03174603174602,-218.33333333333331,-142.61904761904762,-299.2857142857143,-325.0,-0.23809523809523808,-117.6984126984127,1.984126984126984,-2.46031746031746,13.253968253968253,48.49206349206349,7.857142857142857,17.38095238095238,-321.8253968253968
-218.015873015873,4.523809523809524,-139.6031746031746,-2.142857142857143,-96.1111111111111,-227.38095238095238,-99.92063492063491,-325.0,-195.15873015873015,0.7142857142857142,-111.03174603174602,-218.33333333333331,-142.61904761904762,-299.2857142857143,-325.0,-0.23809523809523808,-117.6984126984127,1.984126984126984,-2.46031746031746,13.253968253968253,48.49206349206349,7.857142857142857,17.38095238095238,-321.8253968253968
-215.15873015873015,11.19047619047619,-137.85714285714286,3.73015873015873,-108.17460317460316,-224.68253968253967,-108.17460317460316,-325.0,-187.06349206349205,5.0,-115.79365079365078,-215.63492063492063,-126.1111111111111,-295.1587301587301,-303.57142857142856,3.888888888888889,-112.46031746031746,5.476190476190476,0.7142857142857142,-9.761904761904761,104.2063492063492,-0.23809523809523808,5.476190476190476,-166.26984126984127
-215.15873015873015,11.19047619047619,-137.85714285714286,3.73015873015873,-108.17460317460316,-224.68253968253967,-108.17460317460316,-325.0,-187.06349206349205,5.0,-115.79365079365078,-215.63492063492063,-126.1111111111111,-295.1587301587301,-303.57142857142856,3.888888888888889,-112.46031746031746,5.476190476190476,0.7142857142857142,-9.761904761904761,104.2063492063492,-0.23809523809523808,5.476190476190476,-166.26984126984127
-210.3968253968254,0.3968253968253968,-135.0,-3.253968253968254,-98.49206349206348,-220.07936507936506,-102.14285714285714,-325.0,-194.04761904761904,-0.3968253968253968,-112.93650793650794,-211.03174603174602,-143.88888888888889,-288.17460317460313,-325.0,-0.3968253968253968,-119.76190476190476,1.984126984126984,-2.9365079365079363,4.523809523809524,50.238095238095234,8.333333333333332,19.285714285714285,-166.26984126984127
-210.3968253968254,0.3968253968253968,-135.0,-3.253968253968254,-98.49206349206348,-220.07936507936506,-102.14285714285714,-325.0,-194.04761904761904,-0.3968253968253968,-112.93650793650794,-211.03174603174602,-143.88888888888889,-288.17460317460313,-325.0,-0.3968253968253968,-119.76190476190476,1.984126984126984,-2.9365079365079363,4.523809523809524,50.238095238095234,8.333333333333332,19.285714285714285,-166.26984126984127
-210.3968253968254,0.3968253968253968,-135.0,-3.253968253968254,-98.49206349206348,-220.07936507936506,-102.14285714285714,-325.0,-194.04761904761904,-0.3968253968253968,-112.93650793650794,-211.03174603174602,-143.88888888888889,-288.17460317460313,-325.0,-0.3968253968253968,-119.76190476190476,1.984126984126984,-2.9365079365079363,4.523809523809524,50.238095238095234,8.333333333333332,19.285714285714285,-166.26984126984127
-210.3968253968254,0.3968253968253968,-135.0,-3.253968253968254,-98.49206349206348,-220.07936507936506,-102.14285714285714,-325.0,-194.04761904761904,-0.3968253968253968,-112.93650793650794,-211.03174603174602,-143.88888888888889,-288.17460317460313,-325.0,-0.3968253968253968,-119.76190476190476,1.984126984126984,-2.9365079365079363,4.523809523809524,50.238095238095234,8.333333333333332,19.285714285714285,-166.26984126984127
-210.3968253968254,0.3968253968253968,-135.0,-3.253968253968254,-98.49206349206348,-220.07936507936506,-102.14285714285714,-325.0,-194.04761904761904,-0.3968253968253968,-112.93650793650794,-211.03174603174602,-143.88888888888889,-288.17460317460313,-325.0,-0.3968253968253968,-119.76190476190476,1.984126984126984,-2.9365079365079363,4.523809523809524,50.238095238095234,8.333333333333332,19.285714285714285,-166.26984126984127
-210.3968253968254,0.3968253968253968,-135.0,-3.253968253968254,-98.49206349206348,-220.07936507936506,-102.14285714285714,-325.0,-194.04761904761904,-0.3968253968253968,-112.93650793650794,-211.03174603174602,-143.88888888888889,-288.17460317460313,-325.0,-0.3968253968253968,-119.76190476190476,1.984126984126984,-2.9365079365079363,4.523809523809524,50.238095238095234,8.333333333333332,19.285714285714285,-166.26984126984127
-199.76190476190476,6.111111111111111,-128.33333333333331,4.841269841269841,-13.571428571428571,-209.12698412698413,-18.174603174603174,-161.66666666666666,-80.07936507936508,6.904761904761904,-23.88888888888889,-200.23809523809524,-59.12698412698413,-272.1428571428571,-184.2063492063492,5.476190476190476,-26.428571428571427,7.698412698412698,3.095238095238095,45.0,-27.539682539682538,5.952380952380952,11.19047619047619,-166.26984126984127
-199.76190476190476,6.111111111111111,-128.33333333333331,4.841269841269841,-13.571428571428571,-209.12698412698413,-18.174603174603174,-161.66666666666666,-80.07936507936508,6.904761904761904,-23.88888888888889,-200.23809523809524,-59.12698412698413,-272.1428571428571,-184.2063492063492,5.476190476190476,-26.428571428571427,7.698412698412698,3.095238095238095,45.0,-27.539682539682538,5.952380952380952,11.19047619047619,-166.26984126984127
-188.96825396825395,11.984126984126984,-121.66666666666666,12.936507936507935,71.34920634920634,-198.17460317460316,65.95238095238095,1.8253968253968254,33.888888888888886,14.206349206349206,65.31746031746032,-189.44444444444443,25.79365079365079,-256.1111111111111,-43.41269841269841,11.507936507936508,66.9047619047619,13.412698412698411,9.126984126984127,85.47619047619047,-105.31746031746032,3.73015873015873,3.095238095238095,-321.8253968253968
-188.96825396825395,11.984126984126984,-121.66666666666666,12.936507936507935,71.34920634920634,-198.17460317460316,65.95238095238095,1.8253968253968254,33.888888888888886,14.206349206349206,65.31746031746032,-189.44444444444443,25.79365079365079,-256.1111111111111,-43.41269841269841,11.507936507936508,66.9047619047619,13.412698412698411,9.126984126984127,85.47619047619047,-105.31746031746032,3.73015873015873,3.095238095238095,-321.8253968253968
-182.77777777777777,15.0,-117.38095238095238,15.158730158730158,74.04761904761904,-191.66666666666666,68.80952380952381,25.158730158730158,35.95238095238095,17.698412698412696,68.17460317460318,-183.25396825396825,28.809523809523807,-247.06349206349205,-22.936507936507937,14.523809523809524,69.12698412698413,17.063492063492063,11.349206349206348,78.65079365079364,-106.1111111111111,4.365079365079365,3.571428571428571,-321.8253968253968
-182.77777777777777,15.0,-117.38095238095238,15.158730158730158,74.04761904761904,-191.66666666666666,68.80952380952381,25.158730158730158,35.95238095238095,17.698412698412696,68.17460317460318,-183.25396825396825,28.809523809523807,-247.06349206349205,-22.936507936507937,14.523809523809524,69.12698412698413,17.063492063492063,11.349206349206348,78.65079365079364,-106.1111111111111,4.365079365079365,3.571428571428571,-321.8253968253968
-178.4920634920635,6.111111111111111,-114.68253968253967,5.952380952380952,-102.77777777777777,-187.53968253968253,-104.04761904761904,156.58730158730157,-173.88888888888889,11.984126984126984,-108.49206349206348,-179.12698412698413,-116.9047619047619,-241.19047619047618,-296.74603174603175,10.555555555555555,-104.84126984126983,12.3015873015873,5.476190476190476,-34.047619047619044,96.42857142857142,1.1904761904761905,7.5396825396825395,-321.8253968253968
-178.4920634920635,6.111111111111111,-114.68253968253967,5.952380952380952,-102.77777777777777,-187.53968253968253,-104.04761904761904,156.58730158730157,-173.88888888888889,11.984126984126984,-108.49206349206348,-179.12698412698413,-116.9047619047619,-241.19047619047618,-296.74603174603175,10.555555555555555,-104.84126984126983,12.3015873015873,5.476190476190476,-34.047619047619044,96.42857142857142,1.1904761904761905,7.5396825396825395,-321.8253968253968
-176.26984126984127,5.0,-113.09523809523809,4.0476190476190474,-28.65079365079365,-185.15873015873015,-33.25396825396825,187.53968253968253,-133.73015873015873,9.920634920634921,-32.61904761904762,-177.06349206349205,-33.73015873015873,-237.85714285714283,-302.9365079365079,8.492063492063492,-25.634920634920633,10.396825396825395,5.0,28.174603174603174,54.047619047619044,-0.5555555555555556,-0.873015873015873,-321.8253968253968
-176.26984126984127,5.0,-113.09523809523809,4.0476190476190474,-28.65079365079365,-185.15873015873015,-33.25396825396825,187.53968253968253,-133.73015873015873,9.920634920634921,-32.61904761904762,-177.06349206349205,-33.73015873015873,-237.85714285714283,-302.9365079365079,8.492063492063492,-25.634920634920633,10.396825396825395,5.0,28.174603174603174,54.047619047619044,-0.5555555555555556,-0.873015873015873,-321.8253968253968
-174.52380952380952,6.587301587301587,-111.98412698412697,3.73015873015873,52.77777777777777,-183.4126984126984,50.87301587301587,50.238095238095234,-68.4920634920635,7.857142857142857,58.17460317460317,-175.47619047619045,84.68253968253968,-235.3174603174603,-280.7142857142857,6.26984126984127,78.01587301587301,8.015873015873016,3.571428571428571,86.74603174603175,43.095238095238095,-9.603174603174603,-21.03174603174603,-321.8253968253968
-174.52380952380952,6.587301587301587,-111.98412698412697,3.73015873015873,52.77777777777777,-183.4126984126984,50.87301587301587,50.238095238095234,-68.4920634920635,7.857142857142857,58.17460317460317,-175.47619047619045,84.68253968253968,-235.3174603174603,-280.7142857142857,6.26984126984127,78.01587301587301,8.015873015873016,3.571428571428571,86.74603174603175,43.095238095238095,-9.603174603174603,-21.03174603174603,-321.8253968253968
-166.74603174603175,3.253968253968254,-107.22222222222221,2.46031746031746,-105.79365079365078,-175.47619047619045,-106.42857142857142,128.33333333333331,-172.93650793650792,8.492063492063492,-109.76190476190476,-167.38095238095238,-118.8095238095238,-224.04761904761904,-293.73015873015873,6.587301587301587,-106.1111111111111,8.015873015873016,1.6666666666666665,-37.38095238095238,91.66666666666666,1.349206349206349,7.698412698412698,-166.26984126984127
-166.74603174603175,3.253968253968254,-107.22222222222221,2.46031746031746,-105.79365079365078,-175.47619047619045,-106.42857142857142,128.33333333333331,-172.93650793650792,8.492063492063492,-109.76190476190476,-167.38095238095238,-118.8095238095238,-224.04761904761904,-293.73015873015873,6.587301587301587,-106.1111111111111,8.015873015873016,1.6666666666666665,-37.38095238095238,91.66666666666666,1.349206349206349,7.698412698412698,-166.26984126984127
-163.88888888888889,5.317460317460317,-105.31746031746032,4.682539682539682,-103.88888888888889,-172.93650793650792,-104.52380952380952,219.9206349206349,-171.66666666666666,11.19047619047619,-108.17460317460316,-164.52380952380952,-116.9047619047619,-220.07936507936506,-289.9206349206349,9.126984126984127,-104.04761904761904,10.714285714285714,4.523809523809524,-38.17460317460317,88.96825396825396,1.8253968253968254,7.222222222222221,-166.26984126984127
-163.88888888888889,5.317460317460317,-105.31746031746032,4.682539682539682,-103.88888888888889,-172.93650793650792,-104.52380952380952,219.9206349206349,-171.66666666666666,11.19047619047619,-108.17460317460316,-164.52380952380952,-116.9047619047619,-220.07936507936506,-289.9206349206349,9.126984126984127,-104.04761904761904,10.714285714285714,4.523809523809524,-38.17460317460317,88.96825396825396,1.8253968253968254,7.222222222222221,-166.26984126984127
-159.9206349206349,17.539682539682538,-103.09523809523809,18.49206349206349,-26.26984126984127,-168.65079365079364,-33.095238095238095,325.0,-86.26984126984127,24.206349206349206,-34.84126984126984,-160.7142857142857,-67.85714285714285,-214.52380952380952,-149.44444444444443,21.507936507936506,-38.33333333333333,23.57142857142857,17.857142857142858,5.476190476190476,-14.84126984126984,7.222222222222221,10.873015873015872,-166.26984126984127
-159.9206349206349,17.539682539682538,-103.09523809523809,18.49206349206349,-26.26984126984127,-168.65079365079364,-33.095238095238095,325.0,-86.26984126984127,24.206349206349206,-34.84126984126984,-160.7142857142857,-67.85714285714285,-214.52380952380952,-149.44444444444443,21.507936507936506,-38.33333333333333,23.57142857142857,17.857142857142858,5.476190476190476,-14.84126984126984,7.222222222222221,10.873015873015872,-166.26984126984127
-155.79365079365078,13.095238095238095,-100.23809523809523,13.253968253968253,-102.77777777777777,-164.2063492063492,-103.73015873015872,240.3968253968254,-169.28571428571428,20.07936507936508,-105.95238095238095,-156.26984126984127,-115.63492063492063,-208.4920634920635,-289.9206349206349,18.333333333333332,-101.98412698412697,20.07936507936508,13.253968253968253,-41.03174603174603,88.4920634920635,1.0317460317460316,8.174603174603174,-166.26984126984127
-155.79365079365078,13.095238095238095,-100.23809523809523,13.253968253968253,-102.77777777777777,-164.2063492063492,-103.73015873015872,240.3968253968254,-169.28571428571428,20.07936507936508,-105.95238095238095,-156.26984126984127,-115.63492063492063,-208.4920634920635,-289.9206349206349,18.333333333333332,-101.98412698412697,20.07936507936508,13.253968253968253,-41.03174603174603,88.4920634920635,1.0317460317460316,8.174603174603174,-166.26984126984127
-150.23809523809524,11.984126984126984,-96.58730158730158,13.253968253968253,-122.93650793650794,-158.4920634920635,-131.8253968253968,314.04761904761904,-207.69841269841268,21.507936507936506,-132.61904761904762,-150.55555555555554,-163.73015873015873,-200.3968253968254,-325.0,19.76190476190476,-138.015873015873,21.349206349206348,15.0,-51.82539682539682,77.06349206349206,7.063492063492063,18.49206349206349,-166.26984126984127
-150.23809523809524,11.984126984126984,-96.58730158730158,13.253968253968253,-122.93650793650794,-158.4920634920635,-131.8253968253968,314.04761904761904,-207.69841269841268,21.507936507936506,-132.61904761904762,-150.55555555555554,-163.73015873015873,-200.3968253968254,-325.0,19.76190476190476,-138.015873015873,21.349206349206348,15.0,-51.82539682539682,77.06349206349206,7.063492063492063,18.49206349206349,-166.26984126984127
-145.0,10.714285714285714,-93.4126984126984,10.873015873015872,-124.52380952380952,-153.25396825396825,-134.04761904761904,303.0952380952381,-210.07936507936506,18.96825396825397,-133.88888888888889,-145.3174603174603,-165.79365079365078,-192.93650793650792,-325.0,17.063492063492063,-139.28571428571428,18.333333333333332,11.984126984126984,-54.047619047619044,78.17460317460316,6.904761904761904,18.65079365079365,-321.8253968253968
-145.0,10.714285714285714,-93.4126984126984,10.873015873015872,-124.52380952380952,-153.25396825396825,-134.04761904761904,303.0952380952381,-210.07936507936506,18.96825396825397,-133.88888888888889,-145.3174603174603,-165.79365079365078,-192.93650793650792,-325.0,17.063492063492063,-139.28571428571428,18.333333333333332,11.984126984126984,-54.047619047619044,78.17460317460316,6.904761904761904,18.65079365079365,-321.8253968253968
-145.0,10.714285714285714,-93.4126984126984,10.873015873015872,-124.52380952380952,-153.25396825396825,-134.04761904761904,303.0952380952381,-210.07936507936506,18.96825396825397,-133.88888888888889,-145.3174603174603,-165.79365079365078,-192.93650793650792,-325.0,17.063492063492063,-139.28571428571428,18.333333333333332,11.984126984126984,-54.047619047619044,78.17460317460316,6.904761904761904,18.65079365079365,-321.8253968253968
-145.0,10.714285714285714,-93.4126984126984,10.873015873015872,-124.52380952380952,-153.25396825396825,-134.04761904761904,303.0952380952381,-210.07936507936506,18.96825396825397,-133.88888888888889,-145.3174603174603,-165.79365079365078,-192.93650793650792,-325.0,17.063492063492063,-139.28571428571428,18.333333333333332,11.984126984126984,-54.047619047619044,78.17460317460316,6.904761904761904,18.65079365079365,-321.8253968253968
-131.8253968253968,6.746031746031746,-85.0,5.0,-95.15873015873015,-139.76190476190476,-95.47619047619047,52.14285714285714,-157.06349206349205,11.031746031746032,-96.9047619047619,-132.3015873015873,-109.6031746031746,-175.0,-277.22222222222223,9.285714285714285,-92.61904761904762,10.714285714285714,4.0476190476190474,-30.396825396825395,59.285714285714285,2.7777777777777777,9.920634920634921,-321.8253968253968
-131.8253968253968,6.746031746031746,-85.0,5.0,-95.15873015873015,-139.76190476190476,-95.47619047619047,52.14285714285714,-157.06349206349205,11.031746031746032,-96.9047619047619,-132.3015873015873,-109.6031746031746,-175.0,-277.22222222222223,9.285714285714285,-92.61904761904762,10.714285714285714,4.0476190476190474,-30.396825396825395,59.285714285714285,2.7777777777777777,9.920634920634921,-321.8253968253968
-118.49206349206348,2.9365079365079363,-76.58730158730158,-0.873015873015873,-65.79365079365078,-126.1111111111111,-56.74603174603174,-198.65079365079364,-104.04761904761904,3.253968253968254,-59.76190476190476,-119.28571428571428,-53.41269841269841,-156.9047619047619,-229.28571428571428,1.6666666666666665,-45.95238095238095,3.253968253968254,-3.888888888888889,-6.587301587301587,40.55555555555555,-1.1904761904761905,1.349206349206349,-321.8253968253968
-118.49206349206348,2.9365079365079363,-76.58730158730158,-0.873015873015873,-65.79365079365078,-126.1111111111111,-56.74603174603174,-198.65079365079364,-104.04761904761904,3.253968253968254,-59.76190476190476,-119.28571428571428,-53.41269841269841,-156.9047619047619,-229.28571428571428,1.6666666666666665,-45.95238095238095,3.253968253968254,-3.888888888888889,-6.587301587301587,40.55555555555555,-1.1904761904761905,1.349206349206349,-321.8253968253968
-118.49206349206348,2.9365079365079363,-76.58730158730158,-0.873015873015873,-65.79365079365078,-126.1111111111111,-56.74603174603174,-198.65079365079364,-104.04761904761904,3.253968253968254,-59.76190476190476,-119.28571428571428,-53.41269841269841,-156.9047619047619,-229.28571428571428,1.6666666666666665,-45.95238095238095,3.253968253968254,-3.888888888888889,-6.587301587301587,40.55555555555555,-1.1904761904761905,1.349206349206349,-321.8253968253968
-118.49206349206348,2.9365079365079363,-76.58730158730158,-0.873015873015873,-65.79365079365078,-126.1111111111111,-56.74603174603174,-198.65079365079364,-104.04761904761904,3.253968253968254,-59.76190476190476,-119.28571428571428,-53.41269841269841,-156.9047619047619,-229.28571428571428,1.6666666666666665,-45.95238095238095,3.253968253968254,-3.888888888888889,-6.587301587301587,40.55555555555555,-1.1904761904761905,1.349206349206349,-321.8253968253968
-118.49206349206348,2.9365079365079363,-76.58730158730158,-0.873015873015873,-65.79365079365078,-126.1111111111111,-56.74603174603174,-198.65079365079364,-104.04761904761904,3.253968253968254,-59.76190476190476,-119.28571428571428,-53.41269841269841,-156.9047619047619,-229.28571428571428,1.6666666666666665,-45.95238095238095,3.253968253968254,-3.888888888888889,-6.587301587301587,40.55555555555555,-1.1904761904761905,1.349206349206349,-166.26984126984127
-118.49206349206348,2.9365079365079363,-76.58730158730158,-0.873015873015873,-65.79365079365078,-126.1111111111111,-56.74603174603174,-198.65079365079364,-104.04761904761904,3.253968253968254,-59.76190476190476,-119.28571428571428,-53.41269841269841,-156.9047619047619,-229.28571428571428,1.6666666666666665,-45.95238095238095,3.253968253968254,-3.888888888888889,-6.587301587301587,40.55555555555555,-1.1904761904761905,1.349206349206349,-166.26984126984127
-118.49206349206348,2.9365079365079363,-76.58730158730158,-0.873015873015873,-65.79365079365078,-126.1111111111111,-56.74603174603174,-198.65079365079364,-104.04761904761904,3.253968253968254,-59.76190476190476,-119.28571428571428,-53.41269841269841,-156.9047619047619,-229.28571428571428,1.6666666666666665,-45.95238095238095,3.253968253968254,-3.888888888888889,-6.587301587301587,40.55555555555555,-1.1904761904761905,1.349206349206349,-166.26984126984127
-118.49206349206348,2.9365079365079363,-76.58730158730158,-0.873015873015873,-65.79365079365078,-126.1111111111111,-56.74603174603174,-198.65079365079364,-104.04761904761904,3.253968253968254,-59.76190476190476,-119.28571428571428,-53.41269841269841,-156.9047619047619,-229.28571428571428,1.6666666666666665,-45.95238095238095,3.253968253968254,-3.888888888888889,-6.587301587301587,40.55555555555555,-1.1904761904761905,1.349206349206349,-166.26984126984127
-88.4920634920635,-142.77777777777777,-57.698412698412696,8.492063492063492,53.25396825396825,-94.84126984126983,51.19047619047619,211.03174603174602,1.0317460317460316,15.317460317460316,48.17460317460317,-88.80952380952381,54.68253968253968,-115.95238095238095,13.73015873015873,12.777777777777777,49.12698412698413,13.888888888888888,6.746031746031746,25.634920634920633,-30.07936507936508,-4.0476190476190474,-11.507936507936508,-166.26984126984127
-88.4920634920635,-142.77777777777777,-57.698412698412696,8.492063492063492,53.25396825396825,-94.84126984126983,51.19047619047619,211.03174603174602,1.0317460317460316,15.317460317460316,48.17460317460317,-88.80952380952381,54.68253968253968,-115.95238095238095,13.73015873015873,12.777777777777777,49.12698412698413,13.888888888888888,6.746031746031746,25.634920634920633,-30.07936507936508,-4.0476190476190474,-11.507936507936508,-166.26984126984127
-87.38095238095238,-325.0,-56.74603174603174,-8.174603174603174,-26.11111111111111,-93.73015873015872,-14.84126984126984,107.53968253968253,-54.2063492063492,-3.095238095238095,-18.49206349206349,-87.53968253968253,-10.396825396825395,-114.36507936507935,-25.158730158730158,-5.317460317460317,-3.73015873015873,-2.9365079365079363,-10.396825396825395,19.285714285714285,-14.206349206349206,0.07936507936507936,2.9365079365079363,-166.26984126984127
-87.38095238095238,-325.0,-56.74603174603174,-8.174603174603174,-26.11111111111111,-93.73015873015872,-14.84126984126984,107.53968253968253,-54.2063492063492,-3.095238095238095,-18.49206349206349,-87.53968253968253,-10.396825396825395,-114.36507936507935,-25.158730158730158,-5.317460317460317,-3.73015873015873,-2.9365079365079363,-10.396825396825395,19.285714285714285,-14.206349206349206,0.07936507936507936,2.9365079365079363,-166.26984126984127
-87.38095238095238,-325.0,-56.74603174603174,-8.174603174603174,-26.11111111111111,-93.73015873015872,-14.84126984126984,107.53968253968253,-54.2063492063492,-3.095238095238095,-18.49206349206349,-87.53968253968253,-10.396825396825395,-114.36507936507935,-25.158730158730158,-5.317460317460317,-3.73015873015873,-2.9365079365079363,-10.396825396825395,19.285714285714285,-14.206349206349206,0.07936507936507936,2.9365079365079363,-166.26984126984127
-87.38095238095238,-325.0,-56.74603174603174,-8.174603174603174,-26.11111111111111,-93.73015873015872,-14.84126984126984,107.53968253968253,-54.2063492063492,-3.095238095238095,-18.49206349206349,-87.53968253968253,-10.396825396825395,-114.36507936507935,-25.158730158730158,-5.317460317460317,-3.73015873015873,-2.9365079365079363,-10.396825396825395,19.285714285714285,-14.206349206349206,0.07936507936507936,2.9365079365079363,-166.26984126984127
-84.04761904761904,-325.0,-54.841269841269835,-15.0,-16.26984126984127,-90.55555555555556,-5.952380952380952,110.07936507936508,-45.95238095238095,-9.761904761904761,-8.174603174603174,-84.68253968253968,-2.46031746031746,-110.23809523809523,-0.873015873015873,-11.349206349206348,6.746031746031746,-8.65079365079365,-16.26984126984127,25.79365079365079,-22.142857142857142,-1.349206349206349,3.888888888888889,-321.8253968253968
-84.04761904761904,-325.0,-54.841269841269835,-15.0,-16.26984126984127,-90.55555555555556,-5.952380952380952,110.07936507936508,-45.95238095238095,-9.761904761904761,-8.174603174603174,-84.68253968253968,-2.46031746031746,-110.23809523809523,-0.873015873015873,-11.349206349206348,6.746031746031746,-8.65079365079365,-16.26984126984127,25.79365079365079,-22.142857142857142,-1.349206349206349,3.888888888888889,-321.8253968253968
-82.3015873015873,-249.28571428571428,-53.888888888888886,-0.5555555555555556,20.396825396825395,-88.65079365079364,21.507936507936506,279.1269841269841,-7.222222222222221,5.158730158730158,19.92063492063492,-82.61904761904762,8.333333333333332,-107.85714285714285,99.76190476190476,2.142857142857143,23.253968253968253,4.2063492063492065,-3.571428571428571,15.158730158730158,-67.22222222222221,2.7777777777777777,1.8253968253968254,-321.8253968253968
-82.3015873015873,-249.28571428571428,-53.888888888888886,-0.5555555555555556,20.396825396825395,-88.65079365079364,21.507936507936506,279.1269841269841,-7.222222222222221,5.158730158730158,19.92063492063492,-82.61904761904762,8.333333333333332,-107.85714285714285,99.76190476190476,2.142857142857143,23.253968253968253,4.2063492063492065,-3.571428571428571,15.158730158730158,-67.22222222222221,2.7777777777777777,1.8253968253968254,-321.8253968253968
-80.23809523809523,-279.44444444444446,-52.3015873015873,12.142857142857142,-4.365079365079365,-86.26984126984127,-6.587301587301587,303.73015873015873,-71.5079365079365,19.126984126984127,-5.952380952380952,-80.71428571428571,-0.3968253968253968,-104.84126984126983,-142.61904761904762,18.333333333333332,-1.8253968253968254,19.6031746031746,11.984126984126984,9.603174603174603,28.333333333333332,-2.46031746031746,-1.0317460317460316,-321.8253968253968
-80.23809523809523,-279.44444444444446,-52.3015873015873,12.142857142857142,-4.365079365079365,-86.26984126984127,-6.587301587301587,303.73015873015873,-71.5079365079365,19.126984126984127,-5.952380952380952,-80.71428571428571,-0.3968253968253968,-104.84126984126983,-142.61904761904762,18.333333333333332,-1.8253968253968254,19.6031746031746,11.984126984126984,9.603174603174603,28.333333333333332,-2.46031746031746,-1.0317460317460316,-321.8253968253968
-181.984126984127,-319.6031746031746,-72.77777777777777,-151.5079365079365,92.30158730158729,-21.03174603174603,-149.9206349206349,171.66666666666666,70.55555555555556,53.57142857142857,-191.66666666666666,18.96825396825397,-62.460317460317455,-47.06349206349206,60.71428571428571,-64.04761904761905,-53.25396825396825,-148.015873015873,-128.17460317460316,-170.23809523809524,90.07936507936508,95.0,101.19047619047619,-321.8253968253968
-181.984126984127,-319.6031746031746,-72.77777777777777,-151.5079365079365,92.30158730158729,-21.03174603174603,-149.9206349206349,171.66666666666666,70.55555555555556,53.57142857142857,-191.66666666666666,18.96825396825397,-62.460317460317455,-47.06349206349206,60.71428571428571,-64.04761904761905,-53.25396825396825,-148.015873015873,-128.17460317460316,-170.23809523809524,90.07936507936508,95.0,101.19047619047619,-321.8253968253968
-75.0,-325.0,-48.96825396825397,6.26984126984127,23.88888888888889,-80.71428571428571,12.936507936507935,325.0,-12.46031746031746,11.19047619047619,14.682539682539682,-75.63492063492063,-15.95238095238095,-98.01587301587301,170.7142857142857,8.174603174603174,4.2063492063492065,9.603174603174603,-0.07936507936507936,-29.285714285714285,-81.34920634920634,5.317460317460317,-1.349206349206349,-321.8253968253968
-75.0,-325.0,-48.96825396825397,6.26984126984127,23.88888888888889,-80.71428571428571,12.936507936507935,325.0,-12.46031746031746,11.19047619047619,14.682539682539682,-75.63492063492063,-15.95238095238095,-98.01587301587301,170.7142857142857,8.174603174603174,4.2063492063492065,9.603174603174603,-0.07936507936507936,-29.285714285714285,-81.34920634920634,5.317460317460317,-1.349206349206349,-321.8253968253968
-73.09523809523809,-298.3333333333333,-47.857142857142854,-12.619047619047619,-46.74603174603175,-78.96825396825396,-45.63492063492063,164.52380952380952,-95.47619047619047,-7.698412698412698,-42.460317460317455,-73.88888888888889,-55.476190476190474,-95.63492063492063,-84.36507936507937,-8.65079365079365,-36.42857142857142,-6.111111111111111,-14.84126984126984,-7.222222222222221,-0.7142857142857142,4.523809523809524,10.714285714285714,-166.26984126984127
-73.09523809523809,-298.3333333333333,-47.857142857142854,-12.619047619047619,-46.74603174603175,-78.96825396825396,-45.63492063492063,164.52380952380952,-95.47619047619047,-7.698412698412698,-42.460317460317455,-73.88888888888889,-55.476190476190474,-95.63492063492063,-84.36507936507937,-8.65079365079365,-36.42857142857142,-6.111111111111111,-14.84126984126984,-7.222222222222221,-0.7142857142857142,4.523809523809524,10.714285714285714,-166.26984126984127
-72.14285714285714,-145.79365079365078,-47.38095238095238,-0.3968253968253968,56.904761904761905,-77.85714285714285,55.317460317460316,325.0,4.523809523809524,6.746031746031746,50.87301587301587,-72.61904761904762,58.8095238095238,-94.04761904761904,41.19047619047619,5.476190476190476,50.079365079365076,6.746031746031746,-0.7142857142857142,17.539682539682538,-32.61904761904762,-6.428571428571428,-12.777777777777777,-166.26984126984127
-72.14285714285714,-145.79365079365078,-47.38095238095238,-0.3968253968253968,56.904761904761905,-77.85714285714285,55.317460317460316,325.0,4.523809523809524,6.746031746031746,50.87301587301587,-72.61904761904762,58.8095238095238,-94.04761904761904,41.19047619047619,5.476190476190476,50.079365079365076,6.746031746031746,-0.7142857142857142,17.539682539682538,-32.61904761904762,-6.428571428571428,-12.777777777777777,-166.26984126984127
-71.19047619047619,-90.39682539682539,-46.74603174603175,3.571428571428571,-6.26984126984127,105.63492063492063,-8.174603174603174,325.0,-70.87301587301587,11.19047619047619,-7.222222222222221,126.42857142857142,-0.5555555555555556,48.80952380952381,-134.52380952380952,11.031746031746032,-3.4126984126984126,12.3015873015873,5.158730158730158,-2.46031746031746,34.047619047619044,-2.46031746031746,-1.349206349206349,-166.26984126984127
-71.19047619047619,-90.39682539682539,-46.74603174603175,3.571428571428571,-6.26984126984127,105.63492063492063,-8.174603174603174,325.0,-70.87301587301587,11.19047619047619,-7.222222222222221,126.42857142857142,-0.5555555555555556,48.80952380952381,-134.52380952380952,11.031746031746032,-3.4126984126984126,12.3015873015873,5.158730158730158,-2.46031746031746,34.047619047619044,-2.46031746031746,-1.349206349206349,-166.26984126984127
-70.71428571428571,-26.428571428571427,-46.58730158730158,4.2063492063492065,-99.44444444444444,288.4920634920635,-110.87301587301587,325.0,-159.76190476190476,11.507936507936508,-99.12698412698413,325.0,-131.03174603174602,191.19047619047618,-176.74603174603175,10.714285714285714,-99.76190476190476,12.142857142857142,4.682539682539682,-78.65079365079364,62.460317460317455,11.666666666666666,19.92063492063492,-166.26984126984127
-70.71428571428571,-26.428571428571427,-46.58730158730158,4.2063492063492065,-99.44444444444444,288.4920634920635,-110.87301587301587,325.0,-159.76190476190476,11.507936507936508,-99.12698412698413,325.0,-131.03174603174602,191.19047619047618,-176.74603174603175,10.714285714285714,-99.76190476190476,12.142857142857142,4.682539682539682,-78.65079365079364,62.460317460317455,11.666666666666666,19.92063492063492,-166.26984126984127
-69.6031746031746,-3.73015873015873,-45.79365079365079,0.873015873015873,-99.6031746031746,306.74603174603175,-110.87301587301587,325.0,-156.74603174603175,8.65079365079365,-99.12698412698413,325.0,-131.03174603174602,258.015873015873,-174.04761904761904,8.333333333333332,-99.76190476190476,9.444444444444445,1.8253968253968254,-78.4920634920635,61.98412698412698,11.19047619047619,18.96825396825397,-166.26984126984127
-69.6031746031746,-3.73015873015873,-45.79365079365079,0.873015873015873,-99.6031746031746,306.74603174603175,-110.87301587301587,325.0,-156.74603174603175,8.65079365079365,-99.12698412698413,325.0,-131.03174603174602,258.015873015873,-174.04761904761904,8.333333333333332,-99.76190476190476,9.444444444444445,1.8253968253968254,-78.4920634920635,61.98412698412698,11.19047619047619,18.96825396825397,-166.26984126984127
-66.42857142857143,-325.0,-43.57142857142857,-10.238095238095237,50.079365079365076,-73.88888888888889,60.71428571428571,175.63492063492063,6.746031746031746,-5.158730158730158,51.98412698412698,-80.71428571428571,78.65079365079364,-91.98412698412697,-47.06349206349206,-5.476190476190476,61.666666666666664,-2.619047619047619,-11.031746031746032,67.6984126984127,-31.349206349206348,-8.015873015873016,-8.492063492063492,-321.8253968253968
-66.42857142857143,-325.0,-43.57142857142857,-10.238095238095237,50.079365079365076,-73.88888888888889,60.71428571428571,175.63492063492063,6.746031746031746,-5.158730158730158,51.98412698412698,-80.71428571428571,78.65079365079364,-91.98412698412697,-47.06349206349206,-5.476190476190476,61.666666666666664,-2.619047619047619,-11.031746031746032,67.6984126984127,-31.349206349206348,-8.015873015873016,-8.492063492063492,-321.8253968253968
-63.095238095238095,-325.0,-51.666666666666664,-27.063492063492063,-150.87301587301587,-85.95238095238095,14.682539682539682,51.03174603174603,-21.825396825396822,-23.41269841269841,-154.52380952380952,-95.63492063492063,24.523809523809522,-108.01587301587301,16.587301587301585,-13.73015873015873,29.76190476190476,-10.396825396825395,-18.96825396825397,52.14285714285714,-60.238095238095234,1.0317460317460316,6.111111111111111,-321.8253968253968
-63.095238095238095,-325.0,-51.666666666666664,-27.063492063492063,-150.87301587301587,-85.95238095238095,14.682539682539682,51.03174603174603,-21.825396825396822,-23.41269841269841,-154.52380952380952,-95.63492063492063,24.523809523809522,-108.01587301587301,16.587301587301585,-13.73015873015873,29.76190476190476,-10.396825396825395,-18.96825396825397,52.14285714285714,-60.238095238095234,1.0317460317460316,6.111111111111111,-321.8253968253968
-58.01587301587301,-325.0,-38.17460317460317,3.095238095238095,31.19047619047619,-78.65079365079364,41.82539682539682,126.58730158730158,-6.904761904761904,6.746031746031746,31.98412698412698,-77.22222222222221,57.38095238095238,-90.07936507936508,-26.587301587301585,7.698412698412698,40.39682539682539,10.238095238095237,1.984126984126984,39.285714285714285,-10.555555555555555,-7.698412698412698,-7.698412698412698,-321.8253968253968
-58.01587301587301,-325.0,-38.17460317460317,3.095238095238095,31.19047619047619,-78.65079365079364,41.82539682539682,126.58730158730158,-6.904761904761904,6.746031746031746,31.98412698412698,-77.22222222222221,57.38095238095238,-90.07936507936508,-26.587301587301585,7.698412698412698,40.39682539682539,10.238095238095237,1.984126984126984,39.285714285714285,-10.555555555555555,-7.698412698412698,-7.698412698412698,-321.8253968253968
-57.698412698412696,-325.0,-38.01587301587301,-7.5396825396825395,7.222222222222221,-78.33333333333333,20.238095238095237,179.60317460317458,-14.206349206349206,-4.2063492063492065,12.619047619047619,-77.06349206349206,17.38095238095238,-89.76190476190476,21.666666666666664,-3.4126984126984126,22.936507936507937,-0.23809523809523808,-8.968253968253968,42.77777777777778,-53.25396825396825,1.0317460317460316,6.904761904761904,-321.8253968253968
-57.698412698412696,-325.0,-38.01587301587301,-7.5396825396825395,7.222222222222221,-78.33333333333333,20.238095238095237,179.60317460317458,-14.206349206349206,-4.2063492063492065,12.619047619047619,-77.06349206349206,17.38095238095238,-89.76190476190476,21.666666666666664,-3.4126984126984126,22.936507936507937,-0.23809523809523808,-8.968253968253968,42.77777777777778,-53.25396825396825,1.0317460317460316,6.904761904761904,-321.8253968253968
-56.11111111111111,-325.0,-36.904761904761905,-1.8253968253968254,34.36507936507936,-75.95238095238095,45.317460317460316,226.42857142857142,-3.095238095238095,1.984126984126984,34.682539682539684,-74.04761904761904,59.12698412698413,-74.04761904761904,-23.88888888888889,2.619047619047619,42.77777777777778,5.634920634920634,-2.619047619047619,39.12698412698413,-15.95238095238095,-8.174603174603174,-8.015873015873016,-321.8253968253968
-56.11111111111111,-325.0,-36.904761904761905,-1.8253968253968254,34.36507936507936,-75.95238095238095,45.317460317460316,226.42857142857142,-3.095238095238095,1.984126984126984,34.682539682539684,-74.04761904761904,59.12698412698413,-74.04761904761904,-23.88888888888889,2.619047619047619,42.77777777777778,5.634920634920634,-2.619047619047619,39.12698412698413,-15.95238095238095,-8.174603174603174,-8.015873015873016,-321.8253968253968
-55.63492063492063,-325.0,-36.74603174603175,-10.079365079365079,-10.555555555555555,48.33333333333333,-10.555555555555555,311.66666666666663,-38.01587301587301,-5.634920634920634,-11.666666666666666,99.28571428571428,-19.76190476190476,130.7142857142857,64.36507936507937,-5.952380952380952,-10.555555555555555,-3.571428571428571,-11.666666666666666,-35.0,-24.047619047619047,1.6666666666666665,1.1904761904761905,-166.26984126984127
-55.63492063492063,-325.0,-36.74603174603175,-10.079365079365079,-10.555555555555555,48.33333333333333,-10.555555555555555,311.66666666666663,-38.01587301587301,-5.634920634920634,-11.666666666666666,99.28571428571428,-19.76190476190476,130.7142857142857,64.36507936507937,-5.952380952380952,-10.555555555555555,-3.571428571428571,-11.666666666666666,-35.0,-24.047619047619047,1.6666666666666665,1.1904761904761905,-166.26984126984127
-54.2063492063492,-281.8253968253968,-36.11111111111111,-18.333333333333332,44.36507936507936,234.84126984126982,55.476190476190474,325.0,10.079365079365079,-11.825396825396824,44.36507936507936,325.0,68.33333333333333,325.0,-24.84126984126984,-10.555555555555555,51.34920634920635,-8.174603174603174,-14.365079365079364,36.42857142857142,-10.396825396825395,-8.968253968253968,-6.428571428571428,-166.26984126984127
-54.2063492063492,-281.8253968253968,-36.11111111111111,-18.333333333333332,44.36507936507936,234.84126984126982,55.476190476190474,325.0,10.079365079365079,-11.825396825396824,44.36507936507936,325.0,68.33333333333333,325.0,-24.84126984126984,-10.555555555555555,51.34920634920635,-8.174603174603174,-14.365079365079364,36.42857142857142,-10.396825396825395,-8.968253968253968,-6.428571428571428,-166.26984126984127
-54.2063492063492,325.0,-36.11111111111111,-3.888888888888889,-90.23809523809523,325.0,-100.87301587301587,325.0,-139.12698412698413,4.682539682539682,-87.6984126984127,325.0,-116.58730158730158,325.0,-167.69841269841268,5.0,-85.79365079365078,6.111111111111111,-0.07936507936507936,-82.77777777777777,57.857142857142854,8.968253968253968,18.174603174603174,-166.26984126984127
-54.2063492063492,325.0,-36.11111111111111,-3.888888888888889,-90.23809523809523,325.0,-100.87301587301587,325.0,-139.12698412698413,4.682539682539682,-87.6984126984127,325.0,-116.58730158730158,325.0,-167.69841269841268,5.0,-85.79365079365078,6.111111111111111,-0.07936507936507936,-82.77777777777777,57.857142857142854,8.968253968253968,18.174603174603174,-166.26984126984127
-52.77777777777777,-222.77777777777777,-35.0,-18.49206349206349,49.12698412698413,325.0,59.6031746031746,325.0,15.634920634920634,-10.714285714285714,48.33333333333333,325.0,72.3015873015873,325.0,-23.253968253968253,-9.603174603174603,54.841269841269835,-7.063492063492063,-12.777777777777777,37.53968253968254,-14.365079365079364,-7.857142857142857,-5.7936507936507935,-166.26984126984127
-52.77777777777777,-222.77777777777777,-35.0,-18.49206349206349,49.12698412698413,325.0,59.6031746031746,325.0,15.634920634920634,-10.714285714285714,48.33333333333333,325.0,72.3015873015873,325.0,-23.253968253968253,-9.603174603174603,54.841269841269835,-7.063492063492063,-12.777777777777777,37.53968253968254,-14.365079365079364,-7.857142857142857,-5.7936507936507935,-166.26984126984127
-52.14285714285714,325.0,-34.84126984126984,-8.968253968253968,-85.63492063492063,325.0,-95.95238095238095,325.0,-132.61904761904762,-0.3968253968253968,-82.46031746031746,325.0,-112.14285714285714,325.0,-157.53968253968253,1.1904761904761905,-80.55555555555556,1.984126984126984,-2.7777777777777777,-78.4920634920635,52.460317460317455,10.714285714285714,17.063492063492063,-166.26984126984127
-52.14285714285714,325.0,-34.84126984126984,-8.968253968253968,-85.63492063492063,325.0,-95.95238095238095,325.0,-132.61904761904762,-0.3968253968253968,-82.46031746031746,325.0,-112.14285714285714,325.0,-157.53968253968253,1.1904761904761905,-80.55555555555556,1.984126984126984,-2.7777777777777777,-78.4920634920635,52.460317460317455,10.714285714285714,17.063492063492063,-166.26984126984127
-51.03174603174603,325.0,-33.888888888888886,-23.730158730158728,52.93650793650794,325.0,64.68253968253968,325.0,20.873015873015873,-15.317460317460316,51.98412698412698,325.0,74.84126984126983,325.0,-29.6031746031746,-13.888888888888888,58.01587301587301,-11.507936507936508,-16.11111111111111,39.6031746031746,-20.555555555555554,-8.492063492063492,-6.904761904761904,-321.8253968253968
-51.03174603174603,325.0,-33.888888888888886,-23.730158730158728,52.93650793650794,325.0,64.68253968253968,325.0,20.873015873015873,-15.317460317460316,51.98412698412698,325.0,74.84126984126983,325.0,-29.6031746031746,-13.888888888888888,58.01587301587301,-11.507936507936508,-16.11111111111111,39.6031746031746,-20.555555555555554,-8.492063492063492,-6.904761904761904,-321.8253968253968
-50.71428571428571,325.0,-33.73015873015873,-1.349206349206349,-80.07936507936508,325.0,-89.6031746031746,325.0,-126.58730158730158,6.111111111111111,-76.74603174603175,325.0,-107.53968253968253,325.0,-158.65079365079364,7.063492063492063,-74.84126984126983,8.174603174603174,1.507936507936508,-72.46031746031746,45.63492063492063,10.396825396825395,17.857142857142858,-321.8253968253968
-50.71428571428571,325.0,-33.73015873015873,-1.349206349206349,-80.07936507936508,325.0,-89.6031746031746,325.0,-126.58730158730158,6.111111111111111,-76.74603174603175,325.0,-107.53968253968253,325.0,-158.65079365079364,7.063492063492063,-74.84126984126983,8.174603174603174,1.507936507936508,-72.46031746031746,45.63492063492063,10.396825396825395,17.857142857142858,-321.8253968253968
-49.92063492063492,129.12698412698413,-33.25396825396825,-14.206349206349206,-7.5396825396825395,325.0,-5.0,325.0,-38.65079365079365,-6.904761904761904,-5.158730158730158,325.0,-20.396825396825395,325.0,-63.888888888888886,-5.7936507936507935,-0.873015873015873,-3.888888888888889,-10.079365079365079,5.317460317460317,-28.49206349206349,6.26984126984127,13.571428571428571,-321.8253968253968
-49.92063492063492,129.12698412698413,-33.25396825396825,-14.206349206349206,-7.5396825396825395,325.0,-5.0,325.0,-38.65079365079365,-6.904761904761904,-5.158730158730158,325.0,-20.396825396825395,325.0,-63.888888888888886,-5.7936507936507935,-0.873015873015873,-3.888888888888889,-10.079365079365079,5.317460317460317,-28.49206349206349,6.26984126984127,13.571428571428571,-321.8253968253968
-49.12698412698413,-66.74603174603175,-32.77777777777778,-26.9047619047619,65.15873015873015,325.0,79.6031746031746,325.0,49.44444444444444,-19.76190476190476,66.58730158730158,325.0,66.9047619047619,325.0,31.03174603174603,-18.65079365079365,73.09523809523809,-15.95238095238095,-21.666666666666664,83.25396825396825,-102.61904761904762,2.142857142857143,9.285714285714285,-321.8253968253968
-49.12698412698413,-66.74603174603175,-32.77777777777778,-26.9047619047619,65.15873015873015,325.0,79.6031746031746,325.0,49.44444444444444,-19.76190476190476,66.58730158730158,325.0,66.9047619047619,325.0,31.03174603174603,-18.65079365079365,73.09523809523809,-15.95238095238095,-21.666666666666664,83.25396825396825,-102.61904761904762,2.142857142857143,9.285714285714285,-321.8253968253968
-46.42857142857142,-325.0,-31.19047619047619,1.507936507936508,22.142857142857142,325.0,19.6031746031746,325.0,-16.428571428571427,6.26984126984127,16.746031746031743,325.0,34.2063492063492,325.0,8.968253968253968,7.063492063492063,15.476190476190474,8.015873015873016,1.8253968253968254,-28.174603174603174,7.222222222222221,-6.587301587301587,-13.095238095238095,-321.8253968253968
-46.42857142857142,-325.0,-31.19047619047619,1.507936507936508,22.142857142857142,325.0,19.6031746031746,325.0,-16.428571428571427,6.26984126984127,16.746031746031743,325.0,34.2063492063492,325.0,8.968253968253968,7.063492063492063,15.476190476190474,8.015873015873016,1.8253968253968254,-28.174603174603174,7.222222222222221,-6.587301587301587,-13.095238095238095,-321.8253968253968
-45.95238095238095,-296.90476190476187,-30.87301587301587,-7.222222222222221,2.9365079365079363,325.0,5.634920634920634,325.0,-25.79365079365079,-2.46031746031746,5.476190476190476,325.0,-12.142857142857142,325.0,-60.238095238095234,-1.349206349206349,8.968253968253968,0.23809523809523808,-5.7936507936507935,19.76190476190476,-47.698412698412696,6.746031746031746,13.73015873015873,-166.26984126984127
-45.95238095238095,-296.90476190476187,-30.87301587301587,-7.222222222222221,2.9365079365079363,325.0,5.634920634920634,325.0,-25.79365079365079,-2.46031746031746,5.476190476190476,325.0,-12.142857142857142,325.0,-60.238095238095234,-1.349206349206349,8.968253968253968,0.23809523809523808,-5.7936507936507935,19.76190476190476,-47.698412698412696,6.746031746031746,13.73015873015873,-166.26984126984127
-45.79365079365079,-268.8095238095238,-31.03174603174603,9.285714285714285,-61.666666666666664,325.0,-71.03174603174602,325.0,-104.2063492063492,13.095238095238095,-57.53968253968254,325.0,-89.92063492063491,325.0,-137.69841269841268,14.365079365079364,-55.317460317460316,14.682539682539682,8.492063492063492,-51.34920634920635,19.126984126984127,11.19047619047619,17.698412698412696,-166.26984126984127
-45.79365079365079,-268.8095238095238,-31.03174603174603,9.285714285714285,-61.666666666666664,325.0,-71.03174603174602,325.0,-104.2063492063492,13.095238095238095,-57.53968253968254,325.0,-89.92063492063491,325.0,-137.69841269841268,14.365079365079364,-55.317460317460316,14.682539682539682,8.492063492063492,-51.34920634920635,19.126984126984127,11.19047619047619,17.698412698412696,-166.26984126984127
-45.79365079365079,-268.8095238095238,-31.03174603174603,9.285714285714285,-61.666666666666664,325.0,-71.03174603174602,325.0,-104.2063492063492,13.095238095238095,-57.53968253968254,325.0,-89.92063492063491,325.0,-137.69841269841268,14.365079365079364,-55.317460317460316,14.682539682539682,8.492063492063492,-51.34920634920635,19.126984126984127,11.19047619047619,17.698412698412696,-166.26984126984127
-45.79365079365079,-268.8095238095238,-31.03174603174603,9.285714285714285,-61.666666666666664,325.0,-71.03174603174602,325.0,-104.2063492063492,13.095238095238095,-57.53968253968254,325.0,-89.92063492063491,325.0,-137.69841269841268,14.365079365079364,-55.317460317460316,14.682539682539682,8.492063492063492,-51.34920634920635,19.126984126984127,11.19047619047619,17.698412698412696,-166.26984126984127
-45.79365079365079,-268.8095238095238,-31.03174603174603,9.285714285714285,-61.666666666666664,325.0,-71.03174603174602,325.0,-104.2063492063492,13.095238095238095,-57.53968253968254,325.0,-89.92063492063491,325.0,-137.69841269841268,14.365079365079364,-55.317460317460316,14.682539682539682,8.492063492063492,-51.34920634920635,19.126984126984127,11.19047619047619,17.698412698412696,-166.26984126984127
-45.79365079365079,-268.8095238095238,-31.03174603174603,9.285714285714285,-61.666666666666664,325.0,-71.03174603174602,325.0,-104.2063492063492,13.095238095238095,-57.53968253968254,325.0,-89.92063492063491,325.0,-137.69841269841268,14.365079365079364,-55.317460317460316,14.682539682539682,8.492063492063492,-51.34920634920635,19.126984126984127,11.19047619047619,17.698412698412696,-166.26984126984127
-42.77777777777778,-1.0317460317460316,-28.96825396825397,-8.968253968253968,-8.809523809523808,325.0,-5.952380952380952,325.0,-36.42857142857142,-3.888888888888889,-6.26984126984127,325.0,-22.619047619047617,325.0,-59.6031746031746,-2.619047619047619,-2.9365079365079363,-1.1904761904761905,-6.428571428571428,2.46031746031746,-30.87301587301587,7.3809523809523805,13.412698412698411,-166.26984126984127
-42.77777777777778,-1.0317460317460316,-28.96825396825397,-8.968253968253968,-8.809523809523808,325.0,-5.952380952380952,325.0,-36.42857142857142,-3.888888888888889,-6.26984126984127,325.0,-22.619047619047617,325.0,-59.6031746031746,-2.619047619047619,-2.9365079365079363,-1.1904761904761905,-6.428571428571428,2.46031746031746,-30.87301587301587,7.3809523809523805,13.412698412698411,-166.26984126984127
-42.3015873015873,-13.888888888888888,-28.49206349206349,3.73015873015873,-17.539682539682538,325.0,-18.333333333333332,325.0,-58.650793650793645,9.126984126984127,-17.857142857142858,325.0,-9.603174603174603,325.0,-116.74603174603173,10.396825396825395,-15.476190476190474,11.349206349206348,6.428571428571428,-28.809523809523807,36.269841269841265,-1.984126984126984,-2.3015873015873014,-321.8253968253968
-42.3015873015873,-13.888888888888888,-28.49206349206349,3.73015873015873,-17.539682539682538,325.0,-18.333333333333332,325.0,-58.650793650793645,9.126984126984127,-17.857142857142858,325.0,-9.603174603174603,325.0,-116.74603174603173,10.396825396825395,-15.476190476190474,11.349206349206348,6.428571428571428,-28.809523809523807,36.269841269841265,-1.984126984126984,-2.3015873015873014,-321.8253968253968
-41.666666666666664,-311.8253968253968,-28.015873015873016,9.603174603174603,-17.539682539682538,325.0,-18.49206349206349,325.0,-58.33333333333333,14.523809523809524,-17.857142857142858,325.0,-9.126984126984127,325.0,-113.73015873015872,15.95238095238095,-15.317460317460316,16.587301587301585,11.031746031746032,-27.22222222222222,34.52380952380952,-2.46031746031746,-2.3015873015873014,-321.8253968253968
-41.666666666666664,-311.8253968253968,-28.015873015873016,9.603174603174603,-17.539682539682538,325.0,-18.49206349206349,325.0,-58.33333333333333,14.523809523809524,-17.857142857142858,325.0,-9.126984126984127,325.0,-113.73015873015872,15.95238095238095,-15.317460317460316,16.587301587301585,11.031746031746032,-27.22222222222222,34.52380952380952,-2.46031746031746,-2.3015873015873014,-321.8253968253968
-40.87301587301587,-325.0,-27.38095238095238,12.777777777777777,-20.873015873015873,152.3015873015873,-21.825396825396822,325.0,-60.079365079365076,16.11111111111111,-21.19047619047619,213.25396825396825,-12.46031746031746,325.0,-113.25396825396825,18.174603174603174,-18.80952380952381,18.65079365079365,13.253968253968253,-28.65079365079365,34.36507936507936,-2.7777777777777777,-2.142857142857143,-321.8253968253968
-40.87301587301587,-325.0,-27.38095238095238,12.777777777777777,-20.873015873015873,152.3015873015873,-21.825396825396822,325.0,-60.079365079365076,16.11111111111111,-21.19047619047619,213.25396825396825,-12.46031746031746,325.0,-113.25396825396825,18.174603174603174,-18.80952380952381,18.65079365079365,13.253968253968253,-28.65079365079365,34.36507936507936,-2.7777777777777777,-2.142857142857143,-321.8253968253968
-40.079365079365076,-325.0,-26.746031746031743,-10.714285714285714,-10.238095238095237,250.7142857142857,-8.015873015873016,325.0,-36.11111111111111,-8.492063492063492,-7.857142857142857,325.0,-25.476190476190474,325.0,-48.49206349206349,-7.222222222222221,-4.2063492063492065,-5.634920634920634,-11.349206349206348,5.158730158730158,-36.42857142857142,6.26984126984127,13.253968253968253,-321.8253968253968
-40.079365079365076,-325.0,-26.746031746031743,-10.714285714285714,-10.238095238095237,250.7142857142857,-8.015873015873016,325.0,-36.11111111111111,-8.492063492063492,-7.857142857142857,325.0,-25.476190476190474,325.0,-48.49206349206349,-7.222222222222221,-4.2063492063492065,-5.634920634920634,-11.349206349206348,5.158730158730158,-36.42857142857142,6.26984126984127,13.253968253968253,-321.8253968253968
-39.44444444444444,-323.88888888888886,-26.428571428571427,8.968253968253968,-20.71428571428571,32.14285714285714,-21.666666666666664,325.0,-59.44444444444444,11.666666666666666,-21.19047619047619,48.650793650793645,-12.619047619047619,325.0,-109.28571428571428,13.095238095238095,-18.49206349206349,14.047619047619047,8.65079365079365,-27.22222222222222,31.98412698412698,-3.571428571428571,-2.142857142857143,-321.8253968253968
-39.44444444444444,-323.88888888888886,-26.428571428571427,8.968253968253968,-20.71428571428571,32.14285714285714,-21.666666666666664,325.0,-59.44444444444444,11.666666666666666,-21.19047619047619,48.650793650793645,-12.619047619047619,325.0,-109.28571428571428,13.095238095238095,-18.49206349206349,14.047619047619047,8.65079365079365,-27.22222222222222,31.98412698412698,-3.571428571428571,-2.142857142857143,-321.8253968253968
-38.01587301587301,-316.1111111111111,-25.476190476190474,-6.746031746031746,32.460317460317455,-41.34920634920635,42.77777777777778,325.0,10.238095238095237,-3.888888888888889,28.96825396825397,48.650793650793645,49.285714285714285,325.0,-42.61904761904761,-2.142857142857143,31.19047619047619,-0.23809523809523808,-5.0,30.238095238095237,-23.41269841269841,-6.111111111111111,-4.2063492063492065,-166.26984126984127
-38.01587301587301,-316.1111111111111,-25.476190476190474,-6.746031746031746,32.460317460317455,-41.34920634920635,42.77777777777778,325.0,10.238095238095237,-3.888888888888889,28.96825396825397,48.650793650793645,49.285714285714285,325.0,-42.61904761904761,-2.142857142857143,31.19047619047619,-0.23809523809523808,-5.0,30.238095238095237,-23.41269841269841,-6.111111111111111,-4.2063492063492065,-166.26984126984127
-37.698412698412696,-307.06349206349205,-25.158730158730158,8.015873015873016,-57.698412698412696,325.0,-66.26984126984127,325.0,-95.15873015873015,10.396825396825395,-52.460317460317455,325.0,-81.34920634920634,325.0,-107.22222222222221,11.349206349206348,-48.01587301587301,11.507936507936508,6.26984126984127,-42.77777777777778,9.920634920634921,8.174603174603174,15.634920634920634,-166.26984126984127
-37.698412698412696,-307.06349206349205,-25.158730158730158,8.015873015873016,-57.698412698412696,325.0,-66.26984126984127,325.0,-95.15873015873015,10.396825396825395,-52.460317460317455,325.0,-81.34920634920634,325.0,-107.22222222222221,11.349206349206348,-48.01587301587301,11.507936507936508,6.26984126984127,-42.77777777777778,9.920634920634921,8.174603174603174,15.634920634920634,-166.26984126984127
-37.698412698412696,-307.06349206349205,-25.158730158730158,8.015873015873016,-57.698412698412696,325.0,-66.26984126984127,325.0,-95.15873015873015,10.396825396825395,-52.460317460317455,325.0,-81.34920634920634,325.0,-107.22222222222221,11.349206349206348,-48.01587301587301,11.507936507936508,6.26984126984127,-42.77777777777778,9.920634920634921,8.174603174603174,15.634920634920634,-166.26984126984127
-37.698412698412696,-307.06349206349205,-25.158730158730158,8.015873015873016,-57.698412698412696,325.0,-66.26984126984127,325.0,-95.15873015873015,10.396825396825395,-52.460317460317455,325.0,-81.34920634920634,325.0,-107.22222222222221,11.349206349206348,-48.01587301587301,11.507936507936508,6.26984126984127,-42.77777777777778,9.920634920634921,8.174603174603174,15.634920634920634,-166.26984126984127
-36.11111111111111,325.0,-24.68253968253968,1.8253968253968254,-46.269841269841265,325.0,-53.73015873015873,325.0,-81.19047619047619,5.952380952380952,-40.079365079365076,325.0,-69.44444444444444,325.0,-105.31746031746032,7.222222222222221,-35.476190476190474,7.222222222222221,3.253968253968254,-39.92063492063492,6.111111111111111,12.142857142857142,16.11111111111111,-166.26984126984127
-36.11111111111111,325.0,-24.68253968253968,1.8253968253968254,-46.269841269841265,325.0,-53.73015873015873,325.0,-81.19047619047619,5.952380952380952,-40.079365079365076,325.0,-69.44444444444444,325.0,-105.31746031746032,7.222222222222221,-35.476190476190474,7.222222222222221,3.253968253968254,-39.92063492063492,6.111111111111111,12.142857142857142,16.11111111111111,-166.26984126984127
-35.476190476190474,-0.07936507936507936,-24.047619047619047,-14.84126984126984,-1.8253968253968254,195.15873015873015,1.0317460317460316,322.77777777777777,-21.507936507936506,-12.3015873015873,0.3968253968253968,259.9206349206349,-18.015873015873016,-0.07936507936507936,-45.317460317460316,-10.714285714285714,3.253968253968254,-9.761904761904761,-13.571428571428571,13.253968253968253,-45.317460317460316,8.492063492063492,14.206349206349206,-166.26984126984127
-35.476190476190474,-0.07936507936507936,-24.047619047619047,-14.84126984126984,-1.8253968253968254,195.15873015873015,1.0317460317460316,322.77777777777777,-21.507936507936506,-12.3015873015873,0.3968253968253968,259.9206349206349,-18.015873015873016,-0.07936507936507936,-45.317460317460316,-10.714285714285714,3.253968253968254,-9.761904761904761,-13.571428571428571,13.253968253968253,-45.317460317460316,8.492063492063492,14.206349206349206,-166.26984126984127
