Fp1[1],Fp2[2],F3[3],F4[4],C3[5],C4[6],P3[7],P4[8],O1[9],O2[10],F7[11],F8[12],T3[13],T4[14],T5[15],T6[16],Fz[17],Pz[18],Cz[19],Pg1[20],Pg2[21],EOGR[22],EOOGL[23],EMG[24]
2.7777777777777777,-264.8412698412698,-38.96825396825397,285.95238095238096,-316.1111111111111,-320.07936507936506,101.5079365079365,147.2222222222222,142.14285714285714,126.1111111111111,-317.53968253968253,-35.63492063492063,-203.25396825396825,-158.17460317460316,23.88888888888889,19.285714285714285,314.8412698412698,288.4920634920635,56.74603174603174,-233.57142857142856,61.03174603174603,-235.63492063492063,-135.0,-166.26984126984127
2.7777777777777777,-264.8412698412698,-38.96825396825397,285.95238095238096,-316.1111111111111,-320.07936507936506,101.5079365079365,147.2222222222222,142.14285714285714,126.1111111111111,-317.53968253968253,-35.63492063492063,-203.25396825396825,-158.17460317460316,23.88888888888889,19.285714285714285,314.8412698412698,288.4920634920635,56.74603174603174,-233.57142857142856,61.03174603174603,-235.63492063492063,-135.0,-166.26984126984127
325.0,101.98412698412697,-325.0,53.41269841269841,-292.3015873015873,325.0,-291.19047619047615,325.0,-255.3174603174603,69.6031746031746,-293.0952380952381,325.0,-304.36507936507934,122.6190476190476,325.0,35.95238095238095,-291.19047619047615,44.2063492063492,-150.07936507936506,-325.0,-179.60317460317458,-92.30158730158729,-78.65079365079364,-166.26984126984127
325.0,101.98412698412697,-325.0,53.41269841269841,-292.3015873015873,325.0,-291.19047619047615,325.0,-255.3174603174603,69.6031746031746,-293.0952380952381,325.0,-304.36507936507934,122.6190476190476,325.0,35.95238095238095,-291.19047619047615,44.2063492063492,-150.07936507936506,-325.0,-179.60317460317458,-92.30158730158729,-78.65079365079364,-166.26984126984127
325.0,96.9047619047619,-325.0,48.650793650793645,-261.66666666666663,325.0,-257.38095238095235,325.0,-254.04761904761904,64.2063492063492,-261.1904761904762,325.0,-283.57142857142856,117.53968253968253,325.0,31.03174603174603,-257.53968253968253,39.44444444444444,-151.03174603174602,-325.0,-180.7142857142857,-172.61904761904762,-157.53968253968253,-166.26984126984127
325.0,96.9047619047619,-325.0,48.650793650793645,-261.66666666666663,325.0,-257.38095238095235,325.0,-254.04761904761904,64.2063492063492,-261.1904761904762,325.0,-283.57142857142856,117.53968253968253,325.0,31.03174603174603,-257.53968253968253,39.44444444444444,-151.03174603174602,-325.0,-180.7142857142857,-172.61904761904762,-157.53968253968253,-166.26984126984127
325.0,89.28571428571428,-325.0,49.76190476190476,-227.2222222222222,325.0,-231.03174603174602,-325.0,-239.9206349206349,61.82539682539682,-230.55555555555554,325.0,-252.14285714285714,108.80952380952381,325.0,37.38095238095238,-229.9206349206349,46.11111111111111,-102.14285714285714,-325.0,-109.6031746031746,-25.158730158730158,-11.825396825396824,-166.26984126984127
325.0,89.28571428571428,-325.0,49.76190476190476,-227.2222222222222,325.0,-231.03174603174602,-325.0,-239.9206349206349,61.82539682539682,-230.55555555555554,325.0,-252.14285714285714,108.80952380952381,325.0,37.38095238095238,-229.9206349206349,46.11111111111111,-102.14285714285714,-325.0,-109.6031746031746,-25.158730158730158,-11.825396825396824,-166.26984126984127
325.0,89.28571428571428,-325.0,49.76190476190476,-227.2222222222222,325.0,-231.03174603174602,-325.0,-239.9206349206349,61.82539682539682,-230.55555555555554,325.0,-252.14285714285714,108.80952380952381,325.0,37.38095238095238,-229.9206349206349,46.11111111111111,-102.14285714285714,-325.0,-109.6031746031746,-25.158730158730158,-11.825396825396824,-166.26984126984127
325.0,89.28571428571428,-325.0,49.76190476190476,-227.2222222222222,325.0,-231.03174603174602,-325.0,-239.9206349206349,61.82539682539682,-230.55555555555554,325.0,-252.14285714285714,108.80952380952381,325.0,37.38095238095238,-229.9206349206349,46.11111111111111,-102.14285714285714,-325.0,-109.6031746031746,-25.158730158730158,-11.825396825396824,-166.26984126984127
325.0,89.28571428571428,-325.0,49.76190476190476,-227.2222222222222,325.0,-231.03174603174602,-325.0,-239.9206349206349,61.82539682539682,-230.55555555555554,325.0,-252.14285714285714,108.80952380952381,325.0,37.38095238095238,-229.9206349206349,46.11111111111111,-102.14285714285714,-325.0,-109.6031746031746,-25.158730158730158,-11.825396825396824,-321.8253968253968
325.0,89.28571428571428,-325.0,49.76190476190476,-227.2222222222222,325.0,-231.03174603174602,-325.0,-239.9206349206349,61.82539682539682,-230.55555555555554,325.0,-252.14285714285714,108.80952380952381,325.0,37.38095238095238,-229.9206349206349,46.11111111111111,-102.14285714285714,-325.0,-109.6031746031746,-25.158730158730158,-11.825396825396824,-321.8253968253968
325.0,89.28571428571428,-325.0,49.76190476190476,-227.2222222222222,325.0,-231.03174603174602,-325.0,-239.9206349206349,61.82539682539682,-230.55555555555554,325.0,-252.14285714285714,108.80952380952381,325.0,37.38095238095238,-229.9206349206349,46.11111111111111,-102.14285714285714,-325.0,-109.6031746031746,-25.158730158730158,-11.825396825396824,-321.8253968253968
325.0,89.28571428571428,-325.0,49.76190476190476,-227.2222222222222,325.0,-231.03174603174602,-325.0,-239.9206349206349,61.82539682539682,-230.55555555555554,325.0,-252.14285714285714,108.80952380952381,325.0,37.38095238095238,-229.9206349206349,46.11111111111111,-102.14285714285714,-325.0,-109.6031746031746,-25.158730158730158,-11.825396825396824,-321.8253968253968
325.0,89.28571428571428,-325.0,49.76190476190476,-227.2222222222222,325.0,-231.03174603174602,-325.0,-239.9206349206349,61.82539682539682,-230.55555555555554,325.0,-252.14285714285714,108.80952380952381,325.0,37.38095238095238,-229.9206349206349,46.11111111111111,-102.14285714285714,-325.0,-109.6031746031746,-25.158730158730158,-11.825396825396824,-321.8253968253968
325.0,89.28571428571428,-325.0,49.76190476190476,-227.2222222222222,325.0,-231.03174603174602,-325.0,-239.9206349206349,61.82539682539682,-230.55555555555554,325.0,-252.14285714285714,108.80952380952381,325.0,37.38095238095238,-229.9206349206349,46.11111111111111,-102.14285714285714,-325.0,-109.6031746031746,-25.158730158730158,-11.825396825396824,-321.8253968253968
325.0,89.28571428571428,-325.0,49.76190476190476,-227.2222222222222,325.0,-231.03174603174602,-325.0,-239.9206349206349,61.82539682539682,-230.55555555555554,325.0,-252.14285714285714,108.80952380952381,325.0,37.38095238095238,-229.9206349206349,46.11111111111111,-102.14285714285714,-325.0,-109.6031746031746,-25.158730158730158,-11.825396825396824,-321.8253968253968
325.0,89.28571428571428,-325.0,49.76190476190476,-227.2222222222222,325.0,-231.03174603174602,-325.0,-239.9206349206349,61.82539682539682,-230.55555555555554,325.0,-252.14285714285714,108.80952380952381,325.0,37.38095238095238,-229.9206349206349,46.11111111111111,-102.14285714285714,-325.0,-109.6031746031746,-25.158730158730158,-11.825396825396824,-321.8253968253968
325.0,89.28571428571428,-325.0,49.76190476190476,-227.2222222222222,325.0,-231.03174603174602,-325.0,-239.9206349206349,61.82539682539682,-230.55555555555554,325.0,-252.14285714285714,108.80952380952381,325.0,37.38095238095238,-229.9206349206349,46.11111111111111,-102.14285714285714,-325.0,-109.6031746031746,-25.158730158730158,-11.825396825396824,-321.8253968253968
325.0,89.28571428571428,-325.0,49.76190476190476,-227.2222222222222,325.0,-231.03174603174602,-325.0,-239.9206349206349,61.82539682539682,-230.55555555555554,325.0,-252.14285714285714,108.80952380952381,325.0,37.38095238095238,-229.9206349206349,46.11111111111111,-102.14285714285714,-325.0,-109.6031746031746,-25.158730158730158,-11.825396825396824,-321.8253968253968
325.0,89.28571428571428,-325.0,49.76190476190476,-227.2222222222222,325.0,-231.03174603174602,-325.0,-239.9206349206349,61.82539682539682,-230.55555555555554,325.0,-252.14285714285714,108.80952380952381,325.0,37.38095238095238,-229.9206349206349,46.11111111111111,-102.14285714285714,-325.0,-109.6031746031746,-25.158730158730158,-11.825396825396824,-166.26984126984127
325.0,89.28571428571428,-325.0,49.76190476190476,-227.2222222222222,325.0,-231.03174603174602,-325.0,-239.9206349206349,61.82539682539682,-230.55555555555554,325.0,-252.14285714285714,108.80952380952381,325.0,37.38095238095238,-229.9206349206349,46.11111111111111,-102.14285714285714,-325.0,-109.6031746031746,-25.158730158730158,-11.825396825396824,-166.26984126984127
325.0,89.28571428571428,-325.0,49.76190476190476,-227.2222222222222,325.0,-231.03174603174602,-325.0,-239.9206349206349,61.82539682539682,-230.55555555555554,325.0,-252.14285714285714,108.80952380952381,325.0,37.38095238095238,-229.9206349206349,46.11111111111111,-102.14285714285714,-325.0,-109.6031746031746,-25.158730158730158,-11.825396825396824,-166.26984126984127
325.0,89.28571428571428,-325.0,49.76190476190476,-227.2222222222222,325.0,-231.03174603174602,-325.0,-239.9206349206349,61.82539682539682,-230.55555555555554,325.0,-252.14285714285714,108.80952380952381,325.0,37.38095238095238,-229.9206349206349,46.11111111111111,-102.14285714285714,-325.0,-109.6031746031746,-25.158730158730158,-11.825396825396824,-166.26984126984127
325.0,61.507936507936506,-325.0,32.460317460317455,-158.96825396825395,325.0,-159.28571428571428,-325.0,-214.2063492063492,39.12698412698413,-160.7142857142857,325.0,-185.3174603174603,78.01587301587301,325.0,24.68253968253968,-160.23809523809524,31.03174603174603,-53.57142857142857,-287.85714285714283,-30.87301587301587,-82.93650793650794,-73.57142857142857,-166.26984126984127
325.0,61.507936507936506,-325.0,32.460317460317455,-158.96825396825395,325.0,-159.28571428571428,-325.0,-214.2063492063492,39.12698412698413,-160.7142857142857,325.0,-185.3174603174603,78.01587301587301,325.0,24.68253968253968,-160.23809523809524,31.03174603174603,-53.57142857142857,-287.85714285714283,-30.87301587301587,-82.93650793650794,-73.57142857142857,-166.26984126984127
325.0,32.14285714285714,-325.0,17.698412698412696,-111.82539682539682,325.0,-116.1111111111111,-325.0,-179.44444444444443,17.063492063492063,-112.93650793650794,325.0,-134.68253968253967,44.36507936507936,325.0,15.634920634920634,-106.74603174603175,27.063492063492063,14.047619047619047,-237.85714285714283,74.2063492063492,6.26984126984127,5.317460317460317,-166.26984126984127
325.0,32.14285714285714,-325.0,17.698412698412696,-111.82539682539682,325.0,-116.1111111111111,-325.0,-179.44444444444443,17.063492063492063,-112.93650793650794,325.0,-134.68253968253967,44.36507936507936,325.0,15.634920634920634,-106.74603174603175,27.063492063492063,14.047619047619047,-237.85714285714283,74.2063492063492,6.26984126984127,5.317460317460317,-166.26984126984127
325.0,25.79365079365079,-325.0,12.936507936507935,-72.93650793650794,325.0,-78.65079365079364,-325.0,-174.68253968253967,11.349206349206348,-73.73015873015872,325.0,-92.30158730158729,36.58730158730159,325.0,10.555555555555555,-60.39682539682539,20.873015873015873,16.26984126984127,-231.19047619047618,78.80952380952381,101.98412698412697,79.44444444444444,-166.26984126984127
325.0,25.79365079365079,-325.0,12.936507936507935,-72.93650793650794,325.0,-78.65079365079364,-325.0,-174.68253968253967,11.349206349206348,-73.73015873015872,325.0,-92.30158730158729,36.58730158730159,325.0,10.555555555555555,-60.39682539682539,20.873015873015873,16.26984126984127,-231.19047619047618,78.80952380952381,101.98412698412697,79.44444444444444,-166.26984126984127
325.0,25.79365079365079,-325.0,12.936507936507935,-72.93650793650794,325.0,-78.65079365079364,-325.0,-174.68253968253967,11.349206349206348,-73.73015873015872,325.0,-92.30158730158729,36.58730158730159,325.0,10.555555555555555,-60.39682539682539,20.873015873015873,16.26984126984127,-231.19047619047618,78.80952380952381,101.98412698412697,79.44444444444444,-321.8253968253968
325.0,25.79365079365079,-325.0,12.936507936507935,-72.93650793650794,325.0,-78.65079365079364,-325.0,-174.68253968253967,11.349206349206348,-73.73015873015872,325.0,-92.30158730158729,36.58730158730159,325.0,10.555555555555555,-60.39682539682539,20.873015873015873,16.26984126984127,-231.19047619047618,78.80952380952381,101.98412698412697,79.44444444444444,-321.8253968253968
325.0,25.79365079365079,-325.0,12.936507936507935,-72.93650793650794,325.0,-78.65079365079364,-325.0,-174.68253968253967,11.349206349206348,-73.73015873015872,325.0,-92.30158730158729,36.58730158730159,325.0,10.555555555555555,-60.39682539682539,20.873015873015873,16.26984126984127,-231.19047619047618,78.80952380952381,101.98412698412697,79.44444444444444,-321.8253968253968
325.0,25.79365079365079,-325.0,12.936507936507935,-72.93650793650794,325.0,-78.65079365079364,-325.0,-174.68253968253967,11.349206349206348,-73.73015873015872,325.0,-92.30158730158729,36.58730158730159,325.0,10.555555555555555,-60.39682539682539,20.873015873015873,16.26984126984127,-231.19047619047618,78.80952380952381,101.98412698412697,79.44444444444444,-321.8253968253968
325.0,22.619047619047617,-325.0,12.619047619047619,-75.47619047619047,325.0,-72.93650793650794,-325.0,-165.15873015873015,10.396825396825395,-76.42857142857143,325.0,-104.84126984126983,39.44444444444444,325.0,12.3015873015873,-77.38095238095238,16.587301587301585,32.14285714285714,-217.2222222222222,95.63492063492063,-131.03174603174602,-125.0,-321.8253968253968
325.0,22.619047619047617,-325.0,12.619047619047619,-75.47619047619047,325.0,-72.93650793650794,-325.0,-165.15873015873015,10.396825396825395,-76.42857142857143,325.0,-104.84126984126983,39.44444444444444,325.0,12.3015873015873,-77.38095238095238,16.587301587301585,32.14285714285714,-217.2222222222222,95.63492063492063,-131.03174603174602,-125.0,-321.8253968253968
135.63492063492063,-17.698412698412696,325.0,-18.49206349206349,205.79365079365078,148.8095238095238,206.74603174603175,-120.07936507936508,88.4920634920635,-30.396825396825395,206.26984126984127,139.12698412698413,197.85714285714283,-6.746031746031746,121.5079365079365,-20.238095238095237,196.11111111111111,-29.444444444444443,12.619047619047619,-70.55555555555556,-325.0,11.984126984126984,20.07936507936508,-321.8253968253968
135.63492063492063,-17.698412698412696,325.0,-18.49206349206349,205.79365079365078,148.8095238095238,206.74603174603175,-120.07936507936508,88.4920634920635,-30.396825396825395,206.26984126984127,139.12698412698413,197.85714285714283,-6.746031746031746,121.5079365079365,-20.238095238095237,196.11111111111111,-29.444444444444443,12.619047619047619,-70.55555555555556,-325.0,11.984126984126984,20.07936507936508,-321.8253968253968
114.2063492063492,-12.46031746031746,325.0,-8.65079365079365,206.42857142857142,126.42857142857142,206.74603174603175,-102.77777777777777,206.74603174603175,-23.253968253968253,207.53968253968253,117.6984126984127,206.9047619047619,-5.158730158730158,102.77777777777777,-14.206349206349206,201.66666666666666,-18.80952380952381,11.031746031746032,-59.285714285714285,-325.0,38.01587301587301,33.57142857142857,-321.8253968253968
114.2063492063492,-12.46031746031746,325.0,-8.65079365079365,206.42857142857142,126.42857142857142,206.74603174603175,-102.77777777777777,206.74603174603175,-23.253968253968253,207.53968253968253,117.6984126984127,206.9047619047619,-5.158730158730158,102.77777777777777,-14.206349206349206,201.66666666666666,-18.80952380952381,11.031746031746032,-59.285714285714285,-325.0,38.01587301587301,33.57142857142857,-321.8253968253968
92.93650793650794,-7.222222222222221,325.0,1.1904761904761905,207.2222222222222,104.04761904761904,206.74603174603175,-85.31746031746032,325.0,-15.95238095238095,208.8095238095238,96.42857142857142,215.95238095238093,-3.4126984126984126,84.2063492063492,-8.015873015873016,207.2222222222222,-8.174603174603174,9.603174603174603,-48.01587301587301,-325.0,64.2063492063492,47.06349206349206,-166.26984126984127
92.93650793650794,-7.222222222222221,325.0,1.1904761904761905,207.2222222222222,104.04761904761904,206.74603174603175,-85.31746031746032,325.0,-15.95238095238095,208.8095238095238,96.42857142857142,215.95238095238093,-3.4126984126984126,84.2063492063492,-8.015873015873016,207.2222222222222,-8.174603174603174,9.603174603174603,-48.01587301587301,-325.0,64.2063492063492,47.06349206349206,-166.26984126984127
49.76190476190476,2.7777777777777777,180.7142857142857,8.333333333333332,194.52380952380952,-325.0,199.44444444444443,-49.6031746031746,325.0,-5.634920634920634,197.38095238095238,-325.0,209.60317460317458,0.23809523809523808,45.63492063492063,-2.46031746031746,187.53968253968253,-3.571428571428571,0.5555555555555556,325.0,-209.9206349206349,-43.888888888888886,-29.76190476190476,-166.26984126984127
49.76190476190476,2.7777777777777777,180.7142857142857,8.333333333333332,194.52380952380952,-325.0,199.44444444444443,-49.6031746031746,325.0,-5.634920634920634,197.38095238095238,-325.0,209.60317460317458,0.23809523809523808,45.63492063492063,-2.46031746031746,187.53968253968253,-3.571428571428571,0.5555555555555556,325.0,-209.9206349206349,-43.888888888888886,-29.76190476190476,-166.26984126984127
49.44444444444444,7.857142857142857,180.07936507936506,12.936507936507935,134.36507936507937,-325.0,139.6031746031746,-50.39682539682539,325.0,-1.1904761904761905,138.96825396825395,-325.0,147.2222222222222,5.0,45.476190476190474,1.507936507936508,125.15873015873015,0.5555555555555556,4.2063492063492065,325.0,-208.8095238095238,-186.9047619047619,-157.38095238095238,-166.26984126984127
49.44444444444444,7.857142857142857,180.07936507936506,12.936507936507935,134.36507936507937,-325.0,139.6031746031746,-50.39682539682539,325.0,-1.1904761904761905,138.96825396825395,-325.0,147.2222222222222,5.0,45.476190476190474,1.507936507936508,125.15873015873015,0.5555555555555556,4.2063492063492065,325.0,-208.8095238095238,-186.9047619047619,-157.38095238095238,-166.26984126984127
49.44444444444444,7.857142857142857,180.07936507936506,12.936507936507935,134.36507936507937,-325.0,139.6031746031746,-50.39682539682539,325.0,-1.1904761904761905,138.96825396825395,-325.0,147.2222222222222,5.0,45.476190476190474,1.507936507936508,125.15873015873015,0.5555555555555556,4.2063492063492065,325.0,-208.8095238095238,-186.9047619047619,-157.38095238095238,-166.26984126984127
49.44444444444444,7.857142857142857,180.07936507936506,12.936507936507935,134.36507936507937,-325.0,139.6031746031746,-50.39682539682539,325.0,-1.1904761904761905,138.96825396825395,-325.0,147.2222222222222,5.0,45.476190476190474,1.507936507936508,125.15873015873015,0.5555555555555556,4.2063492063492065,325.0,-208.8095238095238,-186.9047619047619,-157.38095238095238,-166.26984126984127
49.44444444444444,7.857142857142857,180.07936507936506,12.936507936507935,134.36507936507937,-325.0,139.6031746031746,-50.39682539682539,325.0,-1.1904761904761905,138.96825396825395,-325.0,147.2222222222222,5.0,45.476190476190474,1.507936507936508,125.15873015873015,0.5555555555555556,4.2063492063492065,325.0,-208.8095238095238,-186.9047619047619,-157.38095238095238,-166.26984126984127
49.44444444444444,7.857142857142857,180.07936507936506,12.936507936507935,134.36507936507937,-325.0,139.6031746031746,-50.39682539682539,325.0,-1.1904761904761905,138.96825396825395,-325.0,147.2222222222222,5.0,45.476190476190474,1.507936507936508,125.15873015873015,0.5555555555555556,4.2063492063492065,325.0,-208.8095238095238,-186.9047619047619,-157.38095238095238,-166.26984126984127
49.44444444444444,7.857142857142857,180.07936507936506,12.936507936507935,134.36507936507937,-325.0,139.6031746031746,-50.39682539682539,325.0,-1.1904761904761905,138.96825396825395,-325.0,147.2222222222222,5.0,45.476190476190474,1.507936507936508,125.15873015873015,0.5555555555555556,4.2063492063492065,325.0,-208.8095238095238,-186.9047619047619,-157.38095238095238,-321.8253968253968
49.44444444444444,7.857142857142857,180.07936507936506,12.936507936507935,134.36507936507937,-325.0,139.6031746031746,-50.39682539682539,325.0,-1.1904761904761905,138.96825396825395,-325.0,147.2222222222222,5.0,45.476190476190474,1.507936507936508,125.15873015873015,0.5555555555555556,4.2063492063492065,325.0,-208.8095238095238,-186.9047619047619,-157.38095238095238,-321.8253968253968
49.44444444444444,7.857142857142857,180.07936507936506,12.936507936507935,134.36507936507937,-325.0,139.6031746031746,-50.39682539682539,325.0,-1.1904761904761905,138.96825396825395,-325.0,147.2222222222222,5.0,45.476190476190474,1.507936507936508,125.15873015873015,0.5555555555555556,4.2063492063492065,325.0,-208.8095238095238,-186.9047619047619,-157.38095238095238,-321.8253968253968
49.44444444444444,7.857142857142857,180.07936507936506,12.936507936507935,134.36507936507937,-325.0,139.6031746031746,-50.39682539682539,325.0,-1.1904761904761905,138.96825396825395,-325.0,147.2222222222222,5.0,45.476190476190474,1.507936507936508,125.15873015873015,0.5555555555555556,4.2063492063492065,325.0,-208.8095238095238,-186.9047619047619,-157.38095238095238,-321.8253968253968
44.52380952380952,-12.46031746031746,159.12698412698413,-5.317460317460317,120.23809523809523,-325.0,126.26984126984127,69.44444444444444,325.0,-17.539682539682538,126.74603174603173,-325.0,138.33333333333331,-16.428571428571427,41.03174603174603,-14.84126984126984,119.6031746031746,-15.634920634920634,-14.523809523809524,325.0,-187.69841269841268,-192.93650793650792,-165.47619047619045,-321.8253968253968
44.52380952380952,-12.46031746031746,159.12698412698413,-5.317460317460317,120.23809523809523,-325.0,126.26984126984127,69.44444444444444,325.0,-17.539682539682538,126.74603174603173,-325.0,138.33333333333331,-16.428571428571427,41.03174603174603,-14.84126984126984,119.6031746031746,-15.634920634920634,-14.523809523809524,325.0,-187.69841269841268,-192.93650793650792,-165.47619047619045,-321.8253968253968
44.52380952380952,-12.46031746031746,159.12698412698413,-5.317460317460317,120.23809523809523,-325.0,126.26984126984127,69.44444444444444,325.0,-17.539682539682538,126.74603174603173,-325.0,138.33333333333331,-16.428571428571427,41.03174603174603,-14.84126984126984,119.6031746031746,-15.634920634920634,-14.523809523809524,325.0,-187.69841269841268,-192.93650793650792,-165.47619047619045,-321.8253968253968
44.52380952380952,-12.46031746031746,159.12698412698413,-5.317460317460317,120.23809523809523,-325.0,126.26984126984127,69.44444444444444,325.0,-17.539682539682538,126.74603174603173,-325.0,138.33333333333331,-16.428571428571427,41.03174603174603,-14.84126984126984,119.6031746031746,-15.634920634920634,-14.523809523809524,325.0,-187.69841269841268,-192.93650793650792,-165.47619047619045,-321.8253968253968
44.52380952380952,-12.46031746031746,159.12698412698413,-5.317460317460317,120.23809523809523,-325.0,126.26984126984127,69.44444444444444,325.0,-17.539682539682538,126.74603174603173,-325.0,138.33333333333331,-16.428571428571427,41.03174603174603,-14.84126984126984,119.6031746031746,-15.634920634920634,-14.523809523809524,325.0,-187.69841269841268,-192.93650793650792,-165.47619047619045,-321.8253968253968
44.52380952380952,-12.46031746031746,159.12698412698413,-5.317460317460317,120.23809523809523,-325.0,126.26984126984127,69.44444444444444,325.0,-17.539682539682538,126.74603174603173,-325.0,138.33333333333331,-16.428571428571427,41.03174603174603,-14.84126984126984,119.6031746031746,-15.634920634920634,-14.523809523809524,325.0,-187.69841269841268,-192.93650793650792,-165.47619047619045,-321.8253968253968
44.52380952380952,-12.46031746031746,159.12698412698413,-5.317460317460317,120.23809523809523,-325.0,126.26984126984127,69.44444444444444,325.0,-17.539682539682538,126.74603174603173,-325.0,138.33333333333331,-16.428571428571427,41.03174603174603,-14.84126984126984,119.6031746031746,-15.634920634920634,-14.523809523809524,325.0,-187.69841269841268,-192.93650793650792,-165.47619047619045,-166.26984126984127
44.52380952380952,-12.46031746031746,159.12698412698413,-5.317460317460317,120.23809523809523,-325.0,126.26984126984127,69.44444444444444,325.0,-17.539682539682538,126.74603174603173,-325.0,138.33333333333331,-16.428571428571427,41.03174603174603,-14.84126984126984,119.6031746031746,-15.634920634920634,-14.523809523809524,325.0,-187.69841269841268,-192.93650793650792,-165.47619047619045,-166.26984126984127
41.19047619047619,10.079365079365079,138.33333333333331,14.365079365079364,121.34920634920634,-325.0,125.95238095238095,-54.36507936507936,325.0,2.7777777777777777,123.88888888888889,-325.0,131.8253968253968,6.26984126984127,38.17460317460317,4.682539682539682,112.6190476190476,5.0,3.73015873015873,325.0,-173.73015873015873,-138.4920634920635,-125.47619047619047,-166.26984126984127
41.19047619047619,10.079365079365079,138.33333333333331,14.365079365079364,121.34920634920634,-325.0,125.95238095238095,-54.36507936507936,325.0,2.7777777777777777,123.88888888888889,-325.0,131.8253968253968,6.26984126984127,38.17460317460317,4.682539682539682,112.6190476190476,5.0,3.73015873015873,325.0,-173.73015873015873,-138.4920634920635,-125.47619047619047,-166.26984126984127
39.76190476190476,7.698412698412698,116.9047619047619,11.984126984126984,108.49206349206348,-325.0,113.4126984126984,-49.92063492063492,317.85714285714283,1.349206349206349,111.34920634920634,-325.0,119.44444444444444,3.4126984126984126,36.74603174603175,2.7777777777777777,101.34920634920634,2.7777777777777777,1.349206349206349,325.0,-167.69841269841268,-138.17460317460316,-125.47619047619047,-166.26984126984127
39.76190476190476,7.698412698412698,116.9047619047619,11.984126984126984,108.49206349206348,-325.0,113.4126984126984,-49.92063492063492,317.85714285714283,1.349206349206349,111.34920634920634,-325.0,119.44444444444444,3.4126984126984126,36.74603174603175,2.7777777777777777,101.34920634920634,2.7777777777777777,1.349206349206349,325.0,-167.69841269841268,-138.17460317460316,-125.47619047619047,-166.26984126984127
28.174603174603174,-8.809523809523808,91.03174603174602,-3.888888888888889,176.9047619047619,-325.0,181.03174603174602,-33.41269841269841,138.65079365079364,-14.047619047619047,179.9206349206349,-325.0,193.57142857142856,-13.412698412698411,35.0,-11.825396825396824,182.61904761904762,-12.3015873015873,-15.158730158730158,325.0,-159.12698412698413,199.9206349206349,173.25396825396825,-166.26984126984127
28.174603174603174,-8.809523809523808,91.03174603174602,-3.888888888888889,176.9047619047619,-325.0,181.03174603174602,-33.41269841269841,138.65079365079364,-14.047619047619047,179.9206349206349,-325.0,193.57142857142856,-13.412698412698411,35.0,-11.825396825396824,182.61904761904762,-12.3015873015873,-15.158730158730158,325.0,-159.12698412698413,199.9206349206349,173.25396825396825,-166.26984126984127
28.174603174603174,-8.809523809523808,91.03174603174602,-3.888888888888889,176.9047619047619,-325.0,181.03174603174602,-33.41269841269841,138.65079365079364,-14.047619047619047,179.9206349206349,-325.0,193.57142857142856,-13.412698412698411,35.0,-11.825396825396824,182.61904761904762,-12.3015873015873,-15.158730158730158,325.0,-159.12698412698413,199.9206349206349,173.25396825396825,-166.26984126984127
28.174603174603174,-8.809523809523808,91.03174603174602,-3.888888888888889,176.9047619047619,-325.0,181.03174603174602,-33.41269841269841,138.65079365079364,-14.047619047619047,179.9206349206349,-325.0,193.57142857142856,-13.412698412698411,35.0,-11.825396825396824,182.61904761904762,-12.3015873015873,-15.158730158730158,325.0,-159.12698412698413,199.9206349206349,173.25396825396825,-166.26984126984127
28.174603174603174,-8.809523809523808,91.03174603174602,-3.888888888888889,176.9047619047619,-325.0,181.03174603174602,-33.41269841269841,138.65079365079364,-14.047619047619047,179.9206349206349,-325.0,193.57142857142856,-13.412698412698411,35.0,-11.825396825396824,182.61904761904762,-12.3015873015873,-15.158730158730158,325.0,-159.12698412698413,199.9206349206349,173.25396825396825,-321.8253968253968
28.174603174603174,-8.809523809523808,91.03174603174602,-3.888888888888889,176.9047619047619,-325.0,181.03174603174602,-33.41269841269841,138.65079365079364,-14.047619047619047,179.9206349206349,-325.0,193.57142857142856,-13.412698412698411,35.0,-11.825396825396824,182.61904761904762,-12.3015873015873,-15.158730158730158,325.0,-159.12698412698413,199.9206349206349,173.25396825396825,-321.8253968253968
31.349206349206348,-7.063492063492063,98.65079365079364,-1.0317460317460316,127.85714285714285,-325.0,134.2063492063492,59.12698412698413,189.76190476190476,-10.079365079365079,133.0952380952381,-325.0,145.15873015873015,-11.666666666666666,33.41269841269841,-8.492063492063492,131.984126984127,-9.603174603174603,-13.253968253968253,325.0,-152.46031746031744,2.46031746031746,0.873015873015873,-321.8253968253968
31.349206349206348,-7.063492063492063,98.65079365079364,-1.0317460317460316,127.85714285714285,-325.0,134.2063492063492,59.12698412698413,189.76190476190476,-10.079365079365079,133.0952380952381,-325.0,145.15873015873015,-11.666666666666666,33.41269841269841,-8.492063492063492,131.984126984127,-9.603174603174603,-13.253968253968253,325.0,-152.46031746031744,2.46031746031746,0.873015873015873,-321.8253968253968
33.73015873015873,-2.142857142857143,103.25396825396825,4.523809523809524,77.06349206349206,-325.0,85.79365079365078,64.52380952380952,236.9047619047619,-4.365079365079365,84.52380952380952,-325.0,95.31746031746032,-6.746031746031746,31.507936507936506,-3.095238095238095,80.39682539682539,-5.158730158730158,-9.285714285714285,325.0,-143.09523809523807,-194.68253968253967,-170.55555555555554,-321.8253968253968
33.73015873015873,-2.142857142857143,103.25396825396825,4.523809523809524,77.06349206349206,-325.0,85.79365079365078,64.52380952380952,236.9047619047619,-4.365079365079365,84.52380952380952,-325.0,95.31746031746032,-6.746031746031746,31.507936507936506,-3.095238095238095,80.39682539682539,-5.158730158730158,-9.285714285714285,325.0,-143.09523809523807,-194.68253968253967,-170.55555555555554,-321.8253968253968
35.317460317460316,5.0,103.57142857142857,9.761904761904761,68.96825396825396,-325.0,73.57142857142857,-55.0,258.968253968254,0.3968253968253968,71.66666666666666,-325.0,79.28571428571428,0.873015873015873,30.396825396825395,2.9365079365079363,63.73015873015873,1.349206349206349,-4.0476190476190474,325.0,-137.38095238095238,-126.74603174603173,-116.26984126984127,-321.8253968253968
35.317460317460316,5.0,103.57142857142857,9.761904761904761,68.96825396825396,-325.0,73.57142857142857,-55.0,258.968253968254,0.3968253968253968,71.66666666666666,-325.0,79.28571428571428,0.873015873015873,30.396825396825395,2.9365079365079363,63.73015873015873,1.349206349206349,-4.0476190476190474,325.0,-137.38095238095238,-126.74603174603173,-116.26984126984127,-321.8253968253968
32.3015873015873,-0.07936507936507936,87.85714285714285,5.0,81.03174603174602,-325.0,89.12698412698413,-51.98412698412698,224.04761904761904,-5.158730158730158,88.33333333333333,-325.0,98.33333333333333,-5.158730158730158,30.07936507936508,-2.7777777777777777,85.31746031746032,-4.682539682539682,-10.873015873015872,325.0,-135.63492063492063,-194.52380952380952,-170.55555555555554,-321.8253968253968
32.3015873015873,-0.07936507936507936,87.85714285714285,5.0,81.03174603174602,-325.0,89.12698412698413,-51.98412698412698,224.04761904761904,-5.158730158730158,88.33333333333333,-325.0,98.33333333333333,-5.158730158730158,30.07936507936508,-2.7777777777777777,85.31746031746032,-4.682539682539682,-10.873015873015872,325.0,-135.63492063492063,-194.52380952380952,-170.55555555555554,-321.8253968253968
-27.857142857142854,-0.7142857142857142,56.269841269841265,4.841269841269841,92.93650793650794,-325.0,102.61904761904762,-42.460317460317455,201.19047619047618,-5.317460317460317,100.39682539682539,-325.0,110.71428571428571,-5.634920634920634,27.857142857142854,-1.6666666666666665,98.49206349206348,-5.7936507936507935,-11.507936507936508,325.0,-125.79365079365078,-191.98412698412696,-168.96825396825395,-166.26984126984127
-27.857142857142854,-0.7142857142857142,56.269841269841265,4.841269841269841,92.93650793650794,-325.0,102.61904761904762,-42.460317460317455,201.19047619047618,-5.317460317460317,100.39682539682539,-325.0,110.71428571428571,-5.634920634920634,27.857142857142854,-1.6666666666666665,98.49206349206348,-5.7936507936507935,-11.507936507936508,325.0,-125.79365079365078,-191.98412698412696,-168.96825396825395,-166.26984126984127
-153.73015873015873,-10.873015873015872,31.825396825396822,-5.0,119.12698412698413,-325.0,126.74603174603173,25.952380952380953,135.0,-13.571428571428571,124.68253968253967,-325.0,134.84126984126982,-15.158730158730158,27.22222222222222,-9.126984126984127,126.1111111111111,-13.253968253968253,-19.444444444444443,325.0,-122.6190476190476,2.7777777777777777,1.8253968253968254,-166.26984126984127
-153.73015873015873,-10.873015873015872,31.825396825396822,-5.0,119.12698412698413,-325.0,126.74603174603173,25.952380952380953,135.0,-13.571428571428571,124.68253968253967,-325.0,134.84126984126982,-15.158730158730158,27.22222222222222,-9.126984126984127,126.1111111111111,-13.253968253968253,-19.444444444444443,325.0,-122.6190476190476,2.7777777777777777,1.8253968253968254,-166.26984126984127
-259.6031746031746,-11.031746031746032,1.6666666666666665,-5.317460317460317,133.73015873015873,-325.0,139.44444444444443,3.095238095238095,81.82539682539682,-14.523809523809524,137.38095238095238,-325.0,146.9047619047619,-14.84126984126984,26.587301587301585,-8.809523809523808,141.5079365079365,-13.571428571428571,-19.126984126984127,325.0,-119.12698412698413,193.88888888888889,172.3015873015873,-166.26984126984127
-259.6031746031746,-11.031746031746032,1.6666666666666665,-5.317460317460317,133.73015873015873,-325.0,139.44444444444443,3.095238095238095,81.82539682539682,-14.523809523809524,137.38095238095238,-325.0,146.9047619047619,-14.84126984126984,26.587301587301585,-8.809523809523808,141.5079365079365,-13.571428571428571,-19.126984126984127,325.0,-119.12698412698413,193.88888888888889,172.3015873015873,-166.26984126984127
-268.015873015873,-11.666666666666666,-1.349206349206349,-5.952380952380952,131.66666666666666,-325.0,136.9047619047619,164.04761904761904,90.07936507936508,-14.206349206349206,134.52380952380952,-325.0,143.73015873015873,-15.793650793650793,20.873015873015873,-8.809523809523808,138.015873015873,-14.047619047619047,-19.285714285714285,325.0,-117.06349206349206,192.3015873015873,170.55555555555554,-166.26984126984127
-268.015873015873,-11.666666666666666,-1.349206349206349,-5.952380952380952,131.66666666666666,-325.0,136.9047619047619,164.04761904761904,90.07936507936508,-14.206349206349206,134.52380952380952,-325.0,143.73015873015873,-15.793650793650793,20.873015873015873,-8.809523809523808,138.015873015873,-14.047619047619047,-19.285714285714285,325.0,-117.06349206349206,192.3015873015873,170.55555555555554,-166.26984126984127
-276.26984126984127,-12.3015873015873,-4.2063492063492065,-6.587301587301587,129.76190476190476,-325.0,134.36507936507937,325.0,98.33333333333333,-13.73015873015873,131.8253968253968,-325.0,140.7142857142857,-16.746031746031743,15.158730158730158,-8.65079365079365,134.52380952380952,-14.365079365079364,-19.285714285714285,325.0,-115.0,190.7142857142857,168.96825396825395,-166.26984126984127
-276.26984126984127,-12.3015873015873,-4.2063492063492065,-6.587301587301587,129.76190476190476,-325.0,134.36507936507937,325.0,98.33333333333333,-13.73015873015873,131.8253968253968,-325.0,140.7142857142857,-16.746031746031743,15.158730158730158,-8.65079365079365,134.52380952380952,-14.365079365079364,-19.285714285714285,325.0,-115.0,190.7142857142857,168.96825396825395,-166.26984126984127
-231.66666666666666,-12.46031746031746,-22.46031746031746,-5.317460317460317,87.53968253968253,-325.0,95.79365079365078,325.0,156.42857142857142,-11.19047619047619,92.30158730158729,-325.0,101.5079365079365,-16.26984126984127,1.1904761904761905,-6.587301587301587,93.57142857142857,-12.777777777777777,-17.539682539682538,325.0,-111.98412698412697,2.9365079365079363,1.8253968253968254,-321.8253968253968
-231.66666666666666,-12.46031746031746,-22.46031746031746,-5.317460317460317,87.53968253968253,-325.0,95.79365079365078,325.0,156.42857142857142,-11.19047619047619,92.30158730158729,-325.0,101.5079365079365,-16.26984126984127,1.1904761904761905,-6.587301587301587,93.57142857142857,-12.777777777777777,-17.539682539682538,325.0,-111.98412698412697,2.9365079365079363,1.8253968253968254,-321.8253968253968
-232.6190476190476,-2.619047619047619,-57.857142857142854,6.111111111111111,-10.396825396825395,-325.0,-6.111111111111111,325.0,195.3174603174603,2.7777777777777777,-8.492063492063492,-325.0,-0.07936507936507936,-5.7936507936507935,-33.73015873015873,7.698412698412698,-12.777777777777777,0.23809523809523808,-4.365079365079365,325.0,-103.88888888888889,-89.28571428571428,-73.88888888888889,-321.8253968253968
-232.6190476190476,-2.619047619047619,-57.857142857142854,6.111111111111111,-10.396825396825395,-325.0,-6.111111111111111,325.0,195.3174603174603,2.7777777777777777,-8.492063492063492,-325.0,-0.07936507936507936,-5.7936507936507935,-33.73015873015873,7.698412698412698,-12.777777777777777,0.23809523809523808,-4.365079365079365,325.0,-103.88888888888889,-89.28571428571428,-73.88888888888889,-321.8253968253968
-168.8095238095238,9.761904761904761,6.746031746031746,18.333333333333332,-88.17460317460316,-325.0,-92.30158730158729,325.0,225.0,16.746031746031743,-92.14285714285714,-325.0,-87.22222222222221,6.746031746031746,-59.285714285714285,22.46031746031746,-101.19047619047619,14.523809523809524,9.603174603174603,325.0,-97.85714285714285,0.3968253968253968,1.6666666666666665,-321.8253968253968
-168.8095238095238,9.761904761904761,6.746031746031746,18.333333333333332,-88.17460317460316,-325.0,-92.30158730158729,325.0,225.0,16.746031746031743,-92.14285714285714,-325.0,-87.22222222222221,6.746031746031746,-59.285714285714285,22.46031746031746,-101.19047619047619,14.523809523809524,9.603174603174603,325.0,-97.85714285714285,0.3968253968253968,1.6666666666666665,-321.8253968253968
-325.0,-11.031746031746032,-25.0,-1.984126984126984,35.317460317460316,-325.0,43.73015873015873,325.0,167.69841269841268,-3.73015873015873,38.96825396825397,-325.0,46.74603174603175,-13.412698412698411,-144.04761904761904,0.873015873015873,41.82539682539682,-6.428571428571428,-11.349206349206348,325.0,-93.4126984126984,-0.3968253968253968,-0.7142857142857142,-321.8253968253968
-325.0,-11.031746031746032,-25.0,-1.984126984126984,35.317460317460316,-325.0,43.73015873015873,325.0,167.69841269841268,-3.73015873015873,38.96825396825397,-325.0,46.74603174603175,-13.412698412698411,-144.04761904761904,0.873015873015873,41.82539682539682,-6.428571428571428,-11.349206349206348,325.0,-93.4126984126984,-0.3968253968253968,-0.7142857142857142,-321.8253968253968
-209.9206349206349,7.063492063492063,-19.92063492063492,15.476190476190474,-84.36507936507937,-325.0,-88.65079365079364,325.0,268.6507936507936,13.253968253968253,-88.01587301587301,-325.0,-84.68253968253968,4.841269841269841,-141.19047619047618,19.6031746031746,-95.47619047619047,10.873015873015872,6.746031746031746,325.0,-91.03174603174602,1.349206349206349,1.349206349206349,-321.8253968253968
-209.9206349206349,7.063492063492063,-19.92063492063492,15.476190476190474,-84.36507936507937,-325.0,-88.65079365079364,325.0,268.6507936507936,13.253968253968253,-88.01587301587301,-325.0,-84.68253968253968,4.841269841269841,-141.19047619047618,19.6031746031746,-95.47619047619047,10.873015873015872,6.746031746031746,325.0,-91.03174603174602,1.349206349206349,1.349206349206349,-321.8253968253968
-325.0,-10.396825396825395,-38.17460317460317,-1.1904761904761905,-2.9365079365079363,-325.0,-2.142857142857143,325.0,188.8095238095238,-2.9365079365079363,-4.2063492063492065,-325.0,3.095238095238095,-12.46031746031746,-171.66666666666666,2.9365079365079363,-5.7936507936507935,-5.158730158730158,-10.238095238095237,325.0,-88.4920634920635,79.6031746031746,77.85714285714285,-166.26984126984127
-325.0,-10.396825396825395,-38.17460317460317,-1.1904761904761905,-2.9365079365079363,-325.0,-2.142857142857143,325.0,188.8095238095238,-2.9365079365079363,-4.2063492063492065,-325.0,3.095238095238095,-12.46031746031746,-171.66666666666666,2.9365079365079363,-5.7936507936507935,-5.158730158730158,-10.238095238095237,325.0,-88.4920634920635,79.6031746031746,77.85714285714285,-166.26984126984127
-325.0,-14.682539682539682,-13.73015873015873,-5.317460317460317,4.841269841269841,-325.0,15.634920634920634,325.0,197.85714285714283,-8.65079365079365,11.19047619047619,-325.0,13.73015873015873,-16.11111111111111,-270.07936507936506,-3.253968253968254,11.031746031746032,-11.825396825396824,-16.11111111111111,325.0,-86.58730158730158,-168.96825396825395,-156.42857142857142,-166.26984126984127
-325.0,-14.682539682539682,-13.73015873015873,-5.317460317460317,4.841269841269841,-325.0,15.634920634920634,325.0,197.85714285714283,-8.65079365079365,11.19047619047619,-325.0,13.73015873015873,-16.11111111111111,-270.07936507936506,-3.253968253968254,11.031746031746032,-11.825396825396824,-16.11111111111111,325.0,-86.58730158730158,-168.96825396825395,-156.42857142857142,-166.26984126984127
-325.0,-14.682539682539682,-13.73015873015873,-5.317460317460317,4.841269841269841,-325.0,15.634920634920634,325.0,197.85714285714283,-8.65079365079365,11.19047619047619,-325.0,13.73015873015873,-16.11111111111111,-270.07936507936506,-3.253968253968254,11.031746031746032,-11.825396825396824,-16.11111111111111,325.0,-86.58730158730158,-168.96825396825395,-156.42857142857142,-166.26984126984127
-325.0,-14.682539682539682,-13.73015873015873,-5.317460317460317,4.841269841269841,-325.0,15.634920634920634,325.0,197.85714285714283,-8.65079365079365,11.19047619047619,-325.0,13.73015873015873,-16.11111111111111,-270.07936507936506,-3.253968253968254,11.031746031746032,-11.825396825396824,-16.11111111111111,325.0,-86.58730158730158,-168.96825396825395,-156.42857142857142,-166.26984126984127
-277.6984126984127,-9.920634920634921,0.07936507936507936,-0.7142857142857142,5.317460317460317,-325.0,4.365079365079365,325.0,216.9047619047619,-1.507936507936508,3.4126984126984126,-311.19047619047615,9.444444444444445,-11.19047619047619,-314.5238095238095,4.2063492063492065,3.571428571428571,-3.888888888888889,-7.857142857142857,325.0,-68.01587301587301,91.5079365079365,78.96825396825396,-166.26984126984127
-277.6984126984127,-9.920634920634921,0.07936507936507936,-0.7142857142857142,5.317460317460317,-325.0,4.365079365079365,325.0,216.9047619047619,-1.507936507936508,3.4126984126984126,-311.19047619047615,9.444444444444445,-11.19047619047619,-314.5238095238095,4.2063492063492065,3.571428571428571,-3.888888888888889,-7.857142857142857,325.0,-68.01587301587301,91.5079365079365,78.96825396825396,-166.26984126984127
-325.0,-3.888888888888889,-265.1587301587301,5.476190476190476,-16.26984126984127,-325.0,-11.984126984126984,325.0,249.12698412698413,5.317460317460317,-14.047619047619047,-306.26984126984127,-12.619047619047619,-5.158730158730158,-273.4126984126984,10.238095238095237,-19.285714285714285,1.6666666666666665,-1.0317460317460316,325.0,-63.73015873015873,-92.46031746031746,-81.03174603174602,-166.26984126984127
-325.0,-3.888888888888889,-265.1587301587301,5.476190476190476,-16.26984126984127,-325.0,-11.984126984126984,325.0,249.12698412698413,5.317460317460317,-14.047619047619047,-306.26984126984127,-12.619047619047619,-5.158730158730158,-273.4126984126984,10.238095238095237,-19.285714285714285,1.6666666666666665,-1.0317460317460316,325.0,-63.73015873015873,-92.46031746031746,-81.03174603174602,-166.26984126984127
-325.0,13.73015873015873,15.0,21.349206349206348,-68.33333333333333,-325.0,-75.15873015873015,325.0,303.0952380952381,20.396825396825395,-72.77777777777777,-302.1428571428571,-70.23809523809524,11.666666666666666,-325.0,26.26984126984127,-77.06349206349206,18.174603174603174,15.476190476190474,322.9365079365079,-69.44444444444444,27.857142857142854,14.047619047619047,-321.8253968253968
-325.0,13.73015873015873,15.0,21.349206349206348,-68.33333333333333,-325.0,-75.15873015873015,325.0,303.0952380952381,20.396825396825395,-72.77777777777777,-302.1428571428571,-70.23809523809524,11.666666666666666,-325.0,26.26984126984127,-77.06349206349206,18.174603174603174,15.476190476190474,322.9365079365079,-69.44444444444444,27.857142857142854,14.047619047619047,-321.8253968253968
-325.0,13.73015873015873,15.0,21.349206349206348,-68.33333333333333,-325.0,-75.15873015873015,325.0,303.0952380952381,20.396825396825395,-72.77777777777777,-302.1428571428571,-70.23809523809524,11.666666666666666,-325.0,26.26984126984127,-77.06349206349206,18.174603174603174,15.476190476190474,322.9365079365079,-69.44444444444444,27.857142857142854,14.047619047619047,-321.8253968253968
-325.0,13.73015873015873,15.0,21.349206349206348,-68.33333333333333,-325.0,-75.15873015873015,325.0,303.0952380952381,20.396825396825395,-72.77777777777777,-302.1428571428571,-70.23809523809524,11.666666666666666,-325.0,26.26984126984127,-77.06349206349206,18.174603174603174,15.476190476190474,322.9365079365079,-69.44444444444444,27.857142857142854,14.047619047619047,-321.8253968253968
-325.0,0.07936507936507936,-56.269841269841265,8.492063492063492,-4.841269841269841,-325.0,-6.904761904761904,325.0,248.015873015873,9.761904761904761,-7.3809523809523805,-289.76190476190476,-3.095238095238095,-1.6666666666666665,-325.0,14.365079365079364,-7.222222222222221,6.746031746031746,3.73015873015873,311.031746031746,-32.14285714285714,95.0,82.61904761904762,-321.8253968253968
-325.0,0.07936507936507936,-56.269841269841265,8.492063492063492,-4.841269841269841,-325.0,-6.904761904761904,325.0,248.015873015873,9.761904761904761,-7.3809523809523805,-289.76190476190476,-3.095238095238095,-1.6666666666666665,-325.0,14.365079365079364,-7.222222222222221,6.746031746031746,3.73015873015873,311.031746031746,-32.14285714285714,95.0,82.61904761904762,-321.8253968253968
-325.0,-1.507936507936508,-274.36507936507934,7.3809523809523805,-35.476190476190474,-325.0,-31.98412698412698,325.0,268.8095238095238,10.714285714285714,-33.888888888888886,-278.6507936507936,-33.888888888888886,-3.571428571428571,-325.0,13.888888888888888,-38.80952380952381,5.952380952380952,3.4126984126984126,305.7936507936508,-39.92063492063492,-98.01587301587301,-85.63492063492063,-321.8253968253968
-325.0,-1.507936507936508,-274.36507936507934,7.3809523809523805,-35.476190476190474,-325.0,-31.98412698412698,325.0,268.8095238095238,10.714285714285714,-33.888888888888886,-278.6507936507936,-33.888888888888886,-3.571428571428571,-325.0,13.888888888888888,-38.80952380952381,5.952380952380952,3.4126984126984126,305.7936507936508,-39.92063492063492,-98.01587301587301,-85.63492063492063,-321.8253968253968
-325.0,-7.063492063492063,-245.3174603174603,1.6666666666666665,-4.2063492063492065,-316.4285714285714,-3.4126984126984126,325.0,218.8095238095238,4.365079365079365,-4.841269841269841,-259.44444444444446,-1.507936507936508,-8.492063492063492,-325.0,8.333333333333332,-5.476190476190476,1.0317460317460316,-2.46031746031746,298.3333333333333,-12.3015873015873,55.15873015873016,55.95238095238095,-321.8253968253968
-325.0,-7.063492063492063,-245.3174603174603,1.6666666666666665,-4.2063492063492065,-316.4285714285714,-3.4126984126984126,325.0,218.8095238095238,4.365079365079365,-4.841269841269841,-259.44444444444446,-1.507936507936508,-8.492063492063492,-325.0,8.333333333333332,-5.476190476190476,1.0317460317460316,-2.46031746031746,298.3333333333333,-12.3015873015873,55.15873015873016,55.95238095238095,-321.8253968253968
-325.0,-0.873015873015873,-284.04761904761904,7.5396825396825395,-18.80952380952381,-323.0952380952381,-15.793650793650793,325.0,191.66666666666666,10.079365079365079,-17.063492063492063,-271.031746031746,-17.38095238095238,-1.984126984126984,-325.0,13.571428571428571,-20.71428571428571,6.26984126984127,2.619047619047619,290.87301587301585,-40.55555555555555,-103.4126984126984,-90.23809523809523,-166.26984126984127
-325.0,-0.873015873015873,-284.04761904761904,7.5396825396825395,-18.80952380952381,-323.0952380952381,-15.793650793650793,325.0,191.66666666666666,10.079365079365079,-17.063492063492063,-271.031746031746,-17.38095238095238,-1.984126984126984,-325.0,13.571428571428571,-20.71428571428571,6.26984126984127,2.619047619047619,290.87301587301585,-40.55555555555555,-103.4126984126984,-90.23809523809523,-166.26984126984127
-325.0,9.126984126984127,-160.23809523809524,17.22222222222222,-83.73015873015872,-319.1269841269841,-88.4920634920635,325.0,189.60317460317458,20.873015873015873,-85.31746031746032,-265.3174603174603,-84.84126984126983,7.5396825396825395,-325.0,24.523809523809522,-89.6031746031746,16.904761904761905,13.253968253968253,285.0,-31.349206349206348,3.4126984126984126,3.73015873015873,-166.26984126984127
-325.0,9.126984126984127,-160.23809523809524,17.22222222222222,-83.73015873015872,-319.1269841269841,-88.4920634920635,325.0,189.60317460317458,20.873015873015873,-85.31746031746032,-265.3174603174603,-84.84126984126983,7.5396825396825395,-325.0,24.523809523809522,-89.6031746031746,16.904761904761905,13.253968253968253,285.0,-31.349206349206348,3.4126984126984126,3.73015873015873,-166.26984126984127
-325.0,4.2063492063492065,-160.23809523809524,12.619047619047619,-86.1111111111111,-301.3492063492063,-90.71428571428571,325.0,176.74603174603175,16.26984126984127,-87.22222222222221,-248.8095238095238,-86.42857142857143,3.095238095238095,-325.0,20.07936507936508,-90.07936507936508,12.3015873015873,8.968253968253968,280.39682539682536,-29.126984126984127,-1.0317460317460316,-0.5555555555555556,-166.26984126984127
-325.0,4.2063492063492065,-160.23809523809524,12.619047619047619,-86.1111111111111,-301.3492063492063,-90.71428571428571,325.0,176.74603174603175,16.26984126984127,-87.22222222222221,-248.8095238095238,-86.42857142857143,3.095238095238095,-325.0,20.07936507936508,-90.07936507936508,12.3015873015873,8.968253968253968,280.39682539682536,-29.126984126984127,-1.0317460317460316,-0.5555555555555556,-166.26984126984127
-325.0,-0.23809523809523808,-131.984126984127,7.5396825396825395,-31.19047619047619,-278.3333333333333,-33.095238095238095,325.0,95.63492063492063,11.19047619047619,-33.25396825396825,-222.61904761904762,-30.238095238095237,-0.873015873015873,-237.38095238095238,14.682539682539682,-33.73015873015873,7.5396825396825395,4.0476190476190474,272.3015873015873,7.3809523809523805,105.79365079365078,91.82539682539682,-166.26984126984127
-325.0,-0.23809523809523808,-131.984126984127,7.5396825396825395,-31.19047619047619,-278.3333333333333,-33.095238095238095,325.0,95.63492063492063,11.19047619047619,-33.25396825396825,-222.61904761904762,-30.238095238095237,-0.873015873015873,-237.38095238095238,14.682539682539682,-33.73015873015873,7.5396825396825395,4.0476190476190474,272.3015873015873,7.3809523809523805,105.79365079365078,91.82539682539682,-166.26984126984127
-325.0,-2.619047619047619,-325.0,5.476190476190476,-44.52380952380952,-262.1428571428571,-41.666666666666664,325.0,-35.15873015873016,10.238095238095237,-42.93650793650794,-196.74603174603175,-42.77777777777778,-3.4126984126984126,-228.49206349206347,12.619047619047619,-43.57142857142857,5.476190476190476,2.3015873015873014,267.6984126984127,-1.1904761904761905,-105.95238095238095,-93.57142857142857,-166.26984126984127
-325.0,-2.619047619047619,-325.0,5.476190476190476,-44.52380952380952,-262.1428571428571,-41.666666666666664,325.0,-35.15873015873016,10.238095238095237,-42.93650793650794,-196.74603174603175,-42.77777777777778,-3.4126984126984126,-228.49206349206347,12.619047619047619,-43.57142857142857,5.476190476190476,2.3015873015873014,267.6984126984127,-1.1904761904761905,-105.95238095238095,-93.57142857142857,-166.26984126984127
-325.0,1.349206349206349,-231.03174603174602,8.333333333333332,0.7142857142857142,-274.8412698412698,-0.07936507936507936,325.0,-325.0,12.619047619047619,-0.3968253968253968,-221.5079365079365,2.619047619047619,0.873015873015873,-259.44444444444446,15.95238095238095,0.5555555555555556,8.968253968253968,5.317460317460317,263.4126984126984,22.619047619047617,107.38095238095238,94.2063492063492,-321.8253968253968
-325.0,1.349206349206349,-231.03174603174602,8.333333333333332,0.7142857142857142,-274.8412698412698,-0.07936507936507936,325.0,-325.0,12.619047619047619,-0.3968253968253968,-221.5079365079365,2.619047619047619,0.873015873015873,-259.44444444444446,15.95238095238095,0.5555555555555556,8.968253968253968,5.317460317460317,263.4126984126984,22.619047619047617,107.38095238095238,94.2063492063492,-321.8253968253968
-325.0,5.952380952380952,-325.0,13.253968253968253,-15.95238095238095,-285.4761904761905,-12.619047619047619,325.0,-325.0,15.95238095238095,-13.888888888888888,-236.9047619047619,-14.523809523809524,4.841269841269841,-196.11111111111111,18.96825396825397,-16.428571428571427,12.142857142857142,7.857142857142857,259.1269841269841,-18.96825396825397,-109.76190476190476,-96.74603174603175,-321.8253968253968
-325.0,5.952380952380952,-325.0,13.253968253968253,-15.95238095238095,-285.4761904761905,-12.619047619047619,325.0,-325.0,15.95238095238095,-13.888888888888888,-236.9047619047619,-14.523809523809524,4.841269841269841,-196.11111111111111,18.96825396825397,-16.428571428571427,12.142857142857142,7.857142857142857,259.1269841269841,-18.96825396825397,-109.76190476190476,-96.74603174603175,-321.8253968253968
-325.0,3.888888888888889,-248.96825396825395,10.714285714285714,14.206349206349206,-287.6984126984127,13.253968253968253,325.0,-325.0,12.619047619047619,13.253968253968253,-235.47619047619045,17.539682539682538,3.253968253968254,-270.87301587301585,16.428571428571427,15.0,10.238095238095237,5.158730158730158,254.68253968253967,9.126984126984127,110.23809523809523,96.74603174603175,-321.8253968253968
-325.0,3.888888888888889,-248.96825396825395,10.714285714285714,14.206349206349206,-287.6984126984127,13.253968253968253,325.0,-325.0,12.619047619047619,13.253968253968253,-235.47619047619045,17.539682539682538,3.253968253968254,-270.87301587301585,16.428571428571427,15.0,10.238095238095237,5.158730158730158,254.68253968253967,9.126984126984127,110.23809523809523,96.74603174603175,-321.8253968253968
-325.0,7.5396825396825395,-325.0,14.682539682539682,-22.619047619047617,-283.4126984126984,-19.76190476190476,325.0,-325.0,15.793650793650793,-20.71428571428571,-235.15873015873015,-22.936507936507937,6.26984126984127,-197.53968253968253,19.444444444444443,-23.88888888888889,13.095238095238095,8.015873015873016,250.55555555555554,-17.539682539682538,-112.30158730158729,-99.76190476190476,-321.8253968253968
-325.0,7.5396825396825395,-325.0,14.682539682539682,-22.619047619047617,-283.4126984126984,-19.76190476190476,325.0,-325.0,15.793650793650793,-20.71428571428571,-235.15873015873015,-22.936507936507937,6.26984126984127,-197.53968253968253,19.444444444444443,-23.88888888888889,13.095238095238095,8.015873015873016,250.55555555555554,-17.539682539682538,-112.30158730158729,-99.76190476190476,-321.8253968253968
-325.0,1.0317460317460316,-325.0,7.698412698412698,52.61904761904761,-280.39682539682536,57.53968253968254,325.0,-325.0,9.603174603174603,53.095238095238095,-230.3968253968254,54.047619047619044,0.5555555555555556,-317.22222222222223,13.571428571428571,52.460317460317455,7.698412698412698,2.46031746031746,247.06349206349205,33.73015873015873,-1.349206349206349,-2.142857142857143,-321.8253968253968
-325.0,1.0317460317460316,-325.0,7.698412698412698,52.61904761904761,-280.39682539682536,57.53968253968254,325.0,-325.0,9.603174603174603,53.095238095238095,-230.3968253968254,54.047619047619044,0.5555555555555556,-317.22222222222223,13.571428571428571,52.460317460317455,7.698412698412698,2.46031746031746,247.06349206349205,33.73015873015873,-1.349206349206349,-2.142857142857143,-321.8253968253968
-325.0,7.222222222222221,-325.0,13.888888888888888,-32.93650793650794,-275.0,-30.238095238095237,325.0,-325.0,14.523809523809524,-31.03174603174603,-228.17460317460316,-33.41269841269841,5.634920634920634,-212.14285714285714,18.015873015873016,-34.2063492063492,11.19047619047619,6.587301587301587,242.3015873015873,-15.634920634920634,-115.95238095238095,-101.19047619047619,-166.26984126984127
-325.0,7.222222222222221,-325.0,13.888888888888888,-32.93650793650794,-275.0,-30.238095238095237,325.0,-325.0,14.523809523809524,-31.03174603174603,-228.17460317460316,-33.41269841269841,5.634920634920634,-212.14285714285714,18.015873015873016,-34.2063492063492,11.19047619047619,6.587301587301587,242.3015873015873,-15.634920634920634,-115.95238095238095,-101.19047619047619,-166.26984126984127
-325.0,6.587301587301587,-238.33333333333331,12.46031746031746,10.873015873015872,-270.55555555555554,10.238095238095237,325.0,-325.0,12.619047619047619,10.238095238095237,-225.47619047619045,15.317460317460316,5.634920634920634,-294.8412698412698,17.22222222222222,13.253968253968253,10.873015873015872,5.317460317460317,238.17460317460316,8.174603174603174,115.15873015873015,101.82539682539682,-166.26984126984127
-325.0,6.587301587301587,-238.33333333333331,12.46031746031746,10.873015873015872,-270.55555555555554,10.238095238095237,325.0,-325.0,12.619047619047619,10.238095238095237,-225.47619047619045,15.317460317460316,5.634920634920634,-294.8412698412698,17.22222222222222,13.253968253968253,10.873015873015872,5.317460317460317,238.17460317460316,8.174603174603174,115.15873015873015,101.82539682539682,-166.26984126984127
-325.0,14.84126984126984,-325.0,21.19047619047619,-39.76190476190476,-266.1111111111111,-37.06349206349206,325.0,-325.0,20.555555555555554,-38.01587301587301,-221.5079365079365,-40.87301587301587,13.888888888888888,-223.09523809523807,24.365079365079364,-40.87301587301587,17.38095238095238,12.46031746031746,234.36507936507934,-10.873015873015872,-117.85714285714285,-103.09523809523809,-166.26984126984127
-325.0,14.84126984126984,-325.0,21.19047619047619,-39.76190476190476,-266.1111111111111,-37.06349206349206,325.0,-325.0,20.555555555555554,-38.01587301587301,-221.5079365079365,-40.87301587301587,13.888888888888888,-223.09523809523807,24.365079365079364,-40.87301587301587,17.38095238095238,12.46031746031746,234.36507936507934,-10.873015873015872,-117.85714285714285,-103.09523809523809,-166.26984126984127
-325.0,15.793650793650793,-209.9206349206349,21.349206349206348,-47.22222222222222,-262.77777777777777,-51.666666666666664,325.0,-325.0,19.285714285714285,-47.06349206349206,-218.65079365079364,-41.82539682539682,14.682539682539682,-307.53968253968253,24.365079365079364,-40.238095238095234,18.015873015873016,12.142857142857142,231.19047619047618,-33.73015873015873,105.79365079365078,85.79365079365078,-166.26984126984127
-325.0,15.793650793650793,-209.9206349206349,21.349206349206348,-47.22222222222222,-262.77777777777777,-51.666666666666664,325.0,-325.0,19.285714285714285,-47.06349206349206,-218.65079365079364,-41.82539682539682,14.682539682539682,-307.53968253968253,24.365079365079364,-40.238095238095234,18.015873015873016,12.142857142857142,231.19047619047618,-33.73015873015873,105.79365079365078,85.79365079365078,-166.26984126984127
-325.0,15.793650793650793,-209.9206349206349,21.349206349206348,-47.22222222222222,-262.77777777777777,-51.666666666666664,325.0,-325.0,19.285714285714285,-47.06349206349206,-218.65079365079364,-41.82539682539682,14.682539682539682,-307.53968253968253,24.365079365079364,-40.238095238095234,18.015873015873016,12.142857142857142,231.19047619047618,-33.73015873015873,105.79365079365078,85.79365079365078,-166.26984126984127
-325.0,15.793650793650793,-209.9206349206349,21.349206349206348,-47.22222222222222,-262.77777777777777,-51.666666666666664,325.0,-325.0,19.285714285714285,-47.06349206349206,-218.65079365079364,-41.82539682539682,14.682539682539682,-307.53968253968253,24.365079365079364,-40.238095238095234,18.015873015873016,12.142857142857142,231.19047619047618,-33.73015873015873,105.79365079365078,85.79365079365078,-166.26984126984127
-325.0,10.079365079365079,-325.0,15.476190476190474,13.888888888888888,-253.25396825396825,13.095238095238095,325.0,-325.0,13.253968253968253,13.73015873015873,-210.55555555555554,18.174603174603174,9.444444444444445,-325.0,18.015873015873016,17.063492063492063,12.142857142857142,5.952380952380952,222.61904761904762,0.23809523809523808,120.87301587301586,106.9047619047619,-321.8253968253968
-325.0,10.079365079365079,-325.0,15.476190476190474,13.888888888888888,-253.25396825396825,13.095238095238095,325.0,-325.0,13.253968253968253,13.73015873015873,-210.55555555555554,18.174603174603174,9.444444444444445,-325.0,18.015873015873016,17.063492063492063,12.142857142857142,5.952380952380952,222.61904761904762,0.23809523809523808,120.87301587301586,106.9047619047619,-321.8253968253968
-325.0,10.555555555555555,-325.0,16.26984126984127,-22.619047619047617,-249.12698412698413,-20.555555555555554,325.0,-325.0,14.206349206349206,-21.03174603174603,-206.9047619047619,-24.523809523809522,9.761904761904761,-300.39682539682536,18.174603174603174,-23.41269841269841,11.984126984126984,6.26984126984127,218.8095238095238,1.1904761904761905,-122.77777777777777,-109.44444444444444,-321.8253968253968
-325.0,10.555555555555555,-325.0,16.26984126984127,-22.619047619047617,-249.12698412698413,-20.555555555555554,325.0,-325.0,14.206349206349206,-21.03174603174603,-206.9047619047619,-24.523809523809522,9.761904761904761,-300.39682539682536,18.174603174603174,-23.41269841269841,11.984126984126984,6.26984126984127,218.8095238095238,1.1904761904761905,-122.77777777777777,-109.44444444444444,-321.8253968253968
-325.0,10.238095238095237,-325.0,15.793650793650793,-31.98412698412698,-243.09523809523807,-30.396825396825395,325.0,-325.0,14.365079365079364,-30.555555555555554,-201.66666666666666,-30.555555555555554,9.761904761904761,-323.0952380952381,18.174603174603174,-31.98412698412698,11.349206349206348,6.428571428571428,213.4126984126984,2.3015873015873014,-2.619047619047619,7.5396825396825395,-321.8253968253968
-325.0,10.238095238095237,-325.0,15.793650793650793,-31.98412698412698,-243.09523809523807,-30.396825396825395,325.0,-325.0,14.365079365079364,-30.555555555555554,-201.66666666666666,-30.555555555555554,9.761904761904761,-323.0952380952381,18.174603174603174,-31.98412698412698,11.349206349206348,6.428571428571428,213.4126984126984,2.3015873015873014,-2.619047619047619,7.5396825396825395,-321.8253968253968
-325.0,8.492063492063492,-325.0,12.777777777777777,7.222222222222221,-239.9206349206349,10.555555555555555,325.0,-325.0,11.984126984126984,6.904761904761904,-198.8095238095238,4.2063492063492065,7.857142857142857,-325.0,15.317460317460316,4.682539682539682,8.809523809523808,4.365079365079365,210.7142857142857,64.2063492063492,-122.6190476190476,-118.17460317460316,-321.8253968253968
-325.0,8.492063492063492,-325.0,12.777777777777777,7.222222222222221,-239.9206349206349,10.555555555555555,325.0,-325.0,11.984126984126984,6.904761904761904,-198.8095238095238,4.2063492063492065,7.857142857142857,-325.0,15.317460317460316,4.682539682539682,8.809523809523808,4.365079365079365,210.7142857142857,64.2063492063492,-122.6190476190476,-118.17460317460316,-321.8253968253968
-325.0,19.126984126984127,-325.0,24.523809523809522,-122.46031746031746,-234.2063492063492,-120.55555555555554,325.0,-325.0,24.206349206349206,-118.17460317460316,-193.88888888888889,-121.82539682539682,17.698412698412696,-325.0,26.746031746031743,-119.28571428571428,19.285714285714285,15.476190476190474,205.63492063492063,-56.74603174603174,-136.11111111111111,-112.46031746031746,-321.8253968253968
-325.0,19.126984126984127,-325.0,24.523809523809522,-122.46031746031746,-234.2063492063492,-120.55555555555554,325.0,-325.0,24.206349206349206,-118.17460317460316,-193.88888888888889,-121.82539682539682,17.698412698412696,-325.0,26.746031746031743,-119.28571428571428,19.285714285714285,15.476190476190474,205.63492063492063,-56.74603174603174,-136.11111111111111,-112.46031746031746,-321.8253968253968
-325.0,13.412698412698411,-325.0,18.65079365079365,-84.68253968253968,-231.34920634920633,-83.73015873015872,325.0,-325.0,19.76190476190476,-84.04761904761904,-191.66666666666666,-84.84126984126983,13.412698412698411,-325.0,22.936507936507937,-85.63492063492063,15.95238095238095,12.142857142857142,203.09523809523807,1.1904761904761905,-8.65079365079365,0.873015873015873,-166.26984126984127
-325.0,13.412698412698411,-325.0,18.65079365079365,-84.68253968253968,-231.34920634920633,-83.73015873015872,325.0,-325.0,19.76190476190476,-84.04761904761904,-191.66666666666666,-84.84126984126983,13.412698412698411,-325.0,22.936507936507937,-85.63492063492063,15.95238095238095,12.142857142857142,203.09523809523807,1.1904761904761905,-8.65079365079365,0.873015873015873,-166.26984126984127
-325.0,9.444444444444445,-325.0,14.047619047619047,-59.285714285714285,-226.58730158730157,-58.96825396825397,325.0,-325.0,16.587301587301585,-61.82539682539682,-187.69841269841268,-62.3015873015873,10.238095238095237,-325.0,19.76190476190476,-63.57142857142857,12.936507936507935,9.603174603174603,198.8095238095238,95.63492063492063,-0.07936507936507936,-0.7142857142857142,-166.26984126984127
-325.0,9.444444444444445,-325.0,14.047619047619047,-59.285714285714285,-226.58730158730157,-58.96825396825397,325.0,-325.0,16.587301587301585,-61.82539682539682,-187.69841269841268,-62.3015873015873,10.238095238095237,-325.0,19.76190476190476,-63.57142857142857,12.936507936507935,9.603174603174603,198.8095238095238,95.63492063492063,-0.07936507936507936,-0.7142857142857142,-166.26984126984127
-325.0,13.412698412698411,-265.6349206349206,17.539682539682538,-69.44444444444444,-221.98412698412696,-71.34920634920634,325.0,-317.69841269841265,19.6031746031746,-70.87301587301587,-183.88888888888889,-65.95238095238095,13.73015873015873,-325.0,22.619047619047617,-66.26984126984127,16.26984126984127,11.825396825396824,194.52380952380952,55.0,131.8253968253968,115.95238095238095,-166.26984126984127
-325.0,13.412698412698411,-265.6349206349206,17.539682539682538,-69.44444444444444,-221.98412698412696,-71.34920634920634,325.0,-317.69841269841265,19.6031746031746,-70.87301587301587,-183.88888888888889,-65.95238095238095,13.73015873015873,-325.0,22.619047619047617,-66.26984126984127,16.26984126984127,11.825396825396824,194.52380952380952,55.0,131.8253968253968,115.95238095238095,-166.26984126984127
-325.0,15.158730158730158,-242.77777777777777,19.126984126984127,-68.4920634920635,-218.4920634920635,-69.76190476190476,325.0,-317.69841269841265,20.555555555555554,-69.6031746031746,-180.7142857142857,-64.68253968253968,15.476190476190474,-325.0,23.57142857142857,-64.68253968253968,17.063492063492063,13.095238095238095,191.34920634920633,65.15873015873015,135.3174603174603,119.12698412698413,-166.26984126984127
-325.0,15.158730158730158,-242.77777777777777,19.126984126984127,-68.4920634920635,-218.4920634920635,-69.76190476190476,325.0,-317.69841269841265,20.555555555555554,-69.6031746031746,-180.7142857142857,-64.68253968253968,15.476190476190474,-325.0,23.57142857142857,-64.68253968253968,17.063492063492063,13.095238095238095,191.34920634920633,65.15873015873015,135.3174603174603,119.12698412698413,-166.26984126984127
-325.0,14.365079365079364,-325.0,18.49206349206349,-88.80952380952381,-214.04761904761904,-90.39682539682539,325.0,-271.3492063492063,20.873015873015873,-92.14285714285714,-177.2222222222222,-91.34920634920634,15.476190476190474,-325.0,24.047619047619047,-95.0,17.698412698412696,13.253968253968253,187.2222222222222,61.19047619047619,112.93650793650794,109.92063492063491,-166.26984126984127
-325.0,14.365079365079364,-325.0,18.49206349206349,-88.80952380952381,-214.04761904761904,-90.39682539682539,325.0,-271.3492063492063,20.873015873015873,-92.14285714285714,-177.2222222222222,-91.34920634920634,15.476190476190474,-325.0,24.047619047619047,-95.0,17.698412698412696,13.253968253968253,187.2222222222222,61.19047619047619,112.93650793650794,109.92063492063491,-166.26984126984127
-325.0,15.158730158730158,-245.3174603174603,18.333333333333332,-92.14285714285714,-207.85714285714283,-94.04761904761904,325.0,-295.6349206349206,20.873015873015873,-93.09523809523809,-171.984126984127,-88.4920634920635,15.317460317460316,-325.0,23.41269841269841,-87.22222222222221,17.539682539682538,12.777777777777777,181.8253968253968,99.44444444444444,141.03174603174602,124.68253968253967,-321.8253968253968
-325.0,15.158730158730158,-245.3174603174603,18.333333333333332,-92.14285714285714,-207.85714285714283,-94.04761904761904,325.0,-295.6349206349206,20.873015873015873,-93.09523809523809,-171.984126984127,-88.4920634920635,15.317460317460316,-325.0,23.41269841269841,-87.22222222222221,17.539682539682538,12.777777777777777,181.8253968253968,99.44444444444444,141.03174603174602,124.68253968253967,-321.8253968253968
-325.0,19.76190476190476,-319.9206349206349,22.936507936507937,-127.6984126984127,-200.55555555555554,-130.3968253968254,325.0,-184.52380952380952,27.22222222222222,-131.66666666666666,-165.3174603174603,-131.984126984127,20.396825396825395,-325.0,28.96825396825397,-134.52380952380952,23.41269841269841,18.80952380952381,175.15873015873015,71.98412698412697,108.80952380952381,105.15873015873015,-321.8253968253968
-325.0,19.76190476190476,-319.9206349206349,22.936507936507937,-127.6984126984127,-200.55555555555554,-130.3968253968254,325.0,-184.52380952380952,27.22222222222222,-131.66666666666666,-165.3174603174603,-131.984126984127,20.396825396825395,-325.0,28.96825396825397,-134.52380952380952,23.41269841269841,18.80952380952381,175.15873015873015,71.98412698412697,108.80952380952381,105.15873015873015,-321.8253968253968
-325.0,12.619047619047619,-20.71428571428571,15.317460317460316,-123.4126984126984,-194.68253968253967,-125.0,325.0,-250.87301587301585,16.746031746031743,-124.2063492063492,-160.55555555555554,-120.07936507936508,12.619047619047619,-325.0,19.444444444444443,-116.9047619047619,13.73015873015873,6.428571428571428,170.07936507936506,52.77777777777777,139.44444444444443,123.57142857142857,-321.8253968253968
-325.0,12.619047619047619,-20.71428571428571,15.317460317460316,-123.4126984126984,-194.68253968253967,-125.0,325.0,-250.87301587301585,16.746031746031743,-124.2063492063492,-160.55555555555554,-120.07936507936508,12.619047619047619,-325.0,19.444444444444443,-116.9047619047619,13.73015873015873,6.428571428571428,170.07936507936506,52.77777777777777,139.44444444444443,123.57142857142857,-321.8253968253968
-325.0,14.047619047619047,-215.47619047619045,17.063492063492063,-178.65079365079364,-192.61904761904762,-175.3174603174603,325.0,-60.39682539682539,15.476190476190474,-174.36507936507937,-158.4920634920635,-179.12698412698413,12.777777777777777,-325.0,17.22222222222222,-171.5079365079365,11.349206349206348,4.0476190476190474,168.17460317460316,-78.65079365079364,-173.57142857142856,-146.42857142857142,-321.8253968253968
-325.0,14.047619047619047,-215.47619047619045,17.063492063492063,-178.65079365079364,-192.61904761904762,-175.3174603174603,325.0,-60.39682539682539,15.476190476190474,-174.36507936507937,-158.4920634920635,-179.12698412698413,12.777777777777777,-325.0,17.22222222222222,-171.5079365079365,11.349206349206348,4.0476190476190474,168.17460317460316,-78.65079365079364,-173.57142857142856,-146.42857142857142,-321.8253968253968
-325.0,6.904761904761904,61.82539682539682,7.857142857142857,-79.6031746031746,-189.12698412698413,-80.39682539682539,325.0,-325.0,8.333333333333332,-76.9047619047619,-155.63492063492063,-68.80952380952381,4.682539682539682,-325.0,10.238095238095237,-60.873015873015866,5.158730158730158,-3.095238095238095,165.3174603174603,105.79365079365078,179.12698412698413,149.28571428571428,-321.8253968253968
-325.0,6.904761904761904,61.82539682539682,7.857142857142857,-79.6031746031746,-189.12698412698413,-80.39682539682539,325.0,-325.0,8.333333333333332,-76.9047619047619,-155.63492063492063,-68.80952380952381,4.682539682539682,-325.0,10.238095238095237,-60.873015873015866,5.158730158730158,-3.095238095238095,165.3174603174603,105.79365079365078,179.12698412698413,149.28571428571428,-321.8253968253968
-325.0,10.238095238095237,-57.857142857142854,12.619047619047619,-156.9047619047619,-185.3174603174603,-157.2222222222222,325.0,-66.42857142857143,13.412698412698411,-157.38095238095238,-152.3015873015873,-163.09523809523807,10.079365079365079,-325.0,15.634920634920634,-157.85714285714286,10.396825396825395,3.571428571428571,161.8253968253968,29.444444444444443,-139.6031746031746,-125.47619047619047,-166.26984126984127
-325.0,10.238095238095237,-57.857142857142854,12.619047619047619,-156.9047619047619,-185.3174603174603,-157.2222222222222,325.0,-66.42857142857143,13.412698412698411,-157.38095238095238,-152.3015873015873,-163.09523809523807,10.079365079365079,-325.0,15.634920634920634,-157.85714285714286,10.396825396825395,3.571428571428571,161.8253968253968,29.444444444444443,-139.6031746031746,-125.47619047619047,-166.26984126984127
-325.0,1.984126984126984,-1.8253968253968254,3.888888888888889,-94.52380952380952,-182.3015873015873,-95.79365079365078,325.0,-154.68253968253967,5.158730158730158,-94.2063492063492,-149.76190476190476,-90.71428571428571,1.507936507936508,-325.0,6.904761904761904,-86.1111111111111,2.46031746031746,-4.841269841269841,158.8095238095238,64.36507936507937,140.07936507936506,125.15873015873015,-166.26984126984127
-325.0,1.984126984126984,-1.8253968253968254,3.888888888888889,-94.52380952380952,-182.3015873015873,-95.79365079365078,325.0,-154.68253968253967,5.158730158730158,-94.2063492063492,-149.76190476190476,-90.71428571428571,1.507936507936508,-325.0,6.904761904761904,-86.1111111111111,2.46031746031746,-4.841269841269841,158.8095238095238,64.36507936507937,140.07936507936506,125.15873015873015,-166.26984126984127
-325.0,4.523809523809524,-0.873015873015873,6.111111111111111,-104.2063492063492,-180.07936507936506,-105.15873015873015,321.8253968253968,-67.6984126984127,7.698412698412698,-106.9047619047619,-147.69841269841268,-110.39682539682539,4.682539682539682,-325.0,9.603174603174603,-108.17460317460316,5.476190476190476,-1.6666666666666665,156.9047619047619,90.71428571428571,0.3968253968253968,0.23809523809523808,-166.26984126984127
-325.0,4.523809523809524,-0.873015873015873,6.111111111111111,-104.2063492063492,-180.07936507936506,-105.15873015873015,321.8253968253968,-67.6984126984127,7.698412698412698,-106.9047619047619,-147.69841269841268,-110.39682539682539,4.682539682539682,-325.0,9.603174603174603,-108.17460317460316,5.476190476190476,-1.6666666666666665,156.9047619047619,90.71428571428571,0.3968253968253968,0.23809523809523808,-166.26984126984127
-325.0,10.079365079365079,-89.6031746031746,12.3015873015873,-152.46031746031744,-175.0,-154.04761904761904,313.57142857142856,15.158730158730158,12.936507936507935,-152.77777777777777,-143.73015873015873,-156.11111111111111,9.920634920634921,-325.0,14.682539682539682,-152.61904761904762,10.238095238095237,3.4126984126984126,152.46031746031744,-25.952380952380953,-45.317460317460316,-32.3015873015873,-166.26984126984127
-325.0,10.079365079365079,-89.6031746031746,12.3015873015873,-152.46031746031744,-175.0,-154.04761904761904,313.57142857142856,15.158730158730158,12.936507936507935,-152.77777777777777,-143.73015873015873,-156.11111111111111,9.920634920634921,-325.0,14.682539682539682,-152.61904761904762,10.238095238095237,3.4126984126984126,152.46031746031744,-25.952380952380953,-45.317460317460316,-32.3015873015873,-166.26984126984127
-325.0,12.46031746031746,76.74603174603175,12.777777777777777,-100.71428571428571,-171.8253968253968,-101.34920634920634,292.1428571428571,-179.9206349206349,12.619047619047619,-100.55555555555554,-141.19047619047618,-100.23809523809523,11.507936507936508,-325.0,14.682539682539682,-92.93650793650794,10.873015873015872,3.253968253968254,149.76190476190476,97.06349206349206,47.06349206349206,32.460317460317455,-166.26984126984127
-325.0,12.46031746031746,76.74603174603175,12.777777777777777,-100.71428571428571,-171.8253968253968,-101.34920634920634,292.1428571428571,-179.9206349206349,12.619047619047619,-100.55555555555554,-141.19047619047618,-100.23809523809523,11.507936507936508,-325.0,14.682539682539682,-92.93650793650794,10.873015873015872,3.253968253968254,149.76190476190476,97.06349206349206,47.06349206349206,32.460317460317455,-166.26984126984127
-325.0,9.126984126984127,-60.079365079365076,10.079365079365079,-113.57142857142857,-168.65079365079364,-116.1111111111111,300.7142857142857,-94.36507936507935,10.873015873015872,-116.74603174603173,-138.17460317460316,-120.71428571428571,9.126984126984127,-325.0,12.936507936507935,-118.17460317460316,9.126984126984127,2.619047619047619,146.58730158730157,92.61904761904762,0.3968253968253968,-0.07936507936507936,-321.8253968253968
-325.0,9.126984126984127,-60.079365079365076,10.079365079365079,-113.57142857142857,-168.65079365079364,-116.1111111111111,300.7142857142857,-94.36507936507935,10.873015873015872,-116.74603174603173,-138.17460317460316,-120.71428571428571,9.126984126984127,-325.0,12.936507936507935,-118.17460317460316,9.126984126984127,2.619047619047619,146.58730158730157,92.61904761904762,0.3968253968253968,-0.07936507936507936,-321.8253968253968
-325.0,1.8253968253968254,-68.01587301587301,2.46031746031746,-96.42857142857142,-165.15873015873015,-98.65079365079364,299.9206349206349,-118.01587301587301,5.158730158730158,-96.9047619047619,-135.47619047619048,-93.88888888888889,0.873015873015873,-325.0,5.952380952380952,-88.4920634920635,2.7777777777777777,-4.0476190476190474,143.57142857142856,96.42857142857142,140.55555555555554,125.0,-321.8253968253968
-325.0,1.8253968253968254,-68.01587301587301,2.46031746031746,-96.42857142857142,-165.15873015873015,-98.65079365079364,299.9206349206349,-118.01587301587301,5.158730158730158,-96.9047619047619,-135.47619047619048,-93.88888888888889,0.873015873015873,-325.0,5.952380952380952,-88.4920634920635,2.7777777777777777,-4.0476190476190474,143.57142857142856,96.42857142857142,140.55555555555554,125.0,-321.8253968253968
-325.0,5.7936507936507935,-55.0,6.746031746031746,-175.3174603174603,-162.3015873015873,-176.26984126984127,296.74603174603175,72.61904761904762,11.984126984126984,-175.95238095238093,-132.93650793650792,-182.77777777777777,5.317460317460317,-325.0,11.349206349206348,-176.42857142857142,8.174603174603174,2.619047619047619,135.15873015873015,122.77777777777777,-140.23809523809524,-126.74603174603173,-321.8253968253968
-325.0,5.7936507936507935,-55.0,6.746031746031746,-175.3174603174603,-162.3015873015873,-176.26984126984127,296.74603174603175,72.61904761904762,11.984126984126984,-175.95238095238093,-132.93650793650792,-182.77777777777777,5.317460317460317,-325.0,11.349206349206348,-176.42857142857142,8.174603174603174,2.619047619047619,135.15873015873015,122.77777777777777,-140.23809523809524,-126.74603174603173,-321.8253968253968
-325.0,4.2063492063492065,-43.095238095238095,4.841269841269841,-145.95238095238093,-160.23809523809524,-149.44444444444443,293.0952380952381,4.523809523809524,10.714285714285714,-149.76190476190476,-131.34920634920636,-153.88888888888889,4.365079365079365,-325.0,10.873015873015872,-150.55555555555554,8.333333333333332,2.3015873015873014,136.42857142857142,205.95238095238093,-2.619047619047619,-2.619047619047619,-321.8253968253968
-325.0,4.2063492063492065,-43.095238095238095,4.841269841269841,-145.95238095238093,-160.23809523809524,-149.44444444444443,293.0952380952381,4.523809523809524,10.714285714285714,-149.76190476190476,-131.34920634920636,-153.88888888888889,4.365079365079365,-325.0,10.873015873015872,-150.55555555555554,8.333333333333332,2.3015873015873014,136.42857142857142,205.95238095238093,-2.619047619047619,-2.619047619047619,-321.8253968253968
-325.0,11.031746031746032,61.82539682539682,11.031746031746032,-137.22222222222223,-156.11111111111111,-139.28571428571428,271.8253968253968,-4.0476190476190474,12.142857142857142,-140.55555555555554,-127.85714285714285,-148.33333333333331,11.666666666666666,-325.0,14.206349206349206,-142.93650793650792,10.873015873015872,4.523809523809524,135.79365079365078,152.14285714285714,-85.79365079365078,-86.9047619047619,-321.8253968253968
-325.0,11.031746031746032,61.82539682539682,11.031746031746032,-137.22222222222223,-156.11111111111111,-139.28571428571428,271.8253968253968,-4.0476190476190474,12.142857142857142,-140.55555555555554,-127.85714285714285,-148.33333333333331,11.666666666666666,-325.0,14.206349206349206,-142.93650793650792,10.873015873015872,4.523809523809524,135.79365079365078,152.14285714285714,-85.79365079365078,-86.9047619047619,-321.8253968253968
-325.0,6.746031746031746,-254.36507936507934,8.015873015873016,-138.33333333333331,-153.25396825396825,-139.76190476190476,280.07936507936506,25.158730158730158,11.825396825396824,-138.015873015873,-125.31746031746032,-141.5079365079365,6.904761904761904,-325.0,11.984126984126984,-136.58730158730157,8.968253968253968,3.095238095238095,130.7142857142857,-21.984126984126984,-56.74603174603174,-42.61904761904761,-166.26984126984127
-325.0,6.746031746031746,-254.36507936507934,8.015873015873016,-138.33333333333331,-153.25396825396825,-139.76190476190476,280.07936507936506,25.158730158730158,11.825396825396824,-138.015873015873,-125.31746031746032,-141.5079365079365,6.904761904761904,-325.0,11.984126984126984,-136.58730158730157,8.968253968253968,3.095238095238095,130.7142857142857,-21.984126984126984,-56.74603174603174,-42.61904761904761,-166.26984126984127
-325.0,14.523809523809524,-56.904761904761905,13.888888888888888,-152.46031746031744,-151.03174603174602,-156.11111111111111,276.90476190476187,-62.61904761904761,18.49206349206349,-156.11111111111111,-123.4126984126984,-164.2063492063492,14.682539682539682,-325.0,18.333333333333332,-158.96825396825395,15.476190476190474,10.873015873015872,127.06349206349206,280.23809523809524,-81.98412698412697,-83.88888888888889,-166.26984126984127
-325.0,14.523809523809524,-56.904761904761905,13.888888888888888,-152.46031746031744,-151.03174603174602,-156.11111111111111,276.90476190476187,-62.61904761904761,18.49206349206349,-156.11111111111111,-123.4126984126984,-164.2063492063492,14.682539682539682,-325.0,18.333333333333332,-158.96825396825395,15.476190476190474,10.873015873015872,127.06349206349206,280.23809523809524,-81.98412698412697,-83.88888888888889,-166.26984126984127
-325.0,2.142857142857143,-203.25396825396825,2.46031746031746,-132.93650793650792,-146.9047619047619,-132.77777777777777,268.6507936507936,-5.634920634920634,5.317460317460317,-131.984126984127,-119.92063492063491,-138.65079365079364,2.3015873015873014,-325.0,5.476190476190476,-131.19047619047618,2.619047619047619,-2.9365079365079363,125.0,115.95238095238095,-135.79365079365078,-124.36507936507935,-166.26984126984127
-325.0,2.142857142857143,-203.25396825396825,2.46031746031746,-132.93650793650792,-146.9047619047619,-132.77777777777777,268.6507936507936,-5.634920634920634,5.317460317460317,-131.984126984127,-119.92063492063491,-138.65079365079364,2.3015873015873014,-325.0,5.476190476190476,-131.19047619047618,2.619047619047619,-2.9365079365079363,125.0,115.95238095238095,-135.79365079365078,-124.36507936507935,-166.26984126984127
-325.0,-6.26984126984127,-90.55555555555556,-6.746031746031746,-43.888888888888886,-145.0,-43.25396825396825,265.1587301587301,-196.58730158730157,-4.365079365079365,-41.82539682539682,-118.17460317460316,-36.42857142857142,-6.587301587301587,-325.0,-4.0476190476190474,-26.9047619047619,-6.428571428571428,-12.142857142857142,125.47619047619047,214.52380952380952,200.3968253968254,170.3968253968254,-166.26984126984127
-325.0,-6.26984126984127,-90.55555555555556,-6.746031746031746,-43.888888888888886,-145.0,-43.25396825396825,265.1587301587301,-196.58730158730157,-4.365079365079365,-41.82539682539682,-118.17460317460316,-36.42857142857142,-6.587301587301587,-325.0,-4.0476190476190474,-26.9047619047619,-6.428571428571428,-12.142857142857142,125.47619047619047,214.52380952380952,200.3968253968254,170.3968253968254,-166.26984126984127
-325.0,5.952380952380952,-135.47619047619048,6.111111111111111,-130.07936507936506,-142.14285714285714,-129.76190476190476,201.03174603174602,70.55555555555556,6.587301587301587,-128.8095238095238,-115.95238095238095,-135.3174603174603,6.111111111111111,-325.0,7.698412698412698,-127.06349206349206,4.841269841269841,-1.0317460317460316,120.87301587301586,53.095238095238095,-134.84126984126982,-123.09523809523809,-166.26984126984127
-325.0,5.952380952380952,-135.47619047619048,6.111111111111111,-130.07936507936506,-142.14285714285714,-129.76190476190476,201.03174603174602,70.55555555555556,6.587301587301587,-128.8095238095238,-115.95238095238095,-135.3174603174603,6.111111111111111,-325.0,7.698412698412698,-127.06349206349206,4.841269841269841,-1.0317460317460316,120.87301587301586,53.095238095238095,-134.84126984126982,-123.09523809523809,-166.26984126984127
-325.0,-2.619047619047619,-147.85714285714286,-2.7777777777777777,-59.44444444444444,-139.6031746031746,-61.507936507936506,236.58730158730157,-57.06349206349206,-0.7142857142857142,-59.76190476190476,-113.88888888888889,-57.53968253968254,-2.142857142857143,-325.0,0.07936507936507936,-52.14285714285714,-2.142857142857143,-8.174603174603174,121.19047619047619,106.9047619047619,134.04761904761904,121.03174603174602,-321.8253968253968
-325.0,-2.619047619047619,-147.85714285714286,-2.7777777777777777,-59.44444444444444,-139.6031746031746,-61.507936507936506,236.58730158730157,-57.06349206349206,-0.7142857142857142,-59.76190476190476,-113.88888888888889,-57.53968253968254,-2.142857142857143,-325.0,0.07936507936507936,-52.14285714285714,-2.142857142857143,-8.174603174603174,121.19047619047619,106.9047619047619,134.04761904761904,121.03174603174602,-321.8253968253968
-325.0,13.571428571428571,-51.19047619047619,12.936507936507935,-170.07936507936506,-137.53968253968253,-172.46031746031744,248.33333333333331,155.47619047619048,14.84126984126984,-169.9206349206349,-111.98412698412697,-177.38095238095238,13.253968253968253,-325.0,15.0,-169.9206349206349,12.3015873015873,6.746031746031746,111.98412698412697,83.57142857142857,-133.25396825396825,-122.30158730158729,-321.8253968253968
-325.0,13.571428571428571,-51.19047619047619,12.936507936507935,-170.07936507936506,-137.53968253968253,-172.46031746031744,248.33333333333331,155.47619047619048,14.84126984126984,-169.9206349206349,-111.98412698412697,-177.38095238095238,13.253968253968253,-325.0,15.0,-169.9206349206349,12.3015873015873,6.746031746031746,111.98412698412697,83.57142857142857,-133.25396825396825,-122.30158730158729,-321.8253968253968
-325.0,1.984126984126984,-72.14285714285714,1.6666666666666665,-99.44444444444444,-135.0,-101.98412698412697,248.8095238095238,16.904761904761905,6.26984126984127,-100.55555555555554,-110.07936507936508,-98.33333333333333,2.46031746031746,-325.0,6.111111111111111,-92.61904761904762,4.2063492063492065,-1.349206349206349,117.06349206349206,160.55555555555554,132.77777777777777,121.03174603174602,-321.8253968253968
-325.0,1.984126984126984,-72.14285714285714,1.6666666666666665,-99.44444444444444,-135.0,-101.98412698412697,248.8095238095238,16.904761904761905,6.26984126984127,-100.55555555555554,-110.07936507936508,-98.33333333333333,2.46031746031746,-325.0,6.111111111111111,-92.61904761904762,4.2063492063492065,-1.349206349206349,117.06349206349206,160.55555555555554,132.77777777777777,121.03174603174602,-321.8253968253968
-325.0,2.7777777777777777,26.11111111111111,1.6666666666666665,-97.06349206349206,-130.7142857142857,-98.17460317460316,242.6190476190476,77.06349206349206,5.952380952380952,-98.01587301587301,-102.93650793650794,-100.07936507936508,3.095238095238095,-325.0,5.634920634920634,-91.5079365079365,4.2063492063492065,-1.349206349206349,102.77777777777777,281.8253968253968,65.47619047619047,51.666666666666664,-321.8253968253968
-325.0,2.7777777777777777,26.11111111111111,1.6666666666666665,-97.06349206349206,-130.7142857142857,-98.17460317460316,242.6190476190476,77.06349206349206,5.952380952380952,-98.01587301587301,-102.93650793650794,-100.07936507936508,3.095238095238095,-325.0,5.634920634920634,-91.5079365079365,4.2063492063492065,-1.349206349206349,102.77777777777777,281.8253968253968,65.47619047619047,51.666666666666664,-321.8253968253968
-322.9365079365079,2.3015873015873014,-282.1428571428571,2.619047619047619,-137.38095238095238,-128.65079365079364,-138.4920634920635,239.60317460317458,156.42857142857142,7.698412698412698,-135.63492063492063,-101.34920634920634,-139.28571428571428,2.619047619047619,-325.0,6.428571428571428,-132.3015873015873,4.365079365079365,-0.5555555555555556,81.82539682539682,75.0,-66.42857142857143,-52.77777777777777,-321.8253968253968
-322.9365079365079,2.3015873015873014,-282.1428571428571,2.619047619047619,-137.38095238095238,-128.65079365079364,-138.4920634920635,239.60317460317458,156.42857142857142,7.698412698412698,-135.63492063492063,-101.34920634920634,-139.28571428571428,2.619047619047619,-325.0,6.428571428571428,-132.3015873015873,4.365079365079365,-0.5555555555555556,81.82539682539682,75.0,-66.42857142857143,-52.77777777777777,-321.8253968253968
-320.87301587301585,6.746031746031746,-156.42857142857142,6.26984126984127,-145.15873015873015,-126.58730158730158,-150.87301587301587,234.52380952380952,155.79365079365078,12.619047619047619,-149.28571428571428,-100.39682539682539,-154.68253968253967,8.492063492063492,-325.0,12.619047619047619,-151.19047619047618,10.555555555555555,6.587301587301587,89.76190476190476,285.95238095238096,-3.095238095238095,-3.253968253968254,-166.26984126984127
-320.87301587301585,6.746031746031746,-156.42857142857142,6.26984126984127,-145.15873015873015,-126.58730158730158,-150.87301587301587,234.52380952380952,155.79365079365078,12.619047619047619,-149.28571428571428,-100.39682539682539,-154.68253968253967,8.492063492063492,-325.0,12.619047619047619,-151.19047619047618,10.555555555555555,6.587301587301587,89.76190476190476,285.95238095238096,-3.095238095238095,-3.253968253968254,-166.26984126984127
-312.6190476190476,5.0,-41.03174603174603,3.888888888888889,-100.55555555555554,-123.4126984126984,-102.61904761904762,227.69841269841268,125.31746031746032,9.920634920634921,-102.30158730158729,-96.9047619047619,-104.52380952380952,5.952380952380952,-325.0,8.968253968253968,-96.1111111111111,8.015873015873016,3.253968253968254,82.61904761904762,325.0,69.28571428571428,53.73015873015873,-166.26984126984127
-312.6190476190476,5.0,-41.03174603174603,3.888888888888889,-100.55555555555554,-123.4126984126984,-102.61904761904762,227.69841269841268,125.31746031746032,9.920634920634921,-102.30158730158729,-96.9047619047619,-104.52380952380952,5.952380952380952,-325.0,8.968253968253968,-96.1111111111111,8.015873015873016,3.253968253968254,82.61904761904762,325.0,69.28571428571428,53.73015873015873,-166.26984126984127
-309.2857142857143,-5.634920634920634,-191.34920634920633,-5.7936507936507935,-80.55555555555556,-121.66666666666666,-77.06349206349206,224.84126984126982,119.6031746031746,-0.5555555555555556,-75.79365079365078,-94.68253968253968,-76.26984126984127,-5.0,-325.0,-2.619047619047619,-64.68253968253968,-3.4126984126984126,-8.333333333333332,69.28571428571428,214.04761904761904,2.619047619047619,0.873015873015873,-166.26984126984127
-309.2857142857143,-5.634920634920634,-191.34920634920633,-5.7936507936507935,-80.55555555555556,-121.66666666666666,-77.06349206349206,224.84126984126982,119.6031746031746,-0.5555555555555556,-75.79365079365078,-94.68253968253968,-76.26984126984127,-5.0,-325.0,-2.619047619047619,-64.68253968253968,-3.4126984126984126,-8.333333333333332,69.28571428571428,214.04761904761904,2.619047619047619,0.873015873015873,-166.26984126984127
-304.2063492063492,6.587301587301587,-19.444444444444443,4.841269841269841,-164.04761904761904,-119.6031746031746,-170.87301587301587,221.34920634920633,235.0,11.984126984126984,-169.28571428571428,-97.38095238095238,-179.12698412698413,7.857142857142857,-325.0,11.031746031746032,-173.4126984126984,10.079365079365079,5.476190476190476,59.92063492063492,325.0,-55.79365079365079,-59.92063492063492,-166.26984126984127
-304.2063492063492,6.587301587301587,-19.444444444444443,4.841269841269841,-164.04761904761904,-119.6031746031746,-170.87301587301587,221.34920634920633,235.0,11.984126984126984,-169.28571428571428,-97.38095238095238,-179.12698412698413,7.857142857142857,-325.0,11.031746031746032,-173.4126984126984,10.079365079365079,5.476190476190476,59.92063492063492,325.0,-55.79365079365079,-59.92063492063492,-166.26984126984127
-304.2063492063492,6.587301587301587,-19.444444444444443,4.841269841269841,-164.04761904761904,-119.6031746031746,-170.87301587301587,221.34920634920633,235.0,11.984126984126984,-169.28571428571428,-97.38095238095238,-179.12698412698413,7.857142857142857,-325.0,11.031746031746032,-173.4126984126984,10.079365079365079,5.476190476190476,59.92063492063492,325.0,-55.79365079365079,-59.92063492063492,-166.26984126984127
-304.2063492063492,6.587301587301587,-19.444444444444443,4.841269841269841,-164.04761904761904,-119.6031746031746,-170.87301587301587,221.34920634920633,235.0,11.984126984126984,-169.28571428571428,-97.38095238095238,-179.12698412698413,7.857142857142857,-325.0,11.031746031746032,-173.4126984126984,10.079365079365079,5.476190476190476,59.92063492063492,325.0,-55.79365079365079,-59.92063492063492,-166.26984126984127
-294.04761904761904,12.46031746031746,-3.253968253968254,11.349206349206348,-184.52380952380952,-113.25396825396825,-192.77777777777777,214.04761904761904,252.77777777777777,18.96825396825397,-190.07936507936506,-77.06349206349206,-199.44444444444443,14.365079365079364,-325.0,18.015873015873016,-193.88888888888889,16.904761904761905,13.571428571428571,49.44444444444444,325.0,-51.19047619047619,-55.15873015873016,-321.8253968253968
-294.04761904761904,12.46031746031746,-3.253968253968254,11.349206349206348,-184.52380952380952,-113.25396825396825,-192.77777777777777,214.04761904761904,252.77777777777777,18.96825396825397,-190.07936507936506,-77.06349206349206,-199.44444444444443,14.365079365079364,-325.0,18.015873015873016,-193.88888888888889,16.904761904761905,13.571428571428571,49.44444444444444,325.0,-51.19047619047619,-55.15873015873016,-321.8253968253968
-289.2857142857143,4.2063492063492065,-325.0,3.888888888888889,-149.6031746031746,-110.71428571428571,-155.79365079365078,210.55555555555554,128.33333333333331,11.19047619047619,-152.93650793650792,-85.0,-155.0,5.7936507936507935,-325.0,9.761904761904761,-152.46031746031744,8.809523809523808,5.158730158730158,106.1111111111111,325.0,46.269841269841265,52.77777777777777,-321.8253968253968
-289.2857142857143,4.2063492063492065,-325.0,3.888888888888889,-149.6031746031746,-110.71428571428571,-155.79365079365078,210.55555555555554,128.33333333333331,11.19047619047619,-152.93650793650792,-85.0,-155.0,5.7936507936507935,-325.0,9.761904761904761,-152.46031746031744,8.809523809523808,5.158730158730158,106.1111111111111,325.0,46.269841269841265,52.77777777777777,-321.8253968253968
-282.9365079365079,-2.7777777777777777,30.555555555555554,-4.523809523809524,-89.92063492063491,-110.23809523809523,-93.09523809523809,206.26984126984127,146.74603174603175,2.46031746031746,-92.30158730158729,-83.88888888888889,-94.68253968253968,-1.6666666666666665,-325.0,0.873015873015873,-86.9047619047619,0.5555555555555556,-3.73015873015873,71.66666666666666,325.0,74.04761904761904,58.96825396825397,-321.8253968253968
-282.9365079365079,-2.7777777777777777,30.555555555555554,-4.523809523809524,-89.92063492063491,-110.23809523809523,-93.09523809523809,206.26984126984127,146.74603174603175,2.46031746031746,-92.30158730158729,-83.88888888888889,-94.68253968253968,-1.6666666666666665,-325.0,0.873015873015873,-86.9047619047619,0.5555555555555556,-3.73015873015873,71.66666666666666,325.0,74.04761904761904,58.96825396825397,-321.8253968253968
-278.3333333333333,3.095238095238095,-264.36507936507934,2.46031746031746,-128.96825396825395,-108.65079365079364,-129.12698412698413,202.61904761904762,148.96825396825395,7.857142857142857,-126.42857142857142,-84.68253968253968,-131.03174603174602,4.2063492063492065,-325.0,6.111111111111111,-123.73015873015872,5.158730158730158,0.7142857142857142,59.285714285714285,240.3968253968254,-74.84126984126983,-61.34920634920635,-321.8253968253968
-278.3333333333333,3.095238095238095,-264.36507936507934,2.46031746031746,-128.96825396825395,-108.65079365079364,-129.12698412698413,202.61904761904762,148.96825396825395,7.857142857142857,-126.42857142857142,-84.68253968253968,-131.03174603174602,4.2063492063492065,-325.0,6.111111111111111,-123.73015873015872,5.158730158730158,0.7142857142857142,59.285714285714285,240.3968253968254,-74.84126984126983,-61.34920634920635,-321.8253968253968
-272.46031746031747,9.603174603174603,-111.82539682539682,7.857142857142857,-148.17460317460316,-108.33333333333333,-155.3174603174603,198.33333333333331,173.09523809523807,13.253968253968253,-152.3015873015873,-90.07936507936508,-158.015873015873,11.19047619047619,-325.0,12.936507936507935,-153.73015873015873,12.142857142857142,7.222222222222221,75.79365079365078,305.7936507936508,-0.7142857142857142,-0.5555555555555556,-321.8253968253968
-272.46031746031747,9.603174603174603,-111.82539682539682,7.857142857142857,-148.17460317460316,-108.33333333333333,-155.3174603174603,198.33333333333331,173.09523809523807,13.253968253968253,-152.3015873015873,-90.07936507936508,-158.015873015873,11.19047619047619,-325.0,12.936507936507935,-153.73015873015873,12.142857142857142,7.222222222222221,75.79365079365078,305.7936507936508,-0.7142857142857142,-0.5555555555555556,-321.8253968253968
-266.74603174603175,3.73015873015873,-90.39682539682539,1.984126984126984,-118.65079365079364,-105.79365079365078,-119.12698412698413,186.11111111111111,211.34920634920633,5.634920634920634,-117.06349206349206,-87.85714285714285,-124.2063492063492,5.0,-325.0,4.682539682539682,-115.15873015873015,3.73015873015873,-0.5555555555555556,36.269841269841265,216.1111111111111,-113.25396825396825,-105.63492063492063,-166.26984126984127
-266.74603174603175,3.73015873015873,-90.39682539682539,1.984126984126984,-118.65079365079364,-105.79365079365078,-119.12698412698413,186.11111111111111,211.34920634920633,5.634920634920634,-117.06349206349206,-87.85714285714285,-124.2063492063492,5.0,-325.0,4.682539682539682,-115.15873015873015,3.73015873015873,-0.5555555555555556,36.269841269841265,216.1111111111111,-113.25396825396825,-105.63492063492063,-166.26984126984127
-262.1428571428571,-6.26984126984127,-195.0,-7.857142857142857,-63.888888888888886,-96.1111111111111,-66.9047619047619,191.19047619047618,113.4126984126984,-1.1904761904761905,-65.63492063492063,-68.80952380952381,-65.47619047619047,-4.841269841269841,-325.0,-3.095238095238095,-59.92063492063492,-2.9365079365079363,-7.063492063492063,95.47619047619047,325.0,110.87301587301587,103.4126984126984,-166.26984126984127
-262.1428571428571,-6.26984126984127,-195.0,-7.857142857142857,-63.888888888888886,-96.1111111111111,-66.9047619047619,191.19047619047618,113.4126984126984,-1.1904761904761905,-65.63492063492063,-68.80952380952381,-65.47619047619047,-4.841269841269841,-325.0,-3.095238095238095,-59.92063492063492,-2.9365079365079363,-7.063492063492063,95.47619047619047,325.0,110.87301587301587,103.4126984126984,-166.26984126984127
-258.968253968254,6.904761904761904,-165.3174603174603,5.158730158730158,-147.85714285714286,-99.92063492063491,-155.63492063492063,188.96825396825395,236.58730158730157,11.349206349206348,-152.14285714285714,-78.96825396825396,-158.17460317460316,8.333333333333332,-325.0,10.079365079365079,-154.04761904761904,9.126984126984127,5.952380952380952,68.80952380952381,325.0,1.8253968253968254,1.349206349206349,-166.26984126984127
-258.968253968254,6.904761904761904,-165.3174603174603,5.158730158730158,-147.85714285714286,-99.92063492063491,-155.63492063492063,188.96825396825395,236.58730158730157,11.349206349206348,-152.14285714285714,-78.96825396825396,-158.17460317460316,8.333333333333332,-325.0,10.079365079365079,-154.04761904761904,9.126984126984127,5.952380952380952,68.80952380952381,325.0,1.8253968253968254,1.349206349206349,-166.26984126984127
-253.4126984126984,5.0,-165.3174603174603,2.7777777777777777,-115.79365079365078,-101.34920634920634,-116.42857142857142,174.2063492063492,243.09523809523807,7.3809523809523805,-114.2063492063492,-83.73015873015872,-121.19047619047619,5.952380952380952,-325.0,6.111111111111111,-111.98412698412697,4.841269841269841,1.349206349206349,15.158730158730158,240.07936507936506,-108.17460317460316,-102.30158730158729,-166.26984126984127
-253.4126984126984,5.0,-165.3174603174603,2.7777777777777777,-115.79365079365078,-101.34920634920634,-116.42857142857142,174.2063492063492,243.09523809523807,7.3809523809523805,-114.2063492063492,-83.73015873015872,-121.19047619047619,5.952380952380952,-325.0,6.111111111111111,-111.98412698412697,4.841269841269841,1.349206349206349,15.158730158730158,240.07936507936506,-108.17460317460316,-102.30158730158729,-166.26984126984127
-246.74603174603172,0.3968253968253968,-87.06349206349206,-2.3015873015873014,-55.15873015873016,-98.33333333333333,-59.285714285714285,171.03174603174602,181.03174603174602,2.619047619047619,-57.857142857142854,-81.82539682539682,-58.8095238095238,1.507936507936508,-325.0,2.3015873015873014,-52.3015873015873,1.1904761904761905,-3.095238095238095,64.04761904761905,319.6031746031746,79.6031746031746,65.95238095238095,-166.26984126984127
-246.74603174603172,0.3968253968253968,-87.06349206349206,-2.3015873015873014,-55.15873015873016,-98.33333333333333,-59.285714285714285,171.03174603174602,181.03174603174602,2.619047619047619,-57.857142857142854,-81.82539682539682,-58.8095238095238,1.507936507936508,-325.0,2.3015873015873014,-52.3015873015873,1.1904761904761905,-3.095238095238095,64.04761904761905,319.6031746031746,79.6031746031746,65.95238095238095,-166.26984126984127
-245.63492063492063,-12.3015873015873,-136.9047619047619,-14.84126984126984,24.523809523809522,-98.01587301587301,25.158730158730158,174.52380952380952,73.25396825396825,-9.761904761904761,24.365079365079364,-81.34920634920634,29.920634920634917,-11.349206349206348,-325.0,-10.873015873015872,37.53968253968254,-11.349206349206348,-16.11111111111111,87.85714285714285,314.68253968253964,184.36507936507937,164.68253968253967,-321.8253968253968
-245.63492063492063,-12.3015873015873,-136.9047619047619,-14.84126984126984,24.523809523809522,-98.01587301587301,25.158730158730158,174.52380952380952,73.25396825396825,-9.761904761904761,24.365079365079364,-81.34920634920634,29.920634920634917,-11.349206349206348,-325.0,-10.873015873015872,37.53968253968254,-11.349206349206348,-16.11111111111111,87.85714285714285,314.68253968253964,184.36507936507937,164.68253968253967,-321.8253968253968
-245.63492063492063,-12.3015873015873,-136.9047619047619,-14.84126984126984,24.523809523809522,-98.01587301587301,25.158730158730158,174.52380952380952,73.25396825396825,-9.761904761904761,24.365079365079364,-81.34920634920634,29.920634920634917,-11.349206349206348,-325.0,-10.873015873015872,37.53968253968254,-11.349206349206348,-16.11111111111111,87.85714285714285,314.68253968253964,184.36507936507937,164.68253968253967,-321.8253968253968
-245.63492063492063,-12.3015873015873,-136.9047619047619,-14.84126984126984,24.523809523809522,-98.01587301587301,25.158730158730158,174.52380952380952,73.25396825396825,-9.761904761904761,24.365079365079364,-81.34920634920634,29.920634920634917,-11.349206349206348,-325.0,-10.873015873015872,37.53968253968254,-11.349206349206348,-16.11111111111111,87.85714285714285,314.68253968253964,184.36507936507937,164.68253968253967,-321.8253968253968
-232.3015873015873,2.9365079365079363,-151.5079365079365,0.5555555555555556,-79.28571428571428,-92.61904761904762,-79.12698412698413,161.03174603174602,156.42857142857142,5.158730158730158,-77.53968253968253,-77.38095238095238,-83.57142857142857,4.682539682539682,-325.0,4.2063492063492065,-75.15873015873015,2.9365079365079363,-0.3968253968253968,6.587301587301587,274.04761904761904,-97.22222222222221,-93.09523809523809,-321.8253968253968
-232.3015873015873,2.9365079365079363,-151.5079365079365,0.5555555555555556,-79.28571428571428,-92.61904761904762,-79.12698412698413,161.03174603174602,156.42857142857142,5.158730158730158,-77.53968253968253,-77.38095238095238,-83.57142857142857,4.682539682539682,-325.0,4.2063492063492065,-75.15873015873015,2.9365079365079363,-0.3968253968253968,6.587301587301587,274.04761904761904,-97.22222222222221,-93.09523809523809,-321.8253968253968
-227.53968253968253,13.73015873015873,3.4126984126984126,10.873015873015872,-130.7142857142857,-91.66666666666666,-140.07936507936506,162.46031746031744,226.58730158730157,16.11111111111111,-135.3174603174603,-76.74603174603175,-141.66666666666666,15.317460317460316,-325.0,15.95238095238095,-135.79365079365078,14.682539682539682,11.666666666666666,33.25396825396825,325.0,-11.507936507936508,-20.396825396825395,-321.8253968253968
-227.53968253968253,13.73015873015873,3.4126984126984126,10.873015873015872,-130.7142857142857,-91.66666666666666,-140.07936507936506,162.46031746031744,226.58730158730157,16.11111111111111,-135.3174603174603,-76.74603174603175,-141.66666666666666,15.317460317460316,-325.0,15.95238095238095,-135.79365079365078,14.682539682539682,11.666666666666666,33.25396825396825,325.0,-11.507936507936508,-20.396825396825395,-321.8253968253968
-203.57142857142856,1.1904761904761905,-274.68253968253964,-2.7777777777777777,-41.34920634920635,-81.34920634920634,-31.825396825396822,140.87301587301587,140.7142857142857,2.7777777777777777,-35.317460317460316,-67.85714285714285,-41.98412698412698,2.142857142857143,-253.57142857142856,0.5555555555555556,-32.460317460317455,0.07936507936507936,-3.4126984126984126,-46.74603174603175,250.2380952380952,-167.38095238095238,-154.52380952380952,-321.8253968253968
-203.57142857142856,1.1904761904761905,-274.68253968253964,-2.7777777777777777,-41.34920634920635,-81.34920634920634,-31.825396825396822,140.87301587301587,140.7142857142857,2.7777777777777777,-35.317460317460316,-67.85714285714285,-41.98412698412698,2.142857142857143,-253.57142857142856,0.5555555555555556,-32.460317460317455,0.07936507936507936,-3.4126984126984126,-46.74603174603175,250.2380952380952,-167.38095238095238,-154.52380952380952,-321.8253968253968
-199.60317460317458,2.619047619047619,-249.76190476190476,-0.23809523809523808,-63.73015873015873,-77.6984126984127,-66.58730158730158,147.53968253968253,129.44444444444443,6.746031746031746,-65.95238095238095,-56.11111111111111,-66.26984126984127,3.888888888888889,-200.07936507936506,4.841269841269841,-63.25396825396825,4.682539682539682,1.507936507936508,66.58730158730158,325.0,76.58730158730158,75.31746031746032,-166.26984126984127
-199.60317460317458,2.619047619047619,-249.76190476190476,-0.23809523809523808,-63.73015873015873,-77.6984126984127,-66.58730158730158,147.53968253968253,129.44444444444443,6.746031746031746,-65.95238095238095,-56.11111111111111,-66.26984126984127,3.888888888888889,-200.07936507936506,4.841269841269841,-63.25396825396825,4.682539682539682,1.507936507936508,66.58730158730158,325.0,76.58730158730158,75.31746031746032,-166.26984126984127
-197.06349206349205,16.746031746031743,-169.76190476190476,12.936507936507935,-155.3174603174603,-78.80952380952381,-164.52380952380952,143.88888888888889,237.06349206349205,19.6031746031746,-159.28571428571428,-63.25396825396825,-164.52380952380952,17.22222222222222,-223.7301587301587,18.174603174603174,-160.55555555555554,17.539682539682538,14.206349206349206,47.22222222222222,325.0,-0.7142857142857142,-0.23809523809523808,-166.26984126984127
-197.06349206349205,16.746031746031743,-169.76190476190476,12.936507936507935,-155.3174603174603,-78.80952380952381,-164.52380952380952,143.88888888888889,237.06349206349205,19.6031746031746,-159.28571428571428,-63.25396825396825,-164.52380952380952,17.22222222222222,-223.7301587301587,18.174603174603174,-160.55555555555554,17.539682539682538,14.206349206349206,47.22222222222222,325.0,-0.7142857142857142,-0.23809523809523808,-166.26984126984127
-192.61904761904762,9.126984126984127,-141.984126984127,5.0,-83.09523809523809,-78.01587301587301,-83.88888888888889,137.06349206349205,250.7142857142857,10.555555555555555,-82.93650793650794,-65.31746031746032,-88.4920634920635,9.761904761904761,-143.4126984126984,8.968253968253968,-80.23809523809523,8.492063492063492,5.158730158730158,-21.507936507936506,294.04761904761904,-72.77777777777777,-73.4126984126984,-166.26984126984127
-192.61904761904762,9.126984126984127,-141.984126984127,5.0,-83.09523809523809,-78.01587301587301,-83.88888888888889,137.06349206349205,250.7142857142857,10.555555555555555,-82.93650793650794,-65.31746031746032,-88.4920634920635,9.761904761904761,-143.4126984126984,8.968253968253968,-80.23809523809523,8.492063492063492,5.158730158730158,-21.507936507936506,294.04761904761904,-72.77777777777777,-73.4126984126984,-166.26984126984127
-188.4920634920635,21.349206349206348,28.96825396825397,17.38095238095238,-152.14285714285714,-76.58730158730158,-164.36507936507937,135.79365079365078,317.22222222222223,22.619047619047617,-156.9047619047619,-64.36507936507937,-161.03174603174602,21.825396825396822,-185.3174603174603,22.777777777777775,-154.04761904761904,21.666666666666664,18.333333333333332,11.19047619047619,325.0,20.07936507936508,8.968253968253968,-166.26984126984127
-188.4920634920635,21.349206349206348,28.96825396825397,17.38095238095238,-152.14285714285714,-76.58730158730158,-164.36507936507937,135.79365079365078,317.22222222222223,22.619047619047617,-156.9047619047619,-64.36507936507937,-161.03174603174602,21.825396825396822,-185.3174603174603,22.777777777777775,-154.04761904761904,21.666666666666664,18.333333333333332,11.19047619047619,325.0,20.07936507936508,8.968253968253968,-166.26984126984127
-185.3174603174603,18.49206349206349,69.44444444444444,14.682539682539682,-152.77777777777777,-68.17460317460318,-165.0,135.63492063492063,319.9206349206349,20.555555555555554,-156.9047619047619,-48.49206349206349,-160.3968253968254,18.80952380952381,-178.17460317460316,19.92063492063492,-153.25396825396825,18.96825396825397,16.11111111111111,9.920634920634921,325.0,23.88888888888889,11.19047619047619,-166.26984126984127
-185.3174603174603,18.49206349206349,69.44444444444444,14.682539682539682,-152.77777777777777,-68.17460317460318,-165.0,135.63492063492063,319.9206349206349,20.555555555555554,-156.9047619047619,-48.49206349206349,-160.3968253968254,18.80952380952381,-178.17460317460316,19.92063492063492,-153.25396825396825,18.96825396825397,16.11111111111111,9.920634920634921,325.0,23.88888888888889,11.19047619047619,-166.26984126984127
-179.9206349206349,4.365079365079365,-205.79365079365078,1.0317460317460316,-69.12698412698413,-79.76190476190476,-72.3015873015873,133.88888888888889,219.60317460317458,7.857142857142857,-71.34920634920634,-64.52380952380952,-72.93650793650794,5.634920634920634,-144.2063492063492,6.111111111111111,-70.23809523809524,5.634920634920634,2.9365079365079363,40.55555555555555,325.0,62.61904761904761,62.93650793650793,-321.8253968253968
-179.9206349206349,4.365079365079365,-205.79365079365078,1.0317460317460316,-69.12698412698413,-79.76190476190476,-72.3015873015873,133.88888888888889,219.60317460317458,7.857142857142857,-71.34920634920634,-64.52380952380952,-72.93650793650794,5.634920634920634,-144.2063492063492,6.111111111111111,-70.23809523809524,5.634920634920634,2.9365079365079363,40.55555555555555,325.0,62.61904761904761,62.93650793650793,-321.8253968253968
-177.53968253968253,20.07936507936508,-105.15873015873015,15.95238095238095,-159.9206349206349,-76.74603174603175,-169.44444444444443,131.66666666666666,298.015873015873,22.142857142857142,-163.09523809523807,-65.79365079365078,-168.015873015873,20.07936507936508,-184.04761904761904,20.873015873015873,-163.57142857142856,19.76190476190476,16.746031746031743,29.920634920634917,325.0,-0.873015873015873,-0.7142857142857142,-321.8253968253968
-177.53968253968253,20.07936507936508,-105.15873015873015,15.95238095238095,-159.9206349206349,-76.74603174603175,-169.44444444444443,131.66666666666666,298.015873015873,22.142857142857142,-163.09523809523807,-65.79365079365078,-168.015873015873,20.07936507936508,-184.04761904761904,20.873015873015873,-163.57142857142856,19.76190476190476,16.746031746031743,29.920634920634917,325.0,-0.873015873015873,-0.7142857142857142,-321.8253968253968
-174.36507936507937,-4.523809523809524,-86.74603174603175,-8.015873015873016,44.36507936507936,-57.22222222222222,46.42857142857142,127.22222222222221,139.9206349206349,-2.46031746031746,43.095238095238095,-32.14285714285714,47.38095238095238,-3.253968253968254,-108.65079365079364,-4.0476190476190474,51.19047619047619,-4.0476190476190474,-6.904761904761904,36.11111111111111,314.8412698412698,157.38095238095238,146.26984126984127,-321.8253968253968
-174.36507936507937,-4.523809523809524,-86.74603174603175,-8.015873015873016,44.36507936507936,-57.22222222222222,46.42857142857142,127.22222222222221,139.9206349206349,-2.46031746031746,43.095238095238095,-32.14285714285714,47.38095238095238,-3.253968253968254,-108.65079365079364,-4.0476190476190474,51.19047619047619,-4.0476190476190474,-6.904761904761904,36.11111111111111,314.8412698412698,157.38095238095238,146.26984126984127,-321.8253968253968
-174.36507936507937,-4.523809523809524,-86.74603174603175,-8.015873015873016,44.36507936507936,-57.22222222222222,46.42857142857142,127.22222222222221,139.9206349206349,-2.46031746031746,43.095238095238095,-32.14285714285714,47.38095238095238,-3.253968253968254,-108.65079365079364,-4.0476190476190474,51.19047619047619,-4.0476190476190474,-6.904761904761904,36.11111111111111,314.8412698412698,157.38095238095238,146.26984126984127,-321.8253968253968
-174.36507936507937,-4.523809523809524,-86.74603174603175,-8.015873015873016,44.36507936507936,-57.22222222222222,46.42857142857142,127.22222222222221,139.9206349206349,-2.46031746031746,43.095238095238095,-32.14285714285714,47.38095238095238,-3.253968253968254,-108.65079365079364,-4.0476190476190474,51.19047619047619,-4.0476190476190474,-6.904761904761904,36.11111111111111,314.8412698412698,157.38095238095238,146.26984126984127,-321.8253968253968
-168.65079365079364,-11.666666666666666,-82.14285714285714,-15.0,57.698412698412696,-58.96825396825397,59.285714285714285,124.04761904761904,138.8095238095238,-8.968253968253968,56.58730158730158,-38.96825396825397,61.19047619047619,-10.238095238095237,-128.96825396825395,-10.238095238095237,64.52380952380952,-9.603174603174603,-13.253968253968253,5.634920634920634,294.2063492063492,154.84126984126982,142.93650793650792,-321.8253968253968
-168.65079365079364,-11.666666666666666,-82.14285714285714,-15.0,57.698412698412696,-58.96825396825397,59.285714285714285,124.04761904761904,138.8095238095238,-8.968253968253968,56.58730158730158,-38.96825396825397,61.19047619047619,-10.238095238095237,-128.96825396825395,-10.238095238095237,64.52380952380952,-9.603174603174603,-13.253968253968253,5.634920634920634,294.2063492063492,154.84126984126982,142.93650793650792,-321.8253968253968
-164.84126984126982,6.111111111111111,34.52380952380952,1.6666666666666665,-49.6031746031746,-70.23809523809524,-50.55555555555555,58.17460317460317,265.6349206349206,5.158730158730158,-49.44444444444444,-61.19047619047619,-53.73015873015873,6.587301587301587,-152.46031746031744,4.523809523809524,-45.95238095238095,4.0476190476190474,0.5555555555555556,-14.84126984126984,271.8253968253968,-49.44444444444444,-52.77777777777777,-166.26984126984127
-164.84126984126982,6.111111111111111,34.52380952380952,1.6666666666666665,-49.6031746031746,-70.23809523809524,-50.55555555555555,58.17460317460317,265.6349206349206,5.158730158730158,-49.44444444444444,-61.19047619047619,-53.73015873015873,6.587301587301587,-152.46031746031744,4.523809523809524,-45.95238095238095,4.0476190476190474,0.5555555555555556,-14.84126984126984,271.8253968253968,-49.44444444444444,-52.77777777777777,-166.26984126984127
-83.25396825396825,18.65079365079365,39.6031746031746,-18.015873015873016,-3.571428571428571,-24.68253968253968,7.698412698412698,78.17460317460316,229.76190476190476,17.857142857142858,-223.25396825396825,-9.444444444444445,83.09523809523809,-23.41269841269841,49.44444444444444,-144.52380952380952,-235.63492063492063,159.6031746031746,-151.8253968253968,-19.126984126984127,157.2222222222222,64.36507936507937,-124.04761904761904,-166.26984126984127
-83.25396825396825,18.65079365079365,39.6031746031746,-18.015873015873016,-3.571428571428571,-24.68253968253968,7.698412698412698,78.17460317460316,229.76190476190476,17.857142857142858,-223.25396825396825,-9.444444444444445,83.09523809523809,-23.41269841269841,49.44444444444444,-144.52380952380952,-235.63492063492063,159.6031746031746,-151.8253968253968,-19.126984126984127,157.2222222222222,64.36507936507937,-124.04761904761904,-166.26984126984127
-157.69841269841268,-12.777777777777777,12.3015873015873,-16.11111111111111,71.82539682539682,-36.42857142857142,75.47619047619047,119.6031746031746,195.63492063492063,-8.333333333333332,70.87301587301587,-14.365079365079364,76.1111111111111,-11.349206349206348,-106.9047619047619,-11.031746031746032,79.12698412698413,-10.555555555555555,-12.142857142857142,-43.095238095238095,295.6349206349206,147.2222222222222,137.69841269841268,-166.26984126984127
-157.69841269841268,-12.777777777777777,12.3015873015873,-16.11111111111111,71.82539682539682,-36.42857142857142,75.47619047619047,119.6031746031746,195.63492063492063,-8.333333333333332,70.87301587301587,-14.365079365079364,76.1111111111111,-11.349206349206348,-106.9047619047619,-11.031746031746032,79.12698412698413,-10.555555555555555,-12.142857142857142,-43.095238095238095,295.6349206349206,147.2222222222222,137.69841269841268,-166.26984126984127
-153.57142857142856,-1.1904761904761905,-78.65079365079364,-6.111111111111111,3.571428571428571,-65.0,11.031746031746032,117.6984126984127,247.85714285714283,1.8253968253968254,5.158730158730158,-51.98412698412698,-2.3015873015873014,-0.3968253968253968,-60.238095238095234,-1.349206349206349,3.73015873015873,-1.507936507936508,-2.7777777777777777,-82.93650793650794,315.6349206349206,-142.77777777777777,-135.47619047619048,-166.26984126984127
-153.57142857142856,-1.1904761904761905,-78.65079365079364,-6.111111111111111,3.571428571428571,-65.0,11.031746031746032,117.6984126984127,247.85714285714283,1.8253968253968254,5.158730158730158,-51.98412698412698,-2.3015873015873014,-0.3968253968253968,-60.238095238095234,-1.349206349206349,3.73015873015873,-1.507936507936508,-2.7777777777777777,-82.93650793650794,315.6349206349206,-142.77777777777777,-135.47619047619048,-166.26984126984127
-153.57142857142856,-1.1904761904761905,-78.65079365079364,-6.111111111111111,3.571428571428571,-65.0,11.031746031746032,117.6984126984127,247.85714285714283,1.8253968253968254,5.158730158730158,-51.98412698412698,-2.3015873015873014,-0.3968253968253968,-60.238095238095234,-1.349206349206349,3.73015873015873,-1.507936507936508,-2.7777777777777777,-82.93650793650794,315.6349206349206,-142.77777777777777,-135.47619047619048,-166.26984126984127
-153.57142857142856,-1.1904761904761905,-78.65079365079364,-6.111111111111111,3.571428571428571,-65.0,11.031746031746032,117.6984126984127,247.85714285714283,1.8253968253968254,5.158730158730158,-51.98412698412698,-2.3015873015873014,-0.3968253968253968,-60.238095238095234,-1.349206349206349,3.73015873015873,-1.507936507936508,-2.7777777777777777,-82.93650793650794,315.6349206349206,-142.77777777777777,-135.47619047619048,-166.26984126984127
