Fp1[1],Fp2[2],F3[3],F4[4],C3[5],C4[6],P3[7],P4[8],O1[9],O2[10],F7[11],F8[12],T3[13],T4[14],T5[15],T6[16],Fz[17],Pz[18],Cz[19],Pg1[20],Pg2[21],EOGR[22],EOOGL[23],EMG[24]
-325.0,-325.0,-325.0,-103.25396825396825,325.0,30.87301587301587,325.0,-142.77777777777777,-325.0,-106.9047619047619,-325.0,38.80952380952381,325.0,-325.0,90.71428571428571,2.619047619047619,325.0,17.857142857142858,-181.66666666666666,-325.0,-209.60317460317458,-1.349206349206349,-0.3968253968253968,-166.26984126984127
-325.0,-325.0,-325.0,-103.25396825396825,325.0,30.87301587301587,325.0,-142.77777777777777,-325.0,-106.9047619047619,-325.0,38.80952380952381,325.0,-325.0,90.71428571428571,2.619047619047619,325.0,17.857142857142858,-181.66666666666666,-325.0,-209.60317460317458,-1.349206349206349,-0.3968253968253968,-166.26984126984127
-325.0,-325.0,-325.0,-84.2063492063492,139.12698412698413,0.07936507936507936,142.3015873015873,-325.0,-325.0,-87.6984126984127,-325.0,-55.95238095238095,151.8253968253968,-325.0,72.93650793650794,-0.07936507936507936,135.95238095238093,3.571428571428571,-63.25396825396825,-325.0,-85.0,114.36507936507935,99.12698412698413,-166.26984126984127
-325.0,-325.0,-325.0,-84.2063492063492,139.12698412698413,0.07936507936507936,142.3015873015873,-325.0,-325.0,-87.6984126984127,-325.0,-55.95238095238095,151.8253968253968,-325.0,72.93650793650794,-0.07936507936507936,135.95238095238093,3.571428571428571,-63.25396825396825,-325.0,-85.0,114.36507936507935,99.12698412698413,-166.26984126984127
-325.0,-325.0,-325.0,-84.2063492063492,121.82539682539682,-1.984126984126984,125.31746031746032,-325.0,-325.0,-87.38095238095238,-325.0,-57.38095238095238,133.25396825396825,-325.0,72.61904761904762,2.619047619047619,113.09523809523809,5.952380952380952,-58.96825396825397,-325.0,-80.23809523809523,57.857142857142854,57.857142857142854,-166.26984126984127
-325.0,-325.0,-325.0,-84.2063492063492,121.82539682539682,-1.984126984126984,125.31746031746032,-325.0,-325.0,-87.38095238095238,-325.0,-57.38095238095238,133.25396825396825,-325.0,72.61904761904762,2.619047619047619,113.09523809523809,5.952380952380952,-58.96825396825397,-325.0,-80.23809523809523,57.857142857142854,57.857142857142854,-166.26984126984127
-325.0,-325.0,-325.0,-84.2063492063492,121.82539682539682,-1.984126984126984,125.31746031746032,-325.0,-325.0,-87.38095238095238,-325.0,-57.38095238095238,133.25396825396825,-325.0,72.61904761904762,2.619047619047619,113.09523809523809,5.952380952380952,-58.96825396825397,-325.0,-80.23809523809523,57.857142857142854,57.857142857142854,-166.26984126984127
-325.0,-325.0,-325.0,-84.2063492063492,121.82539682539682,-1.984126984126984,125.31746031746032,-325.0,-325.0,-87.38095238095238,-325.0,-57.38095238095238,133.25396825396825,-325.0,72.61904761904762,2.619047619047619,113.09523809523809,5.952380952380952,-58.96825396825397,-325.0,-80.23809523809523,57.857142857142854,57.857142857142854,-166.26984126984127
-325.0,-325.0,-325.0,-84.2063492063492,121.82539682539682,-1.984126984126984,125.31746031746032,-325.0,-325.0,-87.38095238095238,-325.0,-57.38095238095238,133.25396825396825,-325.0,72.61904761904762,2.619047619047619,113.09523809523809,5.952380952380952,-58.96825396825397,-325.0,-80.23809523809523,57.857142857142854,57.857142857142854,-166.26984126984127
-325.0,-325.0,-325.0,-84.2063492063492,121.82539682539682,-1.984126984126984,125.31746031746032,-325.0,-325.0,-87.38095238095238,-325.0,-57.38095238095238,133.25396825396825,-325.0,72.61904761904762,2.619047619047619,113.09523809523809,5.952380952380952,-58.96825396825397,-325.0,-80.23809523809523,57.857142857142854,57.857142857142854,-166.26984126984127
-325.0,-325.0,-325.0,-84.2063492063492,121.82539682539682,-1.984126984126984,125.31746031746032,-325.0,-325.0,-87.38095238095238,-325.0,-57.38095238095238,133.25396825396825,-325.0,72.61904761904762,2.619047619047619,113.09523809523809,5.952380952380952,-58.96825396825397,-325.0,-80.23809523809523,57.857142857142854,57.857142857142854,-321.8253968253968
-325.0,-325.0,-325.0,-84.2063492063492,121.82539682539682,-1.984126984126984,125.31746031746032,-325.0,-325.0,-87.38095238095238,-325.0,-57.38095238095238,133.25396825396825,-325.0,72.61904761904762,2.619047619047619,113.09523809523809,5.952380952380952,-58.96825396825397,-325.0,-80.23809523809523,57.857142857142854,57.857142857142854,-321.8253968253968
-325.0,-325.0,-325.0,-84.2063492063492,121.82539682539682,-1.984126984126984,125.31746031746032,-325.0,-325.0,-87.38095238095238,-325.0,-57.38095238095238,133.25396825396825,-325.0,72.61904761904762,2.619047619047619,113.09523809523809,5.952380952380952,-58.96825396825397,-325.0,-80.23809523809523,57.857142857142854,57.857142857142854,-321.8253968253968
-325.0,-325.0,-325.0,-84.2063492063492,121.82539682539682,-1.984126984126984,125.31746031746032,-325.0,-325.0,-87.38095238095238,-325.0,-57.38095238095238,133.25396825396825,-325.0,72.61904761904762,2.619047619047619,113.09523809523809,5.952380952380952,-58.96825396825397,-325.0,-80.23809523809523,57.857142857142854,57.857142857142854,-321.8253968253968
-325.0,-325.0,-325.0,-75.63492063492063,-78.96825396825396,-46.42857142857142,-78.01587301587301,-325.0,-325.0,-78.4920634920635,-325.0,-91.19047619047619,-73.4126984126984,-325.0,65.0,8.65079365079365,-89.28571428571428,9.761904761904761,-16.746031746031743,-321.984126984127,-21.03174603174603,8.333333333333332,7.5396825396825395,-321.8253968253968
-325.0,-325.0,-325.0,-75.63492063492063,-78.96825396825396,-46.42857142857142,-78.01587301587301,-325.0,-325.0,-78.4920634920635,-325.0,-91.19047619047619,-73.4126984126984,-325.0,65.0,8.65079365079365,-89.28571428571428,9.761904761904761,-16.746031746031743,-321.984126984127,-21.03174603174603,8.333333333333332,7.5396825396825395,-321.8253968253968
-325.0,-325.0,-325.0,-66.11111111111111,-302.46031746031747,-95.79365079365078,-303.0952380952381,-325.0,-325.0,-68.65079365079364,-325.0,-128.015873015873,-302.6190476190476,-325.0,56.58730158730158,18.333333333333332,-308.3333333333333,16.904761904761905,32.77777777777778,-313.57142857142856,47.22222222222222,-39.44444444444444,-41.666666666666664,-321.8253968253968
-325.0,-325.0,-325.0,-66.11111111111111,-302.46031746031747,-95.79365079365078,-303.0952380952381,-325.0,-325.0,-68.65079365079364,-325.0,-128.015873015873,-302.6190476190476,-325.0,56.58730158730158,18.333333333333332,-308.3333333333333,16.904761904761905,32.77777777777778,-313.57142857142856,47.22222222222222,-39.44444444444444,-41.666666666666664,-321.8253968253968
-325.0,-325.0,-325.0,-62.3015873015873,-325.0,-112.93650793650794,-325.0,-325.0,-325.0,-64.52380952380952,-325.0,-140.3968253968254,-325.0,-325.0,53.25396825396825,17.063492063492063,-325.0,16.11111111111111,43.73015873015873,-294.5238095238095,67.53968253968253,-101.5079365079365,-91.03174603174602,-321.8253968253968
-325.0,-325.0,-325.0,-62.3015873015873,-325.0,-112.93650793650794,-325.0,-325.0,-325.0,-64.52380952380952,-325.0,-140.3968253968254,-325.0,-325.0,53.25396825396825,17.063492063492063,-325.0,16.11111111111111,43.73015873015873,-294.5238095238095,67.53968253968253,-101.5079365079365,-91.03174603174602,-321.8253968253968
325.0,-325.0,-325.0,-57.38095238095238,-325.0,-131.984126984127,-325.0,-325.0,-325.0,-59.12698412698413,-325.0,-153.57142857142856,-325.0,-325.0,48.33333333333333,23.095238095238095,-325.0,21.825396825396822,61.34920634920635,-268.968253968254,91.82539682539682,-23.730158730158728,-28.49206349206349,-166.26984126984127
325.0,-325.0,-325.0,-57.38095238095238,-325.0,-131.984126984127,-325.0,-325.0,-325.0,-59.12698412698413,-325.0,-153.57142857142856,-325.0,-325.0,48.33333333333333,23.095238095238095,-325.0,21.825396825396822,61.34920634920635,-268.968253968254,91.82539682539682,-23.730158730158728,-28.49206349206349,-166.26984126984127
325.0,-325.0,-325.0,-55.317460317460316,-325.0,-138.015873015873,-325.0,-325.0,-325.0,-57.22222222222222,-0.07936507936507936,-157.53968253968253,-325.0,-325.0,46.58730158730158,22.142857142857142,-325.0,20.873015873015873,63.888888888888886,-260.07936507936506,94.68253968253968,-19.444444444444443,-25.476190476190474,-166.26984126984127
325.0,-325.0,-325.0,-55.317460317460316,-325.0,-138.015873015873,-325.0,-325.0,-325.0,-57.22222222222222,-0.07936507936507936,-157.53968253968253,-325.0,-325.0,46.58730158730158,22.142857142857142,-325.0,20.873015873015873,63.888888888888886,-260.07936507936506,94.68253968253968,-19.444444444444443,-25.476190476190474,-166.26984126984127
325.0,-269.9206349206349,-258.3333333333333,-36.58730158730159,-318.8095238095238,-175.63492063492063,-320.39682539682536,-308.8095238095238,168.4920634920635,-37.698412698412696,325.0,-176.9047619047619,-325.0,-271.8253968253968,29.76190476190476,-3.095238095238095,-305.95238095238096,-1.8253968253968254,52.3015873015873,-168.33333333333331,78.01587301587301,-156.11111111111111,-142.77777777777777,-166.26984126984127
325.0,-269.9206349206349,-258.3333333333333,-36.58730158730159,-318.8095238095238,-175.63492063492063,-320.39682539682536,-308.8095238095238,168.4920634920635,-37.698412698412696,325.0,-176.9047619047619,-325.0,-271.8253968253968,29.76190476190476,-3.095238095238095,-305.95238095238096,-1.8253968253968254,52.3015873015873,-168.33333333333331,78.01587301587301,-156.11111111111111,-142.77777777777777,-166.26984126984127
325.0,-245.0,-234.04761904761904,-33.25396825396825,-275.6349206349206,-175.95238095238093,-279.76190476190476,-281.031746031746,246.74603174603172,-34.36507936507936,325.0,-174.36507936507937,-283.57142857142856,-245.63492063492063,26.746031746031743,-3.888888888888889,-260.55555555555554,-2.46031746031746,47.22222222222222,-152.14285714285714,68.01587301587301,-38.49206349206349,-41.666666666666664,-166.26984126984127
325.0,-245.0,-234.04761904761904,-33.25396825396825,-275.6349206349206,-175.95238095238093,-279.76190476190476,-281.031746031746,246.74603174603172,-34.36507936507936,325.0,-174.36507936507937,-283.57142857142856,-245.63492063492063,26.746031746031743,-3.888888888888889,-260.55555555555554,-2.46031746031746,47.22222222222222,-152.14285714285714,68.01587301587301,-38.49206349206349,-41.666666666666664,-166.26984126984127
323.73015873015873,-218.4920634920635,-208.17460317460316,-29.6031746031746,-262.3015873015873,-176.11111111111111,-271.19047619047615,-251.34920634920633,325.0,-30.87301587301587,325.0,-171.5079365079365,-278.17460317460313,-217.85714285714283,23.730158730158728,-4.682539682539682,-252.77777777777777,-3.095238095238095,41.98412698412698,-134.68253968253967,59.44444444444444,1.0317460317460316,1.0317460317460316,-166.26984126984127
323.73015873015873,-218.4920634920635,-208.17460317460316,-29.6031746031746,-262.3015873015873,-176.11111111111111,-271.19047619047615,-251.34920634920633,325.0,-30.87301587301587,325.0,-171.5079365079365,-278.17460317460313,-217.85714285714283,23.730158730158728,-4.682539682539682,-252.77777777777777,-3.095238095238095,41.98412698412698,-134.68253968253967,59.44444444444444,1.0317460317460316,1.0317460317460316,-166.26984126984127
282.46031746031747,-191.8253968253968,59.12698412698413,-26.428571428571427,-210.3968253968254,-171.34920634920633,-219.9206349206349,-221.19047619047618,325.0,-27.38095238095238,304.5238095238095,-164.36507936507937,-233.7301587301587,-190.3968253968254,20.71428571428571,-0.23809523809523808,-207.85714285714283,1.6666666666666665,40.079365079365076,-117.6984126984127,51.34920634920635,-112.6190476190476,-88.17460317460316,-321.8253968253968
282.46031746031747,-191.8253968253968,59.12698412698413,-26.428571428571427,-210.3968253968254,-171.34920634920633,-219.9206349206349,-221.19047619047618,325.0,-27.38095238095238,304.5238095238095,-164.36507936507937,-233.7301587301587,-190.3968253968254,20.71428571428571,-0.23809523809523808,-207.85714285714283,1.6666666666666665,40.079365079365076,-117.6984126984127,51.34920634920635,-112.6190476190476,-88.17460317460316,-321.8253968253968
242.3015873015873,-166.74603174603175,325.0,-23.41269841269841,-128.4920634920635,-166.74603174603175,-136.26984126984127,-192.93650793650792,325.0,-23.88888888888889,284.2063492063492,-157.53968253968253,-153.09523809523807,-164.52380952380952,18.015873015873016,4.2063492063492065,-125.15873015873015,6.587301587301587,38.33333333333333,-101.82539682539682,41.82539682539682,-147.85714285714286,-118.8095238095238,-321.8253968253968
242.3015873015873,-166.74603174603175,325.0,-23.41269841269841,-128.4920634920635,-166.74603174603175,-136.26984126984127,-192.93650793650792,325.0,-23.88888888888889,284.2063492063492,-157.53968253968253,-153.09523809523807,-164.52380952380952,18.015873015873016,4.2063492063492065,-125.15873015873015,6.587301587301587,38.33333333333333,-101.82539682539682,41.82539682539682,-147.85714285714286,-118.8095238095238,-321.8253968253968
242.3015873015873,-166.74603174603175,325.0,-23.41269841269841,-128.4920634920635,-166.74603174603175,-136.26984126984127,-192.93650793650792,325.0,-23.88888888888889,284.2063492063492,-157.53968253968253,-153.09523809523807,-164.52380952380952,18.015873015873016,4.2063492063492065,-125.15873015873015,6.587301587301587,38.33333333333333,-101.82539682539682,41.82539682539682,-147.85714285714286,-118.8095238095238,-321.8253968253968
242.3015873015873,-166.74603174603175,325.0,-23.41269841269841,-128.4920634920635,-166.74603174603175,-136.26984126984127,-192.93650793650792,325.0,-23.88888888888889,284.2063492063492,-157.53968253968253,-153.09523809523807,-164.52380952380952,18.015873015873016,4.2063492063492065,-125.15873015873015,6.587301587301587,38.33333333333333,-101.82539682539682,41.82539682539682,-147.85714285714286,-118.8095238095238,-321.8253968253968
242.3015873015873,-166.74603174603175,325.0,-23.41269841269841,-128.4920634920635,-166.74603174603175,-136.26984126984127,-192.93650793650792,325.0,-23.88888888888889,284.2063492063492,-157.53968253968253,-153.09523809523807,-164.52380952380952,18.015873015873016,4.2063492063492065,-125.15873015873015,6.587301587301587,38.33333333333333,-101.82539682539682,41.82539682539682,-147.85714285714286,-118.8095238095238,-321.8253968253968
242.3015873015873,-166.74603174603175,325.0,-23.41269841269841,-128.4920634920635,-166.74603174603175,-136.26984126984127,-192.93650793650792,325.0,-23.88888888888889,284.2063492063492,-157.53968253968253,-153.09523809523807,-164.52380952380952,18.015873015873016,4.2063492063492065,-125.15873015873015,6.587301587301587,38.33333333333333,-101.82539682539682,41.82539682539682,-147.85714285714286,-118.8095238095238,-321.8253968253968
209.60317460317458,-145.79365079365078,325.0,-20.555555555555554,-19.76190476190476,-158.96825396825395,-26.428571428571427,-169.44444444444443,325.0,-21.03174603174603,247.85714285714283,-148.8095238095238,-36.904761904761905,-143.25396825396825,15.634920634920634,1.349206349206349,-14.206349206349206,4.0476190476190474,29.285714285714285,-88.4920634920635,28.65079365079365,-24.68253968253968,-11.666666666666666,-321.8253968253968
209.60317460317458,-145.79365079365078,325.0,-20.555555555555554,-19.76190476190476,-158.96825396825395,-26.428571428571427,-169.44444444444443,325.0,-21.03174603174603,247.85714285714283,-148.8095238095238,-36.904761904761905,-143.25396825396825,15.634920634920634,1.349206349206349,-14.206349206349206,4.0476190476190474,29.285714285714285,-88.4920634920635,28.65079365079365,-24.68253968253968,-11.666666666666666,-321.8253968253968
174.36507936507937,-123.25396825396825,325.0,-17.539682539682538,17.857142857142858,-150.23809523809524,14.84126984126984,-144.2063492063492,306.4285714285714,-17.857142857142858,208.8095238095238,-144.84126984126982,-1.1904761904761905,-120.07936507936508,13.253968253968253,7.3809523809523805,17.539682539682538,10.396825396825395,30.238095238095237,-74.2063492063492,25.79365079365079,-146.9047619047619,-128.015873015873,-166.26984126984127
174.36507936507937,-123.25396825396825,325.0,-17.539682539682538,17.857142857142858,-150.23809523809524,14.84126984126984,-144.2063492063492,306.4285714285714,-17.857142857142858,208.8095238095238,-144.84126984126982,-1.1904761904761905,-120.07936507936508,13.253968253968253,7.3809523809523805,17.539682539682538,10.396825396825395,30.238095238095237,-74.2063492063492,25.79365079365079,-146.9047619047619,-128.015873015873,-166.26984126984127
172.14285714285714,-121.5079365079365,325.0,-17.063492063492063,112.14285714285714,-149.76190476190476,109.92063492063491,-142.46031746031744,216.1111111111111,-17.857142857142858,206.1111111111111,-149.9206349206349,98.33333333333333,-118.49206349206348,12.936507936507935,0.07936507936507936,116.1111111111111,3.095238095238095,22.46031746031746,-73.25396825396825,16.428571428571427,0.23809523809523808,0.5555555555555556,-166.26984126984127
172.14285714285714,-121.5079365079365,325.0,-17.063492063492063,112.14285714285714,-149.76190476190476,109.92063492063491,-142.46031746031744,216.1111111111111,-17.857142857142858,206.1111111111111,-149.9206349206349,98.33333333333333,-118.49206349206348,12.936507936507935,0.07936507936507936,116.1111111111111,3.095238095238095,22.46031746031746,-73.25396825396825,16.428571428571427,0.23809523809523808,0.5555555555555556,-166.26984126984127
168.4920634920635,-119.12698412698413,325.0,-16.746031746031743,71.66666666666666,-148.33333333333331,68.65079365079364,-139.44444444444443,242.3015873015873,-17.22222222222222,201.8253968253968,-134.68253968253967,53.888888888888886,-116.1111111111111,12.46031746031746,3.253968253968254,71.03174603174602,5.634920634920634,23.88888888888889,-71.66666666666666,17.857142857142858,-146.26984126984127,-127.38095238095238,-166.26984126984127
168.4920634920635,-119.12698412698413,325.0,-16.746031746031743,71.66666666666666,-148.33333333333331,68.65079365079364,-139.44444444444443,242.3015873015873,-17.22222222222222,201.8253968253968,-134.68253968253967,53.888888888888886,-116.1111111111111,12.46031746031746,3.253968253968254,71.03174603174602,5.634920634920634,23.88888888888889,-71.66666666666666,17.857142857142858,-146.26984126984127,-127.38095238095238,-166.26984126984127
163.88888888888889,-116.26984126984127,325.0,-16.746031746031743,69.6031746031746,-147.06349206349205,65.31746031746032,-136.26984126984127,309.76190476190476,-17.22222222222222,196.58730158730157,-138.015873015873,58.49206349206349,-113.25396825396825,12.46031746031746,5.476190476190476,73.73015873015872,7.698412698412698,24.68253968253968,-69.92063492063491,16.746031746031743,-53.095238095238095,-39.12698412698413,-166.26984126984127
163.88888888888889,-116.26984126984127,325.0,-16.746031746031743,69.6031746031746,-147.06349206349205,65.31746031746032,-136.26984126984127,309.76190476190476,-17.22222222222222,196.58730158730157,-138.015873015873,58.49206349206349,-113.25396825396825,12.46031746031746,5.476190476190476,73.73015873015872,7.698412698412698,24.68253968253968,-69.92063492063491,16.746031746031743,-53.095238095238095,-39.12698412698413,-166.26984126984127
161.8253968253968,-114.68253968253967,325.0,-16.11111111111111,86.9047619047619,-146.11111111111111,85.47619047619047,-134.36507936507937,283.57142857142856,-16.746031746031743,194.2063492063492,-129.44444444444443,68.65079365079364,-111.19047619047619,12.142857142857142,5.952380952380952,84.84126984126983,8.174603174603174,25.317460317460316,-68.80952380952381,15.476190476190474,-88.65079365079364,-87.53968253968253,-166.26984126984127
161.8253968253968,-114.68253968253967,325.0,-16.11111111111111,86.9047619047619,-146.11111111111111,85.47619047619047,-134.36507936507937,283.57142857142856,-16.746031746031743,194.2063492063492,-129.44444444444443,68.65079365079364,-111.19047619047619,12.142857142857142,5.952380952380952,84.84126984126983,8.174603174603174,25.317460317460316,-68.80952380952381,15.476190476190474,-88.65079365079364,-87.53968253968253,-166.26984126984127
159.6031746031746,-113.57142857142857,325.0,-16.11111111111111,43.73015873015873,-145.15873015873015,41.98412698412698,-132.93650793650792,304.2063492063492,-16.746031746031743,191.8253968253968,-129.9206349206349,28.65079365079365,-110.07936507936508,11.984126984126984,8.968253968253968,44.84126984126984,11.031746031746032,27.38095238095238,-68.17460317460318,18.49206349206349,-144.2063492063492,-128.17460317460316,-321.8253968253968
159.6031746031746,-113.57142857142857,325.0,-16.11111111111111,43.73015873015873,-145.15873015873015,41.98412698412698,-132.93650793650792,304.2063492063492,-16.746031746031743,191.8253968253968,-129.9206349206349,28.65079365079365,-110.07936507936508,11.984126984126984,8.968253968253968,44.84126984126984,11.031746031746032,27.38095238095238,-68.17460317460318,18.49206349206349,-144.2063492063492,-128.17460317460316,-321.8253968253968
155.95238095238093,-111.19047619047619,325.0,-15.793650793650793,88.4920634920635,-144.04761904761904,86.74603174603175,-130.23809523809524,228.8095238095238,-16.428571428571427,187.69841269841268,-131.66666666666666,83.4126984126984,-107.85714285714285,11.825396825396824,3.095238095238095,101.5079365079365,5.317460317460317,20.238095238095237,-66.74603174603175,10.079365079365079,-0.7142857142857142,-1.507936507936508,-321.8253968253968
155.95238095238093,-111.19047619047619,325.0,-15.793650793650793,88.4920634920635,-144.04761904761904,86.74603174603175,-130.23809523809524,228.8095238095238,-16.428571428571427,187.69841269841268,-131.66666666666666,83.4126984126984,-107.85714285714285,11.825396825396824,3.095238095238095,101.5079365079365,5.317460317460317,20.238095238095237,-66.74603174603175,10.079365079365079,-0.7142857142857142,-1.507936507936508,-321.8253968253968
150.3968253968254,-107.38095238095238,325.0,-15.317460317460316,123.09523809523809,-142.61904761904762,119.92063492063491,-126.1111111111111,235.3174603174603,-15.793650793650793,181.5079365079365,-141.5079365079365,117.38095238095238,-104.36507936507935,11.349206349206348,-4.841269841269841,132.77777777777777,-2.7777777777777777,11.507936507936508,-64.36507936507937,0.23809523809523808,-3.4126984126984126,-2.7777777777777777,-321.8253968253968
150.3968253968254,-107.38095238095238,325.0,-15.317460317460316,123.09523809523809,-142.61904761904762,119.92063492063491,-126.1111111111111,235.3174603174603,-15.793650793650793,181.5079365079365,-141.5079365079365,117.38095238095238,-104.36507936507935,11.349206349206348,-4.841269841269841,132.77777777777777,-2.7777777777777777,11.507936507936508,-64.36507936507937,0.23809523809523808,-3.4126984126984126,-2.7777777777777777,-321.8253968253968
147.06349206349205,-105.31746031746032,325.0,-15.158730158730158,98.01587301587301,-141.03174603174602,95.63492063492063,-123.88888888888889,295.0,-15.634920634920634,177.53968253968253,-129.9206349206349,90.55555555555556,-102.14285714285714,11.031746031746032,-0.23809523809523808,102.46031746031746,1.0317460317460316,15.0,-63.095238095238095,3.253968253968254,-59.76190476190476,-44.52380952380952,-321.8253968253968
147.06349206349205,-105.31746031746032,325.0,-15.158730158730158,98.01587301587301,-141.03174603174602,95.63492063492063,-123.88888888888889,295.0,-15.634920634920634,177.53968253968253,-129.9206349206349,90.55555555555556,-102.14285714285714,11.031746031746032,-0.23809523809523808,102.46031746031746,1.0317460317460316,15.0,-63.095238095238095,3.253968253968254,-59.76190476190476,-44.52380952380952,-321.8253968253968
144.52380952380952,-103.4126984126984,325.0,-14.682539682539682,146.11111111111111,-140.3968253968254,144.52380952380952,-121.5079365079365,252.77777777777777,-15.158730158730158,174.52380952380952,-124.36507936507935,139.6031746031746,-100.07936507936508,10.873015873015872,-9.285714285714285,153.88888888888889,-7.3809523809523805,5.634920634920634,-61.82539682539682,-7.857142857142857,59.6031746031746,44.36507936507936,-321.8253968253968
144.52380952380952,-103.4126984126984,325.0,-14.682539682539682,146.11111111111111,-140.3968253968254,144.52380952380952,-121.5079365079365,252.77777777777777,-15.158730158730158,174.52380952380952,-124.36507936507935,139.6031746031746,-100.07936507936508,10.873015873015872,-9.285714285714285,153.88888888888889,-7.3809523809523805,5.634920634920634,-61.82539682539682,-7.857142857142857,59.6031746031746,44.36507936507936,-321.8253968253968
141.03174603174602,-101.34920634920634,325.0,-14.682539682539682,156.11111111111111,-138.96825396825395,154.04761904761904,-119.12698412698413,281.66666666666663,-15.0,170.87301587301587,-126.58730158730158,146.11111111111111,-98.17460317460316,10.714285714285714,-8.492063492063492,155.79365079365078,-6.746031746031746,5.7936507936507935,-60.55555555555555,-6.746031746031746,1.349206349206349,0.3968253968253968,-166.26984126984127
141.03174603174602,-101.34920634920634,325.0,-14.682539682539682,156.11111111111111,-138.96825396825395,154.04761904761904,-119.12698412698413,281.66666666666663,-15.0,170.87301587301587,-126.58730158730158,146.11111111111111,-98.17460317460316,10.714285714285714,-8.492063492063492,155.79365079365078,-6.746031746031746,5.7936507936507935,-60.55555555555555,-6.746031746031746,1.349206349206349,0.3968253968253968,-166.26984126984127
137.85714285714286,-99.12698412698413,325.0,-14.365079365079364,185.0,-137.69841269841268,182.46031746031744,-96.26984126984127,249.28571428571428,-14.84126984126984,167.06349206349205,-138.4920634920635,183.57142857142856,-95.95238095238095,10.396825396825395,-5.952380952380952,194.2063492063492,-4.682539682539682,6.904761904761904,-59.12698412698413,-8.174603174603174,137.38095238095238,120.87301587301586,-166.26984126984127
137.85714285714286,-99.12698412698413,325.0,-14.365079365079364,185.0,-137.69841269841268,182.46031746031744,-96.26984126984127,249.28571428571428,-14.84126984126984,167.06349206349205,-138.4920634920635,183.57142857142856,-95.95238095238095,10.396825396825395,-5.952380952380952,194.2063492063492,-4.682539682539682,6.904761904761904,-59.12698412698413,-8.174603174603174,137.38095238095238,120.87301587301586,-166.26984126984127
136.11111111111111,-98.17460317460316,325.0,-14.523809523809524,75.95238095238095,-139.44444444444443,76.42857142857143,-111.34920634920634,285.95238095238096,-14.523809523809524,165.15873015873015,-149.9206349206349,71.5079365079365,-95.15873015873015,10.396825396825395,0.7142857142857142,83.88888888888889,1.8253968253968254,13.095238095238095,-58.650793650793645,1.507936507936508,-200.87301587301587,-171.34920634920633,-166.26984126984127
136.11111111111111,-98.17460317460316,325.0,-14.523809523809524,75.95238095238095,-139.44444444444443,76.42857142857143,-111.34920634920634,285.95238095238096,-14.523809523809524,165.15873015873015,-149.9206349206349,71.5079365079365,-95.15873015873015,10.396825396825395,0.7142857142857142,83.88888888888889,1.8253968253968254,13.095238095238095,-58.650793650793645,1.507936507936508,-200.87301587301587,-171.34920634920633,-166.26984126984127
132.46031746031744,-95.79365079365078,325.0,-13.73015873015873,132.93650793650792,-136.58730158730157,132.14285714285714,-113.73015873015872,304.04761904761904,-14.365079365079364,161.03174603174602,-164.84126984126982,131.5079365079365,-92.46031746031746,10.079365079365079,-4.365079365079365,143.4126984126984,-2.9365079365079363,7.5396825396825395,-57.06349206349206,-5.317460317460317,-1.349206349206349,-1.349206349206349,-166.26984126984127
132.46031746031744,-95.79365079365078,325.0,-13.73015873015873,132.93650793650792,-136.58730158730157,132.14285714285714,-113.73015873015872,304.04761904761904,-14.365079365079364,161.03174603174602,-164.84126984126982,131.5079365079365,-92.46031746031746,10.079365079365079,-4.365079365079365,143.4126984126984,-2.9365079365079363,7.5396825396825395,-57.06349206349206,-5.317460317460317,-1.349206349206349,-1.349206349206349,-166.26984126984127
129.6031746031746,-93.4126984126984,325.0,-13.412698412698411,160.7142857142857,-134.04761904761904,158.8095238095238,-108.33333333333333,292.6190476190476,-13.73015873015873,157.53968253968253,-141.66666666666666,155.95238095238093,-90.39682539682539,9.761904761904761,1.8253968253968254,166.11111111111111,3.571428571428571,13.095238095238095,-55.79365079365079,-1.8253968253968254,64.84126984126983,49.76190476190476,-166.26984126984127
129.6031746031746,-93.4126984126984,325.0,-13.412698412698411,160.7142857142857,-134.04761904761904,158.8095238095238,-108.33333333333333,292.6190476190476,-13.73015873015873,157.53968253968253,-141.66666666666666,155.95238095238093,-90.39682539682539,9.761904761904761,1.8253968253968254,166.11111111111111,3.571428571428571,13.095238095238095,-55.79365079365079,-1.8253968253968254,64.84126984126983,49.76190476190476,-166.26984126984127
125.95238095238095,-91.34920634920634,325.0,-13.253968253968253,149.6031746031746,-145.0,151.03174603174602,-108.01587301587301,276.74603174603175,-13.571428571428571,153.57142857142856,-214.68253968253967,143.88888888888889,-88.17460317460316,9.603174603174603,-5.952380952380952,153.57142857142856,-4.365079365079365,4.841269841269841,-54.52380952380952,-11.825396825396824,-132.77777777777777,-120.23809523809523,-321.8253968253968
125.95238095238095,-91.34920634920634,325.0,-13.253968253968253,149.6031746031746,-145.0,151.03174603174602,-108.01587301587301,276.74603174603175,-13.571428571428571,153.57142857142856,-214.68253968253967,143.88888888888889,-88.17460317460316,9.603174603174603,-5.952380952380952,153.57142857142856,-4.365079365079365,4.841269841269841,-54.52380952380952,-11.825396825396824,-132.77777777777777,-120.23809523809523,-321.8253968253968
123.25396825396825,-89.44444444444444,325.0,-13.095238095238095,202.46031746031744,-157.69841269841268,203.25396825396825,-106.26984126984127,289.4444444444444,-13.412698412698411,150.23809523809524,-270.87301587301585,205.47619047619045,-86.1111111111111,9.444444444444445,-13.73015873015873,215.3174603174603,-12.3015873015873,-4.2063492063492065,-53.25396825396825,-58.17460317460317,-0.07936507936507936,-0.7142857142857142,-321.8253968253968
123.25396825396825,-89.44444444444444,325.0,-13.095238095238095,202.46031746031744,-157.69841269841268,203.25396825396825,-106.26984126984127,289.4444444444444,-13.412698412698411,150.23809523809524,-270.87301587301585,205.47619047619045,-86.1111111111111,9.444444444444445,-13.73015873015873,215.3174603174603,-12.3015873015873,-4.2063492063492065,-53.25396825396825,-58.17460317460317,-0.07936507936507936,-0.7142857142857142,-321.8253968253968
120.23809523809523,-87.38095238095238,325.0,-12.777777777777777,241.19047619047618,-153.25396825396825,240.87301587301587,-100.55555555555554,283.0952380952381,-12.936507936507935,147.06349206349205,-307.53968253968253,240.55555555555554,-84.36507936507937,9.126984126984127,-14.365079365079364,247.53968253968253,-13.095238095238095,-5.0,-51.82539682539682,-45.63492063492063,69.6031746031746,53.41269841269841,-321.8253968253968
120.23809523809523,-87.38095238095238,325.0,-12.777777777777777,241.19047619047618,-153.25396825396825,240.87301587301587,-100.55555555555554,283.0952380952381,-12.936507936507935,147.06349206349205,-307.53968253968253,240.55555555555554,-84.36507936507937,9.126984126984127,-14.365079365079364,247.53968253968253,-13.095238095238095,-5.0,-51.82539682539682,-45.63492063492063,69.6031746031746,53.41269841269841,-321.8253968253968
118.65079365079364,-86.42857142857143,325.0,-12.619047619047619,226.42857142857142,-153.09523809523807,228.015873015873,-98.96825396825396,263.73015873015873,-12.936507936507935,145.0,-325.0,230.87301587301587,-83.25396825396825,9.126984126984127,-10.555555555555555,239.12698412698413,-9.761904761904761,-1.6666666666666665,-51.34920634920635,-85.47619047619047,1.1904761904761905,0.23809523809523808,-321.8253968253968
118.65079365079364,-86.42857142857143,325.0,-12.619047619047619,226.42857142857142,-153.09523809523807,228.015873015873,-98.96825396825396,263.73015873015873,-12.936507936507935,145.0,-325.0,230.87301587301587,-83.25396825396825,9.126984126984127,-10.555555555555555,239.12698412698413,-9.761904761904761,-1.6666666666666665,-51.34920634920635,-85.47619047619047,1.1904761904761905,0.23809523809523808,-321.8253968253968
115.0,-84.04761904761904,325.0,-12.46031746031746,229.60317460317458,-157.06349206349205,228.65079365079364,-60.55555555555555,268.4920634920635,-12.619047619047619,140.87301587301587,-203.25396825396825,231.19047619047618,-80.87301587301587,8.809523809523808,-2.7777777777777777,234.36507936507934,-2.142857142857143,4.523809523809524,-49.92063492063492,-0.5555555555555556,126.74603174603173,113.88888888888889,-321.8253968253968
115.0,-84.04761904761904,325.0,-12.46031746031746,229.60317460317458,-157.06349206349205,228.65079365079364,-60.55555555555555,268.4920634920635,-12.619047619047619,140.87301587301587,-203.25396825396825,231.19047619047618,-80.87301587301587,8.809523809523808,-2.7777777777777777,234.36507936507934,-2.142857142857143,4.523809523809524,-49.92063492063492,-0.5555555555555556,126.74603174603173,113.88888888888889,-321.8253968253968
112.77777777777777,-82.61904761904762,325.0,-12.142857142857142,178.4920634920635,-118.8095238095238,181.19047619047618,-96.74603174603175,223.09523809523807,-12.142857142857142,138.33333333333331,-107.06349206349206,178.17460317460316,-79.44444444444444,8.809523809523808,-6.904761904761904,182.93650793650792,-6.428571428571428,0.23809523809523808,-48.80952380952381,-124.84126984126983,-123.73015873015872,-111.82539682539682,-166.26984126984127
112.77777777777777,-82.61904761904762,325.0,-12.142857142857142,178.4920634920635,-118.8095238095238,181.19047619047618,-96.74603174603175,223.09523809523807,-12.142857142857142,138.33333333333331,-107.06349206349206,178.17460317460316,-79.44444444444444,8.809523809523808,-6.904761904761904,182.93650793650792,-6.428571428571428,0.23809523809523808,-48.80952380952381,-124.84126984126983,-123.73015873015872,-111.82539682539682,-166.26984126984127
110.87301587301587,-81.19047619047619,325.0,-11.825396825396824,291.66666666666663,-148.65079365079364,293.4126984126984,-56.74603174603174,278.968253968254,-12.142857142857142,136.11111111111111,-318.015873015873,296.26984126984127,-78.01587301587301,8.492063492063492,-13.73015873015873,298.4920634920635,-12.936507936507935,-7.063492063492063,-48.33333333333333,-33.095238095238095,123.73015873015872,111.19047619047619,-166.26984126984127
110.87301587301587,-81.19047619047619,325.0,-11.825396825396824,291.66666666666663,-148.65079365079364,293.4126984126984,-56.74603174603174,278.968253968254,-12.142857142857142,136.11111111111111,-318.015873015873,296.26984126984127,-78.01587301587301,8.492063492063492,-13.73015873015873,298.4920634920635,-12.936507936507935,-7.063492063492063,-48.33333333333333,-33.095238095238095,123.73015873015872,111.19047619047619,-166.26984126984127
109.44444444444444,-80.07936507936508,325.0,-11.825396825396824,194.36507936507937,-137.22222222222223,199.28571428571428,-90.87301587301587,225.3174603174603,-11.349206349206348,134.36507936507937,-265.6349206349206,198.4920634920635,-77.06349206349206,8.492063492063492,-5.952380952380952,203.57142857142856,-5.7936507936507935,1.0317460317460316,-47.53968253968254,-185.63492063492063,-193.57142857142856,-168.4920634920635,-166.26984126984127
109.44444444444444,-80.07936507936508,325.0,-11.825396825396824,194.36507936507937,-137.22222222222223,199.28571428571428,-90.87301587301587,225.3174603174603,-11.349206349206348,134.36507936507937,-265.6349206349206,198.4920634920635,-77.06349206349206,8.492063492063492,-5.952380952380952,203.57142857142856,-5.7936507936507935,1.0317460317460316,-47.53968253968254,-185.63492063492063,-193.57142857142856,-168.4920634920635,-166.26984126984127
109.44444444444444,-80.07936507936508,325.0,-11.825396825396824,194.36507936507937,-137.22222222222223,199.28571428571428,-90.87301587301587,225.3174603174603,-11.349206349206348,134.36507936507937,-265.6349206349206,198.4920634920635,-77.06349206349206,8.492063492063492,-5.952380952380952,203.57142857142856,-5.7936507936507935,1.0317460317460316,-47.53968253968254,-185.63492063492063,-193.57142857142856,-168.4920634920635,-166.26984126984127
109.44444444444444,-80.07936507936508,325.0,-11.825396825396824,194.36507936507937,-137.22222222222223,199.28571428571428,-90.87301587301587,225.3174603174603,-11.349206349206348,134.36507936507937,-265.6349206349206,198.4920634920635,-77.06349206349206,8.492063492063492,-5.952380952380952,203.57142857142856,-5.7936507936507935,1.0317460317460316,-47.53968253968254,-185.63492063492063,-193.57142857142856,-168.4920634920635,-166.26984126984127
93.09523809523809,-69.28571428571428,325.0,-2.619047619047619,325.0,-76.1111111111111,324.68253968253964,-3.571428571428571,204.2063492063492,5.634920634920634,115.47619047619047,-325.0,325.0,-66.26984126984127,7.222222222222221,-24.68253968253968,321.8253968253968,-24.365079365079364,-20.396825396825395,-7.857142857142857,-318.015873015873,79.76190476190476,65.63492063492063,-166.26984126984127
93.09523809523809,-69.28571428571428,325.0,-2.619047619047619,325.0,-76.1111111111111,324.68253968253964,-3.571428571428571,204.2063492063492,5.634920634920634,115.47619047619047,-325.0,325.0,-66.26984126984127,7.222222222222221,-24.68253968253968,321.8253968253968,-24.365079365079364,-20.396825396825395,-7.857142857142857,-318.015873015873,79.76190476190476,65.63492063492063,-166.26984126984127
91.5079365079365,-68.01587301587301,325.0,1.6666666666666665,325.0,-325.0,325.0,-18.333333333333332,200.7142857142857,9.761904761904761,113.4126984126984,-325.0,325.0,-65.15873015873015,7.222222222222221,-25.79365079365079,325.0,-25.634920634920633,-21.666666666666664,141.34920634920636,-325.0,-79.44444444444444,-66.42857142857143,-321.8253968253968
91.5079365079365,-68.01587301587301,325.0,1.6666666666666665,325.0,-325.0,325.0,-18.333333333333332,200.7142857142857,9.761904761904761,113.4126984126984,-325.0,325.0,-65.15873015873015,7.222222222222221,-25.79365079365079,325.0,-25.634920634920633,-21.666666666666664,141.34920634920636,-325.0,-79.44444444444444,-66.42857142857143,-321.8253968253968
87.38095238095238,-66.74603174603175,325.0,3.253968253968254,325.0,-325.0,325.0,-43.73015873015873,193.57142857142856,13.253968253968253,111.66666666666666,-325.0,325.0,-63.73015873015873,6.904761904761904,-23.253968253968253,325.0,-22.777777777777775,-19.285714285714285,113.73015873015872,-319.2857142857143,81.98412698412697,66.58730158730158,-321.8253968253968
87.38095238095238,-66.74603174603175,325.0,3.253968253968254,325.0,-325.0,325.0,-43.73015873015873,193.57142857142856,13.253968253968253,111.66666666666666,-325.0,325.0,-63.73015873015873,6.904761904761904,-23.253968253968253,325.0,-22.777777777777775,-19.285714285714285,113.73015873015872,-319.2857142857143,81.98412698412697,66.58730158730158,-321.8253968253968
87.38095238095238,-65.95238095238095,325.0,13.412698412698411,325.0,-325.0,325.0,-50.079365079365076,168.8095238095238,24.365079365079364,109.76190476190476,-325.0,325.0,-62.77777777777777,6.904761904761904,-16.746031746031743,325.0,-17.063492063492063,-13.412698412698411,186.58730158730157,-325.0,-81.5079365079365,-68.33333333333333,-321.8253968253968
87.38095238095238,-65.95238095238095,325.0,13.412698412698411,325.0,-325.0,325.0,-50.079365079365076,168.8095238095238,24.365079365079364,109.76190476190476,-325.0,325.0,-62.77777777777777,6.904761904761904,-16.746031746031743,325.0,-17.063492063492063,-13.412698412698411,186.58730158730157,-325.0,-81.5079365079365,-68.33333333333333,-321.8253968253968
84.84126984126983,-64.52380952380952,325.0,15.0,325.0,-325.0,325.0,11.984126984126984,128.65079365079364,25.476190476190474,107.6984126984127,-325.0,325.0,-61.507936507936506,6.746031746031746,-20.873015873015873,325.0,-20.555555555555554,-17.38095238095238,325.0,-308.4920634920635,82.93650793650794,67.85714285714285,-321.8253968253968
84.84126984126983,-64.52380952380952,325.0,15.0,325.0,-325.0,325.0,11.984126984126984,128.65079365079364,25.476190476190474,107.6984126984127,-325.0,325.0,-61.507936507936506,6.746031746031746,-20.873015873015873,325.0,-20.555555555555554,-17.38095238095238,325.0,-308.4920634920635,82.93650793650794,67.85714285714285,-321.8253968253968
82.77777777777777,-64.36507936507937,325.0,10.396825396825395,325.0,-325.0,325.0,77.85714285714285,105.79365079365078,19.444444444444443,107.38095238095238,-325.0,325.0,-61.19047619047619,6.746031746031746,-28.809523809523807,325.0,-28.333333333333332,-25.476190476190474,325.0,-291.8253968253968,186.9047619047619,163.57142857142856,-321.8253968253968
82.77777777777777,-64.36507936507937,325.0,10.396825396825395,325.0,-325.0,325.0,77.85714285714285,105.79365079365078,19.444444444444443,107.38095238095238,-325.0,325.0,-61.19047619047619,6.746031746031746,-28.809523809523807,325.0,-28.333333333333332,-25.476190476190474,325.0,-291.8253968253968,186.9047619047619,163.57142857142856,-321.8253968253968
84.2063492063492,-62.93650793650793,325.0,32.460317460317455,298.015873015873,-325.0,297.85714285714283,-87.85714285714285,142.3015873015873,44.84126984126984,104.68253968253968,-325.0,303.57142857142856,-59.76190476190476,6.587301587301587,-5.952380952380952,294.36507936507934,-6.428571428571428,-3.4126984126984126,325.0,-325.0,-15.476190476190474,-23.41269841269841,-166.26984126984127
84.2063492063492,-62.93650793650793,325.0,32.460317460317455,298.015873015873,-325.0,297.85714285714283,-87.85714285714285,142.3015873015873,44.84126984126984,104.68253968253968,-325.0,303.57142857142856,-59.76190476190476,6.587301587301587,-5.952380952380952,294.36507936507934,-6.428571428571428,-3.4126984126984126,325.0,-325.0,-15.476190476190474,-23.41269841269841,-166.26984126984127
83.09523809523809,-62.14285714285714,324.8412698412698,31.19047619047619,311.5079365079365,-325.0,311.3492063492063,-79.44444444444444,150.55555555555554,43.25396825396825,103.25396825396825,-325.0,314.2063492063492,-59.12698412698413,6.428571428571428,-11.984126984126984,309.6031746031746,-12.142857142857142,-9.920634920634921,325.0,-325.0,-98.96825396825396,-93.09523809523809,-166.26984126984127
83.09523809523809,-62.14285714285714,324.8412698412698,31.19047619047619,311.5079365079365,-325.0,311.3492063492063,-79.44444444444444,150.55555555555554,43.25396825396825,103.25396825396825,-325.0,314.2063492063492,-59.12698412698413,6.428571428571428,-11.984126984126984,309.6031746031746,-12.142857142857142,-9.920634920634921,325.0,-325.0,-98.96825396825396,-93.09523809523809,-166.26984126984127
159.9206349206349,57.53968253968254,325.0,4.2063492063492065,44.2063492063492,325.0,49.6031746031746,257.85714285714283,-86.74603174603175,11.825396825396824,-310.87301587301585,325.0,40.39682539682539,325.0,6.428571428571428,-4.2063492063492065,38.33333333333333,-1.6666666666666665,-1.6666666666666665,-50.87301587301587,29.285714285714285,-140.7142857142857,-133.0952380952381,-166.26984126984127
159.9206349206349,57.53968253968254,325.0,4.2063492063492065,44.2063492063492,325.0,49.6031746031746,257.85714285714283,-86.74603174603175,11.825396825396824,-310.87301587301585,325.0,40.39682539682539,325.0,6.428571428571428,-4.2063492063492065,38.33333333333333,-1.6666666666666665,-1.6666666666666665,-50.87301587301587,29.285714285714285,-140.7142857142857,-133.0952380952381,-166.26984126984127
212.93650793650792,63.095238095238095,325.0,10.714285714285714,-103.57142857142857,325.0,-104.2063492063492,254.36507936507934,-55.476190476190474,20.71428571428571,-297.6984126984127,325.0,-109.44444444444444,325.0,79.44444444444444,2.142857142857143,-112.14285714285714,7.3809523809523805,7.857142857142857,-207.85714285714283,131.8253968253968,-1.507936507936508,-2.46031746031746,-166.26984126984127
212.93650793650792,63.095238095238095,325.0,10.714285714285714,-103.57142857142857,325.0,-104.2063492063492,254.36507936507934,-55.476190476190474,20.71428571428571,-297.6984126984127,325.0,-109.44444444444444,325.0,79.44444444444444,2.142857142857143,-112.14285714285714,7.3809523809523805,7.857142857142857,-207.85714285714283,131.8253968253968,-1.507936507936508,-2.46031746031746,-166.26984126984127
274.2063492063492,63.41269841269841,325.0,10.714285714285714,-112.77777777777777,325.0,-109.92063492063491,252.14285714285714,-57.06349206349206,21.666666666666664,-305.1587301587301,325.0,-120.07936507936508,325.0,108.80952380952381,1.6666666666666665,-120.87301587301586,8.015873015873016,8.492063492063492,-185.79365079365078,120.87301587301586,-136.74603174603175,-130.23809523809524,-166.26984126984127
274.2063492063492,63.41269841269841,325.0,10.714285714285714,-112.77777777777777,325.0,-109.92063492063491,252.14285714285714,-57.06349206349206,21.666666666666664,-305.1587301587301,325.0,-120.07936507936508,325.0,108.80952380952381,1.6666666666666665,-120.87301587301586,8.015873015873016,8.492063492063492,-185.79365079365078,120.87301587301586,-136.74603174603175,-130.23809523809524,-166.26984126984127
102.61904761904762,66.9047619047619,14.047619047619047,14.365079365079364,-67.6984126984127,325.0,-67.38095238095238,239.9206349206349,-191.03174603174602,22.936507936507937,-298.17460317460313,325.0,-64.68253968253968,325.0,20.873015873015873,4.682539682539682,-62.77777777777777,9.444444444444445,9.603174603174603,-218.8095238095238,175.47619047619045,17.698412698412696,6.111111111111111,-321.8253968253968
102.61904761904762,66.9047619047619,14.047619047619047,14.365079365079364,-67.6984126984127,325.0,-67.38095238095238,239.9206349206349,-191.03174603174602,22.936507936507937,-298.17460317460313,325.0,-64.68253968253968,325.0,20.873015873015873,4.682539682539682,-62.77777777777777,9.444444444444445,9.603174603174603,-218.8095238095238,175.47619047619045,17.698412698412696,6.111111111111111,-321.8253968253968
-81.19047619047619,69.44444444444444,-310.87301587301585,17.38095238095238,5.7936507936507935,268.3333333333333,8.174603174603174,181.8253968253968,-325.0,22.619047619047617,-266.26984126984127,271.3492063492063,10.555555555555555,265.95238095238096,-75.31746031746032,7.698412698412698,13.571428571428571,9.285714285714285,9.920634920634921,-236.74603174603175,164.52380952380952,23.41269841269841,9.285714285714285,-321.8253968253968
-81.19047619047619,69.44444444444444,-310.87301587301585,17.38095238095238,5.7936507936507935,268.3333333333333,8.174603174603174,181.8253968253968,-325.0,22.619047619047617,-266.26984126984127,271.3492063492063,10.555555555555555,265.95238095238096,-75.31746031746032,7.698412698412698,13.571428571428571,9.285714285714285,9.920634920634921,-236.74603174603175,164.52380952380952,23.41269841269841,9.285714285714285,-321.8253968253968
-79.92063492063491,61.82539682539682,-325.0,10.555555555555555,248.96825396825395,-209.9206349206349,251.34920634920633,-183.7301587301587,-325.0,12.142857142857142,-214.84126984126982,-210.87301587301587,257.6984126984127,-188.17460317460316,-59.44444444444444,1.0317460317460316,260.39682539682536,-0.5555555555555556,-0.5555555555555556,-229.44444444444443,143.4126984126984,154.52380952380952,134.52380952380952,-321.8253968253968
-79.92063492063491,61.82539682539682,-325.0,10.555555555555555,248.96825396825395,-209.9206349206349,251.34920634920633,-183.7301587301587,-325.0,12.142857142857142,-214.84126984126982,-210.87301587301587,257.6984126984127,-188.17460317460316,-59.44444444444444,1.0317460317460316,260.39682539682536,-0.5555555555555556,-0.5555555555555556,-229.44444444444443,143.4126984126984,154.52380952380952,134.52380952380952,-321.8253968253968
-77.22222222222221,79.44444444444444,-325.0,28.809523809523807,230.3968253968254,-325.0,232.46031746031744,-325.0,-264.68253968253964,27.063492063492063,-270.39682539682536,-325.0,225.63492063492063,-325.0,-74.84126984126983,19.285714285714285,221.5079365079365,13.888888888888888,15.0,70.23809523809524,-21.349206349206348,-154.2063492063492,-137.53968253968253,-321.8253968253968
-77.22222222222221,79.44444444444444,-325.0,28.809523809523807,230.3968253968254,-325.0,232.46031746031744,-325.0,-264.68253968253964,27.063492063492063,-270.39682539682536,-325.0,225.63492063492063,-325.0,-74.84126984126983,19.285714285714285,221.5079365079365,13.888888888888888,15.0,70.23809523809524,-21.349206349206348,-154.2063492063492,-137.53968253968253,-321.8253968253968
-53.095238095238095,75.31746031746032,-321.031746031746,24.047619047619047,265.4761904761905,-325.0,265.6349206349206,-325.0,-325.0,24.047619047619047,-272.1428571428571,-325.0,273.57142857142856,-325.0,-38.65079365079365,14.523809523809524,271.19047619047615,11.507936507936508,11.825396825396824,-137.85714285714286,60.079365079365076,154.52380952380952,137.38095238095238,-321.8253968253968
-53.095238095238095,75.31746031746032,-321.031746031746,24.047619047619047,265.4761904761905,-325.0,265.6349206349206,-325.0,-325.0,24.047619047619047,-272.1428571428571,-325.0,273.57142857142856,-325.0,-38.65079365079365,14.523809523809524,271.19047619047615,11.507936507936508,11.825396825396824,-137.85714285714286,60.079365079365076,154.52380952380952,137.38095238095238,-321.8253968253968
-38.49206349206349,82.93650793650794,-321.66666666666663,33.41269841269841,174.36507936507937,-325.0,176.58730158730157,-325.0,-216.58730158730157,30.71428571428571,-268.8095238095238,-325.0,175.47619047619045,-325.0,-40.39682539682539,22.619047619047617,172.3015873015873,16.746031746031743,17.38095238095238,14.206349206349206,-84.84126984126983,-188.015873015873,-158.33333333333331,-166.26984126984127
-38.49206349206349,82.93650793650794,-321.66666666666663,33.41269841269841,174.36507936507937,-325.0,176.58730158730157,-325.0,-216.58730158730157,30.71428571428571,-268.8095238095238,-325.0,175.47619047619045,-325.0,-40.39682539682539,22.619047619047617,172.3015873015873,16.746031746031743,17.38095238095238,14.206349206349206,-84.84126984126983,-188.015873015873,-158.33333333333331,-166.26984126984127
-38.49206349206349,82.93650793650794,-321.66666666666663,33.41269841269841,174.36507936507937,-325.0,176.58730158730157,-325.0,-216.58730158730157,30.71428571428571,-268.8095238095238,-325.0,175.47619047619045,-325.0,-40.39682539682539,22.619047619047617,172.3015873015873,16.746031746031743,17.38095238095238,14.206349206349206,-84.84126984126983,-188.015873015873,-158.33333333333331,-166.26984126984127
-38.49206349206349,82.93650793650794,-321.66666666666663,33.41269841269841,174.36507936507937,-325.0,176.58730158730157,-325.0,-216.58730158730157,30.71428571428571,-268.8095238095238,-325.0,175.47619047619045,-325.0,-40.39682539682539,22.619047619047617,172.3015873015873,16.746031746031743,17.38095238095238,14.206349206349206,-84.84126984126983,-188.015873015873,-158.33333333333331,-166.26984126984127
-38.49206349206349,82.93650793650794,-321.66666666666663,33.41269841269841,174.36507936507937,-325.0,176.58730158730157,-325.0,-216.58730158730157,30.71428571428571,-268.8095238095238,-325.0,175.47619047619045,-325.0,-40.39682539682539,22.619047619047617,172.3015873015873,16.746031746031743,17.38095238095238,14.206349206349206,-84.84126984126983,-188.015873015873,-158.33333333333331,-166.26984126984127
-38.49206349206349,82.93650793650794,-321.66666666666663,33.41269841269841,174.36507936507937,-325.0,176.58730158730157,-325.0,-216.58730158730157,30.71428571428571,-268.8095238095238,-325.0,175.47619047619045,-325.0,-40.39682539682539,22.619047619047617,172.3015873015873,16.746031746031743,17.38095238095238,14.206349206349206,-84.84126984126983,-188.015873015873,-158.33333333333331,-166.26984126984127
-38.49206349206349,82.93650793650794,-321.66666666666663,33.41269841269841,174.36507936507937,-325.0,176.58730158730157,-325.0,-216.58730158730157,30.71428571428571,-268.8095238095238,-325.0,175.47619047619045,-325.0,-40.39682539682539,22.619047619047617,172.3015873015873,16.746031746031743,17.38095238095238,14.206349206349206,-84.84126984126983,-188.015873015873,-158.33333333333331,-166.26984126984127
-38.49206349206349,82.93650793650794,-321.66666666666663,33.41269841269841,174.36507936507937,-325.0,176.58730158730157,-325.0,-216.58730158730157,30.71428571428571,-268.8095238095238,-325.0,175.47619047619045,-325.0,-40.39682539682539,22.619047619047617,172.3015873015873,16.746031746031743,17.38095238095238,14.206349206349206,-84.84126984126983,-188.015873015873,-158.33333333333331,-166.26984126984127
-15.793650793650793,64.2063492063492,1.6666666666666665,19.6031746031746,-10.238095238095237,-0.07936507936507936,-8.65079365079365,-0.07936507936507936,-145.0,18.65079365079365,28.015873015873016,-0.07936507936507936,-3.095238095238095,-0.07936507936507936,142.3015873015873,8.65079365079365,-8.809523809523808,5.7936507936507935,5.317460317460317,-23.730158730158728,-57.53968253968254,-204.52380952380952,-174.2063492063492,-166.26984126984127
-15.793650793650793,64.2063492063492,1.6666666666666665,19.6031746031746,-10.238095238095237,-0.07936507936507936,-8.65079365079365,-0.07936507936507936,-145.0,18.65079365079365,28.015873015873016,-0.07936507936507936,-3.095238095238095,-0.07936507936507936,142.3015873015873,8.65079365079365,-8.809523809523808,5.7936507936507935,5.317460317460317,-23.730158730158728,-57.53968253968254,-204.52380952380952,-174.2063492063492,-166.26984126984127
165.95238095238093,39.44444444444444,325.0,3.571428571428571,-165.0,325.0,-162.77777777777777,325.0,125.79365079365078,5.317460317460317,-0.07936507936507936,325.0,71.66666666666666,325.0,325.0,-5.476190476190476,-159.28571428571428,-3.73015873015873,-5.317460317460317,56.58730158730158,-107.38095238095238,-12.142857142857142,-6.428571428571428,-321.8253968253968
165.95238095238093,39.44444444444444,325.0,3.571428571428571,-165.0,325.0,-162.77777777777777,325.0,125.79365079365078,5.317460317460317,-0.07936507936507936,325.0,71.66666666666666,325.0,325.0,-5.476190476190476,-159.28571428571428,-3.73015873015873,-5.317460317460317,56.58730158730158,-107.38095238095238,-12.142857142857142,-6.428571428571428,-321.8253968253968
316.1111111111111,20.396825396825395,325.0,-3.253968253968254,94.84126984126983,-0.07936507936507936,96.58730158730158,-0.07936507936507936,144.84126984126982,-3.095238095238095,-312.1428571428571,-0.07936507936507936,325.0,-0.07936507936507936,258.17460317460313,-10.396825396825395,98.17460317460316,-8.65079365079365,-10.079365079365079,177.69841269841268,-212.46031746031744,191.19047619047618,172.61904761904762,-321.8253968253968
316.1111111111111,20.396825396825395,325.0,-3.253968253968254,94.84126984126983,-0.07936507936507936,96.58730158730158,-0.07936507936507936,144.84126984126982,-3.095238095238095,-312.1428571428571,-0.07936507936507936,325.0,-0.07936507936507936,258.17460317460313,-10.396825396825395,98.17460317460316,-8.65079365079365,-10.079365079365079,177.69841269841268,-212.46031746031744,191.19047619047618,172.61904761904762,-321.8253968253968
316.1111111111111,-122.93650793650794,325.0,3.095238095238095,108.33333333333333,-203.57142857142856,108.65079365079364,-325.0,-47.38095238095238,5.317460317460317,12.777777777777777,-141.5079365079365,270.39682539682536,-253.25396825396825,258.17460317460313,-0.3968253968253968,101.34920634920634,0.7142857142857142,-0.3968253968253968,189.76190476190476,-135.3174603174603,42.14285714285714,36.11111111111111,-321.8253968253968
316.1111111111111,-122.93650793650794,325.0,3.095238095238095,108.33333333333333,-203.57142857142856,108.65079365079364,-325.0,-47.38095238095238,5.317460317460317,12.777777777777777,-141.5079365079365,270.39682539682536,-253.25396825396825,258.17460317460313,-0.3968253968253968,101.34920634920634,0.7142857142857142,-0.3968253968253968,189.76190476190476,-135.3174603174603,42.14285714285714,36.11111111111111,-321.8253968253968
325.0,-231.66666666666666,325.0,9.603174603174603,-58.8095238095238,-195.3174603174603,-58.33333333333333,-325.0,-279.6031746031746,17.063492063492063,233.7301587301587,-135.95238095238093,17.38095238095238,-206.26984126984127,210.3968253968254,8.65079365079365,-53.095238095238095,12.142857142857142,10.873015873015872,-170.07936507936506,97.53968253968253,144.2063492063492,124.68253968253967,-321.8253968253968
325.0,-231.66666666666666,325.0,9.603174603174603,-58.8095238095238,-195.3174603174603,-58.33333333333333,-325.0,-279.6031746031746,17.063492063492063,233.7301587301587,-135.95238095238093,17.38095238095238,-206.26984126984127,210.3968253968254,8.65079365079365,-53.095238095238095,12.142857142857142,10.873015873015872,-170.07936507936506,97.53968253968253,144.2063492063492,124.68253968253967,-321.8253968253968
325.0,-211.66666666666666,325.0,2.142857142857143,8.809523809523808,-160.7142857142857,10.079365079365079,-325.0,-325.0,9.920634920634921,220.87301587301587,-88.96825396825396,6.26984126984127,-145.15873015873015,224.04761904761904,1.984126984126984,4.841269841269841,5.7936507936507935,5.317460317460317,-268.17460317460313,95.0,94.04761904761904,89.28571428571428,-321.8253968253968
325.0,-211.66666666666666,325.0,2.142857142857143,8.809523809523808,-160.7142857142857,10.079365079365079,-325.0,-325.0,9.920634920634921,220.87301587301587,-88.96825396825396,6.26984126984127,-145.15873015873015,224.04761904761904,1.984126984126984,4.841269841269841,5.7936507936507935,5.317460317460317,-268.17460317460313,95.0,94.04761904761904,89.28571428571428,-321.8253968253968
174.2063492063492,-213.4126984126984,-325.0,-4.841269841269841,15.158730158730158,-87.38095238095238,15.158730158730158,-304.36507936507934,-325.0,3.571428571428571,325.0,115.47619047619047,-15.634920634920634,102.93650793650794,206.1111111111111,-6.904761904761904,21.03174603174603,-1.8253968253968254,-2.46031746031746,-271.031746031746,202.14285714285714,143.4126984126984,124.36507936507935,-166.26984126984127
174.2063492063492,-213.4126984126984,-325.0,-4.841269841269841,15.158730158730158,-87.38095238095238,15.158730158730158,-304.36507936507934,-325.0,3.571428571428571,325.0,115.47619047619047,-15.634920634920634,102.93650793650794,206.1111111111111,-6.904761904761904,21.03174603174603,-1.8253968253968254,-2.46031746031746,-271.031746031746,202.14285714285714,143.4126984126984,124.36507936507935,-166.26984126984127
-281.031746031746,-167.2222222222222,-325.0,-17.22222222222222,95.31746031746032,-14.84126984126984,97.06349206349206,-107.53968253968253,-325.0,-8.809523809523808,325.0,90.07936507936508,115.79365079365078,325.0,231.5079365079365,-17.38095238095238,88.96825396825396,-12.777777777777777,-12.619047619047619,-237.85714285714283,51.82539682539682,80.87301587301587,79.12698412698413,-166.26984126984127
-281.031746031746,-167.2222222222222,-325.0,-17.22222222222222,95.31746031746032,-14.84126984126984,97.06349206349206,-107.53968253968253,-325.0,-8.809523809523808,325.0,90.07936507936508,115.79365079365078,325.0,231.5079365079365,-17.38095238095238,88.96825396825396,-12.777777777777777,-12.619047619047619,-237.85714285714283,51.82539682539682,80.87301587301587,79.12698412698413,-166.26984126984127
-281.031746031746,-167.2222222222222,-325.0,-17.22222222222222,95.31746031746032,-14.84126984126984,97.06349206349206,-107.53968253968253,-325.0,-8.809523809523808,325.0,90.07936507936508,115.79365079365078,325.0,231.5079365079365,-17.38095238095238,88.96825396825396,-12.777777777777777,-12.619047619047619,-237.85714285714283,51.82539682539682,80.87301587301587,79.12698412698413,-166.26984126984127
-281.031746031746,-167.2222222222222,-325.0,-17.22222222222222,95.31746031746032,-14.84126984126984,97.06349206349206,-107.53968253968253,-325.0,-8.809523809523808,325.0,90.07936507936508,115.79365079365078,325.0,231.5079365079365,-17.38095238095238,88.96825396825396,-12.777777777777777,-12.619047619047619,-237.85714285714283,51.82539682539682,80.87301587301587,79.12698412698413,-166.26984126984127
-281.031746031746,-167.2222222222222,-325.0,-17.22222222222222,95.31746031746032,-14.84126984126984,97.06349206349206,-107.53968253968253,-325.0,-8.809523809523808,325.0,90.07936507936508,115.79365079365078,325.0,231.5079365079365,-17.38095238095238,88.96825396825396,-12.777777777777777,-12.619047619047619,-237.85714285714283,51.82539682539682,80.87301587301587,79.12698412698413,-166.26984126984127
-281.031746031746,-167.2222222222222,-325.0,-17.22222222222222,95.31746031746032,-14.84126984126984,97.06349206349206,-107.53968253968253,-325.0,-8.809523809523808,325.0,90.07936507936508,115.79365079365078,325.0,231.5079365079365,-17.38095238095238,88.96825396825396,-12.777777777777777,-12.619047619047619,-237.85714285714283,51.82539682539682,80.87301587301587,79.12698412698413,-166.26984126984127
-303.0952380952381,78.80952380952381,-325.0,-2.142857142857143,-48.17460317460317,155.0,-51.666666666666664,108.65079365079364,-315.0,3.888888888888889,325.0,207.53968253968253,49.6031746031746,325.0,-46.74603174603175,-4.841269841269841,-57.857142857142854,-0.23809523809523808,0.7142857142857142,-270.23809523809524,127.06349206349206,25.79365079365079,23.095238095238095,-166.26984126984127
-303.0952380952381,78.80952380952381,-325.0,-2.142857142857143,-48.17460317460317,155.0,-51.666666666666664,108.65079365079364,-315.0,3.888888888888889,325.0,207.53968253968253,49.6031746031746,325.0,-46.74603174603175,-4.841269841269841,-57.857142857142854,-0.23809523809523808,0.7142857142857142,-270.23809523809524,127.06349206349206,25.79365079365079,23.095238095238095,-166.26984126984127
-325.0,325.0,-325.0,13.095238095238095,-191.5079365079365,325.0,-200.3968253968254,325.0,-304.8412698412698,16.587301587301585,325.0,325.0,-16.587301587301585,325.0,-325.0,7.698412698412698,-204.68253968253967,12.46031746031746,14.047619047619047,-302.6190476190476,202.3015873015873,-29.285714285714285,-32.77777777777778,-321.8253968253968
-325.0,325.0,-325.0,13.095238095238095,-191.5079365079365,325.0,-200.3968253968254,325.0,-304.8412698412698,16.587301587301585,325.0,325.0,-16.587301587301585,325.0,-325.0,7.698412698412698,-204.68253968253967,12.46031746031746,14.047619047619047,-302.6190476190476,202.3015873015873,-29.285714285714285,-32.77777777777778,-321.8253968253968
-325.0,325.0,-325.0,13.095238095238095,-191.5079365079365,325.0,-200.3968253968254,325.0,-304.8412698412698,16.587301587301585,325.0,325.0,-16.587301587301585,325.0,-325.0,7.698412698412698,-204.68253968253967,12.46031746031746,14.047619047619047,-302.6190476190476,202.3015873015873,-29.285714285714285,-32.77777777777778,-321.8253968253968
-325.0,325.0,-325.0,13.095238095238095,-191.5079365079365,325.0,-200.3968253968254,325.0,-304.8412698412698,16.587301587301585,325.0,325.0,-16.587301587301585,325.0,-325.0,7.698412698412698,-204.68253968253967,12.46031746031746,14.047619047619047,-302.6190476190476,202.3015873015873,-29.285714285714285,-32.77777777777778,-321.8253968253968
-325.0,325.0,-325.0,13.095238095238095,-191.5079365079365,325.0,-200.3968253968254,325.0,-304.8412698412698,16.587301587301585,325.0,325.0,-16.587301587301585,325.0,-325.0,7.698412698412698,-204.68253968253967,12.46031746031746,14.047619047619047,-302.6190476190476,202.3015873015873,-29.285714285714285,-32.77777777777778,-321.8253968253968
-325.0,325.0,-325.0,13.095238095238095,-191.5079365079365,325.0,-200.3968253968254,325.0,-304.8412698412698,16.587301587301585,325.0,325.0,-16.587301587301585,325.0,-325.0,7.698412698412698,-204.68253968253967,12.46031746031746,14.047619047619047,-302.6190476190476,202.3015873015873,-29.285714285714285,-32.77777777777778,-321.8253968253968
-205.3174603174603,-17.38095238095238,-325.0,-21.825396825396822,128.65079365079364,325.0,127.06349206349206,307.69841269841265,288.015873015873,-20.71428571428571,325.0,325.0,154.84126984126982,309.4444444444444,-4.365079365079365,-31.03174603174603,123.57142857142857,-26.26984126984127,-22.619047619047617,7.222222222222221,-120.39682539682539,-174.2063492063492,-152.14285714285714,-321.8253968253968
-205.3174603174603,-17.38095238095238,-325.0,-21.825396825396822,128.65079365079364,325.0,127.06349206349206,307.69841269841265,288.015873015873,-20.71428571428571,325.0,325.0,154.84126984126982,309.4444444444444,-4.365079365079365,-31.03174603174603,123.57142857142857,-26.26984126984127,-22.619047619047617,7.222222222222221,-120.39682539682539,-174.2063492063492,-152.14285714285714,-321.8253968253968
-205.3174603174603,-17.38095238095238,-325.0,-21.825396825396822,128.65079365079364,325.0,127.06349206349206,307.69841269841265,288.015873015873,-20.71428571428571,325.0,325.0,154.84126984126982,309.4444444444444,-4.365079365079365,-31.03174603174603,123.57142857142857,-26.26984126984127,-22.619047619047617,7.222222222222221,-120.39682539682539,-174.2063492063492,-152.14285714285714,-321.8253968253968
-205.3174603174603,-17.38095238095238,-325.0,-21.825396825396822,128.65079365079364,325.0,127.06349206349206,307.69841269841265,288.015873015873,-20.71428571428571,325.0,325.0,154.84126984126982,309.4444444444444,-4.365079365079365,-31.03174603174603,123.57142857142857,-26.26984126984127,-22.619047619047617,7.222222222222221,-120.39682539682539,-174.2063492063492,-152.14285714285714,-321.8253968253968
-53.095238095238095,153.73015873015873,-0.07936507936507936,-10.079365079365079,-13.571428571428571,325.0,-12.46031746031746,313.88888888888886,152.14285714285714,-8.492063492063492,-0.07936507936507936,325.0,8.492063492063492,317.22222222222223,59.285714285714285,-16.26984126984127,-9.126984126984127,-12.777777777777777,-10.238095238095237,-32.460317460317455,-9.444444444444445,0.07936507936507936,-4.2063492063492065,-166.26984126984127
-53.095238095238095,153.73015873015873,-0.07936507936507936,-10.079365079365079,-13.571428571428571,325.0,-12.46031746031746,313.88888888888886,152.14285714285714,-8.492063492063492,-0.07936507936507936,325.0,8.492063492063492,317.22222222222223,59.285714285714285,-16.26984126984127,-9.126984126984127,-12.777777777777777,-10.238095238095237,-32.460317460317455,-9.444444444444445,0.07936507936507936,-4.2063492063492065,-166.26984126984127
154.04761904761904,325.0,325.0,2.3015873015873014,-166.11111111111111,325.0,-166.42857142857142,233.25396825396825,185.63492063492063,2.7777777777777777,233.7301587301587,325.0,150.3968253968254,274.36507936507934,276.1111111111111,1.507936507936508,-177.2222222222222,1.507936507936508,4.523809523809524,208.015873015873,-81.03174603174602,-58.33333333333333,-57.38095238095238,-166.26984126984127
154.04761904761904,325.0,325.0,2.3015873015873014,-166.11111111111111,325.0,-166.42857142857142,233.25396825396825,185.63492063492063,2.7777777777777777,233.7301587301587,325.0,150.3968253968254,274.36507936507934,276.1111111111111,1.507936507936508,-177.2222222222222,1.507936507936508,4.523809523809524,208.015873015873,-81.03174603174602,-58.33333333333333,-57.38095238095238,-166.26984126984127
65.79365079365078,-80.87301587301587,325.0,-5.0,168.96825396825395,-128.8095238095238,172.14285714285714,137.06349206349205,-177.06349206349205,-5.7936507936507935,-325.0,-192.46031746031744,-169.76190476190476,127.22222222222221,-39.6031746031746,-7.3809523809523805,178.4920634920635,-8.333333333333332,-6.746031746031746,58.8095238095238,-15.317460317460316,172.46031746031744,144.2063492063492,-166.26984126984127
65.79365079365078,-80.87301587301587,325.0,-5.0,168.96825396825395,-128.8095238095238,172.14285714285714,137.06349206349205,-177.06349206349205,-5.7936507936507935,-325.0,-192.46031746031744,-169.76190476190476,127.22222222222221,-39.6031746031746,-7.3809523809523805,178.4920634920635,-8.333333333333332,-6.746031746031746,58.8095238095238,-15.317460317460316,172.46031746031744,144.2063492063492,-166.26984126984127
65.79365079365078,-80.87301587301587,325.0,-5.0,168.96825396825395,-128.8095238095238,172.14285714285714,137.06349206349205,-177.06349206349205,-5.7936507936507935,-325.0,-192.46031746031744,-169.76190476190476,127.22222222222221,-39.6031746031746,-7.3809523809523805,178.4920634920635,-8.333333333333332,-6.746031746031746,58.8095238095238,-15.317460317460316,172.46031746031744,144.2063492063492,-166.26984126984127
65.79365079365078,-80.87301587301587,325.0,-5.0,168.96825396825395,-128.8095238095238,172.14285714285714,137.06349206349205,-177.06349206349205,-5.7936507936507935,-325.0,-192.46031746031744,-169.76190476190476,127.22222222222221,-39.6031746031746,-7.3809523809523805,178.4920634920635,-8.333333333333332,-6.746031746031746,58.8095238095238,-15.317460317460316,172.46031746031744,144.2063492063492,-166.26984126984127
-261.984126984127,-160.87301587301587,-325.0,-313.0952380952381,12.619047619047619,-325.0,11.19047619047619,-325.0,-251.8253968253968,34.84126984126984,-325.0,-325.0,-247.38095238095238,-325.0,-163.09523809523807,34.52380952380952,14.047619047619047,31.825396825396822,31.349206349206348,-45.317460317460316,54.841269841269835,-87.38095238095238,-65.79365079365078,-166.26984126984127
-261.984126984127,-160.87301587301587,-325.0,-313.0952380952381,12.619047619047619,-325.0,11.19047619047619,-325.0,-251.8253968253968,34.84126984126984,-325.0,-325.0,-247.38095238095238,-325.0,-163.09523809523807,34.52380952380952,14.047619047619047,31.825396825396822,31.349206349206348,-45.317460317460316,54.841269841269835,-87.38095238095238,-65.79365079365078,-166.26984126984127
-261.984126984127,-160.87301587301587,-325.0,-313.0952380952381,12.619047619047619,-325.0,11.19047619047619,-325.0,-251.8253968253968,34.84126984126984,-325.0,-325.0,-247.38095238095238,-325.0,-163.09523809523807,34.52380952380952,14.047619047619047,31.825396825396822,31.349206349206348,-45.317460317460316,54.841269841269835,-87.38095238095238,-65.79365079365078,-321.8253968253968
-261.984126984127,-160.87301587301587,-325.0,-313.0952380952381,12.619047619047619,-325.0,11.19047619047619,-325.0,-251.8253968253968,34.84126984126984,-325.0,-325.0,-247.38095238095238,-325.0,-163.09523809523807,34.52380952380952,14.047619047619047,31.825396825396822,31.349206349206348,-45.317460317460316,54.841269841269835,-87.38095238095238,-65.79365079365078,-321.8253968253968
-196.26984126984127,-101.5079365079365,-325.0,-237.85714285714283,42.61904761904761,-277.06349206349205,43.25396825396825,-325.0,-186.42857142857142,18.80952380952381,-325.0,-269.44444444444446,-197.06349206349205,-295.3174603174603,-101.34920634920634,19.444444444444443,38.01587301587301,17.22222222222222,16.587301587301585,-74.84126984126983,6.746031746031746,5.634920634920634,13.095238095238095,-321.8253968253968
-196.26984126984127,-101.5079365079365,-325.0,-237.85714285714283,42.61904761904761,-277.06349206349205,43.25396825396825,-325.0,-186.42857142857142,18.80952380952381,-325.0,-269.44444444444446,-197.06349206349205,-295.3174603174603,-101.34920634920634,19.444444444444443,38.01587301587301,17.22222222222222,16.587301587301585,-74.84126984126983,6.746031746031746,5.634920634920634,13.095238095238095,-321.8253968253968
-127.6984126984127,-28.174603174603174,-325.0,-147.2222222222222,71.34920634920634,-225.0,74.68253968253968,-325.0,-101.98412698412697,-3.4126984126984126,-325.0,-207.53968253968253,-127.06349206349206,-232.3015873015873,-16.11111111111111,-2.619047619047619,59.92063492063492,-3.888888888888889,-4.365079365079365,-108.80952380952381,-36.58730158730159,98.01587301587301,91.34920634920634,-321.8253968253968
-127.6984126984127,-28.174603174603174,-325.0,-147.2222222222222,71.34920634920634,-225.0,74.68253968253968,-325.0,-101.98412698412697,-3.4126984126984126,-325.0,-207.53968253968253,-127.06349206349206,-232.3015873015873,-16.11111111111111,-2.619047619047619,59.92063492063492,-3.888888888888889,-4.365079365079365,-108.80952380952381,-36.58730158730159,98.01587301587301,91.34920634920634,-321.8253968253968
-54.52380952380952,-81.98412698412697,84.2063492063492,-140.87301587301587,25.158730158730158,9.761904761904761,-70.07936507936508,-109.76190476190476,21.825396825396822,-140.7142857142857,71.03174603174602,-123.88888888888889,144.04761904761904,-297.38095238095235,46.58730158730158,-150.3968253968254,41.19047619047619,17.698412698412696,158.8095238095238,22.3015873015873,-12.46031746031746,-141.984126984127,-140.7142857142857,-321.8253968253968
-54.52380952380952,-81.98412698412697,84.2063492063492,-140.87301587301587,25.158730158730158,9.761904761904761,-70.07936507936508,-109.76190476190476,21.825396825396822,-140.7142857142857,71.03174603174602,-123.88888888888889,144.04761904761904,-297.38095238095235,46.58730158730158,-150.3968253968254,41.19047619047619,17.698412698412696,158.8095238095238,22.3015873015873,-12.46031746031746,-141.984126984127,-140.7142857142857,-321.8253968253968
-271.984126984127,-119.6031746031746,-156.42857142857142,-17.857142857142858,182.77777777777777,156.11111111111111,-3.571428571428571,63.41269841269841,40.55555555555555,-287.06349206349205,-182.93650793650792,-108.01587301587301,237.06349206349205,-321.3492063492063,76.26984126984127,-306.4285714285714,227.38095238095238,29.920634920634917,313.0952380952381,-254.04761904761904,64.2063492063492,-200.7142857142857,-203.25396825396825,-321.8253968253968
-271.984126984127,-119.6031746031746,-156.42857142857142,-17.857142857142858,182.77777777777777,156.11111111111111,-3.571428571428571,63.41269841269841,40.55555555555555,-287.06349206349205,-182.93650793650792,-108.01587301587301,237.06349206349205,-321.3492063492063,76.26984126984127,-306.4285714285714,227.38095238095238,29.920634920634917,313.0952380952381,-254.04761904761904,64.2063492063492,-200.7142857142857,-203.25396825396825,-321.8253968253968
-271.984126984127,-119.6031746031746,-156.42857142857142,-17.857142857142858,182.77777777777777,156.11111111111111,-3.571428571428571,63.41269841269841,40.55555555555555,-287.06349206349205,-182.93650793650792,-108.01587301587301,237.06349206349205,-321.3492063492063,76.26984126984127,-306.4285714285714,227.38095238095238,29.920634920634917,313.0952380952381,-254.04761904761904,64.2063492063492,-200.7142857142857,-203.25396825396825,-166.26984126984127
-271.984126984127,-119.6031746031746,-156.42857142857142,-17.857142857142858,182.77777777777777,156.11111111111111,-3.571428571428571,63.41269841269841,40.55555555555555,-287.06349206349205,-182.93650793650792,-108.01587301587301,237.06349206349205,-321.3492063492063,76.26984126984127,-306.4285714285714,227.38095238095238,29.920634920634917,313.0952380952381,-254.04761904761904,64.2063492063492,-200.7142857142857,-203.25396825396825,-166.26984126984127
-24.047619047619047,102.61904761904762,16.428571428571427,-31.349206349206348,-47.38095238095238,240.55555555555554,-144.36507936507937,194.2063492063492,81.34920634920634,-135.79365079365078,-254.04761904761904,108.49206349206348,204.68253968253967,1.8253968253968254,86.1111111111111,-145.95238095238093,-31.507936507936506,22.46031746031746,164.2063492063492,-72.46031746031746,30.396825396825395,-118.8095238095238,-120.87301587301586,-166.26984126984127
-24.047619047619047,102.61904761904762,16.428571428571427,-31.349206349206348,-47.38095238095238,240.55555555555554,-144.36507936507937,194.2063492063492,81.34920634920634,-135.79365079365078,-254.04761904761904,108.49206349206348,204.68253968253967,1.8253968253968254,86.1111111111111,-145.95238095238093,-31.507936507936506,22.46031746031746,164.2063492063492,-72.46031746031746,30.396825396825395,-118.8095238095238,-120.87301587301586,-166.26984126984127
223.88888888888889,325.0,189.28571428571428,-44.68253968253968,-277.38095238095235,325.0,-285.0,325.0,122.14285714285714,15.476190476190474,-325.0,325.0,172.3015873015873,325.0,95.95238095238095,14.523809523809524,-290.39682539682536,15.0,15.476190476190474,109.12698412698413,-3.253968253968254,-36.74603174603175,-38.49206349206349,-166.26984126984127
223.88888888888889,325.0,189.28571428571428,-44.68253968253968,-277.38095238095235,325.0,-285.0,325.0,122.14285714285714,15.476190476190474,-325.0,325.0,172.3015873015873,325.0,95.95238095238095,14.523809523809524,-290.39682539682536,15.0,15.476190476190474,109.12698412698413,-3.253968253968254,-36.74603174603175,-38.49206349206349,-166.26984126984127
179.44444444444443,298.8095238095238,-67.85714285714285,-101.19047619047619,-91.66666666666666,196.58730158730157,-99.44444444444444,191.8253968253968,130.7142857142857,10.555555555555555,-325.0,207.85714285714283,130.23809523809524,177.38095238095238,84.2063492063492,9.603174603174603,-99.76190476190476,10.079365079365079,9.920634920634921,134.52380952380952,-76.1111111111111,-22.46031746031746,-25.476190476190474,-166.26984126984127
179.44444444444443,298.8095238095238,-67.85714285714285,-101.19047619047619,-91.66666666666666,196.58730158730157,-99.44444444444444,191.8253968253968,130.7142857142857,10.555555555555555,-325.0,207.85714285714283,130.23809523809524,177.38095238095238,84.2063492063492,9.603174603174603,-99.76190476190476,10.079365079365079,9.920634920634921,134.52380952380952,-76.1111111111111,-22.46031746031746,-25.476190476190474,-166.26984126984127
135.15873015873015,272.6190476190476,-325.0,-157.53968253968253,94.04761904761904,68.33333333333333,86.26984126984127,58.650793650793645,139.44444444444443,5.634920634920634,-325.0,90.87301587301587,88.17460317460316,29.76190476190476,72.46031746031746,4.841269841269841,90.87301587301587,5.158730158730158,4.523809523809524,159.9206349206349,-148.96825396825395,-8.015873015873016,-12.3015873015873,-166.26984126984127
135.15873015873015,272.6190476190476,-325.0,-157.53968253968253,94.04761904761904,68.33333333333333,86.26984126984127,58.650793650793645,139.44444444444443,5.634920634920634,-325.0,90.87301587301587,88.17460317460316,29.76190476190476,72.46031746031746,4.841269841269841,90.87301587301587,5.158730158730158,4.523809523809524,159.9206349206349,-148.96825396825395,-8.015873015873016,-12.3015873015873,-166.26984126984127
177.53968253968253,31.507936507936506,-123.09523809523809,-148.33333333333331,15.317460317460316,-64.04761904761905,7.5396825396825395,-133.25396825396825,120.39682539682539,11.825396825396824,-279.2857142857143,-62.460317460317455,94.84126984126983,-147.69841269841268,112.77777777777777,11.507936507936508,16.11111111111111,11.19047619047619,10.238095238095237,202.61904761904762,-153.88888888888889,24.68253968253968,14.523809523809524,-321.8253968253968
177.53968253968253,31.507936507936506,-123.09523809523809,-148.33333333333331,15.317460317460316,-64.04761904761905,7.5396825396825395,-133.25396825396825,120.39682539682539,11.825396825396824,-279.2857142857143,-62.460317460317455,94.84126984126983,-147.69841269841268,112.77777777777777,11.507936507936508,16.11111111111111,11.19047619047619,10.238095238095237,202.61904761904762,-153.88888888888889,24.68253968253968,14.523809523809524,-321.8253968253968
220.07936507936506,-209.44444444444443,78.96825396825396,-139.12698412698413,-63.41269841269841,-196.26984126984127,-71.19047619047619,-325.0,101.5079365079365,18.174603174603174,-233.57142857142856,-215.79365079365078,101.66666666666666,-325.0,153.25396825396825,18.333333333333332,-58.650793650793645,17.22222222222222,15.95238095238095,245.47619047619045,-158.8095238095238,57.53968253968254,41.34920634920635,-321.8253968253968
220.07936507936506,-209.44444444444443,78.96825396825396,-139.12698412698413,-63.41269841269841,-196.26984126984127,-71.19047619047619,-325.0,101.5079365079365,18.174603174603174,-233.57142857142856,-215.79365079365078,101.66666666666666,-325.0,153.25396825396825,18.333333333333332,-58.650793650793645,17.22222222222222,15.95238095238095,245.47619047619045,-158.8095238095238,57.53968253968254,41.34920634920635,-321.8253968253968
95.95238095238095,160.23809523809524,325.0,-57.698412698412696,-46.269841269841265,65.47619047619047,-48.17460317460317,25.952380952380953,22.142857142857142,-3.095238095238095,7.857142857142857,56.74603174603174,-4.2063492063492065,8.015873015873016,62.93650793650793,-3.888888888888889,-41.98412698412698,-3.73015873015873,-4.682539682539682,83.09523809523809,-48.80952380952381,-24.68253968253968,-28.333333333333332,-321.8253968253968
95.95238095238095,160.23809523809524,325.0,-57.698412698412696,-46.269841269841265,65.47619047619047,-48.17460317460317,25.952380952380953,22.142857142857142,-3.095238095238095,7.857142857142857,56.74603174603174,-4.2063492063492065,8.015873015873016,62.93650793650793,-3.888888888888889,-41.98412698412698,-3.73015873015873,-4.682539682539682,83.09523809523809,-48.80952380952381,-24.68253968253968,-28.333333333333332,-321.8253968253968
-140.07936507936506,65.63492063492063,280.55555555555554,55.476190476190474,-33.095238095238095,-111.03174603174602,-30.87301587301587,-61.03174603174603,-83.73015873015872,-5.634920634920634,-185.15873015873015,-100.07936507936508,-141.03174603174602,-93.4126984126984,-6.111111111111111,-7.222222222222221,-28.174603174603174,-7.222222222222221,-7.222222222222221,-142.3015873015873,70.87301587301587,19.444444444444443,24.047619047619047,-321.8253968253968
-140.07936507936506,65.63492063492063,280.55555555555554,55.476190476190474,-33.095238095238095,-111.03174603174602,-30.87301587301587,-61.03174603174603,-83.73015873015872,-5.634920634920634,-185.15873015873015,-100.07936507936508,-141.03174603174602,-93.4126984126984,-6.111111111111111,-7.222222222222221,-28.174603174603174,-7.222222222222221,-7.222222222222221,-142.3015873015873,70.87301587301587,19.444444444444443,24.047619047619047,-321.8253968253968
-54.52380952380952,110.39682539682539,318.968253968254,113.09523809523809,92.61904761904762,-69.6031746031746,100.87301587301587,-23.253968253968253,-21.03174603174603,-23.41269841269841,-68.01587301587301,-62.460317460317455,-54.52380952380952,-47.22222222222222,93.09523809523809,-25.0,92.46031746031746,-23.730158730158728,-23.730158730158728,-127.22222222222221,19.126984126984127,112.77777777777777,103.73015873015872,-321.8253968253968
-54.52380952380952,110.39682539682539,318.968253968254,113.09523809523809,92.61904761904762,-69.6031746031746,100.87301587301587,-23.253968253968253,-21.03174603174603,-23.41269841269841,-68.01587301587301,-62.460317460317455,-54.52380952380952,-47.22222222222222,93.09523809523809,-25.0,92.46031746031746,-23.730158730158728,-23.730158730158728,-127.22222222222221,19.126984126984127,112.77777777777777,103.73015873015872,-321.8253968253968
-54.52380952380952,110.39682539682539,318.968253968254,113.09523809523809,92.61904761904762,-69.6031746031746,100.87301587301587,-23.253968253968253,-21.03174603174603,-23.41269841269841,-68.01587301587301,-62.460317460317455,-54.52380952380952,-47.22222222222222,93.09523809523809,-25.0,92.46031746031746,-23.730158730158728,-23.730158730158728,-127.22222222222221,19.126984126984127,112.77777777777777,103.73015873015872,-166.26984126984127
-54.52380952380952,110.39682539682539,318.968253968254,113.09523809523809,92.61904761904762,-69.6031746031746,100.87301587301587,-23.253968253968253,-21.03174603174603,-23.41269841269841,-68.01587301587301,-62.460317460317455,-54.52380952380952,-47.22222222222222,93.09523809523809,-25.0,92.46031746031746,-23.730158730158728,-23.730158730158728,-127.22222222222221,19.126984126984127,112.77777777777777,103.73015873015872,-166.26984126984127
-54.52380952380952,110.39682539682539,318.968253968254,113.09523809523809,92.61904761904762,-69.6031746031746,100.87301587301587,-23.253968253968253,-21.03174603174603,-23.41269841269841,-68.01587301587301,-62.460317460317455,-54.52380952380952,-47.22222222222222,93.09523809523809,-25.0,92.46031746031746,-23.730158730158728,-23.730158730158728,-127.22222222222221,19.126984126984127,112.77777777777777,103.73015873015872,-166.26984126984127
-54.52380952380952,110.39682539682539,318.968253968254,113.09523809523809,92.61904761904762,-69.6031746031746,100.87301587301587,-23.253968253968253,-21.03174603174603,-23.41269841269841,-68.01587301587301,-62.460317460317455,-54.52380952380952,-47.22222222222222,93.09523809523809,-25.0,92.46031746031746,-23.730158730158728,-23.730158730158728,-127.22222222222221,19.126984126984127,112.77777777777777,103.73015873015872,-166.26984126984127
-54.52380952380952,110.39682539682539,318.968253968254,113.09523809523809,92.61904761904762,-69.6031746031746,100.87301587301587,-23.253968253968253,-21.03174603174603,-23.41269841269841,-68.01587301587301,-62.460317460317455,-54.52380952380952,-47.22222222222222,93.09523809523809,-25.0,92.46031746031746,-23.730158730158728,-23.730158730158728,-127.22222222222221,19.126984126984127,112.77777777777777,103.73015873015872,-166.26984126984127
-54.52380952380952,110.39682539682539,318.968253968254,113.09523809523809,92.61904761904762,-69.6031746031746,100.87301587301587,-23.253968253968253,-21.03174603174603,-23.41269841269841,-68.01587301587301,-62.460317460317455,-54.52380952380952,-47.22222222222222,93.09523809523809,-25.0,92.46031746031746,-23.730158730158728,-23.730158730158728,-127.22222222222221,19.126984126984127,112.77777777777777,103.73015873015872,-166.26984126984127
255.79365079365078,162.77777777777777,-325.0,-69.12698412698413,190.23809523809524,166.74603174603175,181.34920634920633,125.15873015873015,293.57142857142856,-3.888888888888889,-325.0,141.19047619047618,169.44444444444443,160.87301587301587,10.873015873015872,-3.095238095238095,173.88888888888889,-3.253968253968254,-4.2063492063492065,226.9047619047619,-125.79365079365078,-31.666666666666664,-34.52380952380952,-166.26984126984127
255.79365079365078,162.77777777777777,-325.0,-69.12698412698413,190.23809523809524,166.74603174603175,181.34920634920633,125.15873015873015,293.57142857142856,-3.888888888888889,-325.0,141.19047619047618,169.44444444444443,160.87301587301587,10.873015873015872,-3.095238095238095,173.88888888888889,-3.253968253968254,-4.2063492063492065,226.9047619047619,-125.79365079365078,-31.666666666666664,-34.52380952380952,-166.26984126984127
-46.11111111111111,156.74603174603175,-325.0,27.063492063492063,309.4444444444444,128.8095238095238,317.53968253968253,136.11111111111111,101.19047619047619,-16.587301587301585,-325.0,102.46031746031746,7.857142857142857,143.09523809523807,-47.38095238095238,-17.063492063492063,325.0,-17.063492063492063,-17.698412698412696,26.9047619047619,-91.5079365079365,-168.17460317460316,-146.26984126984127,-166.26984126984127
-46.11111111111111,156.74603174603175,-325.0,27.063492063492063,309.4444444444444,128.8095238095238,317.53968253968253,136.11111111111111,101.19047619047619,-16.587301587301585,-325.0,102.46031746031746,7.857142857142857,143.09523809523807,-47.38095238095238,-17.063492063492063,325.0,-17.063492063492063,-17.698412698412696,26.9047619047619,-91.5079365079365,-168.17460317460316,-146.26984126984127,-166.26984126984127
-46.11111111111111,156.74603174603175,-325.0,27.063492063492063,309.4444444444444,128.8095238095238,317.53968253968253,136.11111111111111,101.19047619047619,-16.587301587301585,-325.0,102.46031746031746,7.857142857142857,143.09523809523807,-47.38095238095238,-17.063492063492063,325.0,-17.063492063492063,-17.698412698412696,26.9047619047619,-91.5079365079365,-168.17460317460316,-146.26984126984127,-321.8253968253968
-46.11111111111111,156.74603174603175,-325.0,27.063492063492063,309.4444444444444,128.8095238095238,317.53968253968253,136.11111111111111,101.19047619047619,-16.587301587301585,-325.0,102.46031746031746,7.857142857142857,143.09523809523807,-47.38095238095238,-17.063492063492063,325.0,-17.063492063492063,-17.698412698412696,26.9047619047619,-91.5079365079365,-168.17460317460316,-146.26984126984127,-321.8253968253968
10.555555555555555,151.19047619047618,-0.07936507936507936,55.79365079365079,244.04761904761904,50.55555555555555,252.46031746031744,114.36507936507935,97.85714285714285,-17.38095238095238,-325.0,35.63492063492063,33.25396825396825,130.87301587301587,-7.3809523809523805,-18.333333333333332,258.4920634920635,-17.698412698412696,-18.65079365079365,44.36507936507936,-66.42857142857143,-3.095238095238095,-3.253968253968254,-321.8253968253968
10.555555555555555,151.19047619047618,-0.07936507936507936,55.79365079365079,244.04761904761904,50.55555555555555,252.46031746031744,114.36507936507935,97.85714285714285,-17.38095238095238,-325.0,35.63492063492063,33.25396825396825,130.87301587301587,-7.3809523809523805,-18.333333333333332,258.4920634920635,-17.698412698412696,-18.65079365079365,44.36507936507936,-66.42857142857143,-3.095238095238095,-3.253968253968254,-321.8253968253968
43.095238095238095,193.88888888888889,325.0,115.15873015873015,94.52380952380952,141.34920634920636,100.87301587301587,176.58730158730157,103.57142857142857,-12.142857142857142,-325.0,130.07936507936506,50.238095238095234,192.46031746031744,40.55555555555555,-13.571428571428571,107.85714285714285,-12.777777777777777,-13.571428571428571,56.42857142857142,-60.55555555555555,1.8253968253968254,1.1904761904761905,-321.8253968253968
43.095238095238095,193.88888888888889,325.0,115.15873015873015,94.52380952380952,141.34920634920636,100.87301587301587,176.58730158730157,103.57142857142857,-12.142857142857142,-325.0,130.07936507936506,50.238095238095234,192.46031746031744,40.55555555555555,-13.571428571428571,107.85714285714285,-12.777777777777777,-13.571428571428571,56.42857142857142,-60.55555555555555,1.8253968253968254,1.1904761904761905,-321.8253968253968
267.6984126984127,185.3174603174603,-284.5238095238095,-287.06349206349205,265.95238095238096,196.9047619047619,106.1111111111111,-11.349206349206348,145.47619047619048,63.25396825396825,63.888888888888886,92.61904761904762,-293.88888888888886,-224.04761904761904,-231.19047619047618,-304.68253968253964,61.03174603174603,33.25396825396825,-7.5396825396825395,51.19047619047619,-79.6031746031746,-158.4920634920635,-157.69841269841268,-321.8253968253968
267.6984126984127,185.3174603174603,-284.5238095238095,-287.06349206349205,265.95238095238096,196.9047619047619,106.1111111111111,-11.349206349206348,145.47619047619048,63.25396825396825,63.888888888888886,92.61904761904762,-293.88888888888886,-224.04761904761904,-231.19047619047618,-304.68253968253964,61.03174603174603,33.25396825396825,-7.5396825396825395,51.19047619047619,-79.6031746031746,-158.4920634920635,-157.69841269841268,-321.8253968253968
-101.66666666666666,262.3015873015873,325.0,198.17460317460316,-33.41269841269841,257.06349206349205,-24.047619047619047,285.7936507936508,24.84126984126984,-9.285714285714285,37.53968253968254,252.93650793650792,-2.7777777777777777,275.7936507936508,-69.76190476190476,-10.873015873015872,-15.634920634920634,-9.920634920634921,-10.079365079365079,-65.79365079365078,32.77777777777778,2.142857142857143,1.0317460317460316,-321.8253968253968
-101.66666666666666,262.3015873015873,325.0,198.17460317460316,-33.41269841269841,257.06349206349205,-24.047619047619047,285.7936507936508,24.84126984126984,-9.285714285714285,37.53968253968254,252.93650793650792,-2.7777777777777777,275.7936507936508,-69.76190476190476,-10.873015873015872,-15.634920634920634,-9.920634920634921,-10.079365079365079,-65.79365079365078,32.77777777777778,2.142857142857143,1.0317460317460316,-321.8253968253968
-183.09523809523807,201.34920634920633,236.74603174603175,114.2063492063492,70.71428571428571,260.7142857142857,83.88888888888889,226.58730158730157,-51.19047619047619,-4.2063492063492065,26.428571428571427,235.63492063492063,-43.888888888888886,227.85714285714283,-76.9047619047619,-5.952380952380952,87.53968253968253,-5.634920634920634,-5.7936507936507935,-6.428571428571428,-39.285714285714285,-148.4920634920635,-132.77777777777777,-166.26984126984127
-183.09523809523807,201.34920634920633,236.74603174603175,114.2063492063492,70.71428571428571,260.7142857142857,83.88888888888889,226.58730158730157,-51.19047619047619,-4.2063492063492065,26.428571428571427,235.63492063492063,-43.888888888888886,227.85714285714283,-76.9047619047619,-5.952380952380952,87.53968253968253,-5.634920634920634,-5.7936507936507935,-6.428571428571428,-39.285714285714285,-148.4920634920635,-132.77777777777777,-166.26984126984127
-215.3174603174603,90.39682539682539,325.0,185.15873015873015,115.63492063492063,62.460317460317455,117.6984126984127,83.57142857142857,-85.47619047619047,-9.603174603174603,325.0,45.95238095238095,-74.52380952380952,95.15873015873015,-141.984126984127,-10.555555555555555,114.68253968253967,-10.079365079365079,-10.714285714285714,-155.63492063492063,85.15873015873015,72.61904761904762,67.6984126984127,-166.26984126984127
-215.3174603174603,90.39682539682539,325.0,185.15873015873015,115.63492063492063,62.460317460317455,117.6984126984127,83.57142857142857,-85.47619047619047,-9.603174603174603,325.0,45.95238095238095,-74.52380952380952,95.15873015873015,-141.984126984127,-10.555555555555555,114.68253968253967,-10.079365079365079,-10.714285714285714,-155.63492063492063,85.15873015873015,72.61904761904762,67.6984126984127,-166.26984126984127
-16.11111111111111,200.07936507936506,325.0,72.77777777777777,-57.857142857142854,305.0,-61.34920634920635,230.55555555555554,61.507936507936506,5.7936507936507935,325.0,285.0,84.2063492063492,231.98412698412696,21.03174603174603,5.317460317460317,-59.285714285714285,5.158730158730158,4.841269841269841,74.68253968253968,-58.96825396825397,-71.34920634920634,-66.9047619047619,-166.26984126984127
-16.11111111111111,200.07936507936506,325.0,72.77777777777777,-57.857142857142854,305.0,-61.34920634920635,230.55555555555554,61.507936507936506,5.7936507936507935,325.0,285.0,84.2063492063492,231.98412698412696,21.03174603174603,5.317460317460317,-59.285714285714285,5.158730158730158,4.841269841269841,74.68253968253968,-58.96825396825397,-71.34920634920634,-66.9047619047619,-166.26984126984127
-119.76190476190476,203.4126984126984,325.0,199.12698412698413,56.74603174603174,63.41269841269841,63.888888888888886,204.68253968253967,6.26984126984127,-2.46031746031746,325.0,52.77777777777777,24.523809523809522,183.09523809523807,-60.39682539682539,-3.4126984126984126,67.53968253968253,-2.619047619047619,-3.095238095238095,-96.1111111111111,72.46031746031746,152.93650793650792,133.0952380952381,-166.26984126984127
-119.76190476190476,203.4126984126984,325.0,199.12698412698413,56.74603174603174,63.41269841269841,63.888888888888886,204.68253968253967,6.26984126984127,-2.46031746031746,325.0,52.77777777777777,24.523809523809522,183.09523809523807,-60.39682539682539,-3.4126984126984126,67.53968253968253,-2.619047619047619,-3.095238095238095,-96.1111111111111,72.46031746031746,152.93650793650792,133.0952380952381,-166.26984126984127
126.26984126984127,246.58730158730157,325.0,112.6190476190476,-175.47619047619045,325.0,-187.38095238095238,284.2063492063492,146.58730158730157,18.015873015873016,325.0,325.0,184.04761904761904,282.9365079365079,104.52380952380952,18.333333333333332,-188.4920634920635,18.015873015873016,18.333333333333332,105.79365079365078,-61.34920634920635,9.285714285714285,-0.3968253968253968,-166.26984126984127
126.26984126984127,246.58730158730157,325.0,112.6190476190476,-175.47619047619045,325.0,-187.38095238095238,284.2063492063492,146.58730158730157,18.015873015873016,325.0,325.0,184.04761904761904,282.9365079365079,104.52380952380952,18.333333333333332,-188.4920634920635,18.015873015873016,18.333333333333332,105.79365079365078,-61.34920634920635,9.285714285714285,-0.3968253968253968,-166.26984126984127
-0.23809523809523808,239.76190476190476,325.0,158.96825396825395,-164.2063492063492,325.0,-165.63492063492063,275.95238095238096,36.904761904761905,16.26984126984127,325.0,325.0,85.15873015873015,271.8253968253968,51.03174603174603,15.317460317460316,-165.3174603174603,15.0,15.95238095238095,18.015873015873016,-33.73015873015873,-65.47619047619047,-63.25396825396825,-321.8253968253968
-0.23809523809523808,239.76190476190476,325.0,158.96825396825395,-164.2063492063492,325.0,-165.63492063492063,275.95238095238096,36.904761904761905,16.26984126984127,325.0,325.0,85.15873015873015,271.8253968253968,51.03174603174603,15.317460317460316,-165.3174603174603,15.0,15.95238095238095,18.015873015873016,-33.73015873015873,-65.47619047619047,-63.25396825396825,-321.8253968253968
27.539682539682538,264.68253968253964,325.0,203.25396825396825,-153.57142857142856,297.38095238095235,-152.93650793650792,303.4126984126984,59.44444444444444,13.571428571428571,325.0,301.031746031746,127.38095238095238,302.9365079365079,98.80952380952381,12.46031746031746,-147.2222222222222,12.46031746031746,12.46031746031746,-28.49206349206349,6.111111111111111,80.23809523809523,67.53968253968253,-321.8253968253968
27.539682539682538,264.68253968253964,325.0,203.25396825396825,-153.57142857142856,297.38095238095235,-152.93650793650792,303.4126984126984,59.44444444444444,13.571428571428571,325.0,301.031746031746,127.38095238095238,302.9365079365079,98.80952380952381,12.46031746031746,-147.2222222222222,12.46031746031746,12.46031746031746,-28.49206349206349,6.111111111111111,80.23809523809523,67.53968253968253,-321.8253968253968
-229.12698412698413,34.047619047619044,321.031746031746,142.3015873015873,-80.07936507936508,98.17460317460316,-74.2063492063492,66.74603174603175,-144.04761904761904,15.476190476190474,325.0,59.6031746031746,-97.53968253968253,86.1111111111111,-85.79365079365078,15.0,-74.52380952380952,14.047619047619047,14.206349206349206,-57.53968253968254,50.39682539682539,-78.17460317460316,-66.58730158730158,-321.8253968253968
-229.12698412698413,34.047619047619044,321.031746031746,142.3015873015873,-80.07936507936508,98.17460317460316,-74.2063492063492,66.74603174603175,-144.04761904761904,15.476190476190474,325.0,59.6031746031746,-97.53968253968253,86.1111111111111,-85.79365079365078,15.0,-74.52380952380952,14.047619047619047,14.206349206349206,-57.53968253968254,50.39682539682539,-78.17460317460316,-66.58730158730158,-321.8253968253968
8.492063492063492,-325.0,325.0,-325.0,197.85714285714283,-325.0,195.95238095238093,-325.0,47.698412698412696,-1.6666666666666665,325.0,-325.0,123.57142857142857,-325.0,60.39682539682539,1.6666666666666665,205.0,0.873015873015873,-2.7777777777777777,300.07936507936506,-216.42857142857142,84.2063492063492,68.96825396825396,-321.8253968253968
8.492063492063492,-325.0,325.0,-325.0,197.85714285714283,-325.0,195.95238095238093,-325.0,47.698412698412696,-1.6666666666666665,325.0,-325.0,123.57142857142857,-325.0,60.39682539682539,1.6666666666666665,205.0,0.873015873015873,-2.7777777777777777,300.07936507936506,-216.42857142857142,84.2063492063492,68.96825396825396,-321.8253968253968
-234.84126984126982,-325.0,282.9365079365079,-325.0,325.0,-325.0,325.0,-325.0,-171.8253968253968,8.968253968253968,325.0,-325.0,-104.36507936507935,-325.0,-112.77777777777777,13.412698412698411,325.0,11.031746031746032,8.174603174603174,289.9206349206349,-279.2857142857143,-83.73015873015872,-69.92063492063491,-321.8253968253968
-234.84126984126982,-325.0,282.9365079365079,-325.0,325.0,-325.0,325.0,-325.0,-171.8253968253968,8.968253968253968,325.0,-325.0,-104.36507936507935,-325.0,-112.77777777777777,13.412698412698411,325.0,11.031746031746032,8.174603174603174,289.9206349206349,-279.2857142857143,-83.73015873015872,-69.92063492063491,-321.8253968253968
1.1904761904761905,-325.0,321.3492063492063,-325.0,297.38095238095235,-325.0,293.25396825396825,-325.0,49.92063492063492,7.857142857142857,325.0,-325.0,109.12698412698413,-325.0,72.93650793650794,12.777777777777777,296.90476190476187,11.031746031746032,6.26984126984127,325.0,-267.85714285714283,84.52380952380952,70.39682539682539,-166.26984126984127
1.1904761904761905,-325.0,321.3492063492063,-325.0,297.38095238095235,-325.0,293.25396825396825,-325.0,49.92063492063492,7.857142857142857,325.0,-325.0,109.12698412698413,-325.0,72.93650793650794,12.777777777777777,296.90476190476187,11.031746031746032,6.26984126984127,325.0,-267.85714285714283,84.52380952380952,70.39682539682539,-166.26984126984127
-230.87301587301587,-325.0,262.6190476190476,-325.0,325.0,-325.0,325.0,-325.0,-147.69841269841268,9.761904761904761,325.0,-325.0,-87.53968253968253,-325.0,-95.0,14.365079365079364,325.0,12.3015873015873,8.174603174603174,325.0,-313.73015873015873,-84.84126984126983,-71.5079365079365,-166.26984126984127
-230.87301587301587,-325.0,262.6190476190476,-325.0,325.0,-325.0,325.0,-325.0,-147.69841269841268,9.761904761904761,325.0,-325.0,-87.53968253968253,-325.0,-95.0,14.365079365079364,325.0,12.3015873015873,8.174603174603174,325.0,-313.73015873015873,-84.84126984126983,-71.5079365079365,-166.26984126984127
138.17460317460316,-325.0,325.0,-325.0,235.63492063492063,-325.0,229.12698412698413,-325.0,115.79365079365078,24.68253968253968,325.0,-325.0,197.38095238095238,-325.0,152.93650793650792,30.555555555555554,234.04761904761904,27.857142857142854,24.523809523809522,325.0,-325.0,29.920634920634917,19.444444444444443,-166.26984126984127
138.17460317460316,-325.0,325.0,-325.0,235.63492063492063,-325.0,229.12698412698413,-325.0,115.79365079365078,24.68253968253968,325.0,-325.0,197.38095238095238,-325.0,152.93650793650792,30.555555555555554,234.04761904761904,27.857142857142854,24.523809523809522,325.0,-325.0,29.920634920634917,19.444444444444443,-166.26984126984127
-230.3968253968254,-325.0,221.19047619047618,-325.0,289.9206349206349,-325.0,289.4444444444444,-325.0,-165.3174603174603,14.84126984126984,325.0,-325.0,-110.55555555555554,-325.0,-94.36507936507935,19.126984126984127,289.4444444444444,16.746031746031743,13.412698412698411,321.66666666666663,-275.7936507936508,-86.42857142857143,-73.09523809523809,-166.26984126984127
-230.3968253968254,-325.0,221.19047619047618,-325.0,289.9206349206349,-325.0,289.4444444444444,-325.0,-165.3174603174603,14.84126984126984,325.0,-325.0,-110.55555555555554,-325.0,-94.36507936507935,19.126984126984127,289.4444444444444,16.746031746031743,13.412698412698411,321.66666666666663,-275.7936507936508,-86.42857142857143,-73.09523809523809,-166.26984126984127
114.52380952380952,-325.0,325.0,-325.0,248.65079365079364,-325.0,243.09523809523807,-325.0,74.2063492063492,23.253968253968253,-325.0,-325.0,160.7142857142857,-325.0,93.57142857142857,27.063492063492063,246.74603174603172,24.523809523809522,21.666666666666664,325.0,-325.0,40.714285714285715,27.698412698412696,-166.26984126984127
114.52380952380952,-325.0,325.0,-325.0,248.65079365079364,-325.0,243.09523809523807,-325.0,74.2063492063492,23.253968253968253,-325.0,-325.0,160.7142857142857,-325.0,93.57142857142857,27.063492063492063,246.74603174603172,24.523809523809522,21.666666666666664,325.0,-325.0,40.714285714285715,27.698412698412696,-166.26984126984127
-145.63492063492063,-325.0,135.79365079365078,-325.0,325.0,-325.0,325.0,-325.0,-110.71428571428571,2.3015873015873014,-325.0,-325.0,-51.507936507936506,-325.0,-37.857142857142854,4.2063492063492065,325.0,2.619047619047619,0.7142857142857142,313.57142857142856,-159.28571428571428,-128.015873015873,-116.26984126984127,-321.8253968253968
-145.63492063492063,-325.0,135.79365079365078,-325.0,325.0,-325.0,325.0,-325.0,-110.71428571428571,2.3015873015873014,-325.0,-325.0,-51.507936507936506,-325.0,-37.857142857142854,4.2063492063492065,325.0,2.619047619047619,0.7142857142857142,313.57142857142856,-159.28571428571428,-128.015873015873,-116.26984126984127,-321.8253968253968
-230.3968253968254,-325.0,70.55555555555556,-325.0,282.46031746031747,-325.0,283.0952380952381,-325.0,-142.93650793650792,4.2063492063492065,-325.0,-325.0,-68.01587301587301,-325.0,-84.68253968253968,7.3809523809523805,283.25396825396825,5.634920634920634,2.9365079365079363,227.2222222222222,-148.4920634920635,38.65079365079365,40.079365079365076,-321.8253968253968
-230.3968253968254,-325.0,70.55555555555556,-325.0,282.46031746031747,-325.0,283.0952380952381,-325.0,-142.93650793650792,4.2063492063492065,-325.0,-325.0,-68.01587301587301,-325.0,-84.68253968253968,7.3809523809523805,283.25396825396825,5.634920634920634,2.9365079365079363,227.2222222222222,-148.4920634920635,38.65079365079365,40.079365079365076,-321.8253968253968
3.73015873015873,-325.0,225.79365079365078,-325.0,243.4126984126984,-325.0,240.07936507936506,-325.0,-4.841269841269841,9.126984126984127,-325.0,-325.0,65.47619047619047,-325.0,59.12698412698413,11.825396825396824,242.14285714285714,10.079365079365079,8.015873015873016,325.0,-279.44444444444446,-37.38095238095238,-38.49206349206349,-321.8253968253968
3.73015873015873,-325.0,225.79365079365078,-325.0,243.4126984126984,-325.0,240.07936507936506,-325.0,-4.841269841269841,9.126984126984127,-325.0,-325.0,65.47619047619047,-325.0,59.12698412698413,11.825396825396824,242.14285714285714,10.079365079365079,8.015873015873016,325.0,-279.44444444444446,-37.38095238095238,-38.49206349206349,-321.8253968253968
-118.8095238095238,-325.0,166.26984126984127,-246.58730158730157,310.87301587301585,-325.0,316.74603174603175,-325.0,-33.888888888888886,-12.936507936507935,-325.0,-325.0,64.04761904761905,-325.0,39.92063492063492,-11.19047619047619,308.968253968254,-11.507936507936508,-13.253968253968253,193.09523809523807,-132.46031746031744,127.85714285714285,115.63492063492063,-321.8253968253968
-118.8095238095238,-325.0,166.26984126984127,-246.58730158730157,310.87301587301585,-325.0,316.74603174603175,-325.0,-33.888888888888886,-12.936507936507935,-325.0,-325.0,64.04761904761905,-325.0,39.92063492063492,-11.19047619047619,308.968253968254,-11.507936507936508,-13.253968253968253,193.09523809523807,-132.46031746031744,127.85714285714285,115.63492063492063,-321.8253968253968
16.26984126984127,-325.0,226.9047619047619,-248.8095238095238,204.04761904761904,-325.0,204.84126984126982,-325.0,-6.111111111111111,-0.5555555555555556,-325.0,-325.0,61.34920634920635,-325.0,68.80952380952381,0.23809523809523808,201.03174603174602,-1.6666666666666665,-1.1904761904761905,268.015873015873,-122.6190476190476,-32.77777777777778,-36.11111111111111,-321.8253968253968
16.26984126984127,-325.0,226.9047619047619,-248.8095238095238,204.04761904761904,-325.0,204.84126984126982,-325.0,-6.111111111111111,-0.5555555555555556,-325.0,-325.0,61.34920634920635,-325.0,68.80952380952381,0.23809523809523808,201.03174603174602,-1.6666666666666665,-1.1904761904761905,268.015873015873,-122.6190476190476,-32.77777777777778,-36.11111111111111,-321.8253968253968
-205.3174603174603,-325.0,66.11111111111111,-34.047619047619044,190.55555555555554,-325.0,193.09523809523807,-325.0,-91.98412698412697,-16.904761904761905,-325.0,-325.0,-23.095238095238095,-325.0,-22.619047619047617,-17.38095238095238,189.60317460317458,-18.65079365079365,-18.49206349206349,-32.460317460317455,2.7777777777777777,30.71428571428571,32.77777777777778,-166.26984126984127
-205.3174603174603,-325.0,66.11111111111111,-34.047619047619044,190.55555555555554,-325.0,193.09523809523807,-325.0,-91.98412698412697,-16.904761904761905,-325.0,-325.0,-23.095238095238095,-325.0,-22.619047619047617,-17.38095238095238,189.60317460317458,-18.65079365079365,-18.49206349206349,-32.460317460317455,2.7777777777777777,30.71428571428571,32.77777777777778,-166.26984126984127
34.682539682539684,-325.0,222.93650793650792,-161.19047619047618,147.69841269841268,-273.4126984126984,147.85714285714286,-325.0,14.365079365079364,-11.19047619047619,-325.0,-291.031746031746,64.52380952380952,-298.4920634920635,74.52380952380952,-10.873015873015872,146.11111111111111,-12.777777777777777,-12.3015873015873,227.38095238095238,-90.71428571428571,-29.285714285714285,-31.666666666666664,-166.26984126984127
34.682539682539684,-325.0,222.93650793650792,-161.19047619047618,147.69841269841268,-273.4126984126984,147.85714285714286,-325.0,14.365079365079364,-11.19047619047619,-325.0,-291.031746031746,64.52380952380952,-298.4920634920635,74.52380952380952,-10.873015873015872,146.11111111111111,-12.777777777777777,-12.3015873015873,227.38095238095238,-90.71428571428571,-29.285714285714285,-31.666666666666664,-166.26984126984127
-206.74603174603175,-296.26984126984127,40.39682539682539,40.39682539682539,120.39682539682539,-277.22222222222223,121.82539682539682,-304.2063492063492,-84.2063492063492,-15.158730158730158,-325.0,-281.984126984127,-34.2063492063492,-246.74603174603172,-32.3015873015873,-15.793650793650793,117.6984126984127,-17.22222222222222,-16.428571428571427,-78.17460317460316,31.98412698412698,26.26984126984127,29.444444444444443,-166.26984126984127
-206.74603174603175,-296.26984126984127,40.39682539682539,40.39682539682539,120.39682539682539,-277.22222222222223,121.82539682539682,-304.2063492063492,-84.2063492063492,-15.158730158730158,-325.0,-281.984126984127,-34.2063492063492,-246.74603174603172,-32.3015873015873,-15.793650793650793,117.6984126984127,-17.22222222222222,-16.428571428571427,-78.17460317460316,31.98412698412698,26.26984126984127,29.444444444444443,-166.26984126984127
22.142857142857142,19.285714285714285,185.63492063492063,22.46031746031746,143.57142857142856,14.682539682539682,145.79365079365078,-23.41269841269841,-2.619047619047619,-24.523809523809522,-325.0,7.3809523809523805,48.49206349206349,45.317460317460316,52.93650793650794,-25.317460317460316,145.63492063492063,-26.428571428571427,-25.0,125.31746031746032,-41.507936507936506,-25.0,-28.174603174603174,-166.26984126984127
22.142857142857142,19.285714285714285,185.63492063492063,22.46031746031746,143.57142857142856,14.682539682539682,145.79365079365078,-23.41269841269841,-2.619047619047619,-24.523809523809522,-325.0,7.3809523809523805,48.49206349206349,45.317460317460316,52.93650793650794,-25.317460317460316,145.63492063492063,-26.428571428571427,-25.0,125.31746031746032,-41.507936507936506,-25.0,-28.174603174603174,-166.26984126984127
-221.8253968253968,-40.238095238095234,-50.39682539682539,108.17460317460316,117.06349206349206,-141.03174603174602,120.07936507936508,-74.68253968253968,-117.38095238095238,-18.333333333333332,-325.0,-134.68253968253967,-68.4920634920635,-35.317460317460316,-49.285714285714285,-19.126984126984127,113.4126984126984,-20.873015873015873,-19.126984126984127,-116.42857142857142,37.38095238095238,21.984126984126984,26.26984126984127,-166.26984126984127
-221.8253968253968,-40.238095238095234,-50.39682539682539,108.17460317460316,117.06349206349206,-141.03174603174602,120.07936507936508,-74.68253968253968,-117.38095238095238,-18.333333333333332,-325.0,-134.68253968253967,-68.4920634920635,-35.317460317460316,-49.285714285714285,-19.126984126984127,113.4126984126984,-20.873015873015873,-19.126984126984127,-116.42857142857142,37.38095238095238,21.984126984126984,26.26984126984127,-166.26984126984127
-114.36507936507935,-95.47619047619047,-38.96825396825397,-19.6031746031746,90.23809523809523,-103.09523809523809,91.19047619047619,-132.46031746031744,-109.12698412698413,-8.492063492063492,-325.0,-113.57142857142857,11.666666666666666,-88.80952380952381,-89.44444444444444,-8.492063492063492,91.98412698412697,-10.079365079365079,-9.126984126984127,91.03174603174602,-26.26984126984127,-20.396825396825395,-24.206349206349206,-321.8253968253968
-114.36507936507935,-95.47619047619047,-38.96825396825397,-19.6031746031746,90.23809523809523,-103.09523809523809,91.19047619047619,-132.46031746031744,-109.12698412698413,-8.492063492063492,-325.0,-113.57142857142857,11.666666666666666,-88.80952380952381,-89.44444444444444,-8.492063492063492,91.98412698412697,-10.079365079365079,-9.126984126984127,91.03174603174602,-26.26984126984127,-20.396825396825395,-24.206349206349206,-321.8253968253968
-292.77777777777777,-325.0,-319.1269841269841,3.571428571428571,117.38095238095238,-293.0952380952381,121.98412698412697,-324.2063492063492,-280.07936507936506,-9.761904761904761,-325.0,-290.23809523809524,-202.3015873015873,-294.68253968253964,-256.4285714285714,-10.396825396825395,116.58730158730158,-12.3015873015873,-11.19047619047619,-191.66666666666666,91.03174603174602,19.6031746031746,23.57142857142857,-321.8253968253968
-292.77777777777777,-325.0,-319.1269841269841,3.571428571428571,117.38095238095238,-293.0952380952381,121.98412698412697,-324.2063492063492,-280.07936507936506,-9.761904761904761,-325.0,-290.23809523809524,-202.3015873015873,-294.68253968253964,-256.4285714285714,-10.396825396825395,116.58730158730158,-12.3015873015873,-11.19047619047619,-191.66666666666666,91.03174603174602,19.6031746031746,23.57142857142857,-321.8253968253968
-205.95238095238093,-21.507936507936506,-219.9206349206349,-16.904761904761905,155.47619047619048,-0.3968253968253968,157.2222222222222,-49.92063492063492,-151.66666666666666,-15.634920634920634,-325.0,-10.238095238095237,-20.555555555555554,34.36507936507936,-138.015873015873,-16.26984126984127,157.53968253968253,-17.539682539682538,-16.26984126984127,-23.57142857142857,52.460317460317455,-17.539682539682538,-20.396825396825395,-321.8253968253968
-205.95238095238093,-21.507936507936506,-219.9206349206349,-16.904761904761905,155.47619047619048,-0.3968253968253968,157.2222222222222,-49.92063492063492,-151.66666666666666,-15.634920634920634,-325.0,-10.238095238095237,-20.555555555555554,34.36507936507936,-138.015873015873,-16.26984126984127,157.53968253968253,-17.539682539682538,-16.26984126984127,-23.57142857142857,52.460317460317455,-17.539682539682538,-20.396825396825395,-321.8253968253968
-276.1111111111111,-272.6190476190476,-325.0,18.80952380952381,153.09523809523807,-244.36507936507934,156.9047619047619,-288.4920634920635,-254.68253968253967,-18.96825396825397,-325.0,-257.22222222222223,-159.9206349206349,-258.968253968254,-216.42857142857142,-18.80952380952381,139.76190476190476,-19.76190476190476,-18.333333333333332,-195.47619047619045,78.65079365079364,112.93650793650794,103.09523809523809,-321.8253968253968
-276.1111111111111,-272.6190476190476,-325.0,18.80952380952381,153.09523809523807,-244.36507936507934,156.9047619047619,-288.4920634920635,-254.68253968253967,-18.96825396825397,-325.0,-257.22222222222223,-159.9206349206349,-258.968253968254,-216.42857142857142,-18.80952380952381,139.76190476190476,-19.76190476190476,-18.333333333333332,-195.47619047619045,78.65079365079364,112.93650793650794,103.09523809523809,-321.8253968253968
-197.85714285714283,-110.55555555555554,-233.4126984126984,-13.412698412698411,93.4126984126984,-90.55555555555556,94.52380952380952,-148.17460317460316,-167.85714285714286,0.23809523809523808,-325.0,-99.6031746031746,-43.888888888888886,-72.61904761904762,-120.07936507936508,0.23809523809523808,94.04761904761904,-1.1904761904761905,-0.07936507936507936,42.61904761904761,23.095238095238095,-13.73015873015873,-18.174603174603174,-321.8253968253968
-197.85714285714283,-110.55555555555554,-233.4126984126984,-13.412698412698411,93.4126984126984,-90.55555555555556,94.52380952380952,-148.17460317460316,-167.85714285714286,0.23809523809523808,-325.0,-99.6031746031746,-43.888888888888886,-72.61904761904762,-120.07936507936508,0.23809523809523808,94.04761904761904,-1.1904761904761905,-0.07936507936507936,42.61904761904761,23.095238095238095,-13.73015873015873,-18.174603174603174,-321.8253968253968
-272.77777777777777,-170.87301587301587,-325.0,46.11111111111111,110.23809523809523,-201.98412698412696,115.15873015873015,-195.63492063492063,-260.55555555555554,-11.984126984126984,-325.0,-206.42857142857142,-179.9206349206349,-167.85714285714286,-202.3015873015873,-11.984126984126984,96.9047619047619,-12.777777777777777,-11.031746031746032,-191.34920634920633,62.77777777777777,110.71428571428571,101.03174603174602,-166.26984126984127
-272.77777777777777,-170.87301587301587,-325.0,46.11111111111111,110.23809523809523,-201.98412698412696,115.15873015873015,-195.63492063492063,-260.55555555555554,-11.984126984126984,-325.0,-206.42857142857142,-179.9206349206349,-167.85714285714286,-202.3015873015873,-11.984126984126984,96.9047619047619,-12.777777777777777,-11.031746031746032,-191.34920634920633,62.77777777777777,110.71428571428571,101.03174603174602,-166.26984126984127
-232.3015873015873,-86.42857142857143,-258.3333333333333,41.34920634920635,125.0,-111.5079365079365,131.984126984127,-103.73015873015872,-141.8253968253968,-9.444444444444445,-311.66666666666663,-108.01587301587301,-72.46031746031746,-75.31746031746032,-59.285714285714285,-9.126984126984127,118.17460317460316,-10.555555555555555,-8.492063492063492,-64.68253968253968,24.68253968253968,-1.349206349206349,-0.873015873015873,-166.26984126984127
-232.3015873015873,-86.42857142857143,-258.3333333333333,41.34920634920635,125.0,-111.5079365079365,131.984126984127,-103.73015873015872,-141.8253968253968,-9.444444444444445,-311.66666666666663,-108.01587301587301,-72.46031746031746,-75.31746031746032,-59.285714285714285,-9.126984126984127,118.17460317460316,-10.555555555555555,-8.492063492063492,-64.68253968253968,24.68253968253968,-1.349206349206349,-0.873015873015873,-166.26984126984127
-231.03174603174602,-124.2063492063492,-191.66666666666666,82.14285714285714,138.65079365079364,-197.06349206349205,146.74603174603175,-152.3015873015873,-135.0,-16.11111111111111,-298.3333333333333,-181.984126984127,-63.888888888888886,-139.9206349206349,-21.03174603174603,-16.26984126984127,127.6984126984127,-17.539682539682538,-15.0,-169.60317460317458,-0.3968253968253968,108.33333333333333,100.07936507936508,-166.26984126984127
-231.03174603174602,-124.2063492063492,-191.66666666666666,82.14285714285714,138.65079365079364,-197.06349206349205,146.74603174603175,-152.3015873015873,-135.0,-16.11111111111111,-298.3333333333333,-181.984126984127,-63.888888888888886,-139.9206349206349,-21.03174603174603,-16.26984126984127,127.6984126984127,-17.539682539682538,-15.0,-169.60317460317458,-0.3968253968253968,108.33333333333333,100.07936507936508,-166.26984126984127
3.571428571428571,-325.0,-325.0,-71.5079365079365,2.46031746031746,-311.3492063492063,2.619047619047619,-325.0,10.396825396825395,1.507936507936508,325.0,-318.17460317460313,60.71428571428571,-325.0,107.6984126984127,2.3015873015873014,0.23809523809523808,0.7142857142857142,1.8253968253968254,61.507936507936506,-89.44444444444444,102.14285714285714,86.9047619047619,-166.26984126984127
3.571428571428571,-325.0,-325.0,-71.5079365079365,2.46031746031746,-311.3492063492063,2.619047619047619,-325.0,10.396825396825395,1.507936507936508,325.0,-318.17460317460313,60.71428571428571,-325.0,107.6984126984127,2.3015873015873014,0.23809523809523808,0.7142857142857142,1.8253968253968254,61.507936507936506,-89.44444444444444,102.14285714285714,86.9047619047619,-166.26984126984127
-155.47619047619048,258.8095238095238,-325.0,201.19047619047618,-222.77777777777777,184.52380952380952,-218.17460317460316,214.2063492063492,-170.7142857142857,13.095238095238095,325.0,176.26984126984127,-8.333333333333332,201.66666666666666,-137.06349206349205,11.031746031746032,-200.87301587301587,10.714285714285714,11.825396825396824,-160.23809523809524,96.42857142857142,124.68253968253967,96.1111111111111,-166.26984126984127
-155.47619047619048,258.8095238095238,-325.0,201.19047619047618,-222.77777777777777,184.52380952380952,-218.17460317460316,214.2063492063492,-170.7142857142857,13.095238095238095,325.0,176.26984126984127,-8.333333333333332,201.66666666666666,-137.06349206349205,11.031746031746032,-200.87301587301587,10.714285714285714,11.825396825396824,-160.23809523809524,96.42857142857142,124.68253968253967,96.1111111111111,-166.26984126984127
-285.95238095238096,325.0,-325.0,271.66666666666663,-196.74603174603175,325.0,-197.2222222222222,325.0,-182.46031746031744,9.126984126984127,325.0,325.0,-125.63492063492063,325.0,-158.96825396825395,7.698412698412698,-203.88888888888889,5.7936507936507935,8.809523809523808,-115.63492063492063,166.42857142857142,-112.6190476190476,-95.63492063492063,-321.8253968253968
-285.95238095238096,325.0,-325.0,271.66666666666663,-196.74603174603175,325.0,-197.2222222222222,325.0,-182.46031746031744,9.126984126984127,325.0,325.0,-125.63492063492063,325.0,-158.96825396825395,7.698412698412698,-203.88888888888889,5.7936507936507935,8.809523809523808,-115.63492063492063,166.42857142857142,-112.6190476190476,-95.63492063492063,-321.8253968253968
-225.0,325.0,-325.0,200.3968253968254,-254.84126984126982,148.015873015873,-260.39682539682536,278.8095238095238,-195.79365079365078,13.73015873015873,325.0,152.93650793650792,-50.55555555555555,288.4920634920635,-180.3968253968254,11.984126984126984,-248.17460317460316,11.666666666666666,12.46031746031746,-168.8095238095238,126.9047619047619,127.6984126984127,101.03174603174602,-321.8253968253968
