,Fp1[1],Fp2[2],F3[3],F4[4],C3[5],C4[6],P3[7],P4[8],O1[9],O2[10],F7[11],F8[12],T3[13],T4[14],T5[15],T6[16],Fz[17],Pz[18],Cz[19],Pg1[20],Pg2[21],EOGR[22],EOOGL[23],EMG[24]
0,111.34920634920634,325.0,-325.0,325.0,-325.0,302.6190476190476,217.85714285714283,292.6190476190476,325.0,325.0,325.0,303.0952380952381,-325.0,-325.0,-325.0,325.0,-211.66666666666666,260.39682539682536,-325.0,-325.0,-325.0,6.428571428571428,7.222222222222221,-166.26984126984127
1,111.34920634920634,325.0,-325.0,325.0,-325.0,302.6190476190476,217.85714285714283,292.6190476190476,325.0,325.0,325.0,303.0952380952381,-325.0,-325.0,-325.0,325.0,-211.66666666666666,260.39682539682536,-325.0,-325.0,-325.0,6.428571428571428,7.222222222222221,-166.26984126984127
2,101.19047619047619,325.0,-325.0,325.0,-0.07936507936507936,278.968253968254,199.76190476190476,269.6031746031746,325.0,325.0,325.0,278.6507936507936,-325.0,-315.6349206349206,-325.0,325.0,-195.63492063492063,239.76190476190476,-325.0,-325.0,-325.0,0.5555555555555556,-1.6666666666666665,-166.26984126984127
3,101.19047619047619,325.0,-325.0,325.0,-0.07936507936507936,278.968253968254,199.76190476190476,269.6031746031746,325.0,325.0,325.0,278.6507936507936,-325.0,-315.6349206349206,-325.0,325.0,-195.63492063492063,239.76190476190476,-325.0,-325.0,-325.0,0.5555555555555556,-1.6666666666666665,-166.26984126984127
4,89.92063492063491,325.0,-325.0,325.0,325.0,251.66666666666666,179.12698412698413,243.4126984126984,325.0,325.0,325.0,250.7142857142857,-325.0,-302.1428571428571,-325.0,325.0,-177.38095238095238,216.26984126984127,-325.0,-325.0,-325.0,-5.476190476190476,-9.285714285714285,-166.26984126984127
5,89.92063492063491,325.0,-325.0,325.0,325.0,251.66666666666666,179.12698412698413,243.4126984126984,325.0,325.0,325.0,250.7142857142857,-325.0,-302.1428571428571,-325.0,325.0,-177.38095238095238,216.26984126984127,-325.0,-325.0,-325.0,-5.476190476190476,-9.285714285714285,-166.26984126984127
6,87.6984126984127,325.0,-325.0,325.0,325.0,245.95238095238093,175.0,238.015873015873,325.0,325.0,325.0,245.15873015873015,-325.0,-295.4761904761905,-325.0,325.0,-173.4126984126984,211.5079365079365,-325.0,-325.0,-325.0,0.3968253968253968,0.23809523809523808,-166.26984126984127
7,87.6984126984127,325.0,-325.0,325.0,325.0,245.95238095238093,175.0,238.015873015873,325.0,325.0,325.0,245.15873015873015,-325.0,-295.4761904761905,-325.0,325.0,-173.4126984126984,211.5079365079365,-325.0,-325.0,-325.0,0.3968253968253968,0.23809523809523808,-166.26984126984127
8,85.47619047619047,325.0,-325.0,325.0,325.0,240.87301587301587,170.7142857142857,232.77777777777777,325.0,325.0,325.0,239.28571428571428,-325.0,-288.8095238095238,-325.0,325.0,-169.9206349206349,206.58730158730157,-325.0,-325.0,-325.0,-1.349206349206349,0.23809523809523808,-166.26984126984127
9,85.47619047619047,325.0,-325.0,325.0,325.0,240.87301587301587,170.7142857142857,232.77777777777777,325.0,325.0,325.0,239.28571428571428,-325.0,-288.8095238095238,-325.0,325.0,-169.9206349206349,206.58730158730157,-325.0,-325.0,-325.0,-1.349206349206349,0.23809523809523808,-166.26984126984127
10,83.73015873015872,325.0,-325.0,325.0,325.0,236.26984126984127,167.38095238095238,228.65079365079364,325.0,325.0,325.0,235.15873015873015,-325.0,-283.57142857142856,-325.0,325.0,-166.9047619047619,202.93650793650792,-325.0,-325.0,-325.0,1.0317460317460316,-0.873015873015873,-321.8253968253968
11,83.73015873015872,325.0,-325.0,325.0,325.0,236.26984126984127,167.38095238095238,228.65079365079364,325.0,325.0,325.0,235.15873015873015,-325.0,-283.57142857142856,-325.0,325.0,-166.9047619047619,202.93650793650792,-325.0,-325.0,-325.0,1.0317460317460316,-0.873015873015873,-321.8253968253968
12,82.61904761904762,325.0,-325.0,325.0,325.0,233.09523809523807,165.15873015873015,225.47619047619045,325.0,325.0,325.0,231.8253968253968,-325.0,-279.6031746031746,-325.0,325.0,-164.84126984126982,200.23809523809524,-325.0,-325.0,-325.0,0.07936507936507936,-0.07936507936507936,-321.8253968253968
13,82.61904761904762,325.0,-325.0,325.0,325.0,233.09523809523807,165.15873015873015,225.47619047619045,325.0,325.0,325.0,231.8253968253968,-325.0,-279.6031746031746,-325.0,325.0,-164.84126984126982,200.23809523809524,-325.0,-325.0,-325.0,0.07936507936507936,-0.07936507936507936,-321.8253968253968
14,80.39682539682539,325.0,-312.3015873015873,293.0952380952381,325.0,228.015873015873,161.34920634920633,220.7142857142857,324.04761904761904,325.0,325.0,226.42857142857142,-312.6190476190476,-273.25396825396825,-312.77777777777777,325.0,-161.19047619047618,195.95238095238093,-325.0,-325.0,-325.0,1.507936507936508,-0.23809523809523808,-321.8253968253968
15,80.39682539682539,325.0,-312.3015873015873,293.0952380952381,325.0,228.015873015873,161.34920634920633,220.7142857142857,324.04761904761904,325.0,325.0,226.42857142857142,-312.6190476190476,-273.25396825396825,-312.77777777777777,325.0,-161.19047619047618,195.95238095238093,-325.0,-325.0,-325.0,1.507936507936508,-0.23809523809523808,-321.8253968253968
16,80.07936507936508,325.0,-299.6031746031746,261.1904761904762,325.0,226.9047619047619,160.55555555555554,219.76190476190476,323.25396825396825,325.0,325.0,225.47619047619045,-300.07936507936506,-272.1428571428571,-300.55555555555554,325.0,-160.3968253968254,195.15873015873015,-325.0,-325.0,-325.0,7.063492063492063,8.809523809523808,-321.8253968253968
17,80.07936507936508,325.0,-299.6031746031746,261.1904761904762,325.0,226.9047619047619,160.55555555555554,219.76190476190476,323.25396825396825,325.0,325.0,225.47619047619045,-300.07936507936506,-272.1428571428571,-300.55555555555554,325.0,-160.3968253968254,195.15873015873015,-325.0,-325.0,-325.0,7.063492063492063,8.809523809523808,-321.8253968253968
18,78.33333333333333,325.0,-255.47619047619045,-31.98412698412698,325.0,222.93650793650792,157.53968253968253,215.79365079365078,318.015873015873,325.0,325.0,221.34920634920633,-256.74603174603175,-267.22222222222223,-257.22222222222223,325.0,-157.69841269841268,191.5079365079365,-325.0,-325.0,-325.0,6.904761904761904,8.492063492063492,-321.8253968253968
19,78.33333333333333,325.0,-255.47619047619045,-31.98412698412698,325.0,222.93650793650792,157.53968253968253,215.79365079365078,318.015873015873,325.0,325.0,221.34920634920633,-256.74603174603175,-267.22222222222223,-257.22222222222223,325.0,-157.69841269841268,191.5079365079365,-325.0,-325.0,-325.0,6.904761904761904,8.492063492063492,-321.8253968253968
20,75.95238095238095,325.0,-211.66666666666666,-325.0,325.0,217.2222222222222,152.93650793650792,210.07936507936506,309.9206349206349,325.0,325.0,215.0,-214.68253968253967,-259.9206349206349,-214.36507936507937,325.0,-153.73015873015873,186.42857142857142,-325.0,-325.0,-325.0,2.9365079365079363,9.444444444444445,-166.26984126984127
21,75.95238095238095,325.0,-211.66666666666666,-325.0,325.0,217.2222222222222,152.93650793650792,210.07936507936506,309.9206349206349,325.0,325.0,215.0,-214.68253968253967,-259.9206349206349,-214.36507936507937,325.0,-153.73015873015873,186.42857142857142,-325.0,-325.0,-325.0,2.9365079365079363,9.444444444444445,-166.26984126984127
22,74.04761904761904,325.0,-202.3015873015873,-325.0,325.0,212.14285714285714,149.44444444444443,205.3174603174603,303.0952380952381,325.0,325.0,210.55555555555554,-205.3174603174603,-254.04761904761904,-205.63492063492063,325.0,-150.23809523809524,182.3015873015873,-325.0,-322.1428571428571,-325.0,1.6666666666666665,0.5555555555555556,-166.26984126984127
23,74.04761904761904,325.0,-202.3015873015873,-325.0,325.0,212.14285714285714,149.44444444444443,205.3174603174603,303.0952380952381,325.0,325.0,210.55555555555554,-205.3174603174603,-254.04761904761904,-205.63492063492063,325.0,-150.23809523809524,182.3015873015873,-325.0,-322.1428571428571,-325.0,1.6666666666666665,0.5555555555555556,-166.26984126984127
24,68.65079365079364,325.0,-173.57142857142856,-325.0,325.0,198.4920634920635,139.12698412698413,191.98412698412696,283.88888888888886,325.0,325.0,196.42857142857142,-178.65079365079364,-237.2222222222222,-178.65079365079364,325.0,-140.7142857142857,170.23809523809524,-307.53968253968253,-301.8253968253968,-314.2063492063492,-3.4126984126984126,-9.126984126984127,-166.26984126984127
25,68.65079365079364,325.0,-173.57142857142856,-325.0,325.0,198.4920634920635,139.12698412698413,191.98412698412696,283.88888888888886,325.0,325.0,196.42857142857142,-178.65079365079364,-237.2222222222222,-178.65079365079364,325.0,-140.7142857142857,170.23809523809524,-307.53968253968253,-301.8253968253968,-314.2063492063492,-3.4126984126984126,-9.126984126984127,-166.26984126984127
26,68.65079365079364,325.0,-173.57142857142856,-325.0,325.0,198.4920634920635,139.12698412698413,191.98412698412696,283.88888888888886,325.0,325.0,196.42857142857142,-178.65079365079364,-237.2222222222222,-178.65079365079364,325.0,-140.7142857142857,170.23809523809524,-307.53968253968253,-301.8253968253968,-314.2063492063492,-3.4126984126984126,-9.126984126984127,-166.26984126984127
27,68.65079365079364,325.0,-173.57142857142856,-325.0,325.0,198.4920634920635,139.12698412698413,191.98412698412696,283.88888888888886,325.0,325.0,196.42857142857142,-178.65079365079364,-237.2222222222222,-178.65079365079364,325.0,-140.7142857142857,170.23809523809524,-307.53968253968253,-301.8253968253968,-314.2063492063492,-3.4126984126984126,-9.126984126984127,-166.26984126984127
28,68.65079365079364,325.0,-173.57142857142856,-325.0,325.0,198.4920634920635,139.12698412698413,191.98412698412696,283.88888888888886,325.0,325.0,196.42857142857142,-178.65079365079364,-237.2222222222222,-178.65079365079364,325.0,-140.7142857142857,170.23809523809524,-307.53968253968253,-301.8253968253968,-314.2063492063492,-3.4126984126984126,-9.126984126984127,-166.26984126984127
29,68.65079365079364,325.0,-173.57142857142856,-325.0,325.0,198.4920634920635,139.12698412698413,191.98412698412696,283.88888888888886,325.0,325.0,196.42857142857142,-178.65079365079364,-237.2222222222222,-178.65079365079364,325.0,-140.7142857142857,170.23809523809524,-307.53968253968253,-301.8253968253968,-314.2063492063492,-3.4126984126984126,-9.126984126984127,-166.26984126984127
30,54.841269841269835,-0.07936507936507936,75.63492063492063,-319.76190476190476,276.90476190476187,162.46031746031744,112.77777777777777,157.38095238095238,233.57142857142856,283.57142857142856,283.0952380952381,160.07936507936506,-23.253968253968253,-193.88888888888889,-24.84126984126984,-0.07936507936507936,-115.95238095238095,139.28571428571428,-253.4126984126984,-248.49206349206347,-257.53968253968253,-1.0317460317460316,-1.1904761904761905,-321.8253968253968
31,54.841269841269835,-0.07936507936507936,75.63492063492063,-319.76190476190476,276.90476190476187,162.46031746031744,112.77777777777777,157.38095238095238,233.57142857142856,283.57142857142856,283.0952380952381,160.07936507936506,-23.253968253968253,-193.88888888888889,-24.84126984126984,-0.07936507936507936,-115.95238095238095,139.28571428571428,-253.4126984126984,-248.49206349206347,-257.53968253968253,-1.0317460317460316,-1.1904761904761905,-321.8253968253968
32,41.19047619047619,-325.0,325.0,-314.36507936507934,228.96825396825395,126.42857142857142,86.58730158730158,122.77777777777777,183.4126984126984,242.3015873015873,241.19047619047618,123.88888888888889,132.3015873015873,-150.3968253968254,129.12698412698413,-325.0,-91.03174603174602,108.49206349206348,-199.12698412698413,-195.15873015873015,-200.7142857142857,1.507936507936508,6.904761904761904,-321.8253968253968
33,41.19047619047619,-325.0,325.0,-314.36507936507934,228.96825396825395,126.42857142857142,86.58730158730158,122.77777777777777,183.4126984126984,242.3015873015873,241.19047619047618,123.88888888888889,132.3015873015873,-150.3968253968254,129.12698412698413,-325.0,-91.03174603174602,108.49206349206348,-199.12698412698413,-195.15873015873015,-200.7142857142857,1.507936507936508,6.904761904761904,-321.8253968253968
34,8.492063492063492,-199.12698412698413,126.1111111111111,-76.42857142857143,28.809523809523807,30.07936507936508,18.96825396825397,29.285714285714285,44.52380952380952,-216.1111111111111,-325.0,1.507936507936508,229.44444444444443,325.0,228.96825396825395,-165.15873015873015,325.0,25.476190476190474,-49.285714285714285,-48.33333333333333,-47.698412698412696,-0.3968253968253968,-0.3968253968253968,-321.8253968253968
35,8.492063492063492,-199.12698412698413,126.1111111111111,-76.42857142857143,28.809523809523807,30.07936507936508,18.96825396825397,29.285714285714285,44.52380952380952,-216.1111111111111,-325.0,1.507936507936508,229.44444444444443,325.0,228.96825396825395,-165.15873015873015,325.0,25.476190476190474,-49.285714285714285,-48.33333333333333,-47.698412698412696,-0.3968253968253968,-0.3968253968253968,-321.8253968253968
36,8.333333333333332,-195.79365079365078,124.04761904761904,-75.15873015873015,-84.36507936507937,29.6031746031746,18.49206349206349,28.96825396825397,43.73015873015873,-212.3015873015873,-325.0,-19.126984126984127,225.63492063492063,325.0,225.0,-162.14285714285714,325.0,25.0,-48.33333333333333,-47.698412698412696,-46.42857142857142,4.0476190476190474,1.6666666666666665,-321.8253968253968
37,8.333333333333332,-195.79365079365078,124.04761904761904,-75.15873015873015,-84.36507936507937,29.6031746031746,18.49206349206349,28.96825396825397,43.73015873015873,-212.3015873015873,-325.0,-19.126984126984127,225.63492063492063,325.0,225.0,-162.14285714285714,325.0,25.0,-48.33333333333333,-47.698412698412696,-46.42857142857142,4.0476190476190474,1.6666666666666665,-321.8253968253968
38,8.015873015873016,-192.61904761904762,121.66666666666666,-73.73015873015872,39.6031746031746,29.126984126984127,18.333333333333332,28.333333333333332,43.095238095238095,-208.8095238095238,-325.0,31.19047619047619,221.66666666666666,325.0,221.34920634920633,-159.6031746031746,325.0,24.523809523809522,-47.53968253968254,-46.58730158730158,-45.79365079365079,-4.523809523809524,-3.888888888888889,-321.8253968253968
39,8.015873015873016,-192.61904761904762,121.66666666666666,-73.73015873015872,39.6031746031746,29.126984126984127,18.333333333333332,28.333333333333332,43.095238095238095,-208.8095238095238,-325.0,31.19047619047619,221.66666666666666,325.0,221.34920634920633,-159.6031746031746,325.0,24.523809523809522,-47.53968253968254,-46.58730158730158,-45.79365079365079,-4.523809523809524,-3.888888888888889,-321.8253968253968
40,8.015873015873016,-192.61904761904762,121.66666666666666,-73.73015873015872,39.6031746031746,29.126984126984127,18.333333333333332,28.333333333333332,43.095238095238095,-208.8095238095238,-325.0,31.19047619047619,221.66666666666666,325.0,221.34920634920633,-159.6031746031746,325.0,24.523809523809522,-47.53968253968254,-46.58730158730158,-45.79365079365079,-4.523809523809524,-3.888888888888889,-166.26984126984127
41,8.015873015873016,-192.61904761904762,121.66666666666666,-73.73015873015872,39.6031746031746,29.126984126984127,18.333333333333332,28.333333333333332,43.095238095238095,-208.8095238095238,-325.0,31.19047619047619,221.66666666666666,325.0,221.34920634920633,-159.6031746031746,325.0,24.523809523809522,-47.53968253968254,-46.58730158730158,-45.79365079365079,-4.523809523809524,-3.888888888888889,-166.26984126984127
42,7.857142857142857,-188.65079365079364,118.96825396825396,-72.14285714285714,-1.6666666666666665,28.333333333333332,17.857142857142858,13.571428571428571,42.14285714285714,-204.36507936507937,-322.46031746031747,-80.71428571428571,216.9047619047619,325.0,216.9047619047619,-156.42857142857142,325.0,24.047619047619047,-46.58730158730158,-45.63492063492063,-44.84126984126984,-6.26984126984127,-8.174603174603174,-166.26984126984127
43,7.857142857142857,-188.65079365079364,118.96825396825396,-72.14285714285714,-1.6666666666666665,28.333333333333332,17.857142857142858,13.571428571428571,42.14285714285714,-204.36507936507937,-322.46031746031747,-80.71428571428571,216.9047619047619,325.0,216.9047619047619,-156.42857142857142,325.0,24.047619047619047,-46.58730158730158,-45.63492063492063,-44.84126984126984,-6.26984126984127,-8.174603174603174,-166.26984126984127
44,7.698412698412698,-183.25396825396825,115.47619047619047,-69.76190476190476,-243.7301587301587,27.539682539682538,17.063492063492063,1.507936507936508,40.87301587301587,-198.33333333333331,-316.90476190476187,-243.7301587301587,210.2380952380952,325.0,210.55555555555554,-151.8253968253968,325.0,23.41269841269841,-45.0,-44.52380952380952,-43.25396825396825,4.682539682539682,3.095238095238095,-166.26984126984127
45,7.698412698412698,-183.25396825396825,115.47619047619047,-69.76190476190476,-243.7301587301587,27.539682539682538,17.063492063492063,1.507936507936508,40.87301587301587,-198.33333333333331,-316.90476190476187,-243.7301587301587,210.2380952380952,325.0,210.55555555555554,-151.8253968253968,325.0,23.41269841269841,-45.0,-44.52380952380952,-43.25396825396825,4.682539682539682,3.095238095238095,-166.26984126984127
46,7.3809523809523805,-177.69841269841268,111.82539682539682,-67.6984126984127,-131.984126984127,26.428571428571427,16.746031746031743,4.365079365079365,39.6031746031746,-192.46031746031744,-308.4920634920635,-197.06349206349205,204.04761904761904,325.0,204.52380952380952,-147.38095238095238,325.0,22.619047619047617,-43.73015873015873,-42.77777777777778,-42.14285714285714,0.23809523809523808,4.365079365079365,-166.26984126984127
47,7.3809523809523805,-177.69841269841268,111.82539682539682,-67.6984126984127,-131.984126984127,26.428571428571427,16.746031746031743,4.365079365079365,39.6031746031746,-192.46031746031744,-308.4920634920635,-197.06349206349205,204.04761904761904,325.0,204.52380952380952,-147.38095238095238,325.0,22.619047619047617,-43.73015873015873,-42.77777777777778,-42.14285714285714,0.23809523809523808,4.365079365079365,-166.26984126984127
48,7.222222222222221,-174.04761904761904,109.44444444444444,-66.26984126984127,-204.68253968253967,25.952380952380953,16.26984126984127,-85.47619047619047,38.65079365079365,-188.4920634920635,-302.1428571428571,-325.0,199.76190476190476,325.0,200.3968253968254,-144.36507936507937,325.0,22.142857142857142,-42.77777777777778,-41.98412698412698,-41.19047619047619,-0.7142857142857142,-0.7142857142857142,-166.26984126984127
49,7.222222222222221,-174.04761904761904,109.44444444444444,-66.26984126984127,-204.68253968253967,25.952380952380953,16.26984126984127,-85.47619047619047,38.65079365079365,-188.4920634920635,-302.1428571428571,-325.0,199.76190476190476,325.0,200.3968253968254,-144.36507936507937,325.0,22.142857142857142,-42.77777777777778,-41.98412698412698,-41.19047619047619,-0.7142857142857142,-0.7142857142857142,-166.26984126984127
50,7.063492063492063,-172.61904761904762,108.65079365079364,-65.79365079365078,-152.3015873015873,25.952380952380953,16.11111111111111,-151.5079365079365,38.33333333333333,-186.9047619047619,-299.4444444444444,-325.0,198.015873015873,325.0,198.65079365079364,-143.25396825396825,325.0,21.984126984126984,-42.460317460317455,-41.82539682539682,-40.714285714285715,-7.5396825396825395,-12.936507936507935,-321.8253968253968
51,7.063492063492063,-172.61904761904762,108.65079365079364,-65.79365079365078,-152.3015873015873,25.952380952380953,16.11111111111111,-151.5079365079365,38.33333333333333,-186.9047619047619,-299.4444444444444,-325.0,198.015873015873,325.0,198.65079365079364,-143.25396825396825,325.0,21.984126984126984,-42.460317460317455,-41.82539682539682,-40.714285714285715,-7.5396825396825395,-12.936507936507935,-321.8253968253968
52,-219.60317460317458,61.666666666666664,-325.0,325.0,-241.66666666666666,-222.93650793650792,-230.07936507936506,-191.03174603174602,-325.0,-24.68253968253968,251.5079365079365,-167.06349206349205,-311.031746031746,132.46031746031744,-325.0,77.6984126984127,99.92063492063491,-230.3968253968254,325.0,248.015873015873,298.8095238095238,4.682539682539682,8.015873015873016,-321.8253968253968
53,-219.60317460317458,61.666666666666664,-325.0,325.0,-241.66666666666666,-222.93650793650792,-230.07936507936506,-191.03174603174602,-325.0,-24.68253968253968,251.5079365079365,-167.06349206349205,-311.031746031746,132.46031746031744,-325.0,77.6984126984127,99.92063492063491,-230.3968253968254,325.0,248.015873015873,298.8095238095238,4.682539682539682,8.015873015873016,-321.8253968253968
54,-214.04761904761904,68.96825396825396,-325.0,325.0,-235.79365079365078,-217.53968253968253,-224.36507936507934,-186.42857142857142,-325.0,-26.9047619047619,160.87301587301587,-163.09523809523807,-325.0,128.8095238095238,-325.0,9.444444444444445,97.38095238095238,-225.3174603174603,325.0,242.14285714285714,291.5079365079365,5.317460317460317,2.46031746031746,-321.8253968253968
55,-214.04761904761904,68.96825396825396,-325.0,325.0,-235.79365079365078,-217.53968253968253,-224.36507936507934,-186.42857142857142,-325.0,-26.9047619047619,160.87301587301587,-163.09523809523807,-325.0,128.8095238095238,-325.0,9.444444444444445,97.38095238095238,-225.3174603174603,325.0,242.14285714285714,291.5079365079365,5.317460317460317,2.46031746031746,-321.8253968253968
56,-211.19047619047618,168.8095238095238,-325.0,325.0,-232.93650793650792,-214.68253968253967,-221.66666666666666,-184.2063492063492,-325.0,4.2063492063492065,300.07936507936506,-161.03174603174602,-325.0,127.38095238095238,-325.0,247.38095238095238,95.63492063492063,-222.3015873015873,325.0,238.96825396825395,288.015873015873,0.3968253968253968,4.841269841269841,-321.8253968253968
57,-211.19047619047618,168.8095238095238,-325.0,325.0,-232.93650793650792,-214.68253968253967,-221.66666666666666,-184.2063492063492,-325.0,4.2063492063492065,300.07936507936506,-161.03174603174602,-325.0,127.38095238095238,-325.0,247.38095238095238,95.63492063492063,-222.3015873015873,325.0,238.96825396825395,288.015873015873,0.3968253968253968,4.841269841269841,-321.8253968253968
58,-206.9047619047619,80.71428571428571,-325.0,325.0,-228.49206349206347,-210.55555555555554,-217.38095238095238,-180.7142857142857,-325.0,-24.68253968253968,139.28571428571428,-157.69841269841268,-325.0,124.52380952380952,-325.0,5.952380952380952,93.73015873015872,-218.015873015873,325.0,234.2063492063492,281.66666666666663,4.0476190476190474,3.4126984126984126,-321.8253968253968
59,-206.9047619047619,80.71428571428571,-325.0,325.0,-228.49206349206347,-210.55555555555554,-217.38095238095238,-180.7142857142857,-325.0,-24.68253968253968,139.28571428571428,-157.69841269841268,-325.0,124.52380952380952,-325.0,5.952380952380952,93.73015873015872,-218.015873015873,325.0,234.2063492063492,281.66666666666663,4.0476190476190474,3.4126984126984126,-321.8253968253968
60,-204.2063492063492,150.3968253968254,-325.0,325.0,-225.79365079365078,-208.015873015873,-214.68253968253967,-178.4920634920635,-325.0,24.523809523809522,206.1111111111111,-155.63492063492063,-239.12698412698413,122.93650793650794,-302.1428571428571,125.31746031746032,92.61904761904762,-215.3174603174603,325.0,231.19047619047618,278.015873015873,-1.984126984126984,-1.1904761904761905,-166.26984126984127
61,-204.2063492063492,150.3968253968254,-325.0,325.0,-225.79365079365078,-208.015873015873,-214.68253968253967,-178.4920634920635,-325.0,24.523809523809522,206.1111111111111,-155.63492063492063,-239.12698412698413,122.93650793650794,-302.1428571428571,125.31746031746032,92.61904761904762,-215.3174603174603,325.0,231.19047619047618,278.015873015873,-1.984126984126984,-1.1904761904761905,-166.26984126984127
62,-188.8095238095238,265.3174603174603,-325.0,314.2063492063492,-209.44444444444443,-192.77777777777777,-198.4920634920635,-165.79365079365078,-325.0,130.55555555555554,113.88888888888889,-144.04761904761904,-304.5238095238095,113.4126984126984,-325.0,204.04761904761904,81.5079365079365,-200.23809523809524,325.0,214.04761904761904,256.74603174603175,-5.317460317460317,-8.968253968253968,-166.26984126984127
63,-188.8095238095238,265.3174603174603,-325.0,314.2063492063492,-209.44444444444443,-192.77777777777777,-198.4920634920635,-165.79365079365078,-325.0,130.55555555555554,113.88888888888889,-144.04761904761904,-304.5238095238095,113.4126984126984,-325.0,204.04761904761904,81.5079365079365,-200.23809523809524,325.0,214.04761904761904,256.74603174603175,-5.317460317460317,-8.968253968253968,-166.26984126984127
64,-172.93650793650792,280.39682539682536,-325.0,297.22222222222223,-192.93650793650792,-177.53968253968253,-182.3015873015873,-152.61904761904762,-325.0,218.4920634920635,-66.9047619047619,-131.984126984127,-304.5238095238095,103.57142857142857,-325.0,325.0,-118.65079365079364,-184.52380952380952,325.0,196.74603174603175,235.0,-5.7936507936507935,-8.809523809523808,-166.26984126984127
65,-172.93650793650792,280.39682539682536,-325.0,297.22222222222223,-192.93650793650792,-177.53968253968253,-182.3015873015873,-152.61904761904762,-325.0,218.4920634920635,-66.9047619047619,-131.984126984127,-304.5238095238095,103.57142857142857,-325.0,325.0,-118.65079365079364,-184.52380952380952,325.0,196.74603174603175,235.0,-5.7936507936507935,-8.809523809523808,-166.26984126984127
66,-169.12698412698413,235.79365079365078,-325.0,291.031746031746,-188.8095238095238,-173.88888888888889,-178.33333333333331,-149.28571428571428,-325.0,169.28571428571428,-238.33333333333331,-128.96825396825395,-325.0,101.34920634920634,-325.0,325.0,-309.4444444444444,-180.55555555555554,325.0,192.77777777777777,229.9206349206349,0.07936507936507936,-2.9365079365079363,-166.26984126984127
67,-169.12698412698413,235.79365079365078,-325.0,291.031746031746,-188.8095238095238,-173.88888888888889,-178.33333333333331,-149.28571428571428,-325.0,169.28571428571428,-238.33333333333331,-128.96825396825395,-325.0,101.34920634920634,-325.0,325.0,-309.4444444444444,-180.55555555555554,325.0,192.77777777777777,229.9206349206349,0.07936507936507936,-2.9365079365079363,-166.26984126984127
68,-169.12698412698413,235.79365079365078,-325.0,291.031746031746,-188.8095238095238,-173.88888888888889,-178.33333333333331,-149.28571428571428,-325.0,169.28571428571428,-238.33333333333331,-128.96825396825395,-325.0,101.34920634920634,-325.0,325.0,-309.4444444444444,-180.55555555555554,325.0,192.77777777777777,229.9206349206349,0.07936507936507936,-2.9365079365079363,-166.26984126984127
69,-169.12698412698413,235.79365079365078,-325.0,291.031746031746,-188.8095238095238,-173.88888888888889,-178.33333333333331,-149.28571428571428,-325.0,169.28571428571428,-238.33333333333331,-128.96825396825395,-325.0,101.34920634920634,-325.0,325.0,-309.4444444444444,-180.55555555555554,325.0,192.77777777777777,229.9206349206349,0.07936507936507936,-2.9365079365079363,-166.26984126984127
70,-169.12698412698413,235.79365079365078,-325.0,291.031746031746,-188.8095238095238,-173.88888888888889,-178.33333333333331,-149.28571428571428,-325.0,169.28571428571428,-238.33333333333331,-128.96825396825395,-325.0,101.34920634920634,-325.0,325.0,-309.4444444444444,-180.55555555555554,325.0,192.77777777777777,229.9206349206349,0.07936507936507936,-2.9365079365079363,-321.8253968253968
71,-169.12698412698413,235.79365079365078,-325.0,291.031746031746,-188.8095238095238,-173.88888888888889,-178.33333333333331,-149.28571428571428,-325.0,169.28571428571428,-238.33333333333331,-128.96825396825395,-325.0,101.34920634920634,-325.0,325.0,-309.4444444444444,-180.55555555555554,325.0,192.77777777777777,229.9206349206349,0.07936507936507936,-2.9365079365079363,-321.8253968253968
72,-169.12698412698413,235.79365079365078,-325.0,291.031746031746,-188.8095238095238,-173.88888888888889,-178.33333333333331,-149.28571428571428,-325.0,169.28571428571428,-238.33333333333331,-128.96825396825395,-325.0,101.34920634920634,-325.0,325.0,-309.4444444444444,-180.55555555555554,325.0,192.77777777777777,229.9206349206349,0.07936507936507936,-2.9365079365079363,-321.8253968253968
73,-169.12698412698413,235.79365079365078,-325.0,291.031746031746,-188.8095238095238,-173.88888888888889,-178.33333333333331,-149.28571428571428,-325.0,169.28571428571428,-238.33333333333331,-128.96825396825395,-325.0,101.34920634920634,-325.0,325.0,-309.4444444444444,-180.55555555555554,325.0,192.77777777777777,229.9206349206349,0.07936507936507936,-2.9365079365079363,-321.8253968253968
74,-169.12698412698413,235.79365079365078,-325.0,291.031746031746,-188.8095238095238,-173.88888888888889,-178.33333333333331,-149.28571428571428,-325.0,169.28571428571428,-238.33333333333331,-128.96825396825395,-325.0,101.34920634920634,-325.0,325.0,-309.4444444444444,-180.55555555555554,325.0,192.77777777777777,229.9206349206349,0.07936507936507936,-2.9365079365079363,-321.8253968253968
75,-169.12698412698413,235.79365079365078,-325.0,291.031746031746,-188.8095238095238,-173.88888888888889,-178.33333333333331,-149.28571428571428,-325.0,169.28571428571428,-238.33333333333331,-128.96825396825395,-325.0,101.34920634920634,-325.0,325.0,-309.4444444444444,-180.55555555555554,325.0,192.77777777777777,229.9206349206349,0.07936507936507936,-2.9365079365079363,-321.8253968253968
76,-169.12698412698413,235.79365079365078,-325.0,291.031746031746,-188.8095238095238,-173.88888888888889,-178.33333333333331,-149.28571428571428,-325.0,169.28571428571428,-238.33333333333331,-128.96825396825395,-325.0,101.34920634920634,-325.0,325.0,-309.4444444444444,-180.55555555555554,325.0,192.77777777777777,229.9206349206349,0.07936507936507936,-2.9365079365079363,-321.8253968253968
77,-169.12698412698413,235.79365079365078,-325.0,291.031746031746,-188.8095238095238,-173.88888888888889,-178.33333333333331,-149.28571428571428,-325.0,169.28571428571428,-238.33333333333331,-128.96825396825395,-325.0,101.34920634920634,-325.0,325.0,-309.4444444444444,-180.55555555555554,325.0,192.77777777777777,229.9206349206349,0.07936507936507936,-2.9365079365079363,-321.8253968253968
78,-169.12698412698413,235.79365079365078,-325.0,291.031746031746,-188.8095238095238,-173.88888888888889,-178.33333333333331,-149.28571428571428,-325.0,169.28571428571428,-238.33333333333331,-128.96825396825395,-325.0,101.34920634920634,-325.0,325.0,-309.4444444444444,-180.55555555555554,325.0,192.77777777777777,229.9206349206349,0.07936507936507936,-2.9365079365079363,-321.8253968253968
79,-169.12698412698413,235.79365079365078,-325.0,291.031746031746,-188.8095238095238,-173.88888888888889,-178.33333333333331,-149.28571428571428,-325.0,169.28571428571428,-238.33333333333331,-128.96825396825395,-325.0,101.34920634920634,-325.0,325.0,-309.4444444444444,-180.55555555555554,325.0,192.77777777777777,229.9206349206349,0.07936507936507936,-2.9365079365079363,-321.8253968253968
80,-169.12698412698413,235.79365079365078,-325.0,291.031746031746,-188.8095238095238,-173.88888888888889,-178.33333333333331,-149.28571428571428,-325.0,169.28571428571428,-238.33333333333331,-128.96825396825395,-325.0,101.34920634920634,-325.0,325.0,-309.4444444444444,-180.55555555555554,325.0,192.77777777777777,229.9206349206349,0.07936507936507936,-2.9365079365079363,-166.26984126984127
81,-169.12698412698413,235.79365079365078,-325.0,291.031746031746,-188.8095238095238,-173.88888888888889,-178.33333333333331,-149.28571428571428,-325.0,169.28571428571428,-238.33333333333331,-128.96825396825395,-325.0,101.34920634920634,-325.0,325.0,-309.4444444444444,-180.55555555555554,325.0,192.77777777777777,229.9206349206349,0.07936507936507936,-2.9365079365079363,-166.26984126984127
82,-98.80952380952381,106.9047619047619,-227.2222222222222,169.12698412698413,-169.44444444444443,-102.30158730158729,-104.68253968253968,-88.4920634920635,-209.9206349206349,47.698412698412696,-127.6984126984127,-75.63492063492063,-237.85714285714283,58.650793650793645,-229.76190476190476,82.93650793650794,-114.36507936507935,-107.06349206349206,226.42857142857142,112.46031746031746,133.0952380952381,4.841269841269841,2.46031746031746,-166.26984126984127
83,-98.80952380952381,106.9047619047619,-227.2222222222222,169.12698412698413,-169.44444444444443,-102.30158730158729,-104.68253968253968,-88.4920634920635,-209.9206349206349,47.698412698412696,-127.6984126984127,-75.63492063492063,-237.85714285714283,58.650793650793645,-229.76190476190476,82.93650793650794,-114.36507936507935,-107.06349206349206,226.42857142857142,112.46031746031746,133.0952380952381,4.841269841269841,2.46031746031746,-166.26984126984127
84,-28.333333333333332,-21.984126984126984,-129.44444444444443,47.38095238095238,-150.07936507936506,-30.555555555555554,-30.87301587301587,-27.698412698412696,-94.84126984126983,-73.88888888888889,-16.904761904761905,-22.142857142857142,-150.7142857142857,16.11111111111111,-134.52380952380952,-159.12698412698413,80.71428571428571,-33.57142857142857,128.015873015873,32.14285714285714,36.42857142857142,9.761904761904761,7.857142857142857,-166.26984126984127
85,-28.333333333333332,-21.984126984126984,-129.44444444444443,47.38095238095238,-150.07936507936506,-30.555555555555554,-30.87301587301587,-27.698412698412696,-94.84126984126983,-73.88888888888889,-16.904761904761905,-22.142857142857142,-150.7142857142857,16.11111111111111,-134.52380952380952,-159.12698412698413,80.71428571428571,-33.57142857142857,128.015873015873,32.14285714285714,36.42857142857142,9.761904761904761,7.857142857142857,-166.26984126984127
86,-27.063492063492063,325.0,-122.93650793650794,44.84126984126984,57.06349206349206,-29.444444444444443,-29.6031746031746,-26.746031746031743,-90.23809523809523,325.0,125.47619047619047,-21.349206349206348,-143.57142857142856,15.317460317460316,-128.17460317460316,325.0,39.76190476190476,-32.14285714285714,121.82539682539682,30.555555555555554,34.36507936507936,-10.714285714285714,-9.761904761904761,-166.26984126984127
87,-27.063492063492063,325.0,-122.93650793650794,44.84126984126984,57.06349206349206,-29.444444444444443,-29.6031746031746,-26.746031746031743,-90.23809523809523,325.0,125.47619047619047,-21.349206349206348,-143.57142857142856,15.317460317460316,-128.17460317460316,325.0,39.76190476190476,-32.14285714285714,121.82539682539682,30.555555555555554,34.36507936507936,-10.714285714285714,-9.761904761904761,-166.26984126984127
88,-27.063492063492063,325.0,-122.93650793650794,44.84126984126984,57.06349206349206,-29.444444444444443,-29.6031746031746,-26.746031746031743,-90.23809523809523,325.0,125.47619047619047,-21.349206349206348,-143.57142857142856,15.317460317460316,-128.17460317460316,325.0,39.76190476190476,-32.14285714285714,121.82539682539682,30.555555555555554,34.36507936507936,-10.714285714285714,-9.761904761904761,-166.26984126984127
89,-27.063492063492063,325.0,-122.93650793650794,44.84126984126984,57.06349206349206,-29.444444444444443,-29.6031746031746,-26.746031746031743,-90.23809523809523,325.0,125.47619047619047,-21.349206349206348,-143.57142857142856,15.317460317460316,-128.17460317460316,325.0,39.76190476190476,-32.14285714285714,121.82539682539682,30.555555555555554,34.36507936507936,-10.714285714285714,-9.761904761904761,-166.26984126984127
90,-27.063492063492063,325.0,-122.93650793650794,44.84126984126984,57.06349206349206,-29.444444444444443,-29.6031746031746,-26.746031746031743,-90.23809523809523,325.0,125.47619047619047,-21.349206349206348,-143.57142857142856,15.317460317460316,-128.17460317460316,325.0,39.76190476190476,-32.14285714285714,121.82539682539682,30.555555555555554,34.36507936507936,-10.714285714285714,-9.761904761904761,-321.8253968253968
91,-27.063492063492063,325.0,-122.93650793650794,44.84126984126984,57.06349206349206,-29.444444444444443,-29.6031746031746,-26.746031746031743,-90.23809523809523,325.0,125.47619047619047,-21.349206349206348,-143.57142857142856,15.317460317460316,-128.17460317460316,325.0,39.76190476190476,-32.14285714285714,121.82539682539682,30.555555555555554,34.36507936507936,-10.714285714285714,-9.761904761904761,-321.8253968253968
92,-17.857142857142858,267.22222222222223,-78.4920634920635,28.65079365079365,-68.65079365079364,-19.444444444444443,-19.76190476190476,-17.698412698412696,-58.33333333333333,198.65079365079364,-218.17460317460316,-11.984126984126984,-91.19047619047619,9.761904761904761,-83.09523809523809,120.39682539682539,-64.36507936507937,-21.19047619047619,77.85714285714285,17.063492063492063,21.825396825396822,-1.1904761904761905,-5.476190476190476,-321.8253968253968
93,-17.857142857142858,267.22222222222223,-78.4920634920635,28.65079365079365,-68.65079365079364,-19.444444444444443,-19.76190476190476,-17.698412698412696,-58.33333333333333,198.65079365079364,-218.17460317460316,-11.984126984126984,-91.19047619047619,9.761904761904761,-83.09523809523809,120.39682539682539,-64.36507936507937,-21.19047619047619,77.85714285714285,17.063492063492063,21.825396825396822,-1.1904761904761905,-5.476190476190476,-321.8253968253968
94,-17.857142857142858,267.22222222222223,-78.4920634920635,28.65079365079365,-68.65079365079364,-19.444444444444443,-19.76190476190476,-17.698412698412696,-58.33333333333333,198.65079365079364,-218.17460317460316,-11.984126984126984,-91.19047619047619,9.761904761904761,-83.09523809523809,120.39682539682539,-64.36507936507937,-21.19047619047619,77.85714285714285,17.063492063492063,21.825396825396822,-1.1904761904761905,-5.476190476190476,-321.8253968253968
95,-17.857142857142858,267.22222222222223,-78.4920634920635,28.65079365079365,-68.65079365079364,-19.444444444444443,-19.76190476190476,-17.698412698412696,-58.33333333333333,198.65079365079364,-218.17460317460316,-11.984126984126984,-91.19047619047619,9.761904761904761,-83.09523809523809,120.39682539682539,-64.36507936507937,-21.19047619047619,77.85714285714285,17.063492063492063,21.825396825396822,-1.1904761904761905,-5.476190476190476,-321.8253968253968
96,-11.984126984126984,234.52380952380952,-50.39682539682539,18.49206349206349,21.19047619047619,71.34920634920634,25.317460317460316,60.55555555555555,-37.53968253968254,220.87301587301587,-50.71428571428571,76.9047619047619,-55.79365079365079,9.603174603174603,-54.047619047619044,175.0,-64.84126984126983,33.095238095238095,49.6031746031746,-154.04761904761904,11.19047619047619,-3.253968253968254,-3.888888888888889,-321.8253968253968
97,-11.984126984126984,234.52380952380952,-50.39682539682539,18.49206349206349,21.19047619047619,71.34920634920634,25.317460317460316,60.55555555555555,-37.53968253968254,220.87301587301587,-50.71428571428571,76.9047619047619,-55.79365079365079,9.603174603174603,-54.047619047619044,175.0,-64.84126984126983,33.095238095238095,49.6031746031746,-154.04761904761904,11.19047619047619,-3.253968253968254,-3.888888888888889,-321.8253968253968
98,-6.26984126984127,150.07936507936506,-22.3015873015873,8.015873015873016,7.222222222222221,71.19047619047619,21.666666666666664,73.57142857142857,-16.746031746031743,88.33333333333333,-21.03174603174603,59.44444444444444,-23.88888888888889,-36.42857142857142,-24.365079365079364,41.82539682539682,-43.73015873015873,31.507936507936506,21.19047619047619,-249.9206349206349,5.952380952380952,-2.7777777777777777,-6.746031746031746,-321.8253968253968
99,-6.26984126984127,150.07936507936506,-22.3015873015873,8.015873015873016,7.222222222222221,71.19047619047619,21.666666666666664,73.57142857142857,-16.746031746031743,88.33333333333333,-21.03174603174603,59.44444444444444,-23.88888888888889,-36.42857142857142,-24.365079365079364,41.82539682539682,-43.73015873015873,31.507936507936506,21.19047619047619,-249.9206349206349,5.952380952380952,-2.7777777777777777,-6.746031746031746,-321.8253968253968
100,-6.111111111111111,83.57142857142857,-21.984126984126984,8.015873015873016,20.238095238095237,71.34920634920634,28.49206349206349,68.17460317460318,-16.587301587301585,54.52380952380952,30.396825396825395,73.25396825396825,-22.3015873015873,-44.52380952380952,-24.047619047619047,33.41269841269841,8.968253968253968,37.22222222222222,20.873015873015873,-249.9206349206349,1.507936507936508,-0.873015873015873,-0.3968253968253968,-166.26984126984127
101,-6.111111111111111,83.57142857142857,-21.984126984126984,8.015873015873016,20.238095238095237,71.34920634920634,28.49206349206349,68.17460317460318,-16.587301587301585,54.52380952380952,30.396825396825395,73.25396825396825,-22.3015873015873,-44.52380952380952,-24.047619047619047,33.41269841269841,8.968253968253968,37.22222222222222,20.873015873015873,-249.9206349206349,1.507936507936508,-0.873015873015873,-0.3968253968253968,-166.26984126984127
102,-5.952380952380952,102.14285714285714,-21.666666666666664,7.857142857142857,4.0476190476190474,42.77777777777778,15.0,49.6031746031746,-16.11111111111111,49.76190476190476,36.904761904761905,40.238095238095234,-22.936507936507937,-25.0,-23.57142857142857,26.428571428571427,15.476190476190474,18.65079365079365,20.555555555555554,-277.06349206349205,5.476190476190476,-0.23809523809523808,0.3968253968253968,-166.26984126984127
103,-5.952380952380952,102.14285714285714,-21.666666666666664,7.857142857142857,4.0476190476190474,42.77777777777778,15.0,49.6031746031746,-16.11111111111111,49.76190476190476,36.904761904761905,40.238095238095234,-22.936507936507937,-25.0,-23.57142857142857,26.428571428571427,15.476190476190474,18.65079365079365,20.555555555555554,-277.06349206349205,5.476190476190476,-0.23809523809523808,0.3968253968253968,-166.26984126984127
104,-5.7936507936507935,-120.71428571428571,-21.19047619047619,7.698412698412698,-76.9047619047619,-59.76190476190476,-26.26984126984127,-37.857142857142854,-15.95238095238095,-172.46031746031744,26.746031746031743,-53.888888888888886,-23.730158730158728,-78.65079365079364,-23.253968253968253,-163.73015873015873,179.12698412698413,-29.126984126984127,20.238095238095237,-229.12698412698413,7.222222222222221,8.809523809523808,12.142857142857142,-166.26984126984127
105,-5.7936507936507935,-120.71428571428571,-21.19047619047619,7.698412698412698,-76.9047619047619,-59.76190476190476,-26.26984126984127,-37.857142857142854,-15.95238095238095,-172.46031746031744,26.746031746031743,-53.888888888888886,-23.730158730158728,-78.65079365079364,-23.253968253968253,-163.73015873015873,179.12698412698413,-29.126984126984127,20.238095238095237,-229.12698412698413,7.222222222222221,8.809523809523808,12.142857142857142,-166.26984126984127
106,-5.7936507936507935,-120.71428571428571,-21.19047619047619,7.698412698412698,-76.9047619047619,-59.76190476190476,-26.26984126984127,-37.857142857142854,-15.95238095238095,-172.46031746031744,26.746031746031743,-53.888888888888886,-23.730158730158728,-78.65079365079364,-23.253968253968253,-163.73015873015873,179.12698412698413,-29.126984126984127,20.238095238095237,-229.12698412698413,7.222222222222221,8.809523809523808,12.142857142857142,-166.26984126984127
107,-5.7936507936507935,-120.71428571428571,-21.19047619047619,7.698412698412698,-76.9047619047619,-59.76190476190476,-26.26984126984127,-37.857142857142854,-15.95238095238095,-172.46031746031744,26.746031746031743,-53.888888888888886,-23.730158730158728,-78.65079365079364,-23.253968253968253,-163.73015873015873,179.12698412698413,-29.126984126984127,20.238095238095237,-229.12698412698413,7.222222222222221,8.809523809523808,12.142857142857142,-166.26984126984127
108,-5.7936507936507935,-120.71428571428571,-21.19047619047619,7.698412698412698,-76.9047619047619,-59.76190476190476,-26.26984126984127,-37.857142857142854,-15.95238095238095,-172.46031746031744,26.746031746031743,-53.888888888888886,-23.730158730158728,-78.65079365079364,-23.253968253968253,-163.73015873015873,179.12698412698413,-29.126984126984127,20.238095238095237,-229.12698412698413,7.222222222222221,8.809523809523808,12.142857142857142,-166.26984126984127
109,-5.7936507936507935,-120.71428571428571,-21.19047619047619,7.698412698412698,-76.9047619047619,-59.76190476190476,-26.26984126984127,-37.857142857142854,-15.95238095238095,-172.46031746031744,26.746031746031743,-53.888888888888886,-23.730158730158728,-78.65079365079364,-23.253968253968253,-163.73015873015873,179.12698412698413,-29.126984126984127,20.238095238095237,-229.12698412698413,7.222222222222221,8.809523809523808,12.142857142857142,-166.26984126984127
110,-5.7936507936507935,-120.71428571428571,-21.19047619047619,7.698412698412698,-76.9047619047619,-59.76190476190476,-26.26984126984127,-37.857142857142854,-15.95238095238095,-172.46031746031744,26.746031746031743,-53.888888888888886,-23.730158730158728,-78.65079365079364,-23.253968253968253,-163.73015873015873,179.12698412698413,-29.126984126984127,20.238095238095237,-229.12698412698413,7.222222222222221,8.809523809523808,12.142857142857142,-321.8253968253968
111,-5.7936507936507935,-120.71428571428571,-21.19047619047619,7.698412698412698,-76.9047619047619,-59.76190476190476,-26.26984126984127,-37.857142857142854,-15.95238095238095,-172.46031746031744,26.746031746031743,-53.888888888888886,-23.730158730158728,-78.65079365079364,-23.253968253968253,-163.73015873015873,179.12698412698413,-29.126984126984127,20.238095238095237,-229.12698412698413,7.222222222222221,8.809523809523808,12.142857142857142,-321.8253968253968
112,-5.7936507936507935,-120.71428571428571,-21.19047619047619,7.698412698412698,-76.9047619047619,-59.76190476190476,-26.26984126984127,-37.857142857142854,-15.95238095238095,-172.46031746031744,26.746031746031743,-53.888888888888886,-23.730158730158728,-78.65079365079364,-23.253968253968253,-163.73015873015873,179.12698412698413,-29.126984126984127,20.238095238095237,-229.12698412698413,7.222222222222221,8.809523809523808,12.142857142857142,-321.8253968253968
113,-5.7936507936507935,-120.71428571428571,-21.19047619047619,7.698412698412698,-76.9047619047619,-59.76190476190476,-26.26984126984127,-37.857142857142854,-15.95238095238095,-172.46031746031744,26.746031746031743,-53.888888888888886,-23.730158730158728,-78.65079365079364,-23.253968253968253,-163.73015873015873,179.12698412698413,-29.126984126984127,20.238095238095237,-229.12698412698413,7.222222222222221,8.809523809523808,12.142857142857142,-321.8253968253968
114,-5.7936507936507935,-120.71428571428571,-21.19047619047619,7.698412698412698,-76.9047619047619,-59.76190476190476,-26.26984126984127,-37.857142857142854,-15.95238095238095,-172.46031746031744,26.746031746031743,-53.888888888888886,-23.730158730158728,-78.65079365079364,-23.253968253968253,-163.73015873015873,179.12698412698413,-29.126984126984127,20.238095238095237,-229.12698412698413,7.222222222222221,8.809523809523808,12.142857142857142,-321.8253968253968
115,-5.7936507936507935,-120.71428571428571,-21.19047619047619,7.698412698412698,-76.9047619047619,-59.76190476190476,-26.26984126984127,-37.857142857142854,-15.95238095238095,-172.46031746031744,26.746031746031743,-53.888888888888886,-23.730158730158728,-78.65079365079364,-23.253968253968253,-163.73015873015873,179.12698412698413,-29.126984126984127,20.238095238095237,-229.12698412698413,7.222222222222221,8.809523809523808,12.142857142857142,-321.8253968253968
116,-5.7936507936507935,-120.71428571428571,-21.19047619047619,7.698412698412698,-76.9047619047619,-59.76190476190476,-26.26984126984127,-37.857142857142854,-15.95238095238095,-172.46031746031744,26.746031746031743,-53.888888888888886,-23.730158730158728,-78.65079365079364,-23.253968253968253,-163.73015873015873,179.12698412698413,-29.126984126984127,20.238095238095237,-229.12698412698413,7.222222222222221,8.809523809523808,12.142857142857142,-321.8253968253968
117,-5.7936507936507935,-120.71428571428571,-21.19047619047619,7.698412698412698,-76.9047619047619,-59.76190476190476,-26.26984126984127,-37.857142857142854,-15.95238095238095,-172.46031746031744,26.746031746031743,-53.888888888888886,-23.730158730158728,-78.65079365079364,-23.253968253968253,-163.73015873015873,179.12698412698413,-29.126984126984127,20.238095238095237,-229.12698412698413,7.222222222222221,8.809523809523808,12.142857142857142,-321.8253968253968
118,-5.7936507936507935,-120.71428571428571,-21.19047619047619,7.698412698412698,-76.9047619047619,-59.76190476190476,-26.26984126984127,-37.857142857142854,-15.95238095238095,-172.46031746031744,26.746031746031743,-53.888888888888886,-23.730158730158728,-78.65079365079364,-23.253968253968253,-163.73015873015873,179.12698412698413,-29.126984126984127,20.238095238095237,-229.12698412698413,7.222222222222221,8.809523809523808,12.142857142857142,-321.8253968253968
119,-5.7936507936507935,-120.71428571428571,-21.19047619047619,7.698412698412698,-76.9047619047619,-59.76190476190476,-26.26984126984127,-37.857142857142854,-15.95238095238095,-172.46031746031744,26.746031746031743,-53.888888888888886,-23.730158730158728,-78.65079365079364,-23.253968253968253,-163.73015873015873,179.12698412698413,-29.126984126984127,20.238095238095237,-229.12698412698413,7.222222222222221,8.809523809523808,12.142857142857142,-321.8253968253968
120,-5.7936507936507935,-120.71428571428571,-21.19047619047619,7.698412698412698,-76.9047619047619,-59.76190476190476,-26.26984126984127,-37.857142857142854,-15.95238095238095,-172.46031746031744,26.746031746031743,-53.888888888888886,-23.730158730158728,-78.65079365079364,-23.253968253968253,-163.73015873015873,179.12698412698413,-29.126984126984127,20.238095238095237,-229.12698412698413,7.222222222222221,8.809523809523808,12.142857142857142,-166.26984126984127
121,-5.7936507936507935,-120.71428571428571,-21.19047619047619,7.698412698412698,-76.9047619047619,-59.76190476190476,-26.26984126984127,-37.857142857142854,-15.95238095238095,-172.46031746031744,26.746031746031743,-53.888888888888886,-23.730158730158728,-78.65079365079364,-23.253968253968253,-163.73015873015873,179.12698412698413,-29.126984126984127,20.238095238095237,-229.12698412698413,7.222222222222221,8.809523809523808,12.142857142857142,-166.26984126984127
122,-5.7936507936507935,-120.71428571428571,-21.19047619047619,7.698412698412698,-76.9047619047619,-59.76190476190476,-26.26984126984127,-37.857142857142854,-15.95238095238095,-172.46031746031744,26.746031746031743,-53.888888888888886,-23.730158730158728,-78.65079365079364,-23.253968253968253,-163.73015873015873,179.12698412698413,-29.126984126984127,20.238095238095237,-229.12698412698413,7.222222222222221,8.809523809523808,12.142857142857142,-166.26984126984127
123,-5.7936507936507935,-120.71428571428571,-21.19047619047619,7.698412698412698,-76.9047619047619,-59.76190476190476,-26.26984126984127,-37.857142857142854,-15.95238095238095,-172.46031746031744,26.746031746031743,-53.888888888888886,-23.730158730158728,-78.65079365079364,-23.253968253968253,-163.73015873015873,179.12698412698413,-29.126984126984127,20.238095238095237,-229.12698412698413,7.222222222222221,8.809523809523808,12.142857142857142,-166.26984126984127
124,-5.7936507936507935,-120.71428571428571,-21.19047619047619,7.698412698412698,-76.9047619047619,-59.76190476190476,-26.26984126984127,-37.857142857142854,-15.95238095238095,-172.46031746031744,26.746031746031743,-53.888888888888886,-23.730158730158728,-78.65079365079364,-23.253968253968253,-163.73015873015873,179.12698412698413,-29.126984126984127,20.238095238095237,-229.12698412698413,7.222222222222221,8.809523809523808,12.142857142857142,-166.26984126984127
125,-5.7936507936507935,-120.71428571428571,-21.19047619047619,7.698412698412698,-76.9047619047619,-59.76190476190476,-26.26984126984127,-37.857142857142854,-15.95238095238095,-172.46031746031744,26.746031746031743,-53.888888888888886,-23.730158730158728,-78.65079365079364,-23.253968253968253,-163.73015873015873,179.12698412698413,-29.126984126984127,20.238095238095237,-229.12698412698413,7.222222222222221,8.809523809523808,12.142857142857142,-166.26984126984127
126,-5.7936507936507935,-120.71428571428571,-21.19047619047619,7.698412698412698,-76.9047619047619,-59.76190476190476,-26.26984126984127,-37.857142857142854,-15.95238095238095,-172.46031746031744,26.746031746031743,-53.888888888888886,-23.730158730158728,-78.65079365079364,-23.253968253968253,-163.73015873015873,179.12698412698413,-29.126984126984127,20.238095238095237,-229.12698412698413,7.222222222222221,8.809523809523808,12.142857142857142,-166.26984126984127
127,-5.7936507936507935,-120.71428571428571,-21.19047619047619,7.698412698412698,-76.9047619047619,-59.76190476190476,-26.26984126984127,-37.857142857142854,-15.95238095238095,-172.46031746031744,26.746031746031743,-53.888888888888886,-23.730158730158728,-78.65079365079364,-23.253968253968253,-163.73015873015873,179.12698412698413,-29.126984126984127,20.238095238095237,-229.12698412698413,7.222222222222221,8.809523809523808,12.142857142857142,-166.26984126984127
128,-5.7936507936507935,-120.71428571428571,-21.19047619047619,7.698412698412698,-76.9047619047619,-59.76190476190476,-26.26984126984127,-37.857142857142854,-15.95238095238095,-172.46031746031744,26.746031746031743,-53.888888888888886,-23.730158730158728,-78.65079365079364,-23.253968253968253,-163.73015873015873,179.12698412698413,-29.126984126984127,20.238095238095237,-229.12698412698413,7.222222222222221,8.809523809523808,12.142857142857142,-166.26984126984127
129,-5.7936507936507935,-120.71428571428571,-21.19047619047619,7.698412698412698,-76.9047619047619,-59.76190476190476,-26.26984126984127,-37.857142857142854,-15.95238095238095,-172.46031746031744,26.746031746031743,-53.888888888888886,-23.730158730158728,-78.65079365079364,-23.253968253968253,-163.73015873015873,179.12698412698413,-29.126984126984127,20.238095238095237,-229.12698412698413,7.222222222222221,8.809523809523808,12.142857142857142,-166.26984126984127
130,-5.7936507936507935,-120.71428571428571,-21.19047619047619,7.698412698412698,-76.9047619047619,-59.76190476190476,-26.26984126984127,-37.857142857142854,-15.95238095238095,-172.46031746031744,26.746031746031743,-53.888888888888886,-23.730158730158728,-78.65079365079364,-23.253968253968253,-163.73015873015873,179.12698412698413,-29.126984126984127,20.238095238095237,-229.12698412698413,7.222222222222221,8.809523809523808,12.142857142857142,-321.8253968253968
131,-5.7936507936507935,-120.71428571428571,-21.19047619047619,7.698412698412698,-76.9047619047619,-59.76190476190476,-26.26984126984127,-37.857142857142854,-15.95238095238095,-172.46031746031744,26.746031746031743,-53.888888888888886,-23.730158730158728,-78.65079365079364,-23.253968253968253,-163.73015873015873,179.12698412698413,-29.126984126984127,20.238095238095237,-229.12698412698413,7.222222222222221,8.809523809523808,12.142857142857142,-321.8253968253968
132,-12.3015873015873,-77.38095238095238,1.507936507936508,-58.8095238095238,130.7142857142857,60.55555555555555,61.03174603174603,98.96825396825396,1.349206349206349,30.07936507936508,58.33333333333333,98.49206349206348,5.476190476190476,-34.84126984126984,3.888888888888889,35.95238095238095,5.7936507936507935,81.34920634920634,3.73015873015873,-156.11111111111111,-153.09523809523807,2.142857142857143,6.746031746031746,-321.8253968253968
133,-12.3015873015873,-77.38095238095238,1.507936507936508,-58.8095238095238,130.7142857142857,60.55555555555555,61.03174603174603,98.96825396825396,1.349206349206349,30.07936507936508,58.33333333333333,98.49206349206348,5.476190476190476,-34.84126984126984,3.888888888888889,35.95238095238095,5.7936507936507935,81.34920634920634,3.73015873015873,-156.11111111111111,-153.09523809523807,2.142857142857143,6.746031746031746,-321.8253968253968
134,-12.3015873015873,-77.38095238095238,1.507936507936508,-58.8095238095238,130.7142857142857,60.55555555555555,61.03174603174603,98.96825396825396,1.349206349206349,30.07936507936508,58.33333333333333,98.49206349206348,5.476190476190476,-34.84126984126984,3.888888888888889,35.95238095238095,5.7936507936507935,81.34920634920634,3.73015873015873,-156.11111111111111,-153.09523809523807,2.142857142857143,6.746031746031746,-321.8253968253968
135,-12.3015873015873,-77.38095238095238,1.507936507936508,-58.8095238095238,130.7142857142857,60.55555555555555,61.03174603174603,98.96825396825396,1.349206349206349,30.07936507936508,58.33333333333333,98.49206349206348,5.476190476190476,-34.84126984126984,3.888888888888889,35.95238095238095,5.7936507936507935,81.34920634920634,3.73015873015873,-156.11111111111111,-153.09523809523807,2.142857142857143,6.746031746031746,-321.8253968253968
136,-23.88888888888889,-71.34920634920634,19.444444444444443,-88.96825396825396,82.61904761904762,97.06349206349206,76.74603174603175,110.39682539682539,19.76190476190476,51.666666666666664,68.65079365079364,131.03174603174602,31.825396825396822,-1.6666666666666665,10.714285714285714,60.873015873015866,55.63492063492063,110.23809523809523,5.476190476190476,-147.2222222222222,-177.2222222222222,0.7142857142857142,5.634920634920634,-321.8253968253968
137,-23.88888888888889,-71.34920634920634,19.444444444444443,-88.96825396825396,82.61904761904762,97.06349206349206,76.74603174603175,110.39682539682539,19.76190476190476,51.666666666666664,68.65079365079364,131.03174603174602,31.825396825396822,-1.6666666666666665,10.714285714285714,60.873015873015866,55.63492063492063,110.23809523809523,5.476190476190476,-147.2222222222222,-177.2222222222222,0.7142857142857142,5.634920634920634,-321.8253968253968
138,33.095238095238095,-118.01587301587301,24.365079365079364,-54.047619047619044,-28.174603174603174,56.904761904761905,30.87301587301587,65.31746031746032,21.825396825396822,-11.031746031746032,-0.07936507936507936,67.06349206349206,29.76190476190476,-44.52380952380952,9.920634920634921,-10.714285714285714,114.68253968253967,67.6984126984127,-4.523809523809524,-41.98412698412698,-69.12698412698413,0.3968253968253968,-0.873015873015873,-321.8253968253968
139,33.095238095238095,-118.01587301587301,24.365079365079364,-54.047619047619044,-28.174603174603174,56.904761904761905,30.87301587301587,65.31746031746032,21.825396825396822,-11.031746031746032,-0.07936507936507936,67.06349206349206,29.76190476190476,-44.52380952380952,9.920634920634921,-10.714285714285714,114.68253968253967,67.6984126984127,-4.523809523809524,-41.98412698412698,-69.12698412698413,0.3968253968253968,-0.873015873015873,-321.8253968253968
140,-36.42857142857142,-112.93650793650794,51.19047619047619,-115.31746031746032,52.93650793650794,131.984126984127,101.5079365079365,124.52380952380952,47.06349206349206,76.42857142857143,86.74603174603175,169.28571428571428,68.17460317460318,31.666666666666664,23.730158730158728,96.9047619047619,109.28571428571428,146.26984126984127,7.857142857142857,-131.5079365079365,-200.87301587301587,0.5555555555555556,3.253968253968254,-166.26984126984127
141,-36.42857142857142,-112.93650793650794,51.19047619047619,-115.31746031746032,52.93650793650794,131.984126984127,101.5079365079365,124.52380952380952,47.06349206349206,76.42857142857143,86.74603174603175,169.28571428571428,68.17460317460318,31.666666666666664,23.730158730158728,96.9047619047619,109.28571428571428,146.26984126984127,7.857142857142857,-131.5079365079365,-200.87301587301587,0.5555555555555556,3.253968253968254,-166.26984126984127
142,-36.42857142857142,-112.93650793650794,51.19047619047619,-115.31746031746032,52.93650793650794,131.984126984127,101.5079365079365,124.52380952380952,47.06349206349206,76.42857142857143,86.74603174603175,169.28571428571428,68.17460317460318,31.666666666666664,23.730158730158728,96.9047619047619,109.28571428571428,146.26984126984127,7.857142857142857,-131.5079365079365,-200.87301587301587,0.5555555555555556,3.253968253968254,-166.26984126984127
143,-36.42857142857142,-112.93650793650794,51.19047619047619,-115.31746031746032,52.93650793650794,131.984126984127,101.5079365079365,124.52380952380952,47.06349206349206,76.42857142857143,86.74603174603175,169.28571428571428,68.17460317460318,31.666666666666664,23.730158730158728,96.9047619047619,109.28571428571428,146.26984126984127,7.857142857142857,-131.5079365079365,-200.87301587301587,0.5555555555555556,3.253968253968254,-166.26984126984127
144,62.93650793650793,-231.8253968253968,-21.507936507936506,-61.666666666666664,-129.6031746031746,-123.09523809523809,-101.5079365079365,-76.1111111111111,-20.71428571428571,-191.98412698412696,-84.36507936507937,-115.15873015873015,-37.698412698412696,-185.15873015873015,-12.619047619047619,-184.84126984126982,162.46031746031744,-78.65079365079364,-6.26984126984127,67.22222222222221,56.58730158730158,6.746031746031746,4.682539682539682,-166.26984126984127
145,62.93650793650793,-231.8253968253968,-21.507936507936506,-61.666666666666664,-129.6031746031746,-123.09523809523809,-101.5079365079365,-76.1111111111111,-20.71428571428571,-191.98412698412696,-84.36507936507937,-115.15873015873015,-37.698412698412696,-185.15873015873015,-12.619047619047619,-184.84126984126982,162.46031746031744,-78.65079365079364,-6.26984126984127,67.22222222222221,56.58730158730158,6.746031746031746,4.682539682539682,-166.26984126984127
146,-39.92063492063492,-47.698412698412696,51.34920634920635,-117.38095238095238,64.36507936507937,158.8095238095238,101.03174603174602,148.17460317460316,52.61904761904761,100.71428571428571,65.79365079365078,177.38095238095238,70.87301587301587,36.269841269841265,26.26984126984127,112.6190476190476,52.77777777777777,167.06349206349205,9.126984126984127,-141.03174603174602,-196.74603174603175,0.23809523809523808,2.9365079365079363,-166.26984126984127
147,-39.92063492063492,-47.698412698412696,51.34920634920635,-117.38095238095238,64.36507936507937,158.8095238095238,101.03174603174602,148.17460317460316,52.61904761904761,100.71428571428571,65.79365079365078,177.38095238095238,70.87301587301587,36.269841269841265,26.26984126984127,112.6190476190476,52.77777777777777,167.06349206349205,9.126984126984127,-141.03174603174602,-196.74603174603175,0.23809523809523808,2.9365079365079363,-166.26984126984127
148,68.65079365079364,-212.46031746031744,-21.984126984126984,-50.238095238095234,-120.71428571428571,-128.96825396825395,-103.09523809523809,-84.68253968253968,-21.666666666666664,-196.58730158730157,-82.3015873015873,-114.52380952380952,-39.285714285714285,-185.95238095238093,-12.777777777777777,-191.98412698412696,153.73015873015873,-82.93650793650794,-8.015873015873016,62.3015873015873,57.698412698412696,6.26984126984127,5.0,-166.26984126984127
149,68.65079365079364,-212.46031746031744,-21.984126984126984,-50.238095238095234,-120.71428571428571,-128.96825396825395,-103.09523809523809,-84.68253968253968,-21.666666666666664,-196.58730158730157,-82.3015873015873,-114.52380952380952,-39.285714285714285,-185.95238095238093,-12.777777777777777,-191.98412698412696,153.73015873015873,-82.93650793650794,-8.015873015873016,62.3015873015873,57.698412698412696,6.26984126984127,5.0,-166.26984126984127
150,-41.03174603174603,-3.4126984126984126,48.80952380952381,-106.26984126984127,67.06349206349206,158.33333333333331,92.77777777777777,150.55555555555554,50.71428571428571,103.4126984126984,63.095238095238095,188.4920634920635,71.82539682539682,38.65079365079365,23.095238095238095,115.63492063492063,27.38095238095238,169.12698412698413,10.079365079365079,-159.76190476190476,-202.46031746031744,-0.3968253968253968,2.619047619047619,-321.8253968253968
151,-41.03174603174603,-3.4126984126984126,48.80952380952381,-106.26984126984127,67.06349206349206,158.33333333333331,92.77777777777777,150.55555555555554,50.71428571428571,103.4126984126984,63.095238095238095,188.4920634920635,71.82539682539682,38.65079365079365,23.095238095238095,115.63492063492063,27.38095238095238,169.12698412698413,10.079365079365079,-159.76190476190476,-202.46031746031744,-0.3968253968253968,2.619047619047619,-321.8253968253968
152,59.12698412698413,-187.85714285714283,-24.365079365079364,-58.01587301587301,-130.7142857142857,-131.5079365079365,-108.65079365079364,-78.33333333333333,-23.41269841269841,-195.15873015873015,-99.6031746031746,-118.8095238095238,-41.82539682539682,-179.9206349206349,-13.73015873015873,-182.77777777777777,120.23809523809523,-82.46031746031746,-7.063492063492063,44.84126984126984,60.079365079365076,7.222222222222221,5.0,-321.8253968253968
153,59.12698412698413,-187.85714285714283,-24.365079365079364,-58.01587301587301,-130.7142857142857,-131.5079365079365,-108.65079365079364,-78.33333333333333,-23.41269841269841,-195.15873015873015,-99.6031746031746,-118.8095238095238,-41.82539682539682,-179.9206349206349,-13.73015873015873,-182.77777777777777,120.23809523809523,-82.46031746031746,-7.063492063492063,44.84126984126984,60.079365079365076,7.222222222222221,5.0,-321.8253968253968
154,-43.41269841269841,33.41269841269841,42.93650793650794,-111.19047619047619,63.095238095238095,171.984126984127,86.9047619047619,167.38095238095238,49.285714285714285,112.93650793650794,48.650793650793645,183.4126984126984,68.80952380952381,48.80952380952381,26.587301587301585,133.4126984126984,-5.634920634920634,175.15873015873015,10.396825396825395,-162.14285714285714,-192.3015873015873,-1.1904761904761905,2.46031746031746,-321.8253968253968
155,-43.41269841269841,33.41269841269841,42.93650793650794,-111.19047619047619,63.095238095238095,171.984126984127,86.9047619047619,167.38095238095238,49.285714285714285,112.93650793650794,48.650793650793645,183.4126984126984,68.80952380952381,48.80952380952381,26.587301587301585,133.4126984126984,-5.634920634920634,175.15873015873015,10.396825396825395,-162.14285714285714,-192.3015873015873,-1.1904761904761905,2.46031746031746,-321.8253968253968
156,61.34920634920635,-191.5079365079365,-25.476190476190474,-55.63492063492063,-111.98412698412697,-131.66666666666666,-109.92063492063491,-80.87301587301587,-24.523809523809522,-206.26984126984127,-82.61904761904762,-119.6031746031746,-43.57142857142857,-180.3968253968254,-14.047619047619047,-187.2222222222222,126.1111111111111,-86.42857142857143,-8.015873015873016,67.22222222222221,60.238095238095234,6.428571428571428,4.523809523809524,-321.8253968253968
157,61.34920634920635,-191.5079365079365,-25.476190476190474,-55.63492063492063,-111.98412698412697,-131.66666666666666,-109.92063492063491,-80.87301587301587,-24.523809523809522,-206.26984126984127,-82.61904761904762,-119.6031746031746,-43.57142857142857,-180.3968253968254,-14.047619047619047,-187.2222222222222,126.1111111111111,-86.42857142857143,-8.015873015873016,67.22222222222221,60.238095238095234,6.428571428571428,4.523809523809524,-321.8253968253968
158,-43.095238095238095,38.96825396825397,67.22222222222221,-108.49206349206348,99.92063492063491,172.61904761904762,108.49206349206348,156.9047619047619,61.666666666666664,97.38095238095238,80.39682539682539,192.14285714285714,81.5079365079365,49.44444444444444,32.61904761904762,122.30158730158729,14.047619047619047,168.96825396825395,10.873015873015872,-144.84126984126982,-206.1111111111111,-1.6666666666666665,1.984126984126984,-321.8253968253968
159,-43.095238095238095,38.96825396825397,67.22222222222221,-108.49206349206348,99.92063492063491,172.61904761904762,108.49206349206348,156.9047619047619,61.666666666666664,97.38095238095238,80.39682539682539,192.14285714285714,81.5079365079365,49.44444444444444,32.61904761904762,122.30158730158729,14.047619047619047,168.96825396825395,10.873015873015872,-144.84126984126982,-206.1111111111111,-1.6666666666666665,1.984126984126984,-321.8253968253968
160,92.14285714285714,-204.2063492063492,-25.0,-47.53968253968254,-91.98412698412697,-133.73015873015873,-106.9047619047619,-86.74603174603175,-25.158730158730158,-217.06349206349205,-63.888888888888886,-115.47619047619047,-43.888888888888886,-190.7142857142857,-14.523809523809524,-204.04761904761904,142.14285714285714,-88.65079365079364,-6.26984126984127,65.79365079365078,56.58730158730158,6.587301587301587,5.158730158730158,-166.26984126984127
161,92.14285714285714,-204.2063492063492,-25.0,-47.53968253968254,-91.98412698412697,-133.73015873015873,-106.9047619047619,-86.74603174603175,-25.158730158730158,-217.06349206349205,-63.888888888888886,-115.47619047619047,-43.888888888888886,-190.7142857142857,-14.523809523809524,-204.04761904761904,142.14285714285714,-88.65079365079364,-6.26984126984127,65.79365079365078,56.58730158730158,6.587301587301587,5.158730158730158,-166.26984126984127
162,-40.39682539682539,11.349206349206348,80.55555555555556,-99.28571428571428,114.04761904761904,175.3174603174603,116.74603174603173,160.07936507936506,68.80952380952381,98.80952380952381,95.31746031746032,201.98412698412696,95.15873015873015,48.49206349206349,37.38095238095238,114.68253968253967,15.793650793650793,177.06349206349205,11.507936507936508,-142.46031746031744,-213.09523809523807,-2.3015873015873014,2.3015873015873014,-166.26984126984127
163,-40.39682539682539,11.349206349206348,80.55555555555556,-99.28571428571428,114.04761904761904,175.3174603174603,116.74603174603173,160.07936507936506,68.80952380952381,98.80952380952381,95.31746031746032,201.98412698412696,95.15873015873015,48.49206349206349,37.38095238095238,114.68253968253967,15.793650793650793,177.06349206349205,11.507936507936508,-142.46031746031744,-213.09523809523807,-2.3015873015873014,2.3015873015873014,-166.26984126984127
164,97.53968253968253,-210.7142857142857,-25.476190476190474,-51.98412698412698,-88.17460317460316,-137.69841269841268,-106.26984126984127,-88.65079365079364,-25.634920634920633,-212.46031746031744,-55.63492063492063,-113.88888888888889,-45.0,-179.76190476190476,-15.317460317460316,-206.1111111111111,129.28571428571428,-87.53968253968253,-5.476190476190476,78.4920634920635,55.79365079365079,6.587301587301587,5.0,-166.26984126984127
165,97.53968253968253,-210.7142857142857,-25.476190476190474,-51.98412698412698,-88.17460317460316,-137.69841269841268,-106.26984126984127,-88.65079365079364,-25.634920634920633,-212.46031746031744,-55.63492063492063,-113.88888888888889,-45.0,-179.76190476190476,-15.317460317460316,-206.1111111111111,129.28571428571428,-87.53968253968253,-5.476190476190476,78.4920634920635,55.79365079365079,6.587301587301587,5.0,-166.26984126984127
166,-43.73015873015873,1.349206349206349,76.26984126984127,-104.68253968253968,126.74603174603173,186.9047619047619,127.22222222222221,169.12698412698413,79.92063492063491,111.66666666666666,97.6984126984127,208.4920634920635,99.6031746031746,55.79365079365079,45.79365079365079,122.30158730158729,-7.063492063492063,184.04761904761904,11.984126984126984,-138.015873015873,-218.96825396825395,-1.984126984126984,1.984126984126984,-166.26984126984127
167,-43.73015873015873,1.349206349206349,76.26984126984127,-104.68253968253968,126.74603174603173,186.9047619047619,127.22222222222221,169.12698412698413,79.92063492063491,111.66666666666666,97.6984126984127,208.4920634920635,99.6031746031746,55.79365079365079,45.79365079365079,122.30158730158729,-7.063492063492063,184.04761904761904,11.984126984126984,-138.015873015873,-218.96825396825395,-1.984126984126984,1.984126984126984,-166.26984126984127
168,11.666666666666666,-161.8253968253968,15.158730158730158,-109.28571428571428,20.555555555555554,-17.857142857142858,-11.349206349206348,3.73015873015873,18.65079365079365,-83.25396825396825,34.52380952380952,19.126984126984127,13.412698412698411,-83.57142857142857,11.19047619047619,-59.92063492063492,92.30158730158729,24.68253968253968,10.555555555555555,-28.49206349206349,-94.68253968253968,5.952380952380952,8.174603174603174,-166.26984126984127
169,11.666666666666666,-161.8253968253968,15.158730158730158,-109.28571428571428,20.555555555555554,-17.857142857142858,-11.349206349206348,3.73015873015873,18.65079365079365,-83.25396825396825,34.52380952380952,19.126984126984127,13.412698412698411,-83.57142857142857,11.19047619047619,-59.92063492063492,92.30158730158729,24.68253968253968,10.555555555555555,-28.49206349206349,-94.68253968253968,5.952380952380952,8.174603174603174,-166.26984126984127
170,-18.49206349206349,124.04761904761904,98.33333333333333,-43.73015873015873,160.3968253968254,262.1428571428571,180.7142857142857,244.2063492063492,102.77777777777777,190.07936507936506,63.25396825396825,261.5079365079365,133.4126984126984,93.73015873015872,57.06349206349206,172.93650793650792,-90.23809523809523,249.12698412698413,-15.634920634920634,-138.4920634920635,-188.33333333333331,-6.111111111111111,-6.587301587301587,-321.8253968253968
171,-18.49206349206349,124.04761904761904,98.33333333333333,-43.73015873015873,160.3968253968254,262.1428571428571,180.7142857142857,244.2063492063492,102.77777777777777,190.07936507936506,63.25396825396825,261.5079365079365,133.4126984126984,93.73015873015872,57.06349206349206,172.93650793650792,-90.23809523809523,249.12698412698413,-15.634920634920634,-138.4920634920635,-188.33333333333331,-6.111111111111111,-6.587301587301587,-321.8253968253968
172,106.9047619047619,-222.3015873015873,-29.76190476190476,-57.857142857142854,-63.57142857142857,-138.17460317460316,-105.0,-93.73015873015872,-28.333333333333332,-207.69841269841268,-56.269841269841265,-123.09523809523809,-47.857142857142854,-189.28571428571428,-16.587301587301585,-202.93650793650792,113.4126984126984,-80.87301587301587,-2.619047619047619,78.65079365079364,52.93650793650794,6.587301587301587,5.7936507936507935,-321.8253968253968
173,106.9047619047619,-222.3015873015873,-29.76190476190476,-57.857142857142854,-63.57142857142857,-138.17460317460316,-105.0,-93.73015873015872,-28.333333333333332,-207.69841269841268,-56.269841269841265,-123.09523809523809,-47.857142857142854,-189.28571428571428,-16.587301587301585,-202.93650793650792,113.4126984126984,-80.87301587301587,-2.619047619047619,78.65079365079364,52.93650793650794,6.587301587301587,5.7936507936507935,-321.8253968253968
174,-19.126984126984127,109.12698412698413,100.39682539682539,-45.79365079365079,161.984126984127,265.7936507936508,180.87301587301587,239.28571428571428,107.22222222222221,191.66666666666666,69.44444444444444,261.031746031746,138.4920634920635,93.73015873015872,65.95238095238095,173.88888888888889,-95.15873015873015,253.7301587301587,-15.793650793650793,-142.93650793650792,-189.44444444444443,-7.063492063492063,-7.3809523809523805,-321.8253968253968
175,-19.126984126984127,109.12698412698413,100.39682539682539,-45.79365079365079,161.984126984127,265.7936507936508,180.87301587301587,239.28571428571428,107.22222222222221,191.66666666666666,69.44444444444444,261.031746031746,138.4920634920635,93.73015873015872,65.95238095238095,173.88888888888889,-95.15873015873015,253.7301587301587,-15.793650793650793,-142.93650793650792,-189.44444444444443,-7.063492063492063,-7.3809523809523805,-321.8253968253968
176,146.58730158730157,-148.65079365079364,-12.777777777777777,1.0317460317460316,-55.0,-56.74603174603174,-60.71428571428571,-39.44444444444444,-12.777777777777777,-152.14285714285714,-83.88888888888889,-78.80952380952381,-22.142857142857142,-158.96825396825395,-7.698412698412698,-167.69841269841268,47.06349206349206,-38.65079365079365,-14.682539682539682,83.73015873015872,85.63492063492063,1.8253968253968254,-3.095238095238095,-321.8253968253968
177,146.58730158730157,-148.65079365079364,-12.777777777777777,1.0317460317460316,-55.0,-56.74603174603174,-60.71428571428571,-39.44444444444444,-12.777777777777777,-152.14285714285714,-83.88888888888889,-78.80952380952381,-22.142857142857142,-158.96825396825395,-7.698412698412698,-167.69841269841268,47.06349206349206,-38.65079365079365,-14.682539682539682,83.73015873015872,85.63492063492063,1.8253968253968254,-3.095238095238095,-321.8253968253968
178,-21.03174603174603,122.93650793650794,102.46031746031746,-40.079365079365076,169.76190476190476,265.6349206349206,181.19047619047618,225.47619047619045,103.09523809523809,191.8253968253968,62.3015873015873,265.3174603174603,137.22222222222223,95.95238095238095,61.666666666666664,175.47619047619045,-104.04761904761904,250.2380952380952,-10.714285714285714,-142.46031746031744,-184.04761904761904,-7.857142857142857,-7.3809523809523805,-321.8253968253968
179,-21.03174603174603,122.93650793650794,102.46031746031746,-40.079365079365076,169.76190476190476,265.6349206349206,181.19047619047618,225.47619047619045,103.09523809523809,191.8253968253968,62.3015873015873,265.3174603174603,137.22222222222223,95.95238095238095,61.666666666666664,175.47619047619045,-104.04761904761904,250.2380952380952,-10.714285714285714,-142.46031746031744,-184.04761904761904,-7.857142857142857,-7.3809523809523805,-321.8253968253968
180,32.93650793650794,-45.79365079365079,30.555555555555554,-46.904761904761905,61.82539682539682,51.507936507936506,31.825396825396822,56.58730158730158,30.555555555555554,-5.7936507936507935,-0.07936507936507936,74.36507936507937,38.17460317460317,-46.74603174603175,17.063492063492063,-14.365079365079364,-5.317460317460317,83.4126984126984,-11.825396825396824,-35.63492063492063,-57.22222222222222,0.3968253968253968,-0.3968253968253968,-166.26984126984127
181,32.93650793650794,-45.79365079365079,30.555555555555554,-46.904761904761905,61.82539682539682,51.507936507936506,31.825396825396822,56.58730158730158,30.555555555555554,-5.7936507936507935,-0.07936507936507936,74.36507936507937,38.17460317460317,-46.74603174603175,17.063492063492063,-14.365079365079364,-5.317460317460317,83.4126984126984,-11.825396825396824,-35.63492063492063,-57.22222222222222,0.3968253968253968,-0.3968253968253968,-166.26984126984127
182,-20.238095238095237,126.26984126984127,97.85714285714285,-34.047619047619044,191.19047619047618,271.031746031746,187.69841269841268,221.34920634920633,101.34920634920634,196.74603174603175,62.3015873015873,273.25396825396825,127.6984126984127,96.1111111111111,56.58730158730158,172.77777777777777,-120.55555555555554,256.26984126984127,-1.349206349206349,-153.09523809523807,-183.88888888888889,-8.333333333333332,-7.222222222222221,-166.26984126984127
183,-20.238095238095237,126.26984126984127,97.85714285714285,-34.047619047619044,191.19047619047618,271.031746031746,187.69841269841268,221.34920634920633,101.34920634920634,196.74603174603175,62.3015873015873,273.25396825396825,127.6984126984127,96.1111111111111,56.58730158730158,172.77777777777777,-120.55555555555554,256.26984126984127,-1.349206349206349,-153.09523809523807,-183.88888888888889,-8.333333333333332,-7.222222222222221,-166.26984126984127
184,109.28571428571428,-248.17460317460316,-34.84126984126984,-49.285714285714285,-22.936507936507937,-143.88888888888889,-105.0,-121.03174603174602,-33.25396825396825,-211.98412698412696,-51.03174603174603,-119.76190476190476,-54.68253968253968,-195.3174603174603,-19.92063492063492,-209.44444444444443,93.57142857142857,-85.95238095238095,6.26984126984127,75.31746031746032,59.6031746031746,7.222222222222221,5.952380952380952,-166.26984126984127
185,109.28571428571428,-248.17460317460316,-34.84126984126984,-49.285714285714285,-22.936507936507937,-143.88888888888889,-105.0,-121.03174603174602,-33.25396825396825,-211.98412698412696,-51.03174603174603,-119.76190476190476,-54.68253968253968,-195.3174603174603,-19.92063492063492,-209.44444444444443,93.57142857142857,-85.95238095238095,6.26984126984127,75.31746031746032,59.6031746031746,7.222222222222221,5.952380952380952,-166.26984126984127
186,-17.857142857142858,120.55555555555554,102.61904761904762,-29.6031746031746,211.8253968253968,273.73015873015873,194.84126984126982,218.015873015873,103.73015873015872,191.98412698412696,67.53968253968253,277.38095238095235,127.53968253968253,95.31746031746032,55.0,167.2222222222222,-133.73015873015873,251.66666666666666,-1.8253968253968254,-137.06349206349205,-167.38095238095238,-7.5396825396825395,-7.698412698412698,-166.26984126984127
187,-17.857142857142858,120.55555555555554,102.61904761904762,-29.6031746031746,211.8253968253968,273.73015873015873,194.84126984126982,218.015873015873,103.73015873015872,191.98412698412696,67.53968253968253,277.38095238095235,127.53968253968253,95.31746031746032,55.0,167.2222222222222,-133.73015873015873,251.66666666666666,-1.8253968253968254,-137.06349206349205,-167.38095238095238,-7.5396825396825395,-7.698412698412698,-166.26984126984127
188,51.98412698412698,-32.93650793650794,27.698412698412696,-40.714285714285715,138.8095238095238,53.888888888888886,45.63492063492063,51.34920634920635,28.333333333333332,-8.333333333333332,5.634920634920634,78.65079365079364,31.507936507936506,-43.888888888888886,11.984126984126984,-19.76190476190476,-80.87301587301587,81.98412698412697,-2.3015873015873014,-28.65079365079365,-47.22222222222222,0.23809523809523808,-0.873015873015873,-166.26984126984127
189,51.98412698412698,-32.93650793650794,27.698412698412696,-40.714285714285715,138.8095238095238,53.888888888888886,45.63492063492063,51.34920634920635,28.333333333333332,-8.333333333333332,5.634920634920634,78.65079365079364,31.507936507936506,-43.888888888888886,11.984126984126984,-19.76190476190476,-80.87301587301587,81.98412698412697,-2.3015873015873014,-28.65079365079365,-47.22222222222222,0.23809523809523808,-0.873015873015873,-166.26984126984127
190,88.17460317460316,-298.968253968254,-53.095238095238095,-109.76190476190476,56.42857142857142,-217.2222222222222,-133.4126984126984,-173.88888888888889,-49.285714285714285,-263.4126984126984,-19.285714285714285,-158.33333333333331,-80.07936507936508,-214.84126984126982,-28.174603174603174,-234.52380952380952,40.079365079365076,-123.88888888888889,11.507936507936508,72.93650793650794,26.746031746031743,12.936507936507935,13.571428571428571,-321.8253968253968
191,88.17460317460316,-298.968253968254,-53.095238095238095,-109.76190476190476,56.42857142857142,-217.2222222222222,-133.4126984126984,-173.88888888888889,-49.285714285714285,-263.4126984126984,-19.285714285714285,-158.33333333333331,-80.07936507936508,-214.84126984126982,-28.174603174603174,-234.52380952380952,40.079365079365076,-123.88888888888889,11.507936507936508,72.93650793650794,26.746031746031743,12.936507936507935,13.571428571428571,-321.8253968253968
192,165.79365079365078,-218.33333333333331,-37.698412698412696,-51.34920634920635,117.53968253968253,-140.07936507936506,-85.31746031746032,-110.55555555555554,-33.41269841269841,-211.8253968253968,-59.6031746031746,-125.63492063492063,-55.0,-190.7142857142857,-21.349206349206348,-205.3174603174603,-108.49206349206348,-83.57142857142857,6.26984126984127,85.15873015873015,60.238095238095234,7.5396825396825395,5.7936507936507935,-321.8253968253968
193,165.79365079365078,-218.33333333333331,-37.698412698412696,-51.34920634920635,117.53968253968253,-140.07936507936506,-85.31746031746032,-110.55555555555554,-33.41269841269841,-211.8253968253968,-59.6031746031746,-125.63492063492063,-55.0,-190.7142857142857,-21.349206349206348,-205.3174603174603,-108.49206349206348,-83.57142857142857,6.26984126984127,85.15873015873015,60.238095238095234,7.5396825396825395,5.7936507936507935,-321.8253968253968
194,7.857142857142857,171.5079365079365,112.93650793650794,-29.285714285714285,325.0,287.06349206349205,253.7301587301587,242.6190476190476,129.12698412698413,201.8253968253968,69.28571428571428,270.7142857142857,153.57142857142856,101.5079365079365,75.47619047619047,180.23809523809524,-290.7142857142857,265.6349206349206,-2.619047619047619,-142.61904761904762,-187.06349206349205,-8.492063492063492,-6.746031746031746,-321.8253968253968
195,7.857142857142857,171.5079365079365,112.93650793650794,-29.285714285714285,325.0,287.06349206349205,253.7301587301587,242.6190476190476,129.12698412698413,201.8253968253968,69.28571428571428,270.7142857142857,153.57142857142856,101.5079365079365,75.47619047619047,180.23809523809524,-290.7142857142857,265.6349206349206,-2.619047619047619,-142.61904761904762,-187.06349206349205,-8.492063492063492,-6.746031746031746,-321.8253968253968
196,173.73015873015873,-196.74603174603175,-38.17460317460317,-57.06349206349206,104.84126984126983,-145.47619047619048,-85.95238095238095,-106.9047619047619,-34.36507936507936,-215.0,-49.92063492063492,-129.28571428571428,-56.74603174603174,-197.85714285714283,-21.666666666666664,-201.8253968253968,-99.28571428571428,-83.73015873015872,6.111111111111111,82.3015873015873,56.11111111111111,7.3809523809523805,5.634920634920634,-321.8253968253968
197,173.73015873015873,-196.74603174603175,-38.17460317460317,-57.06349206349206,104.84126984126983,-145.47619047619048,-85.95238095238095,-106.9047619047619,-34.36507936507936,-215.0,-49.92063492063492,-129.28571428571428,-56.74603174603174,-197.85714285714283,-21.666666666666664,-201.8253968253968,-99.28571428571428,-83.73015873015872,6.111111111111111,82.3015873015873,56.11111111111111,7.3809523809523805,5.634920634920634,-321.8253968253968
198,-44.52380952380952,79.76190476190476,118.65079365079364,-88.96825396825396,318.4920634920635,248.17460317460316,229.76190476190476,194.84126984126982,131.984126984127,154.68253968253967,105.0,245.0,144.68253968253967,77.38095238095238,82.14285714285714,166.74603174603175,-256.74603174603175,235.3174603174603,12.46031746031746,-141.03174603174602,-229.12698412698413,-3.73015873015873,-0.873015873015873,-321.8253968253968
199,-44.52380952380952,79.76190476190476,118.65079365079364,-88.96825396825396,318.4920634920635,248.17460317460316,229.76190476190476,194.84126984126982,131.984126984127,154.68253968253967,105.0,245.0,144.68253968253967,77.38095238095238,82.14285714285714,166.74603174603175,-256.74603174603175,235.3174603174603,12.46031746031746,-141.03174603174602,-229.12698412698413,-3.73015873015873,-0.873015873015873,-321.8253968253968
200,234.84126984126982,-122.93650793650794,-23.095238095238095,5.7936507936507935,79.6031746031746,-83.57142857142857,-57.53968253968254,-62.460317460317455,-21.03174603174603,-184.68253968253967,-89.92063492063491,-93.57142857142857,-34.36507936507936,-188.17460317460316,-15.476190476190474,-194.68253968253967,-153.25396825396825,-56.74603174603174,-3.571428571428571,106.1111111111111,101.66666666666666,1.984126984126984,-2.142857142857143,-166.26984126984127
201,234.84126984126982,-122.93650793650794,-23.095238095238095,5.7936507936507935,79.6031746031746,-83.57142857142857,-57.53968253968254,-62.460317460317455,-21.03174603174603,-184.68253968253967,-89.92063492063491,-93.57142857142857,-34.36507936507936,-188.17460317460316,-15.476190476190474,-194.68253968253967,-153.25396825396825,-56.74603174603174,-3.571428571428571,106.1111111111111,101.66666666666666,1.984126984126984,-2.142857142857143,-166.26984126984127
202,14.682539682539682,152.93650793650792,111.5079365079365,-25.317460317460316,294.2063492063492,288.17460317460313,242.77777777777777,237.06349206349205,122.93650793650794,189.44444444444443,63.73015873015873,281.19047619047615,149.9206349206349,92.30158730158729,73.4126984126984,170.7142857142857,-296.1111111111111,255.95238095238093,-13.095238095238095,-135.95238095238093,-186.11111111111111,-8.174603174603174,-8.015873015873016,-166.26984126984127
203,14.682539682539682,152.93650793650792,111.5079365079365,-25.317460317460316,294.2063492063492,288.17460317460313,242.77777777777777,237.06349206349205,122.93650793650794,189.44444444444443,63.73015873015873,281.19047619047615,149.9206349206349,92.30158730158729,73.4126984126984,170.7142857142857,-296.1111111111111,255.95238095238093,-13.095238095238095,-135.95238095238093,-186.11111111111111,-8.174603174603174,-8.015873015873016,-166.26984126984127
204,180.87301587301587,-233.88888888888889,-42.3015873015873,-59.6031746031746,55.0,-151.984126984127,-97.38095238095238,-112.6190476190476,-40.39682539682539,-230.55555555555554,-56.42857142857142,-120.87301587301586,-62.14285714285714,-206.9047619047619,-24.68253968253968,-217.2222222222222,-107.38095238095238,-91.98412698412697,1.984126984126984,84.52380952380952,57.698412698412696,6.587301587301587,6.587301587301587,-166.26984126984127
205,180.87301587301587,-233.88888888888889,-42.3015873015873,-59.6031746031746,55.0,-151.984126984127,-97.38095238095238,-112.6190476190476,-40.39682539682539,-230.55555555555554,-56.42857142857142,-120.87301587301586,-62.14285714285714,-206.9047619047619,-24.68253968253968,-217.2222222222222,-107.38095238095238,-91.98412698412697,1.984126984126984,84.52380952380952,57.698412698412696,6.587301587301587,6.587301587301587,-166.26984126984127
206,16.587301587301585,163.25396825396825,112.77777777777777,-32.14285714285714,282.9365079365079,293.88888888888886,241.5079365079365,242.6190476190476,121.98412698412697,189.12698412698413,55.0,288.968253968254,152.14285714285714,96.42857142857142,68.01587301587301,166.58730158730157,-302.1428571428571,258.968253968254,-18.96825396825397,-136.42857142857142,-181.34920634920633,-7.222222222222221,-8.015873015873016,-166.26984126984127
207,16.587301587301585,163.25396825396825,112.77777777777777,-32.14285714285714,282.9365079365079,293.88888888888886,241.5079365079365,242.6190476190476,121.98412698412697,189.12698412698413,55.0,288.968253968254,152.14285714285714,96.42857142857142,68.01587301587301,166.58730158730157,-302.1428571428571,258.968253968254,-18.96825396825397,-136.42857142857142,-181.34920634920633,-7.222222222222221,-8.015873015873016,-166.26984126984127
208,176.26984126984127,-250.55555555555554,-43.73015873015873,-68.4920634920635,51.19047619047619,-155.79365079365078,-99.92063492063491,-114.84126984126983,-41.507936507936506,-233.09523809523807,-63.888888888888886,-118.33333333333333,-63.73015873015873,-204.52380952380952,-25.0,-219.76190476190476,-113.25396825396825,-94.36507936507935,-0.3968253968253968,78.65079365079364,59.6031746031746,8.015873015873016,6.111111111111111,-166.26984126984127
209,176.26984126984127,-250.55555555555554,-43.73015873015873,-68.4920634920635,51.19047619047619,-155.79365079365078,-99.92063492063491,-114.84126984126983,-41.507936507936506,-233.09523809523807,-63.888888888888886,-118.33333333333333,-63.73015873015873,-204.52380952380952,-25.0,-219.76190476190476,-113.25396825396825,-94.36507936507935,-0.3968253968253968,78.65079365079364,59.6031746031746,8.015873015873016,6.111111111111111,-166.26984126984127
210,9.761904761904761,152.61904761904762,105.47619047619047,-36.269841269841265,282.46031746031747,292.77777777777777,239.12698412698413,240.7142857142857,121.66666666666666,189.9206349206349,44.68253968253968,281.8253968253968,143.73015873015873,95.31746031746032,69.76190476190476,171.984126984127,-305.0,254.36507936507934,-18.333333333333332,-129.9206349206349,-178.015873015873,-8.174603174603174,-7.857142857142857,-321.8253968253968
211,9.761904761904761,152.61904761904762,105.47619047619047,-36.269841269841265,282.46031746031747,292.77777777777777,239.12698412698413,240.7142857142857,121.66666666666666,189.9206349206349,44.68253968253968,281.8253968253968,143.73015873015873,95.31746031746032,69.76190476190476,171.984126984127,-305.0,254.36507936507934,-18.333333333333332,-129.9206349206349,-178.015873015873,-8.174603174603174,-7.857142857142857,-321.8253968253968
212,176.11111111111111,-241.19047619047618,-45.317460317460316,-69.28571428571428,65.79365079365078,-152.77777777777777,-94.36507936507935,-108.17460317460316,-41.34920634920635,-221.34920634920633,-60.71428571428571,-125.95238095238095,-66.26984126984127,-202.61904761904762,-25.634920634920633,-206.58730158730157,-89.44444444444444,-89.28571428571428,0.23809523809523808,94.04761904761904,56.904761904761905,7.5396825396825395,7.698412698412698,-321.8253968253968
213,176.11111111111111,-241.19047619047618,-45.317460317460316,-69.28571428571428,65.79365079365078,-152.77777777777777,-94.36507936507935,-108.17460317460316,-41.34920634920635,-221.34920634920633,-60.71428571428571,-125.95238095238095,-66.26984126984127,-202.61904761904762,-25.634920634920633,-206.58730158730157,-89.44444444444444,-89.28571428571428,0.23809523809523808,94.04761904761904,56.904761904761905,7.5396825396825395,7.698412698412698,-321.8253968253968
214,11.19047619047619,108.33333333333333,117.85714285714285,-20.07936507936508,296.4285714285714,307.85714285714283,264.36507936507934,263.88888888888886,138.8095238095238,214.04761904761904,48.96825396825397,282.46031746031747,146.11111111111111,104.52380952380952,79.12698412698413,192.93650793650792,-291.984126984127,281.19047619047615,-8.174603174603174,-122.77777777777777,-174.2063492063492,-8.968253968253968,-7.3809523809523805,-321.8253968253968
215,11.19047619047619,108.33333333333333,117.85714285714285,-20.07936507936508,296.4285714285714,307.85714285714283,264.36507936507934,263.88888888888886,138.8095238095238,214.04761904761904,48.96825396825397,282.46031746031747,146.11111111111111,104.52380952380952,79.12698412698413,192.93650793650792,-291.984126984127,281.19047619047615,-8.174603174603174,-122.77777777777777,-174.2063492063492,-8.968253968253968,-7.3809523809523805,-321.8253968253968
216,176.58730158730157,-256.74603174603175,-45.63492063492063,-38.33333333333333,66.42857142857143,-147.2222222222222,-90.39682539682539,-100.39682539682539,-42.3015873015873,-203.4126984126984,-56.11111111111111,-119.6031746031746,-67.85714285714285,-195.47619047619045,-26.9047619047619,-195.0,-55.476190476190474,-74.04761904761904,5.952380952380952,91.19047619047619,64.36507936507937,8.492063492063492,7.3809523809523805,-321.8253968253968
217,176.58730158730157,-256.74603174603175,-45.63492063492063,-38.33333333333333,66.42857142857143,-147.2222222222222,-90.39682539682539,-100.39682539682539,-42.3015873015873,-203.4126984126984,-56.11111111111111,-119.6031746031746,-67.85714285714285,-195.47619047619045,-26.9047619047619,-195.0,-55.476190476190474,-74.04761904761904,5.952380952380952,91.19047619047619,64.36507936507937,8.492063492063492,7.3809523809523805,-321.8253968253968
218,-53.25396825396825,106.9047619047619,151.8253968253968,-60.238095238095234,295.7936507936508,295.7936507936508,262.6190476190476,227.69841269841268,157.85714285714286,187.69841269841268,105.0,284.8412698412698,175.79365079365078,92.14285714285714,101.03174603174602,185.79365079365078,-233.25396825396825,274.36507936507934,12.46031746031746,-156.11111111111111,-235.95238095238093,-5.952380952380952,-1.6666666666666665,-321.8253968253968
219,-53.25396825396825,106.9047619047619,151.8253968253968,-60.238095238095234,295.7936507936508,295.7936507936508,262.6190476190476,227.69841269841268,157.85714285714286,187.69841269841268,105.0,284.8412698412698,175.79365079365078,92.14285714285714,101.03174603174602,185.79365079365078,-233.25396825396825,274.36507936507934,12.46031746031746,-156.11111111111111,-235.95238095238093,-5.952380952380952,-1.6666666666666665,-321.8253968253968
220,193.09523809523807,-205.15873015873015,-45.15873015873016,-43.73015873015873,45.0,-153.57142857142856,-95.47619047619047,-120.07936507936508,-44.047619047619044,-222.93650793650792,-44.68253968253968,-120.55555555555554,-68.01587301587301,-201.8253968253968,-27.22222222222222,-210.2380952380952,-37.22222222222222,-89.76190476190476,3.571428571428571,93.25396825396825,54.52380952380952,8.015873015873016,7.222222222222221,-166.26984126984127
221,193.09523809523807,-205.15873015873015,-45.15873015873016,-43.73015873015873,45.0,-153.57142857142856,-95.47619047619047,-120.07936507936508,-44.047619047619044,-222.93650793650792,-44.68253968253968,-120.55555555555554,-68.01587301587301,-201.8253968253968,-27.22222222222222,-210.2380952380952,-37.22222222222222,-89.76190476190476,3.571428571428571,93.25396825396825,54.52380952380952,8.015873015873016,7.222222222222221,-166.26984126984127
222,26.428571428571427,192.46031746031744,138.96825396825395,-12.3015873015873,262.9365079365079,310.87301587301585,256.74603174603175,239.12698412698413,135.0,201.34920634920633,66.9047619047619,292.3015873015873,162.46031746031744,105.79365079365078,80.87301587301587,179.28571428571428,-278.015873015873,265.0,-20.07936507936508,-130.07936507936506,-187.06349206349205,-8.968253968253968,-8.492063492063492,-166.26984126984127
223,26.428571428571427,192.46031746031744,138.96825396825395,-12.3015873015873,262.9365079365079,310.87301587301585,256.74603174603175,239.12698412698413,135.0,201.34920634920633,66.9047619047619,292.3015873015873,162.46031746031744,105.79365079365078,80.87301587301587,179.28571428571428,-278.015873015873,265.0,-20.07936507936508,-130.07936507936506,-187.06349206349205,-8.968253968253968,-8.492063492063492,-166.26984126984127
224,191.19047619047618,-222.3015873015873,-48.33333333333333,-60.238095238095234,24.206349206349206,-159.44444444444443,-101.66666666666666,-128.8095238095238,-47.06349206349206,-226.74603174603175,-41.34920634920635,-119.92063492063491,-69.28571428571428,-200.3968253968254,-28.96825396825397,-216.1111111111111,-51.19047619047619,-98.01587301587301,1.0317460317460316,91.66666666666666,55.15873015873016,8.333333333333332,6.904761904761904,-166.26984126984127
225,191.19047619047618,-222.3015873015873,-48.33333333333333,-60.238095238095234,24.206349206349206,-159.44444444444443,-101.66666666666666,-128.8095238095238,-47.06349206349206,-226.74603174603175,-41.34920634920635,-119.92063492063491,-69.28571428571428,-200.3968253968254,-28.96825396825397,-216.1111111111111,-51.19047619047619,-98.01587301587301,1.0317460317460316,91.66666666666666,55.15873015873016,8.333333333333332,6.904761904761904,-166.26984126984127
226,23.095238095238095,196.26984126984127,126.74603174603173,-30.71428571428571,238.49206349206347,308.17460317460313,250.7142857142857,222.3015873015873,135.15873015873015,195.79365079365078,59.76190476190476,289.9206349206349,172.61904761904762,98.80952380952381,85.95238095238095,171.5079365079365,-287.22222222222223,252.6190476190476,-35.63492063492063,-117.6984126984127,-186.9047619047619,-9.126984126984127,-8.65079365079365,-166.26984126984127
227,23.095238095238095,196.26984126984127,126.74603174603173,-30.71428571428571,238.49206349206347,308.17460317460313,250.7142857142857,222.3015873015873,135.15873015873015,195.79365079365078,59.76190476190476,289.9206349206349,172.61904761904762,98.80952380952381,85.95238095238095,171.5079365079365,-287.22222222222223,252.6190476190476,-35.63492063492063,-117.6984126984127,-186.9047619047619,-9.126984126984127,-8.65079365079365,-166.26984126984127
228,180.3968253968254,-189.9206349206349,-51.03174603174603,-95.47619047619047,-0.5555555555555556,-170.23809523809524,-105.79365079365078,-141.03174603174602,-47.38095238095238,-236.9047619047619,-48.96825396825397,-130.23809523809524,-69.28571428571428,-218.17460317460316,-27.698412698412696,-225.63492063492063,-61.34920634920635,-107.38095238095238,-4.682539682539682,104.04761904761904,52.93650793650794,7.698412698412698,7.222222222222221,-166.26984126984127
229,180.3968253968254,-189.9206349206349,-51.03174603174603,-95.47619047619047,-0.5555555555555556,-170.23809523809524,-105.79365079365078,-141.03174603174602,-47.38095238095238,-236.9047619047619,-48.96825396825397,-130.23809523809524,-69.28571428571428,-218.17460317460316,-27.698412698412696,-225.63492063492063,-61.34920634920635,-107.38095238095238,-4.682539682539682,104.04761904761904,52.93650793650794,7.698412698412698,7.222222222222221,-166.26984126984127
230,-62.61904761904761,145.79365079365078,152.14285714285714,-111.66666666666666,239.76190476190476,289.4444444444444,268.3333333333333,207.2222222222222,175.79365079365078,185.15873015873015,100.55555555555554,291.5079365079365,199.60317460317458,92.46031746031746,129.44444444444443,181.34920634920633,-261.8253968253968,257.6984126984127,2.7777777777777777,-138.8095238095238,-254.36507936507934,-6.26984126984127,-4.365079365079365,-321.8253968253968
231,-62.61904761904761,145.79365079365078,152.14285714285714,-111.66666666666666,239.76190476190476,289.4444444444444,268.3333333333333,207.2222222222222,175.79365079365078,185.15873015873015,100.55555555555554,291.5079365079365,199.60317460317458,92.46031746031746,129.44444444444443,181.34920634920633,-261.8253968253968,257.6984126984127,2.7777777777777777,-138.8095238095238,-254.36507936507934,-6.26984126984127,-4.365079365079365,-321.8253968253968
232,14.682539682539682,-61.666666666666664,44.2063492063492,-127.6984126984127,125.15873015873015,40.87301587301587,76.26984126984127,23.88888888888889,58.49206349206349,-21.666666666666664,45.79365079365079,76.58730158730158,52.93650793650794,-58.01587301587301,48.49206349206349,-9.126984126984127,-134.2063492063492,72.93650793650794,8.809523809523808,-33.57142857142857,-130.55555555555554,3.253968253968254,5.317460317460317,-321.8253968253968
233,14.682539682539682,-61.666666666666664,44.2063492063492,-127.6984126984127,125.15873015873015,40.87301587301587,76.26984126984127,23.88888888888889,58.49206349206349,-21.666666666666664,45.79365079365079,76.58730158730158,52.93650793650794,-58.01587301587301,48.49206349206349,-9.126984126984127,-134.2063492063492,72.93650793650794,8.809523809523808,-33.57142857142857,-130.55555555555554,3.253968253968254,5.317460317460317,-321.8253968253968
234,5.952380952380952,226.42857142857142,142.14285714285714,-36.58730158730159,239.76190476190476,317.06349206349205,274.8412698412698,242.14285714285714,161.66666666666666,211.19047619047618,56.11111111111111,285.95238095238096,172.3015873015873,94.68253968253968,108.49206349206348,178.8095238095238,-265.3174603174603,269.6031746031746,-28.65079365079365,-112.14285714285714,-183.4126984126984,-8.968253968253968,-9.285714285714285,-321.8253968253968
235,5.952380952380952,226.42857142857142,142.14285714285714,-36.58730158730159,239.76190476190476,317.06349206349205,274.8412698412698,242.14285714285714,161.66666666666666,211.19047619047618,56.11111111111111,285.95238095238096,172.3015873015873,94.68253968253968,108.49206349206348,178.8095238095238,-265.3174603174603,269.6031746031746,-28.65079365079365,-112.14285714285714,-183.4126984126984,-8.968253968253968,-9.285714285714285,-321.8253968253968
236,241.19047619047618,-94.04761904761904,-40.714285714285715,-7.5396825396825395,8.809523809523808,-128.96825396825395,-84.84126984126983,-96.42857142857142,-36.58730158730159,-203.4126984126984,-88.33333333333333,-122.6190476190476,-55.63492063492063,-218.96825396825395,-26.428571428571427,-220.87301587301587,-49.6031746031746,-81.66666666666666,-13.571428571428571,129.12698412698413,119.92063492063491,2.9365079365079363,1.6666666666666665,-321.8253968253968
237,241.19047619047618,-94.04761904761904,-40.714285714285715,-7.5396825396825395,8.809523809523808,-128.96825396825395,-84.84126984126983,-96.42857142857142,-36.58730158730159,-203.4126984126984,-88.33333333333333,-122.6190476190476,-55.63492063492063,-218.96825396825395,-26.428571428571427,-220.87301587301587,-49.6031746031746,-81.66666666666666,-13.571428571428571,129.12698412698413,119.92063492063491,2.9365079365079363,1.6666666666666665,-321.8253968253968
238,13.253968253968253,271.5079365079365,158.17460317460316,-3.4126984126984126,259.2857142857143,325.0,276.4285714285714,255.3174603174603,151.8253968253968,218.4920634920635,58.96825396825397,294.68253968253964,171.66666666666666,97.6984126984127,95.95238095238095,187.06349206349205,-231.5079365079365,285.95238095238096,-10.238095238095237,-115.95238095238095,-171.66666666666666,-8.968253968253968,-8.492063492063492,-321.8253968253968
239,13.253968253968253,271.5079365079365,158.17460317460316,-3.4126984126984126,259.2857142857143,325.0,276.4285714285714,255.3174603174603,151.8253968253968,218.4920634920635,58.96825396825397,294.68253968253964,171.66666666666666,97.6984126984127,95.95238095238095,187.06349206349205,-231.5079365079365,285.95238095238096,-10.238095238095237,-115.95238095238095,-171.66666666666666,-8.968253968253968,-8.492063492063492,-321.8253968253968
240,169.12698412698413,-128.17460317460316,-53.095238095238095,-42.14285714285714,38.01587301587301,-158.17460317460316,-97.85714285714285,-113.25396825396825,-52.77777777777777,-201.98412698412696,-41.03174603174603,-121.66666666666666,-78.65079365079364,-197.85714285714283,-33.57142857142857,-195.63492063492063,14.84126984126984,-85.63492063492063,8.809523809523808,100.55555555555554,72.61904761904762,7.857142857142857,7.3809523809523805,-166.26984126984127
241,169.12698412698413,-128.17460317460316,-53.095238095238095,-42.14285714285714,38.01587301587301,-158.17460317460316,-97.85714285714285,-113.25396825396825,-52.77777777777777,-201.98412698412696,-41.03174603174603,-121.66666666666666,-78.65079365079364,-197.85714285714283,-33.57142857142857,-195.63492063492063,14.84126984126984,-85.63492063492063,8.809523809523808,100.55555555555554,72.61904761904762,7.857142857142857,7.3809523809523805,-166.26984126984127
242,2.7777777777777777,250.7142857142857,148.96825396825395,1.984126984126984,250.55555555555554,325.0,270.55555555555554,257.06349206349205,149.12698412698413,213.4126984126984,47.53968253968254,302.9365079365079,171.03174603174602,106.74603174603175,90.23809523809523,187.38095238095238,-236.58730158730157,275.6349206349206,-24.84126984126984,-113.73015873015872,-158.4920634920635,-8.492063492063492,-8.65079365079365,-166.26984126984127
243,2.7777777777777777,250.7142857142857,148.96825396825395,1.984126984126984,250.55555555555554,325.0,270.55555555555554,257.06349206349205,149.12698412698413,213.4126984126984,47.53968253968254,302.9365079365079,171.03174603174602,106.74603174603175,90.23809523809523,187.38095238095238,-236.58730158730157,275.6349206349206,-24.84126984126984,-113.73015873015872,-158.4920634920635,-8.492063492063492,-8.65079365079365,-166.26984126984127
244,231.34920634920633,-99.44444444444444,-45.317460317460316,2.619047619047619,-6.428571428571428,-136.58730158730157,-100.39682539682539,-103.25396825396825,-44.36507936507936,-213.88888888888889,-105.31746031746032,-121.5079365079365,-61.34920634920635,-212.93650793650792,-30.396825396825395,-229.9206349206349,-35.476190476190474,-93.4126984126984,-10.873015873015872,133.4126984126984,132.14285714285714,3.73015873015873,2.142857142857143,-166.26984126984127
245,231.34920634920633,-99.44444444444444,-45.317460317460316,2.619047619047619,-6.428571428571428,-136.58730158730157,-100.39682539682539,-103.25396825396825,-44.36507936507936,-213.88888888888889,-105.31746031746032,-121.5079365079365,-61.34920634920635,-212.93650793650792,-30.396825396825395,-229.9206349206349,-35.476190476190474,-93.4126984126984,-10.873015873015872,133.4126984126984,132.14285714285714,3.73015873015873,2.142857142857143,-166.26984126984127
246,-9.126984126984127,255.3174603174603,128.8095238095238,-25.158730158730158,214.2063492063492,316.4285714285714,256.4285714285714,245.0,148.33333333333331,208.015873015873,26.587301587301585,293.4126984126984,164.68253968253967,102.46031746031746,101.82539682539682,176.9047619047619,-274.04761904761904,264.2063492063492,-44.36507936507936,-117.6984126984127,-174.04761904761904,-8.333333333333332,-8.65079365079365,-166.26984126984127
247,-9.126984126984127,255.3174603174603,128.8095238095238,-25.158730158730158,214.2063492063492,316.4285714285714,256.4285714285714,245.0,148.33333333333331,208.015873015873,26.587301587301585,293.4126984126984,164.68253968253967,102.46031746031746,101.82539682539682,176.9047619047619,-274.04761904761904,264.2063492063492,-44.36507936507936,-117.6984126984127,-174.04761904761904,-8.333333333333332,-8.65079365079365,-166.26984126984127
248,208.4920634920635,-81.98412698412697,-50.71428571428571,-37.06349206349206,-45.15873015873016,-150.55555555555554,-112.93650793650794,-114.36507936507935,-47.53968253968254,-222.14285714285714,-123.88888888888889,-142.3015873015873,-68.65079365079364,-218.17460317460316,-31.507936507936506,-230.3968253968254,-77.06349206349206,-106.9047619047619,-20.396825396825395,137.53968253968253,132.77777777777777,4.2063492063492065,1.349206349206349,-166.26984126984127
249,208.4920634920635,-81.98412698412697,-50.71428571428571,-37.06349206349206,-45.15873015873016,-150.55555555555554,-112.93650793650794,-114.36507936507935,-47.53968253968254,-222.14285714285714,-123.88888888888889,-142.3015873015873,-68.65079365079364,-218.17460317460316,-31.507936507936506,-230.3968253968254,-77.06349206349206,-106.9047619047619,-20.396825396825395,137.53968253968253,132.77777777777777,4.2063492063492065,1.349206349206349,-166.26984126984127
250,144.2063492063492,114.2063492063492,20.238095238095237,-8.65079365079365,60.873015873015866,72.3015873015873,53.41269841269841,60.55555555555555,31.349206349206348,-14.365079365079364,-67.6984126984127,54.36507936507936,32.460317460317455,-67.38095238095238,16.11111111111111,-41.34920634920635,-187.85714285714283,62.3015873015873,-59.6031746031746,32.460317460317455,20.873015873015873,-2.7777777777777777,-5.952380952380952,-321.8253968253968
251,144.2063492063492,114.2063492063492,20.238095238095237,-8.65079365079365,60.873015873015866,72.3015873015873,53.41269841269841,60.55555555555555,31.349206349206348,-14.365079365079364,-67.6984126984127,54.36507936507936,32.460317460317455,-67.38095238095238,16.11111111111111,-41.34920634920635,-187.85714285714283,62.3015873015873,-59.6031746031746,32.460317460317455,20.873015873015873,-2.7777777777777777,-5.952380952380952,-321.8253968253968
252,223.25396825396825,-74.36507936507937,-51.34920634920635,-36.11111111111111,-55.79365079365079,-158.4920634920635,-118.01587301587301,-120.71428571428571,-48.01587301587301,-227.69841269841268,-104.68253968253968,-145.3174603174603,-64.84126984126983,-230.87301587301587,-32.460317460317455,-228.015873015873,-54.2063492063492,-111.34920634920634,-23.253968253968253,144.36507936507937,134.52380952380952,3.253968253968254,1.6666666666666665,-321.8253968253968
253,223.25396825396825,-74.36507936507937,-51.34920634920635,-36.11111111111111,-55.79365079365079,-158.4920634920635,-118.01587301587301,-120.71428571428571,-48.01587301587301,-227.69841269841268,-104.68253968253968,-145.3174603174603,-64.84126984126983,-230.87301587301587,-32.460317460317455,-228.015873015873,-54.2063492063492,-111.34920634920634,-23.253968253968253,144.36507936507937,134.52380952380952,3.253968253968254,1.6666666666666665,-321.8253968253968
254,0.23809523809523808,247.69841269841268,129.6031746031746,-25.79365079365079,194.04761904761904,311.5079365079365,255.47619047619045,243.09523809523807,152.93650793650792,203.4126984126984,45.63492063492063,285.4761904761905,173.4126984126984,90.23809523809523,100.55555555555554,177.06349206349205,-250.87301587301585,263.88888888888886,-41.507936507936506,-115.31746031746032,-167.69841269841268,-8.492063492063492,-8.809523809523808,-321.8253968253968
255,0.23809523809523808,247.69841269841268,129.6031746031746,-25.79365079365079,194.04761904761904,311.5079365079365,255.47619047619045,243.09523809523807,152.93650793650792,203.4126984126984,45.63492063492063,285.4761904761905,173.4126984126984,90.23809523809523,100.55555555555554,177.06349206349205,-250.87301587301585,263.88888888888886,-41.507936507936506,-115.31746031746032,-167.69841269841268,-8.492063492063492,-8.809523809523808,-321.8253968253968
256,231.98412698412696,-133.57142857142856,-52.77777777777777,-15.0,-56.11111111111111,-159.76190476190476,-118.8095238095238,-125.95238095238095,-48.80952380952381,-231.34920634920633,-93.25396825396825,-152.61904761904762,-66.58730158730158,-237.53968253968253,-33.73015873015873,-244.68253968253967,-19.285714285714285,-113.88888888888889,-15.793650793650793,132.77777777777777,135.63492063492063,3.73015873015873,1.6666666666666665,-321.8253968253968
257,231.98412698412696,-133.57142857142856,-52.77777777777777,-15.0,-56.11111111111111,-159.76190476190476,-118.8095238095238,-125.95238095238095,-48.80952380952381,-231.34920634920633,-93.25396825396825,-152.61904761904762,-66.58730158730158,-237.53968253968253,-33.73015873015873,-244.68253968253967,-19.285714285714285,-113.88888888888889,-15.793650793650793,132.77777777777777,135.63492063492063,3.73015873015873,1.6666666666666665,-321.8253968253968
258,11.666666666666666,269.2857142857143,148.4920634920635,-5.158730158730158,200.87301587301587,316.58730158730157,262.9365079365079,250.7142857142857,156.58730158730157,205.79365079365078,52.77777777777777,290.07936507936506,176.74603174603175,95.15873015873015,96.9047619047619,183.7301587301587,-222.77777777777777,269.6031746031746,-35.476190476190474,-113.4126984126984,-165.95238095238093,-10.714285714285714,-9.126984126984127,-321.8253968253968
259,11.666666666666666,269.2857142857143,148.4920634920635,-5.158730158730158,200.87301587301587,316.58730158730157,262.9365079365079,250.7142857142857,156.58730158730157,205.79365079365078,52.77777777777777,290.07936507936506,176.74603174603175,95.15873015873015,96.9047619047619,183.7301587301587,-222.77777777777777,269.6031746031746,-35.476190476190474,-113.4126984126984,-165.95238095238093,-10.714285714285714,-9.126984126984127,-321.8253968253968
260,249.44444444444443,-76.74603174603175,-51.19047619047619,-8.809523809523808,-48.17460317460317,-159.12698412698413,-120.23809523809523,-127.38095238095238,-49.92063492063492,-235.95238095238093,-84.36507936507937,-151.19047619047618,-66.42857142857143,-231.66666666666666,-35.476190476190474,-236.26984126984127,17.38095238095238,-118.96825396825396,-12.777777777777777,146.26984126984127,142.14285714285714,3.253968253968254,1.6666666666666665,-166.26984126984127
261,249.44444444444443,-76.74603174603175,-51.19047619047619,-8.809523809523808,-48.17460317460317,-159.12698412698413,-120.23809523809523,-127.38095238095238,-49.92063492063492,-235.95238095238093,-84.36507936507937,-151.19047619047618,-66.42857142857143,-231.66666666666666,-35.476190476190474,-236.26984126984127,17.38095238095238,-118.96825396825396,-12.777777777777777,146.26984126984127,142.14285714285714,3.253968253968254,1.6666666666666665,-166.26984126984127
262,15.634920634920634,275.7936507936508,158.8095238095238,-2.9365079365079363,203.88888888888889,316.4285714285714,264.36507936507934,246.9047619047619,158.17460317460316,199.9206349206349,54.68253968253968,299.4444444444444,178.4920634920635,100.23809523809523,103.09523809523809,181.03174603174602,-201.03174603174602,255.3174603174603,-40.55555555555555,-115.15873015873015,-171.19047619047618,-9.126984126984127,-9.444444444444445,-166.26984126984127
263,15.634920634920634,275.7936507936508,158.8095238095238,-2.9365079365079363,203.88888888888889,316.4285714285714,264.36507936507934,246.9047619047619,158.17460317460316,199.9206349206349,54.68253968253968,299.4444444444444,178.4920634920635,100.23809523809523,103.09523809523809,181.03174603174602,-201.03174603174602,255.3174603174603,-40.55555555555555,-115.15873015873015,-171.19047619047618,-9.126984126984127,-9.444444444444445,-166.26984126984127
264,156.11111111111111,-127.06349206349206,-59.6031746031746,-51.03174603174603,-25.317460317460316,-171.19047619047618,-112.77777777777777,-135.63492063492063,-59.12698412698413,-226.58730158730157,-40.079365079365076,-119.28571428571428,-85.47619047619047,-198.65079365079364,-38.01587301587301,-208.8095238095238,52.460317460317455,-114.68253968253967,3.4126984126984126,98.33333333333333,52.14285714285714,8.968253968253968,8.492063492063492,-166.26984126984127
265,156.11111111111111,-127.06349206349206,-59.6031746031746,-51.03174603174603,-25.317460317460316,-171.19047619047618,-112.77777777777777,-135.63492063492063,-59.12698412698413,-226.58730158730157,-40.079365079365076,-119.28571428571428,-85.47619047619047,-198.65079365079364,-38.01587301587301,-208.8095238095238,52.460317460317455,-114.68253968253967,3.4126984126984126,98.33333333333333,52.14285714285714,8.968253968253968,8.492063492063492,-166.26984126984127
266,14.84126984126984,247.2222222222222,154.2063492063492,3.095238095238095,202.3015873015873,309.4444444444444,271.66666666666663,245.0,163.09523809523807,203.25396825396825,54.52380952380952,287.22222222222223,192.93650793650792,98.80952380952381,104.36507936507935,175.63492063492063,-201.66666666666666,265.3174603174603,-41.507936507936506,-107.06349206349206,-171.19047619047618,-9.920634920634921,-9.285714285714285,-166.26984126984127
267,14.84126984126984,247.2222222222222,154.2063492063492,3.095238095238095,202.3015873015873,309.4444444444444,271.66666666666663,245.0,163.09523809523807,203.25396825396825,54.52380952380952,287.22222222222223,192.93650793650792,98.80952380952381,104.36507936507935,175.63492063492063,-201.66666666666666,265.3174603174603,-41.507936507936506,-107.06349206349206,-171.19047619047618,-9.920634920634921,-9.285714285714285,-166.26984126984127
268,154.68253968253967,-218.8095238095238,-61.82539682539682,-76.26984126984127,-20.555555555555554,-175.95238095238093,-103.88888888888889,-132.3015873015873,-56.74603174603174,-214.04761904761904,-33.41269841269841,-135.79365079365078,-85.15873015873015,-211.19047619047618,-37.38095238095238,-205.47619047619045,45.63492063492063,-105.63492063492063,3.571428571428571,100.87301587301587,46.58730158730158,7.698412698412698,8.968253968253968,-166.26984126984127
269,154.68253968253967,-218.8095238095238,-61.82539682539682,-76.26984126984127,-20.555555555555554,-175.95238095238093,-103.88888888888889,-132.3015873015873,-56.74603174603174,-214.04761904761904,-33.41269841269841,-135.79365079365078,-85.15873015873015,-211.19047619047618,-37.38095238095238,-205.47619047619045,45.63492063492063,-105.63492063492063,3.571428571428571,100.87301587301587,46.58730158730158,7.698412698412698,8.968253968253968,-166.26984126984127
270,4.0476190476190474,181.03174603174602,146.74603174603175,-28.015873015873016,191.66666666666666,307.06349206349205,274.5238095238095,252.3015873015873,174.68253968253967,208.4920634920635,50.71428571428571,273.4126984126984,188.65079365079364,94.68253968253968,117.38095238095238,182.93650793650792,-219.60317460317458,266.74603174603175,-37.698412698412696,-103.25396825396825,-188.4920634920635,-8.65079365079365,-9.285714285714285,-321.8253968253968
271,4.0476190476190474,181.03174603174602,146.74603174603175,-28.015873015873016,191.66666666666666,307.06349206349205,274.5238095238095,252.3015873015873,174.68253968253967,208.4920634920635,50.71428571428571,273.4126984126984,188.65079365079364,94.68253968253968,117.38095238095238,182.93650793650792,-219.60317460317458,266.74603174603175,-37.698412698412696,-103.25396825396825,-188.4920634920635,-8.65079365079365,-9.285714285714285,-321.8253968253968
272,223.88888888888889,-212.77777777777777,-57.22222222222222,-47.06349206349206,-81.03174603174602,-174.52380952380952,-129.44444444444443,-142.14285714285714,-52.14285714285714,-250.7142857142857,-91.98412698412697,-183.4126984126984,-68.65079365079364,-257.53968253968253,-36.42857142857142,-256.26984126984127,4.2063492063492065,-133.57142857142856,-11.984126984126984,155.95238095238093,134.04761904761904,4.365079365079365,2.7777777777777777,-321.8253968253968
273,223.88888888888889,-212.77777777777777,-57.22222222222222,-47.06349206349206,-81.03174603174602,-174.52380952380952,-129.44444444444443,-142.14285714285714,-52.14285714285714,-250.7142857142857,-91.98412698412697,-183.4126984126984,-68.65079365079364,-257.53968253968253,-36.42857142857142,-256.26984126984127,4.2063492063492065,-133.57142857142856,-11.984126984126984,155.95238095238093,134.04761904761904,4.365079365079365,2.7777777777777777,-321.8253968253968
274,223.88888888888889,-212.77777777777777,-57.22222222222222,-47.06349206349206,-81.03174603174602,-174.52380952380952,-129.44444444444443,-142.14285714285714,-52.14285714285714,-250.7142857142857,-91.98412698412697,-183.4126984126984,-68.65079365079364,-257.53968253968253,-36.42857142857142,-256.26984126984127,4.2063492063492065,-133.57142857142856,-11.984126984126984,155.95238095238093,134.04761904761904,4.365079365079365,2.7777777777777777,-321.8253968253968
275,223.88888888888889,-212.77777777777777,-57.22222222222222,-47.06349206349206,-81.03174603174602,-174.52380952380952,-129.44444444444443,-142.14285714285714,-52.14285714285714,-250.7142857142857,-91.98412698412697,-183.4126984126984,-68.65079365079364,-257.53968253968253,-36.42857142857142,-256.26984126984127,4.2063492063492065,-133.57142857142856,-11.984126984126984,155.95238095238093,134.04761904761904,4.365079365079365,2.7777777777777777,-321.8253968253968
276,221.98412698412696,-244.68253968253967,-58.96825396825397,-38.49206349206349,-79.76190476190476,-183.25396825396825,-134.04761904761904,-158.015873015873,-55.79365079365079,-264.04761904761904,-87.6984126984127,-184.68253968253967,-71.82539682539682,-256.90476190476187,-40.39682539682539,-261.66666666666663,19.126984126984127,-142.93650793650792,-17.22222222222222,160.55555555555554,142.3015873015873,5.158730158730158,2.9365079365079363,-321.8253968253968
