,Fp1[1],Fp2[2],F3[3],F4[4],C3[5],C4[6],P3[7],P4[8],O1[9],O2[10],F7[11],F8[12],T3[13],T4[14],T5[15],T6[16],Fz[17],Pz[18],Cz[19],Pg1[20],Pg2[21],EOGR[22],EOOGL[23],EMG[24]
0,301.3492063492063,325.0,-325.0,325.0,-325.0,325.0,325.0,325.0,325.0,325.0,325.0,325.0,-325.0,-325.0,-325.0,325.0,-325.0,325.0,-325.0,-325.0,-325.0,1.8253968253968254,5.158730158730158,-166.26984126984127
1,301.3492063492063,325.0,-325.0,325.0,-325.0,325.0,325.0,325.0,325.0,325.0,325.0,325.0,-325.0,-325.0,-325.0,325.0,-325.0,325.0,-325.0,-325.0,-325.0,1.8253968253968254,5.158730158730158,-166.26984126984127
2,253.57142857142856,325.0,-237.69841269841268,-0.07936507936507936,-0.07936507936507936,302.9365079365079,282.6190476190476,296.26984126984127,325.0,325.0,325.0,296.26984126984127,-238.17460317460316,-309.4444444444444,-238.015873015873,325.0,-322.77777777777777,293.0952380952381,-325.0,-325.0,-325.0,1.0317460317460316,4.365079365079365,-166.26984126984127
3,253.57142857142856,325.0,-237.69841269841268,-0.07936507936507936,-0.07936507936507936,302.9365079365079,282.6190476190476,296.26984126984127,325.0,325.0,325.0,296.26984126984127,-238.17460317460316,-309.4444444444444,-238.015873015873,325.0,-322.77777777777777,293.0952380952381,-325.0,-325.0,-325.0,1.0317460317460316,4.365079365079365,-166.26984126984127
4,201.98412698412696,325.0,-139.9206349206349,-325.0,325.0,276.26984126984127,236.1111111111111,262.77777777777777,325.0,325.0,325.0,262.6190476190476,-140.55555555555554,-288.3333333333333,-141.984126984127,325.0,-314.8412698412698,256.90476190476187,-325.0,-325.0,-325.0,-0.7142857142857142,-4.0476190476190474,-166.26984126984127
5,201.98412698412696,325.0,-139.9206349206349,-325.0,325.0,276.26984126984127,236.1111111111111,262.77777777777777,325.0,325.0,325.0,262.6190476190476,-140.55555555555554,-288.3333333333333,-141.984126984127,325.0,-314.8412698412698,256.90476190476187,-325.0,-325.0,-325.0,-0.7142857142857142,-4.0476190476190474,-166.26984126984127
6,201.98412698412696,325.0,-139.9206349206349,-325.0,325.0,276.26984126984127,236.1111111111111,262.77777777777777,325.0,325.0,325.0,262.6190476190476,-140.55555555555554,-288.3333333333333,-141.984126984127,325.0,-314.8412698412698,256.90476190476187,-325.0,-325.0,-325.0,-0.7142857142857142,-4.0476190476190474,-166.26984126984127
7,201.98412698412696,325.0,-139.9206349206349,-325.0,325.0,276.26984126984127,236.1111111111111,262.77777777777777,325.0,325.0,325.0,262.6190476190476,-140.55555555555554,-288.3333333333333,-141.984126984127,325.0,-314.8412698412698,256.90476190476187,-325.0,-325.0,-325.0,-0.7142857142857142,-4.0476190476190474,-166.26984126984127
8,181.984126984127,325.0,-117.85714285714285,-325.0,325.0,251.03174603174602,213.7301587301587,238.96825396825395,319.9206349206349,325.0,308.3333333333333,238.015873015873,-121.98412698412697,-261.3492063492063,-121.5079365079365,325.0,-285.95238095238096,233.25396825396825,-325.0,-306.4285714285714,-308.17460317460313,-8.492063492063492,-13.412698412698411,-166.26984126984127
9,181.984126984127,325.0,-117.85714285714285,-325.0,325.0,251.03174603174602,213.7301587301587,238.96825396825395,319.9206349206349,325.0,308.3333333333333,238.015873015873,-121.98412698412697,-261.3492063492063,-121.5079365079365,325.0,-285.95238095238096,233.25396825396825,-325.0,-306.4285714285714,-308.17460317460313,-8.492063492063492,-13.412698412698411,-166.26984126984127
10,181.984126984127,325.0,-117.85714285714285,-325.0,325.0,251.03174603174602,213.7301587301587,238.96825396825395,319.9206349206349,325.0,308.3333333333333,238.015873015873,-121.98412698412697,-261.3492063492063,-121.5079365079365,325.0,-285.95238095238096,233.25396825396825,-325.0,-306.4285714285714,-308.17460317460313,-8.492063492063492,-13.412698412698411,-321.8253968253968
11,181.984126984127,325.0,-117.85714285714285,-325.0,325.0,251.03174603174602,213.7301587301587,238.96825396825395,319.9206349206349,325.0,308.3333333333333,238.015873015873,-121.98412698412697,-261.3492063492063,-121.5079365079365,325.0,-285.95238095238096,233.25396825396825,-325.0,-306.4285714285714,-308.17460317460313,-8.492063492063492,-13.412698412698411,-321.8253968253968
12,181.984126984127,325.0,-117.85714285714285,-325.0,325.0,251.03174603174602,213.7301587301587,238.96825396825395,319.9206349206349,325.0,308.3333333333333,238.015873015873,-121.98412698412697,-261.3492063492063,-121.5079365079365,325.0,-285.95238095238096,233.25396825396825,-325.0,-306.4285714285714,-308.17460317460313,-8.492063492063492,-13.412698412698411,-321.8253968253968
13,181.984126984127,325.0,-117.85714285714285,-325.0,325.0,251.03174603174602,213.7301587301587,238.96825396825395,319.9206349206349,325.0,308.3333333333333,238.015873015873,-121.98412698412697,-261.3492063492063,-121.5079365079365,325.0,-285.95238095238096,233.25396825396825,-325.0,-306.4285714285714,-308.17460317460313,-8.492063492063492,-13.412698412698411,-321.8253968253968
14,168.33333333333331,305.1587301587301,-87.06349206349206,-325.0,317.06349206349205,233.7301587301587,198.33333333333331,222.46031746031744,298.3333333333333,308.968253968254,287.85714285714283,221.19047619047618,-91.66666666666666,-242.77777777777777,-92.30158730158729,265.1587301587301,-266.1111111111111,217.38095238095238,-307.85714285714283,-285.4761904761905,-286.58730158730157,-4.365079365079365,-8.333333333333332,-321.8253968253968
15,168.33333333333331,305.1587301587301,-87.06349206349206,-325.0,317.06349206349205,233.7301587301587,198.33333333333331,222.46031746031744,298.3333333333333,308.968253968254,287.85714285714283,221.19047619047618,-91.66666666666666,-242.77777777777777,-92.30158730158729,265.1587301587301,-266.1111111111111,217.38095238095238,-307.85714285714283,-285.4761904761905,-286.58730158730157,-4.365079365079365,-8.333333333333332,-321.8253968253968
16,151.984126984127,280.55555555555554,-48.01587301587301,-325.0,304.2063492063492,212.93650793650792,179.76190476190476,202.61904761904762,271.8253968253968,288.015873015873,263.25396825396825,200.7142857142857,-55.95238095238095,-220.3968253968254,-56.74603174603174,233.57142857142856,-241.98412698412696,198.17460317460316,-285.7936507936508,-259.9206349206349,-260.23809523809524,-1.6666666666666665,1.8253968253968254,-321.8253968253968
17,151.984126984127,280.55555555555554,-48.01587301587301,-325.0,304.2063492063492,212.93650793650792,179.76190476190476,202.61904761904762,271.8253968253968,288.015873015873,263.25396825396825,200.7142857142857,-55.95238095238095,-220.3968253968254,-56.74603174603174,233.57142857142856,-241.98412698412696,198.17460317460316,-285.7936507936508,-259.9206349206349,-260.23809523809524,-1.6666666666666665,1.8253968253968254,-321.8253968253968
18,151.984126984127,280.55555555555554,-48.01587301587301,-325.0,304.2063492063492,212.93650793650792,179.76190476190476,202.61904761904762,271.8253968253968,288.015873015873,263.25396825396825,200.7142857142857,-55.95238095238095,-220.3968253968254,-56.74603174603174,233.57142857142856,-241.98412698412696,198.17460317460316,-285.7936507936508,-259.9206349206349,-260.23809523809524,-1.6666666666666665,1.8253968253968254,-321.8253968253968
19,151.984126984127,280.55555555555554,-48.01587301587301,-325.0,304.2063492063492,212.93650793650792,179.76190476190476,202.61904761904762,271.8253968253968,288.015873015873,263.25396825396825,200.7142857142857,-55.95238095238095,-220.3968253968254,-56.74603174603174,233.57142857142856,-241.98412698412696,198.17460317460316,-285.7936507936508,-259.9206349206349,-260.23809523809524,-1.6666666666666665,1.8253968253968254,-321.8253968253968
20,151.984126984127,280.55555555555554,-48.01587301587301,-325.0,304.2063492063492,212.93650793650792,179.76190476190476,202.61904761904762,271.8253968253968,288.015873015873,263.25396825396825,200.7142857142857,-55.95238095238095,-220.3968253968254,-56.74603174603174,233.57142857142856,-241.98412698412696,198.17460317460316,-285.7936507936508,-259.9206349206349,-260.23809523809524,-1.6666666666666665,1.8253968253968254,-166.26984126984127
21,151.984126984127,280.55555555555554,-48.01587301587301,-325.0,304.2063492063492,212.93650793650792,179.76190476190476,202.61904761904762,271.8253968253968,288.015873015873,263.25396825396825,200.7142857142857,-55.95238095238095,-220.3968253968254,-56.74603174603174,233.57142857142856,-241.98412698412696,198.17460317460316,-285.7936507936508,-259.9206349206349,-260.23809523809524,-1.6666666666666665,1.8253968253968254,-166.26984126984127
22,151.984126984127,280.55555555555554,-48.01587301587301,-325.0,304.2063492063492,212.93650793650792,179.76190476190476,202.61904761904762,271.8253968253968,288.015873015873,263.25396825396825,200.7142857142857,-55.95238095238095,-220.3968253968254,-56.74603174603174,233.57142857142856,-241.98412698412696,198.17460317460316,-285.7936507936508,-259.9206349206349,-260.23809523809524,-1.6666666666666665,1.8253968253968254,-166.26984126984127
23,151.984126984127,280.55555555555554,-48.01587301587301,-325.0,304.2063492063492,212.93650793650792,179.76190476190476,202.61904761904762,271.8253968253968,288.015873015873,263.25396825396825,200.7142857142857,-55.95238095238095,-220.3968253968254,-56.74603174603174,233.57142857142856,-241.98412698412696,198.17460317460316,-285.7936507936508,-259.9206349206349,-260.23809523809524,-1.6666666666666665,1.8253968253968254,-166.26984126984127
24,68.80952380952381,-325.0,325.0,-212.3015873015873,149.76190476190476,102.61904761904762,83.73015873015872,98.17460317460316,133.0952380952381,-325.0,-325.0,94.84126984126983,169.44444444444443,-103.88888888888889,163.88888888888889,-325.0,262.9365079365079,95.79365079365078,-139.44444444444443,-126.58730158730158,-123.4126984126984,7.3809523809523805,10.873015873015872,-166.26984126984127
25,68.80952380952381,-325.0,325.0,-212.3015873015873,149.76190476190476,102.61904761904762,83.73015873015872,98.17460317460316,133.0952380952381,-325.0,-325.0,94.84126984126983,169.44444444444443,-103.88888888888889,163.88888888888889,-325.0,262.9365079365079,95.79365079365078,-139.44444444444443,-126.58730158730158,-123.4126984126984,7.3809523809523805,10.873015873015872,-166.26984126984127
26,27.857142857142854,-242.6190476190476,123.88888888888889,28.49206349206349,15.793650793650793,-17.857142857142858,-121.03174603174602,-104.52380952380952,140.07936507936506,-6.587301587301587,-158.65079365079364,26.9047619047619,-79.44444444444444,-202.93650793650792,-4.0476190476190474,-179.12698412698413,107.53968253968253,180.07936507936506,-189.12698412698413,-5.0,11.666666666666666,-68.65079365079364,133.0952380952381,-166.26984126984127
27,27.857142857142854,-242.6190476190476,123.88888888888889,28.49206349206349,15.793650793650793,-17.857142857142858,-121.03174603174602,-104.52380952380952,140.07936507936506,-6.587301587301587,-158.65079365079364,26.9047619047619,-79.44444444444444,-202.93650793650792,-4.0476190476190474,-179.12698412698413,107.53968253968253,180.07936507936506,-189.12698412698413,-5.0,11.666666666666666,-68.65079365079364,133.0952380952381,-166.26984126984127
28,-11.031746031746032,-160.07936507936506,-77.06349206349206,263.88888888888886,-114.2063492063492,-135.79365079365078,-323.4126984126984,-304.68253968253964,150.7142857142857,311.984126984127,7.698412698412698,-38.33333333333333,-305.6349206349206,-304.8412698412698,-151.66666666666666,-33.095238095238095,-26.587301587301585,266.90476190476187,-242.46031746031744,113.4126984126984,143.4126984126984,-140.23809523809524,265.1587301587301,-166.26984126984127
29,-11.031746031746032,-160.07936507936506,-77.06349206349206,263.88888888888886,-114.2063492063492,-135.79365079365078,-323.4126984126984,-304.68253968253964,150.7142857142857,311.984126984127,7.698412698412698,-38.33333333333333,-305.6349206349206,-304.8412698412698,-151.66666666666666,-33.095238095238095,-26.587301587301585,266.90476190476187,-242.46031746031744,113.4126984126984,143.4126984126984,-140.23809523809524,265.1587301587301,-166.26984126984127
30,26.11111111111111,-242.6190476190476,123.88888888888889,33.73015873015873,11.984126984126984,-20.555555555555554,-123.25396825396825,-107.06349206349206,136.9047619047619,-6.587301587301587,-158.65079365079364,24.365079365079364,-92.30158730158729,-200.3968253968254,-15.95238095238095,-179.12698412698413,82.3015873015873,177.69841269841268,-185.79365079365078,-2.142857142857143,14.84126984126984,-71.82539682539682,131.19047619047618,-321.8253968253968
31,26.11111111111111,-242.6190476190476,123.88888888888889,33.73015873015873,11.984126984126984,-20.555555555555554,-123.25396825396825,-107.06349206349206,136.9047619047619,-6.587301587301587,-158.65079365079364,24.365079365079364,-92.30158730158729,-200.3968253968254,-15.95238095238095,-179.12698412698413,82.3015873015873,177.69841269841268,-185.79365079365078,-2.142857142857143,14.84126984126984,-71.82539682539682,131.19047619047618,-321.8253968253968
32,-285.7936507936508,20.396825396825395,-20.396825396825395,-175.95238095238093,158.65079365079364,94.68253968253968,56.74603174603174,90.71428571428571,-201.98412698412696,-304.68253968253964,-325.0,87.22222222222221,100.71428571428571,-116.26984126984127,-225.63492063492063,-325.0,191.34920634920633,88.4920634920635,175.79365079365078,-97.22222222222221,211.34920634920633,-3.4126984126984126,322.3015873015873,-321.8253968253968
33,-285.7936507936508,20.396825396825395,-20.396825396825395,-175.95238095238093,158.65079365079364,94.68253968253968,56.74603174603174,90.71428571428571,-201.98412698412696,-304.68253968253964,-325.0,87.22222222222221,100.71428571428571,-116.26984126984127,-225.63492063492063,-325.0,191.34920634920633,88.4920634920635,175.79365079365078,-97.22222222222221,211.34920634920633,-3.4126984126984126,322.3015873015873,-321.8253968253968
34,52.93650793650794,-325.0,319.76190476190476,-167.85714285714286,118.8095238095238,80.71428571428571,65.47619047619047,77.22222222222221,105.0,-325.0,-325.0,74.2063492063492,197.85714285714283,-81.66666666666666,325.0,-318.968253968254,325.0,75.47619047619047,-110.39682539682539,-100.23809523809523,-97.06349206349206,3.888888888888889,2.46031746031746,-321.8253968253968
35,52.93650793650794,-325.0,319.76190476190476,-167.85714285714286,118.8095238095238,80.71428571428571,65.47619047619047,77.22222222222221,105.0,-325.0,-325.0,74.2063492063492,197.85714285714283,-81.66666666666666,325.0,-318.968253968254,325.0,75.47619047619047,-110.39682539682539,-100.23809523809523,-97.06349206349206,3.888888888888889,2.46031746031746,-321.8253968253968
36,86.9047619047619,58.650793650793645,-278.17460317460313,56.269841269841265,76.74603174603175,-309.2857142857143,20.396825396825395,53.25396825396825,-0.07936507936507936,-79.76190476190476,-20.396825396825395,-239.60317460317458,-20.396825396825395,75.15873015873015,-60.873015873015866,-73.09523809523809,275.3174603174603,26.26984126984127,-299.6031746031746,40.079365079365076,-304.68253968253964,25.79365079365079,23.095238095238095,-321.8253968253968
37,86.9047619047619,58.650793650793645,-278.17460317460313,56.269841269841265,76.74603174603175,-309.2857142857143,20.396825396825395,53.25396825396825,-0.07936507936507936,-79.76190476190476,-20.396825396825395,-239.60317460317458,-20.396825396825395,75.15873015873015,-60.873015873015866,-73.09523809523809,275.3174603174603,26.26984126984127,-299.6031746031746,40.079365079365076,-304.68253968253964,25.79365079365079,23.095238095238095,-321.8253968253968
38,86.9047619047619,58.650793650793645,-278.17460317460313,56.269841269841265,76.74603174603175,-309.2857142857143,20.396825396825395,53.25396825396825,-0.07936507936507936,-79.76190476190476,-20.396825396825395,-239.60317460317458,-20.396825396825395,75.15873015873015,-60.873015873015866,-73.09523809523809,275.3174603174603,26.26984126984127,-299.6031746031746,40.079365079365076,-304.68253968253964,25.79365079365079,23.095238095238095,-321.8253968253968
39,86.9047619047619,58.650793650793645,-278.17460317460313,56.269841269841265,76.74603174603175,-309.2857142857143,20.396825396825395,53.25396825396825,-0.07936507936507936,-79.76190476190476,-20.396825396825395,-239.60317460317458,-20.396825396825395,75.15873015873015,-60.873015873015866,-73.09523809523809,275.3174603174603,26.26984126984127,-299.6031746031746,40.079365079365076,-304.68253968253964,25.79365079365079,23.095238095238095,-321.8253968253968
40,86.9047619047619,58.650793650793645,-278.17460317460313,56.269841269841265,76.74603174603175,-309.2857142857143,20.396825396825395,53.25396825396825,-0.07936507936507936,-79.76190476190476,-20.396825396825395,-239.60317460317458,-20.396825396825395,75.15873015873015,-60.873015873015866,-73.09523809523809,275.3174603174603,26.26984126984127,-299.6031746031746,40.079365079365076,-304.68253968253964,25.79365079365079,23.095238095238095,-166.26984126984127
41,86.9047619047619,58.650793650793645,-278.17460317460313,56.269841269841265,76.74603174603175,-309.2857142857143,20.396825396825395,53.25396825396825,-0.07936507936507936,-79.76190476190476,-20.396825396825395,-239.60317460317458,-20.396825396825395,75.15873015873015,-60.873015873015866,-73.09523809523809,275.3174603174603,26.26984126984127,-299.6031746031746,40.079365079365076,-304.68253968253964,25.79365079365079,23.095238095238095,-166.26984126984127
42,86.9047619047619,58.650793650793645,-278.17460317460313,56.269841269841265,76.74603174603175,-309.2857142857143,20.396825396825395,53.25396825396825,-0.07936507936507936,-79.76190476190476,-20.396825396825395,-239.60317460317458,-20.396825396825395,75.15873015873015,-60.873015873015866,-73.09523809523809,275.3174603174603,26.26984126984127,-299.6031746031746,40.079365079365076,-304.68253968253964,25.79365079365079,23.095238095238095,-166.26984126984127
43,86.9047619047619,58.650793650793645,-278.17460317460313,56.269841269841265,76.74603174603175,-309.2857142857143,20.396825396825395,53.25396825396825,-0.07936507936507936,-79.76190476190476,-20.396825396825395,-239.60317460317458,-20.396825396825395,75.15873015873015,-60.873015873015866,-73.09523809523809,275.3174603174603,26.26984126984127,-299.6031746031746,40.079365079365076,-304.68253968253964,25.79365079365079,23.095238095238095,-166.26984126984127
44,86.9047619047619,58.650793650793645,-278.17460317460313,56.269841269841265,76.74603174603175,-309.2857142857143,20.396825396825395,53.25396825396825,-0.07936507936507936,-79.76190476190476,-20.396825396825395,-239.60317460317458,-20.396825396825395,75.15873015873015,-60.873015873015866,-73.09523809523809,275.3174603174603,26.26984126984127,-299.6031746031746,40.079365079365076,-304.68253968253964,25.79365079365079,23.095238095238095,-166.26984126984127
45,86.9047619047619,58.650793650793645,-278.17460317460313,56.269841269841265,76.74603174603175,-309.2857142857143,20.396825396825395,53.25396825396825,-0.07936507936507936,-79.76190476190476,-20.396825396825395,-239.60317460317458,-20.396825396825395,75.15873015873015,-60.873015873015866,-73.09523809523809,275.3174603174603,26.26984126984127,-299.6031746031746,40.079365079365076,-304.68253968253964,25.79365079365079,23.095238095238095,-166.26984126984127
46,50.55555555555555,-36.74603174603175,-85.79365079365078,1.0317460317460316,-124.2063492063492,-317.22222222222223,-152.3015873015873,-135.95238095238093,17.38095238095238,-111.19047619047619,-126.74603174603173,-282.3015873015873,90.87301587301587,200.07936507936506,69.44444444444444,-92.46031746031746,300.07936507936506,-149.44444444444443,-168.015873015873,3.4126984126984126,-167.69841269841268,11.031746031746032,7.5396825396825395,-166.26984126984127
47,50.55555555555555,-36.74603174603175,-85.79365079365078,1.0317460317460316,-124.2063492063492,-317.22222222222223,-152.3015873015873,-135.95238095238093,17.38095238095238,-111.19047619047619,-126.74603174603173,-282.3015873015873,90.87301587301587,200.07936507936506,69.44444444444444,-92.46031746031746,300.07936507936506,-149.44444444444443,-168.015873015873,3.4126984126984126,-167.69841269841268,11.031746031746032,7.5396825396825395,-166.26984126984127
48,14.365079365079364,-131.984126984127,106.58730158730158,-54.047619047619044,-325.0,-325.0,-325.0,-325.0,34.84126984126984,-142.61904761904762,-232.93650793650792,-325.0,202.14285714285714,325.0,199.76190476190476,-111.66666666666666,325.0,-325.0,-36.269841269841265,-33.25396825396825,-30.71428571428571,-3.571428571428571,-8.015873015873016,-166.26984126984127
49,14.365079365079364,-131.984126984127,106.58730158730158,-54.047619047619044,-325.0,-325.0,-325.0,-325.0,34.84126984126984,-142.61904761904762,-232.93650793650792,-325.0,202.14285714285714,325.0,199.76190476190476,-111.66666666666666,325.0,-325.0,-36.269841269841265,-33.25396825396825,-30.71428571428571,-3.571428571428571,-8.015873015873016,-166.26984126984127
50,-42.14285714285714,-129.76190476190476,104.68253968253968,-53.25396825396825,-325.0,-325.0,-325.0,-325.0,34.047619047619044,-140.07936507936506,-229.28571428571428,-325.0,198.65079365079364,325.0,196.42857142857142,-109.6031746031746,325.0,-325.0,-35.79365079365079,-32.460317460317455,-30.07936507936508,-3.888888888888889,-8.333333333333332,-321.8253968253968
51,-42.14285714285714,-129.76190476190476,104.68253968253968,-53.25396825396825,-325.0,-325.0,-325.0,-325.0,34.047619047619044,-140.07936507936506,-229.28571428571428,-325.0,198.65079365079364,325.0,196.42857142857142,-109.6031746031746,325.0,-325.0,-35.79365079365079,-32.460317460317455,-30.07936507936508,-3.888888888888889,-8.333333333333332,-321.8253968253968
52,-122.30158730158729,-126.1111111111111,102.14285714285714,-51.507936507936506,-325.0,-325.0,-325.0,-325.0,33.25396825396825,-136.26984126984127,-223.57142857142856,-325.0,193.7301587301587,325.0,191.5079365079365,-106.74603174603175,325.0,-325.0,-34.682539682539684,-31.19047619047619,-29.126984126984127,8.333333333333332,9.285714285714285,-321.8253968253968
53,-122.30158730158729,-126.1111111111111,102.14285714285714,-51.507936507936506,-325.0,-325.0,-325.0,-325.0,33.25396825396825,-136.26984126984127,-223.57142857142856,-325.0,193.7301587301587,325.0,191.5079365079365,-106.74603174603175,325.0,-325.0,-34.682539682539684,-31.19047619047619,-29.126984126984127,8.333333333333332,9.285714285714285,-321.8253968253968
54,-325.0,-122.6190476190476,98.96825396825396,-50.079365079365076,-325.0,-325.0,-325.0,-325.0,32.14285714285714,-132.3015873015873,-217.2222222222222,-325.0,187.69841269841268,325.0,185.95238095238093,-103.73015873015872,325.0,-325.0,-33.73015873015873,-30.71428571428571,-28.333333333333332,-3.4126984126984126,-1.1904761904761905,-321.8253968253968
55,-325.0,-122.6190476190476,98.96825396825396,-50.079365079365076,-325.0,-325.0,-325.0,-325.0,32.14285714285714,-132.3015873015873,-217.2222222222222,-325.0,187.69841269841268,325.0,185.95238095238093,-103.73015873015872,325.0,-325.0,-33.73015873015873,-30.71428571428571,-28.333333333333332,-3.4126984126984126,-1.1904761904761905,-321.8253968253968
56,-325.0,-119.6031746031746,96.1111111111111,-48.49206349206349,-325.0,-325.0,-325.0,-325.0,31.349206349206348,-128.96825396825395,-211.98412698412696,-325.0,183.09523809523807,325.0,181.19047619047618,-101.19047619047619,321.66666666666663,-325.0,-32.77777777777778,173.4126984126984,-27.698412698412696,-6.428571428571428,-10.238095238095237,-321.8253968253968
57,-325.0,-119.6031746031746,96.1111111111111,-48.49206349206349,-325.0,-325.0,-325.0,-325.0,31.349206349206348,-128.96825396825395,-211.98412698412696,-325.0,183.09523809523807,325.0,181.19047619047618,-101.19047619047619,321.66666666666663,-325.0,-32.77777777777778,173.4126984126984,-27.698412698412696,-6.428571428571428,-10.238095238095237,-321.8253968253968
58,-325.0,-118.01587301587301,95.15873015873015,-48.01587301587301,-325.0,-325.0,-325.0,-325.0,30.71428571428571,-127.06349206349206,-209.28571428571428,-325.0,180.87301587301587,325.0,178.8095238095238,-99.92063492063491,317.69841269841265,-325.0,-32.460317460317455,133.57142857142856,-27.22222222222222,7.857142857142857,7.5396825396825395,-321.8253968253968
59,-325.0,-118.01587301587301,95.15873015873015,-48.01587301587301,-325.0,-325.0,-325.0,-325.0,30.71428571428571,-127.06349206349206,-209.28571428571428,-325.0,180.87301587301587,325.0,178.8095238095238,-99.92063492063491,317.69841269841265,-325.0,-32.460317460317455,133.57142857142856,-27.22222222222222,7.857142857142857,7.5396825396825395,-321.8253968253968
60,-325.0,-118.01587301587301,95.15873015873015,-48.01587301587301,-325.0,-325.0,-325.0,-325.0,30.71428571428571,-127.06349206349206,-209.28571428571428,-325.0,180.87301587301587,325.0,178.8095238095238,-99.92063492063491,317.69841269841265,-325.0,-32.460317460317455,133.57142857142856,-27.22222222222222,7.857142857142857,7.5396825396825395,-166.26984126984127
61,-325.0,-118.01587301587301,95.15873015873015,-48.01587301587301,-325.0,-325.0,-325.0,-325.0,30.71428571428571,-127.06349206349206,-209.28571428571428,-325.0,180.87301587301587,325.0,178.8095238095238,-99.92063492063491,317.69841269841265,-325.0,-32.460317460317455,133.57142857142856,-27.22222222222222,7.857142857142857,7.5396825396825395,-166.26984126984127
62,-325.0,-110.39682539682539,88.65079365079364,-44.68253968253968,-325.0,-325.0,-325.0,-325.0,28.96825396825397,-118.8095238095238,-195.95238095238093,-325.0,168.4920634920635,325.0,166.9047619047619,-93.4126984126984,296.90476190476187,-325.0,-30.238095238095237,325.0,-25.317460317460316,7.698412698412698,8.809523809523808,-166.26984126984127
63,-325.0,-110.39682539682539,88.65079365079364,-44.68253968253968,-325.0,-325.0,-325.0,-325.0,28.96825396825397,-118.8095238095238,-195.95238095238093,-325.0,168.4920634920635,325.0,166.9047619047619,-93.4126984126984,296.90476190476187,-325.0,-30.238095238095237,325.0,-25.317460317460316,7.698412698412698,8.809523809523808,-166.26984126984127
64,-325.0,-109.12698412698413,87.38095238095238,-35.317460317460316,-325.0,-325.0,-325.0,-325.0,28.49206349206349,-117.38095238095238,-193.57142857142856,-325.0,166.26984126984127,325.0,164.84126984126982,-92.14285714285714,292.9365079365079,-325.0,-29.920634920634917,325.0,23.095238095238095,1.984126984126984,0.23809523809523808,-166.26984126984127
65,-325.0,-109.12698412698413,87.38095238095238,-35.317460317460316,-325.0,-325.0,-325.0,-325.0,28.49206349206349,-117.38095238095238,-193.57142857142856,-325.0,166.26984126984127,325.0,164.84126984126982,-92.14285714285714,292.9365079365079,-325.0,-29.920634920634917,325.0,23.095238095238095,1.984126984126984,0.23809523809523808,-166.26984126984127
66,-255.15873015873015,-106.9047619047619,21.19047619047619,-144.84126984126982,-4.365079365079365,-0.07936507936507936,-166.74603174603175,-161.19047619047618,-145.79365079365078,-70.39682539682539,-252.93650793650792,-176.26984126984127,171.34920634920633,325.0,170.23809523809524,-89.6031746031746,121.82539682539682,-314.8412698412698,133.4126984126984,325.0,136.9047619047619,-2.9365079365079363,154.52380952380952,-166.26984126984127
67,-255.15873015873015,-106.9047619047619,21.19047619047619,-144.84126984126982,-4.365079365079365,-0.07936507936507936,-166.74603174603175,-161.19047619047618,-145.79365079365078,-70.39682539682539,-252.93650793650792,-176.26984126984127,171.34920634920633,325.0,170.23809523809524,-89.6031746031746,121.82539682539682,-314.8412698412698,133.4126984126984,325.0,136.9047619047619,-2.9365079365079363,154.52380952380952,-166.26984126984127
68,-325.0,-103.25396825396825,82.46031746031746,-16.587301587301585,-325.0,-325.0,-325.0,-325.0,27.22222222222222,-111.03174603174602,-183.7301587301587,-325.0,156.9047619047619,325.0,156.11111111111111,-87.38095238095238,277.38095238095235,-325.0,-28.333333333333332,325.0,96.1111111111111,8.65079365079365,9.444444444444445,-166.26984126984127
69,-325.0,-103.25396825396825,82.46031746031746,-16.587301587301585,-325.0,-325.0,-325.0,-325.0,27.22222222222222,-111.03174603174602,-183.7301587301587,-325.0,156.9047619047619,325.0,156.11111111111111,-87.38095238095238,277.38095238095235,-325.0,-28.333333333333332,325.0,96.1111111111111,8.65079365079365,9.444444444444445,-166.26984126984127
70,-325.0,-103.25396825396825,82.46031746031746,-16.587301587301585,-325.0,-325.0,-325.0,-325.0,27.22222222222222,-111.03174603174602,-183.7301587301587,-325.0,156.9047619047619,325.0,156.11111111111111,-87.38095238095238,277.38095238095235,-325.0,-28.333333333333332,325.0,96.1111111111111,8.65079365079365,9.444444444444445,-321.8253968253968
71,-325.0,-103.25396825396825,82.46031746031746,-16.587301587301585,-325.0,-325.0,-325.0,-325.0,27.22222222222222,-111.03174603174602,-183.7301587301587,-325.0,156.9047619047619,325.0,156.11111111111111,-87.38095238095238,277.38095238095235,-325.0,-28.333333333333332,325.0,96.1111111111111,8.65079365079365,9.444444444444445,-321.8253968253968
72,-325.0,-99.92063492063491,79.44444444444444,53.57142857142857,-325.0,-325.0,-325.0,-325.0,25.952380952380953,-107.06349206349206,-177.85714285714286,-325.0,151.984126984127,325.0,150.7142857142857,-84.2063492063492,268.015873015873,-325.0,-27.38095238095238,325.0,269.6031746031746,7.857142857142857,9.126984126984127,-321.8253968253968
73,-325.0,-99.92063492063491,79.44444444444444,53.57142857142857,-325.0,-325.0,-325.0,-325.0,25.952380952380953,-107.06349206349206,-177.85714285714286,-325.0,151.984126984127,325.0,150.7142857142857,-84.2063492063492,268.015873015873,-325.0,-27.38095238095238,325.0,269.6031746031746,7.857142857142857,9.126984126984127,-321.8253968253968
74,-325.0,-99.92063492063491,79.44444444444444,53.57142857142857,-325.0,-325.0,-325.0,-325.0,25.952380952380953,-107.06349206349206,-177.85714285714286,-325.0,151.984126984127,325.0,150.7142857142857,-84.2063492063492,268.015873015873,-325.0,-27.38095238095238,325.0,269.6031746031746,7.857142857142857,9.126984126984127,-321.8253968253968
75,-325.0,-99.92063492063491,79.44444444444444,53.57142857142857,-325.0,-325.0,-325.0,-325.0,25.952380952380953,-107.06349206349206,-177.85714285714286,-325.0,151.984126984127,325.0,150.7142857142857,-84.2063492063492,268.015873015873,-325.0,-27.38095238095238,325.0,269.6031746031746,7.857142857142857,9.126984126984127,-321.8253968253968
76,-325.0,-99.92063492063491,79.44444444444444,53.57142857142857,-325.0,-325.0,-325.0,-325.0,25.952380952380953,-107.06349206349206,-177.85714285714286,-325.0,151.984126984127,325.0,150.7142857142857,-84.2063492063492,268.015873015873,-325.0,-27.38095238095238,325.0,269.6031746031746,7.857142857142857,9.126984126984127,-321.8253968253968
77,-325.0,-99.92063492063491,79.44444444444444,53.57142857142857,-325.0,-325.0,-325.0,-325.0,25.952380952380953,-107.06349206349206,-177.85714285714286,-325.0,151.984126984127,325.0,150.7142857142857,-84.2063492063492,268.015873015873,-325.0,-27.38095238095238,325.0,269.6031746031746,7.857142857142857,9.126984126984127,-321.8253968253968
78,-325.0,-99.92063492063491,79.44444444444444,53.57142857142857,-325.0,-325.0,-325.0,-325.0,25.952380952380953,-107.06349206349206,-177.85714285714286,-325.0,151.984126984127,325.0,150.7142857142857,-84.2063492063492,268.015873015873,-325.0,-27.38095238095238,325.0,269.6031746031746,7.857142857142857,9.126984126984127,-321.8253968253968
79,-325.0,-99.92063492063491,79.44444444444444,53.57142857142857,-325.0,-325.0,-325.0,-325.0,25.952380952380953,-107.06349206349206,-177.85714285714286,-325.0,151.984126984127,325.0,150.7142857142857,-84.2063492063492,268.015873015873,-325.0,-27.38095238095238,325.0,269.6031746031746,7.857142857142857,9.126984126984127,-321.8253968253968
80,-325.0,-93.09523809523809,73.57142857142857,194.2063492063492,-325.0,-325.0,-325.0,-325.0,24.206349206349206,-99.92063492063491,-165.95238095238093,-325.0,140.87301587301587,325.0,140.23809523809524,-78.65079365079364,249.28571428571428,-325.0,-25.476190476190474,325.0,325.0,5.634920634920634,7.698412698412698,-166.26984126984127
81,-325.0,-93.09523809523809,73.57142857142857,194.2063492063492,-325.0,-325.0,-325.0,-325.0,24.206349206349206,-99.92063492063491,-165.95238095238093,-325.0,140.87301587301587,325.0,140.23809523809524,-78.65079365079364,249.28571428571428,-325.0,-25.476190476190474,325.0,325.0,5.634920634920634,7.698412698412698,-166.26984126984127
82,-325.0,-91.66666666666666,72.3015873015873,325.0,-325.0,-325.0,-325.0,-325.0,23.88888888888889,-98.17460317460316,-163.4126984126984,-325.0,138.33333333333331,325.0,137.85714285714286,-77.53968253968253,245.15873015873015,-325.0,-25.158730158730158,325.0,325.0,-5.634920634920634,-9.285714285714285,-166.26984126984127
83,-325.0,-91.66666666666666,72.3015873015873,325.0,-325.0,-325.0,-325.0,-325.0,23.88888888888889,-98.17460317460316,-163.4126984126984,-325.0,138.33333333333331,325.0,137.85714285714286,-77.53968253968253,245.15873015873015,-325.0,-25.158730158730158,325.0,325.0,-5.634920634920634,-9.285714285714285,-166.26984126984127
84,-325.0,-91.19047619047619,71.98412698412697,325.0,-325.0,-325.0,-325.0,-325.0,23.730158730158728,-97.85714285714285,-162.61904761904762,-325.0,137.85714285714286,325.0,137.22222222222223,-77.06349206349206,244.04761904761904,-325.0,-25.0,325.0,325.0,-2.3015873015873014,-7.698412698412698,-166.26984126984127
85,-325.0,-91.19047619047619,71.98412698412697,325.0,-325.0,-325.0,-325.0,-325.0,23.730158730158728,-97.85714285714285,-162.61904761904762,-325.0,137.85714285714286,325.0,137.22222222222223,-77.06349206349206,244.04761904761904,-325.0,-25.0,325.0,325.0,-2.3015873015873014,-7.698412698412698,-166.26984126984127
86,-325.0,-88.80952380952381,69.92063492063491,325.0,-325.0,-325.0,-325.0,-325.0,23.095238095238095,-95.0,-158.015873015873,-325.0,133.73015873015873,325.0,133.25396825396825,-74.84126984126983,236.9047619047619,-325.0,-24.365079365079364,325.0,325.0,-5.634920634920634,-9.126984126984127,-166.26984126984127
87,-325.0,-88.80952380952381,69.92063492063491,325.0,-325.0,-325.0,-325.0,-325.0,23.095238095238095,-95.0,-158.015873015873,-325.0,133.73015873015873,325.0,133.25396825396825,-74.84126984126983,236.9047619047619,-325.0,-24.365079365079364,325.0,325.0,-5.634920634920634,-9.126984126984127,-166.26984126984127
88,-325.0,-87.38095238095238,68.80952380952381,325.0,-325.0,-325.0,-325.0,-325.0,22.619047619047617,-93.4126984126984,-156.26984126984127,-325.0,132.14285714285714,325.0,131.66666666666666,-73.88888888888889,234.04761904761904,-325.0,-24.047619047619047,325.0,325.0,8.333333333333332,9.761904761904761,-166.26984126984127
89,-325.0,-87.38095238095238,68.80952380952381,325.0,-325.0,-325.0,-325.0,-325.0,22.619047619047617,-93.4126984126984,-156.26984126984127,-325.0,132.14285714285714,325.0,131.66666666666666,-73.88888888888889,234.04761904761904,-325.0,-24.047619047619047,325.0,325.0,8.333333333333332,9.761904761904761,-166.26984126984127
90,-325.0,-85.31746031746032,67.06349206349206,325.0,-325.0,-325.0,-325.0,-325.0,22.3015873015873,-91.34920634920634,-152.14285714285714,-325.0,128.4920634920635,325.0,128.17460317460316,-72.3015873015873,228.015873015873,-325.0,-23.41269841269841,325.0,325.0,-2.142857142857143,-6.111111111111111,-321.8253968253968
91,-325.0,-85.31746031746032,67.06349206349206,325.0,-325.0,-325.0,-325.0,-325.0,22.3015873015873,-91.34920634920634,-152.14285714285714,-325.0,128.4920634920635,325.0,128.17460317460316,-72.3015873015873,228.015873015873,-325.0,-23.41269841269841,325.0,325.0,-2.142857142857143,-6.111111111111111,-321.8253968253968
92,-325.0,-83.57142857142857,65.63492063492063,325.0,-325.0,-325.0,-325.0,-325.0,21.666666666666664,-89.44444444444444,-149.28571428571428,-325.0,125.79365079365078,322.46031746031747,125.47619047619047,-70.71428571428571,223.25396825396825,-325.0,-23.095238095238095,325.0,325.0,2.619047619047619,1.984126984126984,-321.8253968253968
93,-325.0,-83.57142857142857,65.63492063492063,325.0,-325.0,-325.0,-325.0,-325.0,21.666666666666664,-89.44444444444444,-149.28571428571428,-325.0,125.79365079365078,322.46031746031747,125.47619047619047,-70.71428571428571,223.25396825396825,-325.0,-23.095238095238095,325.0,325.0,2.619047619047619,1.984126984126984,-321.8253968253968
94,-325.0,-80.71428571428571,63.25396825396825,325.0,-325.0,-325.0,-325.0,-325.0,20.238095238095237,-86.26984126984127,-144.52380952380952,-325.0,121.66666666666666,315.95238095238096,121.34920634920634,-68.33333333333333,215.79365079365078,-325.0,-22.46031746031746,325.0,325.0,2.7777777777777777,1.984126984126984,-321.8253968253968
95,-325.0,-80.71428571428571,63.25396825396825,325.0,-325.0,-325.0,-325.0,-325.0,20.238095238095237,-86.26984126984127,-144.52380952380952,-325.0,121.66666666666666,315.95238095238096,121.34920634920634,-68.33333333333333,215.79365079365078,-325.0,-22.46031746031746,325.0,325.0,2.7777777777777777,1.984126984126984,-321.8253968253968
96,-325.0,-77.6984126984127,60.71428571428571,325.0,-325.0,-325.0,-325.0,-325.0,5.158730158730158,-82.77777777777777,-139.28571428571428,-325.0,116.9047619047619,304.04761904761904,116.74603174603173,-65.31746031746032,160.55555555555554,-325.0,-21.507936507936506,325.0,325.0,-9.126984126984127,-11.031746031746032,-321.8253968253968
97,-325.0,-77.6984126984127,60.71428571428571,325.0,-325.0,-325.0,-325.0,-325.0,5.158730158730158,-82.77777777777777,-139.28571428571428,-325.0,116.9047619047619,304.04761904761904,116.74603174603173,-65.31746031746032,160.55555555555554,-325.0,-21.507936507936506,325.0,325.0,-9.126984126984127,-11.031746031746032,-321.8253968253968
98,-325.0,-76.1111111111111,59.44444444444444,325.0,-325.0,-325.0,-325.0,-325.0,-6.111111111111111,-81.19047619047619,-136.58730158730157,-325.0,114.36507936507935,297.53968253968253,114.2063492063492,-63.73015873015873,173.09523809523807,-325.0,-21.19047619047619,325.0,325.0,-5.317460317460317,-8.65079365079365,-321.8253968253968
99,-325.0,-76.1111111111111,59.44444444444444,325.0,-325.0,-325.0,-325.0,-325.0,-6.111111111111111,-81.19047619047619,-136.58730158730157,-325.0,114.36507936507935,297.53968253968253,114.2063492063492,-63.73015873015873,173.09523809523807,-325.0,-21.19047619047619,325.0,325.0,-5.317460317460317,-8.65079365079365,-321.8253968253968
100,-325.0,-73.57142857142857,57.22222222222222,325.0,-325.0,-325.0,-325.0,-325.0,-23.730158730158728,-78.4920634920635,-132.14285714285714,-325.0,110.39682539682539,287.53968253968253,110.23809523809523,-59.285714285714285,195.63492063492063,-325.0,-20.396825396825395,325.0,325.0,3.095238095238095,7.222222222222221,-166.26984126984127
101,-325.0,-73.57142857142857,57.22222222222222,325.0,-325.0,-325.0,-325.0,-325.0,-23.730158730158728,-78.4920634920635,-132.14285714285714,-325.0,110.39682539682539,287.53968253968253,110.23809523809523,-59.285714285714285,195.63492063492063,-325.0,-20.396825396825395,325.0,325.0,3.095238095238095,7.222222222222221,-166.26984126984127
102,-325.0,-71.98412698412697,56.11111111111111,325.0,-325.0,-325.0,-325.0,-325.0,-33.73015873015873,-76.9047619047619,-129.28571428571428,-325.0,108.17460317460316,281.3492063492063,107.85714285714285,-54.36507936507936,170.55555555555554,-325.0,-20.07936507936508,325.0,325.0,-0.5555555555555556,-0.3968253968253968,-166.26984126984127
103,-325.0,-71.98412698412697,56.11111111111111,325.0,-325.0,-325.0,-325.0,-325.0,-33.73015873015873,-76.9047619047619,-129.28571428571428,-325.0,108.17460317460316,281.3492063492063,107.85714285714285,-54.36507936507936,170.55555555555554,-325.0,-20.07936507936508,325.0,325.0,-0.5555555555555556,-0.3968253968253968,-166.26984126984127
104,-325.0,-70.39682539682539,54.841269841269835,325.0,-325.0,-325.0,-325.0,-325.0,-43.57142857142857,-75.31746031746032,-126.9047619047619,-325.0,105.63492063492063,275.3174603174603,105.63492063492063,-39.44444444444444,160.3968253968254,-325.0,-19.76190476190476,325.0,325.0,-4.682539682539682,-2.9365079365079363,-166.26984126984127
105,-325.0,-70.39682539682539,54.841269841269835,325.0,-325.0,-325.0,-325.0,-325.0,-43.57142857142857,-75.31746031746032,-126.9047619047619,-325.0,105.63492063492063,275.3174603174603,105.63492063492063,-39.44444444444444,160.3968253968254,-325.0,-19.76190476190476,325.0,325.0,-4.682539682539682,-2.9365079365079363,-166.26984126984127
106,-325.0,-68.65079365079364,53.25396825396825,325.0,-325.0,-325.0,-325.0,-325.0,-54.68253968253968,-73.4126984126984,-123.73015873015872,-325.0,102.93650793650794,268.17460317460313,102.93650793650794,-51.82539682539682,182.3015873015873,-325.0,-13.253968253968253,325.0,325.0,4.2063492063492065,7.3809523809523805,-166.26984126984127
107,-325.0,-68.65079365079364,53.25396825396825,325.0,-325.0,-325.0,-325.0,-325.0,-54.68253968253968,-73.4126984126984,-123.73015873015872,-325.0,102.93650793650794,268.17460317460313,102.93650793650794,-51.82539682539682,182.3015873015873,-325.0,-13.253968253968253,325.0,325.0,4.2063492063492065,7.3809523809523805,-166.26984126984127
108,-325.0,-67.6984126984127,52.3015873015873,325.0,-325.0,-325.0,-325.0,-325.0,-64.36507936507937,-72.3015873015873,-121.66666666666666,-325.0,101.03174603174602,263.57142857142856,101.19047619047619,-32.77777777777778,143.57142857142856,-325.0,-4.523809523809524,325.0,325.0,-5.158730158730158,-9.285714285714285,-166.26984126984127
109,-325.0,-67.6984126984127,52.3015873015873,325.0,-325.0,-325.0,-325.0,-325.0,-64.36507936507937,-72.3015873015873,-121.66666666666666,-325.0,101.03174603174602,263.57142857142856,101.19047619047619,-32.77777777777778,143.57142857142856,-325.0,-4.523809523809524,325.0,325.0,-5.158730158730158,-9.285714285714285,-166.26984126984127
110,-325.0,-66.42857142857143,51.34920634920635,325.0,-325.0,-325.0,-325.0,-325.0,-71.34920634920634,-70.87301587301587,-119.76190476190476,-325.0,99.28571428571428,259.1269841269841,99.44444444444444,-47.857142857142854,176.58730158730157,-325.0,4.365079365079365,325.0,325.0,4.0476190476190474,6.904761904761904,-321.8253968253968
111,-325.0,-66.42857142857143,51.34920634920635,325.0,-325.0,-325.0,-325.0,-325.0,-71.34920634920634,-70.87301587301587,-119.76190476190476,-325.0,99.28571428571428,259.1269841269841,99.44444444444444,-47.857142857142854,176.58730158730157,-325.0,4.365079365079365,325.0,325.0,4.0476190476190474,6.904761904761904,-321.8253968253968
112,-325.0,-65.63492063492063,50.55555555555555,325.0,-325.0,-325.0,-325.0,-325.0,-99.44444444444444,-69.76190476190476,-117.85714285714285,-325.0,97.6984126984127,254.52380952380952,97.6984126984127,-22.936507936507937,138.17460317460316,-325.0,12.142857142857142,325.0,325.0,-5.634920634920634,-8.333333333333332,-321.8253968253968
113,-325.0,-65.63492063492063,50.55555555555555,325.0,-325.0,-325.0,-325.0,-325.0,-99.44444444444444,-69.76190476190476,-117.85714285714285,-325.0,97.6984126984127,254.52380952380952,97.6984126984127,-22.936507936507937,138.17460317460316,-325.0,12.142857142857142,325.0,325.0,-5.634920634920634,-8.333333333333332,-321.8253968253968
114,-325.0,-64.68253968253968,49.92063492063492,325.0,-325.0,-325.0,-325.0,-325.0,-108.17460317460316,-68.80952380952381,-116.26984126984127,-325.0,95.95238095238095,251.34920634920633,96.42857142857142,-58.96825396825397,176.11111111111111,-325.0,18.96825396825397,325.0,325.0,7.063492063492063,11.825396825396824,-321.8253968253968
115,-325.0,-64.68253968253968,49.92063492063492,325.0,-325.0,-325.0,-325.0,-325.0,-108.17460317460316,-68.80952380952381,-116.26984126984127,-325.0,95.95238095238095,251.34920634920633,96.42857142857142,-58.96825396825397,176.11111111111111,-325.0,18.96825396825397,325.0,325.0,7.063492063492063,11.825396825396824,-321.8253968253968
116,-325.0,-63.41269841269841,48.80952380952381,325.0,-325.0,-325.0,-325.0,-325.0,-136.74603174603175,-67.38095238095238,-114.04761904761904,-325.0,94.2063492063492,245.95238095238093,94.36507936507935,-9.920634920634921,120.55555555555554,-325.0,28.333333333333332,325.0,325.0,-4.365079365079365,-9.444444444444445,-321.8253968253968
117,-325.0,-63.41269841269841,48.80952380952381,325.0,-325.0,-325.0,-325.0,-325.0,-136.74603174603175,-67.38095238095238,-114.04761904761904,-325.0,94.2063492063492,245.95238095238093,94.36507936507935,-9.920634920634921,120.55555555555554,-325.0,28.333333333333332,325.0,325.0,-4.365079365079365,-9.444444444444445,-321.8253968253968
118,-325.0,-62.3015873015873,47.857142857142854,325.0,-325.0,-325.0,-325.0,-325.0,-157.2222222222222,-66.11111111111111,-112.14285714285714,-325.0,92.77777777777777,241.66666666666666,92.77777777777777,-28.65079365079365,162.61904761904762,-325.0,36.269841269841265,325.0,325.0,4.0476190476190474,6.587301587301587,-321.8253968253968
119,-325.0,-62.3015873015873,47.857142857142854,325.0,-325.0,-325.0,-325.0,-325.0,-157.2222222222222,-66.11111111111111,-112.14285714285714,-325.0,92.77777777777777,241.66666666666666,92.77777777777777,-28.65079365079365,162.61904761904762,-325.0,36.269841269841265,325.0,325.0,4.0476190476190474,6.587301587301587,-321.8253968253968
120,-325.0,-61.34920634920635,47.06349206349206,325.0,-325.0,-325.0,-325.0,-325.0,-180.87301587301587,-65.15873015873015,-110.23809523809523,-325.0,90.87301587301587,237.53968253968253,91.19047619047619,5.476190476190476,121.82539682539682,-325.0,43.25396825396825,325.0,325.0,-5.7936507936507935,-8.968253968253968,-166.26984126984127
121,-325.0,-61.34920634920635,47.06349206349206,325.0,-325.0,-325.0,-325.0,-325.0,-180.87301587301587,-65.15873015873015,-110.23809523809523,-325.0,90.87301587301587,237.53968253968253,91.19047619047619,5.476190476190476,121.82539682539682,-325.0,43.25396825396825,325.0,325.0,-5.7936507936507935,-8.968253968253968,-166.26984126984127
122,-325.0,-60.238095238095234,46.269841269841265,325.0,-325.0,-325.0,-325.0,-325.0,-211.98412698412696,-64.04761904761905,-108.49206349206348,-323.57142857142856,89.28571428571428,233.4126984126984,89.6031746031746,-16.904761904761905,166.58730158730157,-325.0,50.71428571428571,325.0,325.0,4.0476190476190474,6.587301587301587,-166.26984126984127
123,-325.0,-60.238095238095234,46.269841269841265,325.0,-325.0,-325.0,-325.0,-325.0,-211.98412698412696,-64.04761904761905,-108.49206349206348,-323.57142857142856,89.28571428571428,233.4126984126984,89.6031746031746,-16.904761904761905,166.58730158730157,-325.0,50.71428571428571,325.0,325.0,4.0476190476190474,6.587301587301587,-166.26984126984127
124,-325.0,-59.12698412698413,45.317460317460316,325.0,-325.0,-325.0,-325.0,-325.0,-228.96825396825395,-62.93650793650793,-106.9047619047619,-318.3333333333333,87.85714285714285,229.44444444444443,88.01587301587301,20.555555555555554,162.46031746031744,-325.0,56.42857142857142,325.0,325.0,-4.682539682539682,-8.809523809523808,-166.26984126984127
125,-325.0,-59.12698412698413,45.317460317460316,325.0,-325.0,-325.0,-325.0,-325.0,-228.96825396825395,-62.93650793650793,-106.9047619047619,-318.3333333333333,87.85714285714285,229.44444444444443,88.01587301587301,20.555555555555554,162.46031746031744,-325.0,56.42857142857142,325.0,325.0,-4.682539682539682,-8.809523809523808,-166.26984126984127
126,-325.0,-58.17460317460317,44.52380952380952,325.0,-325.0,-325.0,-325.0,-325.0,-272.9365079365079,-61.82539682539682,-104.2063492063492,-313.25396825396825,86.42857142857143,225.47619047619045,86.42857142857143,-11.19047619047619,159.6031746031746,-325.0,63.57142857142857,325.0,325.0,3.4126984126984126,7.222222222222221,-166.26984126984127
127,-325.0,-58.17460317460317,44.52380952380952,325.0,-325.0,-325.0,-325.0,-325.0,-272.9365079365079,-61.82539682539682,-104.2063492063492,-313.25396825396825,86.42857142857143,225.47619047619045,86.42857142857143,-11.19047619047619,159.6031746031746,-325.0,63.57142857142857,325.0,325.0,3.4126984126984126,7.222222222222221,-166.26984126984127
128,-325.0,-57.53968253968254,43.888888888888886,325.0,-325.0,-325.0,-325.0,-325.0,-170.23809523809524,-61.19047619047619,-102.46031746031746,-308.968253968254,85.15873015873015,222.46031746031744,85.47619047619047,90.39682539682539,157.53968253968253,-325.0,67.6984126984127,325.0,325.0,-9.444444444444445,-12.777777777777777,-166.26984126984127
129,-325.0,-57.53968253968254,43.888888888888886,325.0,-325.0,-325.0,-325.0,-325.0,-170.23809523809524,-61.19047619047619,-102.46031746031746,-308.968253968254,85.15873015873015,222.46031746031744,85.47619047619047,90.39682539682539,157.53968253968253,-325.0,67.6984126984127,325.0,325.0,-9.444444444444445,-12.777777777777777,-166.26984126984127
130,-325.0,-55.79365079365079,42.61904761904761,325.0,-325.0,-325.0,-325.0,-325.0,-263.25396825396825,-59.44444444444444,-97.06349206349206,-300.23809523809524,82.61904761904762,215.79365079365078,82.93650793650794,94.84126984126983,108.96825396825396,-325.0,78.33333333333333,325.0,325.0,-5.158730158730158,-4.365079365079365,-321.8253968253968
131,-325.0,-55.79365079365079,42.61904761904761,325.0,-325.0,-325.0,-325.0,-325.0,-263.25396825396825,-59.44444444444444,-97.06349206349206,-300.23809523809524,82.61904761904762,215.79365079365078,82.93650793650794,94.84126984126983,108.96825396825396,-325.0,78.33333333333333,325.0,325.0,-5.158730158730158,-4.365079365079365,-321.8253968253968
132,-325.0,-54.36507936507936,41.507936507936506,325.0,-325.0,-325.0,-325.0,-324.2063492063492,-325.0,-57.857142857142854,-93.73015873015872,-292.6190476190476,80.55555555555556,210.2380952380952,80.87301587301587,13.412698412698411,140.87301587301587,-325.0,87.38095238095238,325.0,325.0,3.095238095238095,6.428571428571428,-321.8253968253968
133,-325.0,-54.36507936507936,41.507936507936506,325.0,-325.0,-325.0,-325.0,-324.2063492063492,-325.0,-57.857142857142854,-93.73015873015872,-292.6190476190476,80.55555555555556,210.2380952380952,80.87301587301587,13.412698412698411,140.87301587301587,-325.0,87.38095238095238,325.0,325.0,3.095238095238095,6.428571428571428,-321.8253968253968
134,-325.0,-53.73015873015873,40.714285714285715,325.0,-325.0,-325.0,-325.0,-320.7142857142857,-325.0,-57.22222222222222,-91.98412698412697,-289.1269841269841,79.44444444444444,207.53968253968253,79.92063492063491,39.285714285714285,126.1111111111111,-325.0,91.19047619047619,325.0,325.0,-0.23809523809523808,-0.07936507936507936,-321.8253968253968
135,-325.0,-53.73015873015873,40.714285714285715,325.0,-325.0,-325.0,-325.0,-320.7142857142857,-325.0,-57.22222222222222,-91.98412698412697,-289.1269841269841,79.44444444444444,207.53968253968253,79.92063492063491,39.285714285714285,126.1111111111111,-325.0,91.19047619047619,325.0,325.0,-0.23809523809523808,-0.07936507936507936,-321.8253968253968
136,-325.0,-52.61904761904761,40.079365079365076,325.0,-325.0,-325.0,-325.0,-314.36507936507934,-325.0,-55.95238095238095,-91.03174603174602,-283.25396825396825,77.6984126984127,202.93650793650792,77.85714285714285,18.174603174603174,133.73015873015873,-325.0,97.6984126984127,325.0,325.0,3.253968253968254,6.587301587301587,-321.8253968253968
137,-325.0,-52.61904761904761,40.079365079365076,325.0,-325.0,-325.0,-325.0,-314.36507936507934,-325.0,-55.95238095238095,-91.03174603174602,-283.25396825396825,77.6984126984127,202.93650793650792,77.85714285714285,18.174603174603174,133.73015873015873,-325.0,97.6984126984127,325.0,325.0,3.253968253968254,6.587301587301587,-321.8253968253968
138,-325.0,-52.460317460317455,40.079365079365076,325.0,-325.0,-325.0,-325.0,-313.0952380952381,-325.0,-55.63492063492063,-86.26984126984127,-282.3015873015873,77.53968253968253,202.14285714285714,77.53968253968253,103.25396825396825,120.55555555555554,-325.0,99.12698412698413,325.0,325.0,-0.5555555555555556,2.619047619047619,-321.8253968253968
139,-325.0,-52.460317460317455,40.079365079365076,325.0,-325.0,-325.0,-325.0,-313.0952380952381,-325.0,-55.63492063492063,-86.26984126984127,-282.3015873015873,77.53968253968253,202.14285714285714,77.53968253968253,103.25396825396825,120.55555555555554,-325.0,99.12698412698413,325.0,325.0,-0.5555555555555556,2.619047619047619,-321.8253968253968
140,-325.0,-50.87301587301587,36.11111111111111,325.0,-325.0,-325.0,-325.0,-305.4761904761905,-325.0,-54.2063492063492,-92.93650793650794,-274.8412698412698,75.63492063492063,196.9047619047619,75.63492063492063,-67.85714285714285,144.04761904761904,-325.0,105.79365079365078,325.0,325.0,6.746031746031746,11.349206349206348,-166.26984126984127
141,-325.0,-50.87301587301587,36.11111111111111,325.0,-325.0,-325.0,-325.0,-305.4761904761905,-325.0,-54.2063492063492,-92.93650793650794,-274.8412698412698,75.63492063492063,196.9047619047619,75.63492063492063,-67.85714285714285,144.04761904761904,-325.0,105.79365079365078,325.0,325.0,6.746031746031746,11.349206349206348,-166.26984126984127
142,-325.0,-49.92063492063492,23.095238095238095,325.0,-324.5238095238095,-325.0,-325.0,-299.6031746031746,-320.55555555555554,-53.095238095238095,-87.22222222222221,-269.44444444444446,73.88888888888889,192.61904761904762,73.88888888888889,107.6984126984127,66.42857142857143,-325.0,111.19047619047619,325.0,325.0,-4.523809523809524,-8.174603174603174,-166.26984126984127
143,-325.0,-49.92063492063492,23.095238095238095,325.0,-324.5238095238095,-325.0,-325.0,-299.6031746031746,-320.55555555555554,-53.095238095238095,-87.22222222222221,-269.44444444444446,73.88888888888889,192.61904761904762,73.88888888888889,107.6984126984127,66.42857142857143,-325.0,111.19047619047619,325.0,325.0,-4.523809523809524,-8.174603174603174,-166.26984126984127
144,-325.0,-49.285714285714285,34.52380952380952,325.0,-320.39682539682536,-325.0,-325.0,-295.0,-325.0,-52.460317460317455,-79.76190476190476,-264.68253968253964,72.46031746031746,189.28571428571428,72.77777777777777,40.87301587301587,123.57142857142857,-325.0,115.79365079365078,325.0,325.0,3.571428571428571,7.857142857142857,-166.26984126984127
145,-325.0,-49.285714285714285,34.52380952380952,325.0,-320.39682539682536,-325.0,-325.0,-295.0,-325.0,-52.460317460317455,-79.76190476190476,-264.68253968253964,72.46031746031746,189.28571428571428,72.77777777777777,40.87301587301587,123.57142857142857,-325.0,115.79365079365078,325.0,325.0,3.571428571428571,7.857142857142857,-166.26984126984127
146,-325.0,-48.49206349206349,30.555555555555554,325.0,-315.4761904761905,-325.0,-325.0,-290.23809523809524,-325.0,-51.666666666666664,-78.4920634920635,-260.39682539682536,71.19047619047619,186.11111111111111,71.5079365079365,40.55555555555555,121.98412698412697,-325.0,119.76190476190476,325.0,325.0,4.0476190476190474,7.857142857142857,-166.26984126984127
147,-325.0,-48.49206349206349,30.555555555555554,325.0,-315.4761904761905,-325.0,-325.0,-290.23809523809524,-325.0,-51.666666666666664,-78.4920634920635,-260.39682539682536,71.19047619047619,186.11111111111111,71.5079365079365,40.55555555555555,121.98412698412697,-325.0,119.76190476190476,325.0,325.0,4.0476190476190474,7.857142857142857,-166.26984126984127
148,-325.0,-41.03174603174603,32.61904761904762,325.0,-307.69841269841265,-325.0,-325.0,-283.25396825396825,-325.0,-50.079365079365076,-63.57142857142857,-253.88888888888889,69.28571428571428,181.03174603174602,69.76190476190476,207.53968253968253,73.88888888888889,-325.0,124.68253968253967,325.0,325.0,-5.158730158730158,-4.682539682539682,-166.26984126984127
149,-325.0,-41.03174603174603,32.61904761904762,325.0,-307.69841269841265,-325.0,-325.0,-283.25396825396825,-325.0,-50.079365079365076,-63.57142857142857,-253.88888888888889,69.28571428571428,181.03174603174602,69.76190476190476,207.53968253968253,73.88888888888889,-325.0,124.68253968253967,325.0,325.0,-5.158730158730158,-4.682539682539682,-166.26984126984127
150,-325.0,-45.63492063492063,-18.80952380952381,325.0,-302.9365079365079,-325.0,-325.0,-278.6507936507936,-325.0,-49.12698412698413,-84.2063492063492,-249.76190476190476,68.17460317460318,177.85714285714286,68.33333333333333,-26.428571428571427,121.03174603174602,-325.0,128.17460317460316,325.0,325.0,4.365079365079365,3.4126984126984126,-321.8253968253968
151,-325.0,-45.63492063492063,-18.80952380952381,325.0,-302.9365079365079,-325.0,-325.0,-278.6507936507936,-325.0,-49.12698412698413,-84.2063492063492,-249.76190476190476,68.17460317460318,177.85714285714286,68.33333333333333,-26.428571428571427,121.03174603174602,-325.0,128.17460317460316,325.0,325.0,4.365079365079365,3.4126984126984126,-321.8253968253968
152,-325.0,-45.95238095238095,27.38095238095238,325.0,-298.015873015873,-324.2063492063492,-323.4126984126984,-274.5238095238095,-325.0,-48.33333333333333,-48.17460317460317,-245.79365079365078,66.9047619047619,175.0,67.06349206349206,225.95238095238093,69.12698412698413,-325.0,131.34920634920636,325.0,325.0,-4.365079365079365,-5.634920634920634,-321.8253968253968
153,-325.0,-45.95238095238095,27.38095238095238,325.0,-298.015873015873,-324.2063492063492,-323.4126984126984,-274.5238095238095,-325.0,-48.33333333333333,-48.17460317460317,-245.79365079365078,66.9047619047619,175.0,67.06349206349206,225.95238095238093,69.12698412698413,-325.0,131.34920634920636,325.0,325.0,-4.365079365079365,-5.634920634920634,-321.8253968253968
154,-323.0952380952381,-45.0,-53.095238095238095,325.0,-293.25396825396825,-319.4444444444444,-318.015873015873,-269.9206349206349,-325.0,-47.53968253968254,-81.66666666666666,-241.5079365079365,65.79365079365078,171.8253968253968,66.26984126984127,-20.71428571428571,117.6984126984127,-325.0,134.36507936507937,325.0,325.0,5.0,4.0476190476190474,-321.8253968253968
155,-323.0952380952381,-45.0,-53.095238095238095,325.0,-293.25396825396825,-319.4444444444444,-318.015873015873,-269.9206349206349,-325.0,-47.53968253968254,-81.66666666666666,-241.5079365079365,65.79365079365078,171.8253968253968,66.26984126984127,-20.71428571428571,117.6984126984127,-325.0,134.36507936507937,325.0,325.0,5.0,4.0476190476190474,-321.8253968253968
156,-318.968253968254,-44.52380952380952,27.22222222222222,325.0,-289.6031746031746,-315.6349206349206,-314.04761904761904,-266.90476190476187,-325.0,-46.74603174603175,-35.79365079365079,-238.65079365079364,65.15873015873015,169.60317460317458,65.15873015873015,205.3174603174603,92.93650793650794,-323.73015873015873,137.38095238095238,325.0,325.0,-1.507936507936508,3.095238095238095,-321.8253968253968
157,-318.968253968254,-44.52380952380952,27.22222222222222,325.0,-289.6031746031746,-315.6349206349206,-314.04761904761904,-266.90476190476187,-325.0,-46.74603174603175,-35.79365079365079,-238.65079365079364,65.15873015873015,169.60317460317458,65.15873015873015,205.3174603174603,92.93650793650794,-323.73015873015873,137.38095238095238,325.0,325.0,-1.507936507936508,3.095238095238095,-321.8253968253968
158,-318.968253968254,-44.52380952380952,27.22222222222222,325.0,-289.6031746031746,-315.6349206349206,-314.04761904761904,-266.90476190476187,-325.0,-46.74603174603175,-35.79365079365079,-238.65079365079364,65.15873015873015,169.60317460317458,65.15873015873015,205.3174603174603,92.93650793650794,-323.73015873015873,137.38095238095238,325.0,325.0,-1.507936507936508,3.095238095238095,-321.8253968253968
159,-318.968253968254,-44.52380952380952,27.22222222222222,325.0,-289.6031746031746,-315.6349206349206,-314.04761904761904,-266.90476190476187,-325.0,-46.74603174603175,-35.79365079365079,-238.65079365079364,65.15873015873015,169.60317460317458,65.15873015873015,205.3174603174603,92.93650793650794,-323.73015873015873,137.38095238095238,325.0,325.0,-1.507936507936508,3.095238095238095,-321.8253968253968
160,-307.22222222222223,-24.68253968253968,-21.19047619047619,325.0,-279.6031746031746,-304.5238095238095,-302.46031746031747,-257.53968253968253,-325.0,-45.15873015873016,-27.38095238095238,-229.60317460317458,62.3015873015873,162.93650793650792,62.77777777777777,265.0,54.68253968253968,-312.46031746031747,143.4126984126984,323.73015873015873,325.0,-5.0,-4.682539682539682,-166.26984126984127
161,-307.22222222222223,-24.68253968253968,-21.19047619047619,325.0,-279.6031746031746,-304.5238095238095,-302.46031746031747,-257.53968253968253,-325.0,-45.15873015873016,-27.38095238095238,-229.60317460317458,62.3015873015873,162.93650793650792,62.77777777777777,265.0,54.68253968253968,-312.46031746031747,143.4126984126984,323.73015873015873,325.0,-5.0,-4.682539682539682,-166.26984126984127
162,-303.25396825396825,-36.904761904761905,-180.07936507936506,325.0,-275.95238095238096,-300.55555555555554,-298.8095238095238,-254.36507936507934,-325.0,-44.36507936507936,-74.84126984126983,-227.06349206349205,61.82539682539682,160.87301587301587,61.98412698412698,27.22222222222222,94.84126984126983,-308.6507936507936,145.63492063492063,319.76190476190476,325.0,0.5555555555555556,-2.7777777777777777,-166.26984126984127
163,-303.25396825396825,-36.904761904761905,-180.07936507936506,325.0,-275.95238095238096,-300.55555555555554,-298.8095238095238,-254.36507936507934,-325.0,-44.36507936507936,-74.84126984126983,-227.06349206349205,61.82539682539682,160.87301587301587,61.98412698412698,27.22222222222222,94.84126984126983,-308.6507936507936,145.63492063492063,319.76190476190476,325.0,0.5555555555555556,-2.7777777777777777,-166.26984126984127
164,-296.90476190476187,-3.095238095238095,-57.53968253968254,325.0,-270.7142857142857,-294.68253968253964,-292.77777777777777,-249.44444444444443,-325.0,-43.73015873015873,-16.587301587301585,-222.3015873015873,60.079365079365076,157.38095238095238,60.55555555555555,280.39682539682536,56.269841269841265,-302.77777777777777,148.4920634920635,313.0952380952381,325.0,-5.158730158730158,-6.904761904761904,-166.26984126984127
165,-296.90476190476187,-3.095238095238095,-57.53968253968254,325.0,-270.7142857142857,-294.68253968253964,-292.77777777777777,-249.44444444444443,-325.0,-43.73015873015873,-16.587301587301585,-222.3015873015873,60.079365079365076,157.38095238095238,60.55555555555555,280.39682539682536,56.269841269841265,-302.77777777777777,148.4920634920635,313.0952380952381,325.0,-5.158730158730158,-6.904761904761904,-166.26984126984127
166,-291.984126984127,-37.06349206349206,-194.36507936507937,325.0,-266.26984126984127,-290.07936507936506,-287.6984126984127,-245.63492063492063,-325.0,-42.77777777777778,-68.01587301587301,-218.4920634920635,59.285714285714285,154.68253968253967,59.6031746031746,-8.65079365079365,109.92063492063491,-297.85714285714283,151.19047619047618,308.17460317460313,325.0,4.841269841269841,4.0476190476190474,-166.26984126984127
167,-291.984126984127,-37.06349206349206,-194.36507936507937,325.0,-266.26984126984127,-290.07936507936506,-287.6984126984127,-245.63492063492063,-325.0,-42.77777777777778,-68.01587301587301,-218.4920634920635,59.285714285714285,154.68253968253967,59.6031746031746,-8.65079365079365,109.92063492063491,-297.85714285714283,151.19047619047618,308.17460317460313,325.0,4.841269841269841,4.0476190476190474,-166.26984126984127
168,-284.68253968253964,-22.777777777777775,-181.19047619047618,325.0,-259.9206349206349,-283.25396825396825,-280.7142857142857,-239.76190476190476,-325.0,-41.98412698412698,-47.38095238095238,-213.09523809523807,57.857142857142854,150.7142857142857,58.01587301587301,180.87301587301587,63.888888888888886,-290.87301587301585,161.66666666666666,300.55555555555554,325.0,-3.4126984126984126,-8.333333333333332,-166.26984126984127
169,-284.68253968253964,-22.777777777777775,-181.19047619047618,325.0,-259.9206349206349,-283.25396825396825,-280.7142857142857,-239.76190476190476,-325.0,-41.98412698412698,-47.38095238095238,-213.09523809523807,57.857142857142854,150.7142857142857,58.01587301587301,180.87301587301587,63.888888888888886,-290.87301587301585,161.66666666666666,300.55555555555554,325.0,-3.4126984126984126,-8.333333333333332,-166.26984126984127
170,-279.9206349206349,-26.428571428571427,-172.14285714285714,325.0,-255.63492063492063,-278.4920634920635,-276.26984126984127,-235.63492063492063,-325.0,-40.87301587301587,-11.825396825396824,-209.44444444444443,56.74603174603174,148.015873015873,57.06349206349206,126.9047619047619,100.07936507936508,-286.26984126984127,170.3968253968254,295.6349206349206,325.0,3.095238095238095,6.587301587301587,-321.8253968253968
171,-279.9206349206349,-26.428571428571427,-172.14285714285714,325.0,-255.63492063492063,-278.4920634920635,-276.26984126984127,-235.63492063492063,-325.0,-40.87301587301587,-11.825396825396824,-209.44444444444443,56.74603174603174,148.015873015873,57.06349206349206,126.9047619047619,100.07936507936508,-286.26984126984127,170.3968253968254,295.6349206349206,325.0,3.095238095238095,6.587301587301587,-321.8253968253968
172,-275.1587301587301,-7.063492063492063,-230.7142857142857,325.0,-251.8253968253968,-274.04761904761904,-271.8253968253968,-232.14285714285714,-325.0,-40.39682539682539,-43.41269841269841,-206.1111111111111,55.79365079365079,145.47619047619048,56.11111111111111,181.19047619047618,57.38095238095238,-281.66666666666663,189.76190476190476,290.55555555555554,325.0,-4.2063492063492065,-7.3809523809523805,-321.8253968253968
173,-275.1587301587301,-7.063492063492063,-230.7142857142857,325.0,-251.8253968253968,-274.04761904761904,-271.8253968253968,-232.14285714285714,-325.0,-40.39682539682539,-43.41269841269841,-206.1111111111111,55.79365079365079,145.47619047619048,56.11111111111111,181.19047619047618,57.38095238095238,-281.66666666666663,189.76190476190476,290.55555555555554,325.0,-4.2063492063492065,-7.3809523809523805,-321.8253968253968
174,-270.55555555555554,-17.539682539682538,-229.60317460317458,325.0,-247.69841269841268,-269.6031746031746,-266.90476190476187,-228.49206349206347,-325.0,-38.17460317460317,-6.26984126984127,-202.46031746031744,54.68253968253968,142.93650793650792,55.15873015873016,133.88888888888889,96.58730158730158,-277.22222222222223,208.33333333333331,285.7936507936508,325.0,1.8253968253968254,6.904761904761904,-321.8253968253968
175,-270.55555555555554,-17.539682539682538,-229.60317460317458,325.0,-247.69841269841268,-269.6031746031746,-266.90476190476187,-228.49206349206347,-325.0,-38.17460317460317,-6.26984126984127,-202.46031746031744,54.68253968253968,142.93650793650792,55.15873015873016,133.88888888888889,96.58730158730158,-277.22222222222223,208.33333333333331,285.7936507936508,325.0,1.8253968253968254,6.904761904761904,-321.8253968253968
176,-265.95238095238096,8.65079365079365,-249.60317460317458,325.0,-243.88888888888889,-265.3174603174603,-262.77777777777777,-224.68253968253967,-325.0,-38.01587301587301,-39.76190476190476,-199.12698412698413,53.73015873015873,140.3968253968254,54.36507936507936,183.57142857142856,54.52380952380952,-272.9365079365079,221.8253968253968,281.5079365079365,325.0,-4.0476190476190474,-7.222222222222221,-321.8253968253968
177,-265.95238095238096,8.65079365079365,-249.60317460317458,325.0,-243.88888888888889,-265.3174603174603,-262.77777777777777,-224.68253968253967,-325.0,-38.01587301587301,-39.76190476190476,-199.12698412698413,53.73015873015873,140.3968253968254,54.36507936507936,183.57142857142856,54.52380952380952,-272.9365079365079,221.8253968253968,281.5079365079365,325.0,-4.0476190476190474,-7.222222222222221,-321.8253968253968
178,-261.5079365079365,-11.19047619047619,-272.1428571428571,325.0,-239.9206349206349,-261.031746031746,-258.3333333333333,-221.03174603174602,-325.0,-32.93650793650794,5.158730158730158,-195.95238095238093,52.93650793650794,138.015873015873,53.095238095238095,151.03174603174602,93.73015873015872,-268.4920634920635,254.84126984126982,276.58730158730157,325.0,2.46031746031746,6.904761904761904,-321.8253968253968
179,-261.5079365079365,-11.19047619047619,-272.1428571428571,325.0,-239.9206349206349,-261.031746031746,-258.3333333333333,-221.03174603174602,-325.0,-32.93650793650794,5.158730158730158,-195.95238095238093,52.93650793650794,138.015873015873,53.095238095238095,151.03174603174602,93.73015873015872,-268.4920634920635,254.84126984126982,276.58730158730157,325.0,2.46031746031746,6.904761904761904,-321.8253968253968
180,-256.90476190476187,27.698412698412696,-267.38095238095235,325.0,-236.26984126984127,-257.06349206349205,-254.04761904761904,-217.53968253968253,-325.0,-31.19047619047619,-33.57142857142857,-192.61904761904762,51.82539682539682,135.63492063492063,52.3015873015873,189.12698412698413,54.36507936507936,-264.36507936507934,257.53968253968253,271.984126984127,325.0,-3.253968253968254,-7.5396825396825395,-166.26984126984127
181,-256.90476190476187,27.698412698412696,-267.38095238095235,325.0,-236.26984126984127,-257.06349206349205,-254.04761904761904,-217.53968253968253,-325.0,-31.19047619047619,-33.57142857142857,-192.61904761904762,51.82539682539682,135.63492063492063,52.3015873015873,189.12698412698413,54.36507936507936,-264.36507936507934,257.53968253968253,271.984126984127,325.0,-3.253968253968254,-7.5396825396825395,-166.26984126984127
182,-253.7301587301587,-7.3809523809523805,-290.87301587301585,325.0,-233.4126984126984,-253.57142857142856,-250.87301587301585,-215.0,-325.0,-25.634920634920633,10.714285714285714,-190.23809523809524,51.19047619047619,133.88888888888889,51.507936507936506,189.12698412698413,82.77777777777777,-261.1904761904762,315.95238095238096,268.6507936507936,323.4126984126984,0.7142857142857142,-0.7142857142857142,-166.26984126984127
183,-253.7301587301587,-7.3809523809523805,-290.87301587301585,325.0,-233.4126984126984,-253.57142857142856,-250.87301587301585,-215.0,-325.0,-25.634920634920633,10.714285714285714,-190.23809523809524,51.19047619047619,133.88888888888889,51.507936507936506,189.12698412698413,82.77777777777777,-261.1904761904762,315.95238095238096,268.6507936507936,323.4126984126984,0.7142857142857142,-0.7142857142857142,-166.26984126984127
184,-248.33333333333331,10.238095238095237,-280.07936507936506,325.0,-228.8095238095238,-248.65079365079364,-245.79365079365078,-210.55555555555554,-325.0,-22.619047619047617,-12.619047619047619,-186.42857142857142,50.238095238095234,130.87301587301587,50.238095238095234,194.52380952380952,64.84126984126983,-255.95238095238093,274.8412698412698,263.0952380952381,318.015873015873,-3.73015873015873,-6.587301587301587,-166.26984126984127
185,-248.33333333333331,10.238095238095237,-280.07936507936506,325.0,-228.8095238095238,-248.65079365079364,-245.79365079365078,-210.55555555555554,-325.0,-22.619047619047617,-12.619047619047619,-186.42857142857142,50.238095238095234,130.87301587301587,50.238095238095234,194.52380952380952,64.84126984126983,-255.95238095238093,274.8412698412698,263.0952380952381,318.015873015873,-3.73015873015873,-6.587301587301587,-166.26984126984127
186,-245.0,-44.047619047619044,-325.0,325.0,-225.79365079365078,-245.63492063492063,-242.46031746031744,-208.17460317460316,-325.0,-37.857142857142854,-5.158730158730158,-184.04761904761904,49.76190476190476,129.28571428571428,49.44444444444444,2.7777777777777777,110.23809523809523,-252.93650793650792,325.0,260.07936507936506,313.88888888888886,8.333333333333332,12.619047619047619,-166.26984126984127
187,-245.0,-44.047619047619044,-325.0,325.0,-225.79365079365078,-245.63492063492063,-242.46031746031744,-208.17460317460316,-325.0,-37.857142857142854,-5.158730158730158,-184.04761904761904,49.76190476190476,129.28571428571428,49.44444444444444,2.7777777777777777,110.23809523809523,-252.93650793650792,325.0,260.07936507936506,313.88888888888886,8.333333333333332,12.619047619047619,-166.26984126984127
188,-238.96825396825395,8.968253968253968,-325.0,325.0,-220.3968253968254,-239.60317460317458,-236.42857142857142,-203.09523809523807,-325.0,-30.238095238095237,-54.52380952380952,-179.28571428571428,48.33333333333333,125.79365079365078,35.79365079365079,68.80952380952381,91.19047619047619,-247.06349206349205,325.0,253.7301587301587,305.95238095238096,3.4126984126984126,-2.142857142857143,-166.26984126984127
189,-238.96825396825395,8.968253968253968,-325.0,325.0,-220.3968253968254,-239.60317460317458,-236.42857142857142,-203.09523809523807,-325.0,-30.238095238095237,-54.52380952380952,-179.28571428571428,48.33333333333333,125.79365079365078,35.79365079365079,68.80952380952381,91.19047619047619,-247.06349206349205,325.0,253.7301587301587,305.95238095238096,3.4126984126984126,-2.142857142857143,-166.26984126984127
190,-234.04761904761904,100.39682539682539,-309.6031746031746,325.0,-216.1111111111111,-234.84126984126982,-231.66666666666666,-199.12698412698413,-325.0,6.587301587301587,87.22222222222221,-175.63492063492063,47.22222222222222,123.09523809523809,47.38095238095238,325.0,51.34920634920635,-242.14285714285714,295.6349206349206,248.49206349206347,299.4444444444444,-5.158730158730158,-5.634920634920634,-321.8253968253968
191,-234.04761904761904,100.39682539682539,-309.6031746031746,325.0,-216.1111111111111,-234.84126984126982,-231.66666666666666,-199.12698412698413,-325.0,6.587301587301587,87.22222222222221,-175.63492063492063,47.22222222222222,123.09523809523809,47.38095238095238,325.0,51.34920634920635,-242.14285714285714,295.6349206349206,248.49206349206347,299.4444444444444,-5.158730158730158,-5.634920634920634,-321.8253968253968
192,-230.87301587301587,-4.2063492063492065,-325.0,325.0,-213.25396825396825,-231.8253968253968,-228.8095238095238,-196.42857142857142,-325.0,-29.285714285714285,-53.73015873015873,-173.4126984126984,45.476190476190474,121.34920634920634,6.428571428571428,70.07936507936508,86.58730158730158,-239.28571428571428,325.0,245.3174603174603,295.7936507936508,4.365079365079365,-1.507936507936508,-321.8253968253968
193,-230.87301587301587,-4.2063492063492065,-325.0,325.0,-213.25396825396825,-231.8253968253968,-228.8095238095238,-196.42857142857142,-325.0,-29.285714285714285,-53.73015873015873,-173.4126984126984,45.476190476190474,121.34920634920634,6.428571428571428,70.07936507936508,86.58730158730158,-239.28571428571428,325.0,245.3174603174603,295.7936507936508,4.365079365079365,-1.507936507936508,-321.8253968253968
194,-230.87301587301587,-4.2063492063492065,-325.0,325.0,-213.25396825396825,-231.8253968253968,-228.8095238095238,-196.42857142857142,-325.0,-29.285714285714285,-53.73015873015873,-173.4126984126984,45.476190476190474,121.34920634920634,6.428571428571428,70.07936507936508,86.58730158730158,-239.28571428571428,325.0,245.3174603174603,295.7936507936508,4.365079365079365,-1.507936507936508,-321.8253968253968
195,-230.87301587301587,-4.2063492063492065,-325.0,325.0,-213.25396825396825,-231.8253968253968,-228.8095238095238,-196.42857142857142,-325.0,-29.285714285714285,-53.73015873015873,-173.4126984126984,45.476190476190474,121.34920634920634,6.428571428571428,70.07936507936508,86.58730158730158,-239.28571428571428,325.0,245.3174603174603,295.7936507936508,4.365079365079365,-1.507936507936508,-321.8253968253968
196,-230.87301587301587,-4.2063492063492065,-325.0,325.0,-213.25396825396825,-231.8253968253968,-228.8095238095238,-196.42857142857142,-325.0,-29.285714285714285,-53.73015873015873,-173.4126984126984,45.476190476190474,121.34920634920634,6.428571428571428,70.07936507936508,86.58730158730158,-239.28571428571428,325.0,245.3174603174603,295.7936507936508,4.365079365079365,-1.507936507936508,-321.8253968253968
197,-230.87301587301587,-4.2063492063492065,-325.0,325.0,-213.25396825396825,-231.8253968253968,-228.8095238095238,-196.42857142857142,-325.0,-29.285714285714285,-53.73015873015873,-173.4126984126984,45.476190476190474,121.34920634920634,6.428571428571428,70.07936507936508,86.58730158730158,-239.28571428571428,325.0,245.3174603174603,295.7936507936508,4.365079365079365,-1.507936507936508,-321.8253968253968
198,-224.36507936507934,77.6984126984127,-325.0,325.0,-207.53968253968253,-225.47619047619045,-222.46031746031744,-191.19047619047618,-325.0,9.603174603174603,1.984126984126984,-168.4920634920635,42.3015873015873,117.6984126984127,25.317460317460316,197.53968253968253,55.95238095238095,-232.77777777777777,325.0,238.33333333333331,287.06349206349205,-2.619047619047619,-7.3809523809523805,-321.8253968253968
199,-224.36507936507934,77.6984126984127,-325.0,325.0,-207.53968253968253,-225.47619047619045,-222.46031746031744,-191.19047619047618,-325.0,9.603174603174603,1.984126984126984,-168.4920634920635,42.3015873015873,117.6984126984127,25.317460317460316,197.53968253968253,55.95238095238095,-232.77777777777777,325.0,238.33333333333331,287.06349206349205,-2.619047619047619,-7.3809523809523805,-321.8253968253968
200,-215.63492063492063,4.365079365079365,-325.0,325.0,-200.07936507936506,-217.2222222222222,-213.88888888888889,-184.52380952380952,-325.0,-23.41269841269841,-51.666666666666664,-161.8253968253968,4.0476190476190474,113.25396825396825,-103.4126984126984,84.52380952380952,83.25396825396825,-224.52380952380952,325.0,229.44444444444443,276.1111111111111,3.253968253968254,-0.7142857142857142,-166.26984126984127
201,-215.63492063492063,4.365079365079365,-325.0,325.0,-200.07936507936506,-217.2222222222222,-213.88888888888889,-184.52380952380952,-325.0,-23.41269841269841,-51.666666666666664,-161.8253968253968,4.0476190476190474,113.25396825396825,-103.4126984126984,84.52380952380952,83.25396825396825,-224.52380952380952,325.0,229.44444444444443,276.1111111111111,3.253968253968254,-0.7142857142857142,-166.26984126984127
202,-211.19047619047618,113.4126984126984,-325.0,325.0,-196.11111111111111,-213.09523809523807,-209.60317460317458,-180.87301587301587,-325.0,68.01587301587301,102.93650793650794,-158.8095238095238,26.9047619047619,110.55555555555554,32.77777777777778,325.0,46.74603174603175,-220.2380952380952,325.0,224.84126984126982,270.23809523809524,-5.317460317460317,-5.952380952380952,-166.26984126984127
203,-211.19047619047618,113.4126984126984,-325.0,325.0,-196.11111111111111,-213.09523809523807,-209.60317460317458,-180.87301587301587,-325.0,68.01587301587301,102.93650793650794,-158.8095238095238,26.9047619047619,110.55555555555554,32.77777777777778,325.0,46.74603174603175,-220.2380952380952,325.0,224.84126984126982,270.23809523809524,-5.317460317460317,-5.952380952380952,-166.26984126984127
204,-210.3968253968254,137.22222222222223,-325.0,325.0,-195.3174603174603,-212.14285714285714,-208.65079365079364,-180.07936507936506,-325.0,66.11111111111111,65.15873015873015,-158.33333333333331,32.3015873015873,110.23809523809523,38.96825396825397,325.0,31.825396825396822,-219.44444444444443,325.0,224.04761904761904,269.1269841269841,-8.65079365079365,-12.619047619047619,-166.26984126984127
205,-210.3968253968254,137.22222222222223,-325.0,325.0,-195.3174603174603,-212.14285714285714,-208.65079365079364,-180.07936507936506,-325.0,66.11111111111111,65.15873015873015,-158.33333333333331,32.3015873015873,110.23809523809523,38.96825396825397,325.0,31.825396825396822,-219.44444444444443,325.0,224.04761904761904,269.1269841269841,-8.65079365079365,-12.619047619047619,-166.26984126984127
206,-206.9047619047619,168.015873015873,-325.0,325.0,-192.3015873015873,-208.65079365079364,-205.3174603174603,-177.2222222222222,-325.0,76.26984126984127,71.98412698412697,-155.63492063492063,28.809523809523807,108.17460317460316,25.317460317460316,325.0,34.2063492063492,-215.95238095238093,325.0,220.2380952380952,264.5238095238095,-9.285714285714285,-13.73015873015873,-166.26984126984127
207,-206.9047619047619,168.015873015873,-325.0,325.0,-192.3015873015873,-208.65079365079364,-205.3174603174603,-177.2222222222222,-325.0,76.26984126984127,71.98412698412697,-155.63492063492063,28.809523809523807,108.17460317460316,25.317460317460316,325.0,34.2063492063492,-215.95238095238093,325.0,220.2380952380952,264.5238095238095,-9.285714285714285,-13.73015873015873,-166.26984126984127
208,-201.66666666666666,15.634920634920634,-325.0,325.0,-187.2222222222222,-203.57142857142856,-200.07936507936506,-172.93650793650792,-325.0,-18.96825396825397,-35.476190476190474,-151.5079365079365,-93.25396825396825,105.31746031746032,-265.3174603174603,85.15873015873015,82.61904761904762,-210.55555555555554,325.0,214.84126984126982,257.6984126984127,4.365079365079365,-1.507936507936508,-166.26984126984127
209,-201.66666666666666,15.634920634920634,-325.0,325.0,-187.2222222222222,-203.57142857142856,-200.07936507936506,-172.93650793650792,-325.0,-18.96825396825397,-35.476190476190474,-151.5079365079365,-93.25396825396825,105.31746031746032,-265.3174603174603,85.15873015873015,82.61904761904762,-210.55555555555554,325.0,214.84126984126982,257.6984126984127,4.365079365079365,-1.507936507936508,-166.26984126984127
210,-199.12698412698413,115.95238095238095,-325.0,325.0,-185.15873015873015,-201.19047619047618,-197.69841269841268,-170.87301587301587,-325.0,45.79365079365079,23.41269841269841,-149.76190476190476,-38.96825396825397,103.88888888888889,-138.65079365079364,205.0,53.095238095238095,-208.17460317460316,325.0,212.14285714285714,254.36507936507934,-3.095238095238095,-7.222222222222221,-321.8253968253968
211,-199.12698412698413,115.95238095238095,-325.0,325.0,-185.15873015873015,-201.19047619047618,-197.69841269841268,-170.87301587301587,-325.0,45.79365079365079,23.41269841269841,-149.76190476190476,-38.96825396825397,103.88888888888889,-138.65079365079364,205.0,53.095238095238095,-208.17460317460316,325.0,212.14285714285714,254.36507936507934,-3.095238095238095,-7.222222222222221,-321.8253968253968
212,-193.88888888888889,-20.555555555555554,-325.0,325.0,-180.7142857142857,-196.11111111111111,-192.77777777777777,-166.74603174603175,-325.0,-29.285714285714285,1.1904761904761905,-145.95238095238093,-159.44444444444443,101.34920634920634,-319.9206349206349,78.96825396825396,85.63492063492063,-203.09523809523807,325.0,206.9047619047619,247.85714285714283,6.587301587301587,7.063492063492063,-321.8253968253968
213,-193.88888888888889,-20.555555555555554,-325.0,325.0,-180.7142857142857,-196.11111111111111,-192.77777777777777,-166.74603174603175,-325.0,-29.285714285714285,1.1904761904761905,-145.95238095238093,-159.44444444444443,101.34920634920634,-319.9206349206349,78.96825396825396,85.63492063492063,-203.09523809523807,325.0,206.9047619047619,247.85714285714283,6.587301587301587,7.063492063492063,-321.8253968253968
214,-190.87301587301587,226.58730158730157,-325.0,321.66666666666663,-177.85714285714286,-193.09523809523807,-189.60317460317458,-164.2063492063492,-325.0,140.7142857142857,119.12698412698413,-143.4126984126984,-16.904761904761905,99.6031746031746,-51.19047619047619,325.0,27.539682539682538,-199.9206349206349,325.0,203.4126984126984,243.57142857142856,-7.3809523809523805,-6.904761904761904,-321.8253968253968
215,-190.87301587301587,226.58730158730157,-325.0,321.66666666666663,-177.85714285714286,-193.09523809523807,-189.60317460317458,-164.2063492063492,-325.0,140.7142857142857,119.12698412698413,-143.4126984126984,-16.904761904761905,99.6031746031746,-51.19047619047619,325.0,27.539682539682538,-199.9206349206349,325.0,203.4126984126984,243.57142857142856,-7.3809523809523805,-6.904761904761904,-321.8253968253968
216,-187.2222222222222,-1.349206349206349,-325.0,316.4285714285714,-175.0,-189.9206349206349,-186.42857142857142,-161.34920634920633,-325.0,-28.333333333333332,8.333333333333332,-141.19047619047618,-220.7142857142857,97.6984126984127,-325.0,77.85714285714285,83.09523809523809,-196.58730158730157,325.0,200.23809523809524,239.44444444444443,6.111111111111111,6.587301587301587,-321.8253968253968
217,-187.2222222222222,-1.349206349206349,-325.0,316.4285714285714,-175.0,-189.9206349206349,-186.42857142857142,-161.34920634920633,-325.0,-28.333333333333332,8.333333333333332,-141.19047619047618,-220.7142857142857,97.6984126984127,-325.0,77.85714285714285,83.09523809523809,-196.58730158730157,325.0,200.23809523809524,239.44444444444443,6.111111111111111,6.587301587301587,-321.8253968253968
218,-184.2063492063492,285.7936507936508,-325.0,311.19047619047615,-172.3015873015873,-186.9047619047619,-183.57142857142856,-158.8095238095238,-325.0,157.85714285714286,134.52380952380952,-138.65079365079364,-36.42857142857142,96.1111111111111,-105.15873015873015,325.0,30.238095238095237,-193.57142857142856,325.0,196.74603174603175,235.3174603174603,-7.063492063492063,-7.3809523809523805,-321.8253968253968
219,-184.2063492063492,285.7936507936508,-325.0,311.19047619047615,-172.3015873015873,-186.9047619047619,-183.57142857142856,-158.8095238095238,-325.0,157.85714285714286,134.52380952380952,-138.65079365079364,-36.42857142857142,96.1111111111111,-105.15873015873015,325.0,30.238095238095237,-193.57142857142856,325.0,196.74603174603175,235.3174603174603,-7.063492063492063,-7.3809523809523805,-321.8253968253968
220,-183.57142857142856,325.0,-325.0,309.76190476190476,-171.66666666666666,-186.11111111111111,-182.93650793650792,-158.17460317460316,-325.0,152.14285714285714,94.36507936507935,-138.015873015873,-11.825396825396824,95.63492063492063,-115.79365079365078,325.0,17.38095238095238,-192.77777777777777,325.0,195.95238095238093,234.36507936507934,-10.714285714285714,-13.253968253968253,-166.26984126984127
221,-183.57142857142856,325.0,-325.0,309.76190476190476,-171.66666666666666,-186.11111111111111,-182.93650793650792,-158.17460317460316,-325.0,152.14285714285714,94.36507936507935,-138.015873015873,-11.825396825396824,95.63492063492063,-115.79365079365078,325.0,17.38095238095238,-192.77777777777777,325.0,195.95238095238093,234.36507936507934,-10.714285714285714,-13.253968253968253,-166.26984126984127
222,-180.3968253968254,325.0,-325.0,304.68253968253964,-168.96825396825395,-183.4126984126984,-179.76190476190476,-155.79365079365078,-325.0,167.38095238095238,95.0,-135.79365079365078,-22.3015873015873,93.88888888888889,-140.3968253968254,325.0,19.92063492063492,-189.76190476190476,325.0,192.61904761904762,230.2380952380952,-11.031746031746032,-13.412698412698411,-166.26984126984127
223,-180.3968253968254,325.0,-325.0,304.68253968253964,-168.96825396825395,-183.4126984126984,-179.76190476190476,-155.79365079365078,-325.0,167.38095238095238,95.0,-135.79365079365078,-22.3015873015873,93.88888888888889,-140.3968253968254,325.0,19.92063492063492,-189.76190476190476,325.0,192.61904761904762,230.2380952380952,-11.031746031746032,-13.412698412698411,-166.26984126984127
224,-175.79365079365078,61.82539682539682,-325.0,297.06349206349205,-165.0,-178.65079365079364,-175.15873015873015,-151.8253968253968,-325.0,-2.7777777777777777,-18.65079365079365,-132.61904761904762,-325.0,91.66666666666666,-325.0,82.61904761904762,73.73015873015872,-185.15873015873015,325.0,187.85714285714283,224.52380952380952,3.253968253968254,0.7142857142857142,-166.26984126984127
225,-175.79365079365078,61.82539682539682,-325.0,297.06349206349205,-165.0,-178.65079365079364,-175.15873015873015,-151.8253968253968,-325.0,-2.7777777777777777,-18.65079365079365,-132.61904761904762,-325.0,91.66666666666666,-325.0,82.61904761904762,73.73015873015872,-185.15873015873015,325.0,187.85714285714283,224.52380952380952,3.253968253968254,0.7142857142857142,-166.26984126984127
226,-171.984126984127,299.6031746031746,-325.0,290.7142857142857,-161.5079365079365,-175.15873015873015,-171.5079365079365,-148.8095238095238,-325.0,201.34920634920633,145.63492063492063,-129.6031746031746,-78.33333333333333,89.6031746031746,-230.2380952380952,325.0,31.349206349206348,-181.5079365079365,325.0,183.88888888888889,219.44444444444443,-7.5396825396825395,-7.698412698412698,-166.26984126984127
227,-171.984126984127,299.6031746031746,-325.0,290.7142857142857,-161.5079365079365,-175.15873015873015,-171.5079365079365,-148.8095238095238,-325.0,201.34920634920633,145.63492063492063,-129.6031746031746,-78.33333333333333,89.6031746031746,-230.2380952380952,325.0,31.349206349206348,-181.5079365079365,325.0,183.88888888888889,219.44444444444443,-7.5396825396825395,-7.698412698412698,-166.26984126984127
228,-169.9206349206349,93.4126984126984,-325.0,286.90476190476187,-159.44444444444443,-172.93650793650792,-169.28571428571428,-146.9047619047619,-325.0,-0.873015873015873,-12.936507936507935,-128.015873015873,-325.0,88.33333333333333,-325.0,71.5079365079365,71.19047619047619,-179.12698412698413,325.0,181.66666666666666,216.74603174603175,4.841269841269841,2.3015873015873014,-166.26984126984127
229,-169.9206349206349,93.4126984126984,-325.0,286.90476190476187,-159.44444444444443,-172.93650793650792,-169.28571428571428,-146.9047619047619,-325.0,-0.873015873015873,-12.936507936507935,-128.015873015873,-325.0,88.33333333333333,-325.0,71.5079365079365,71.19047619047619,-179.12698412698413,325.0,181.66666666666666,216.74603174603175,4.841269841269841,2.3015873015873014,-166.26984126984127
230,-166.11111111111111,316.74603174603175,-325.0,281.031746031746,-156.26984126984127,-169.28571428571428,-165.79365079365078,-143.88888888888889,-325.0,210.55555555555554,148.33333333333331,-125.15873015873015,-96.42857142857142,86.26984126984127,-317.69841269841265,325.0,25.476190476190474,-175.79365079365078,325.0,177.69841269841268,212.14285714285714,-7.222222222222221,-7.857142857142857,-321.8253968253968
231,-166.11111111111111,316.74603174603175,-325.0,281.031746031746,-156.26984126984127,-169.28571428571428,-165.79365079365078,-143.88888888888889,-325.0,210.55555555555554,148.33333333333331,-125.15873015873015,-96.42857142857142,86.26984126984127,-317.69841269841265,325.0,25.476190476190474,-175.79365079365078,325.0,177.69841269841268,212.14285714285714,-7.222222222222221,-7.857142857142857,-321.8253968253968
232,-164.04761904761904,53.41269841269841,-325.0,277.85714285714283,-154.36507936507937,-167.2222222222222,-163.57142857142856,-142.3015873015873,-325.0,-0.7142857142857142,-19.126984126984127,-123.73015873015872,-325.0,85.31746031746032,-325.0,72.77777777777777,68.4920634920635,-173.73015873015873,325.0,175.79365079365078,209.28571428571428,4.682539682539682,1.507936507936508,-321.8253968253968
233,-164.04761904761904,53.41269841269841,-325.0,277.85714285714283,-154.36507936507937,-167.2222222222222,-163.57142857142856,-142.3015873015873,-325.0,-0.7142857142857142,-19.126984126984127,-123.73015873015872,-325.0,85.31746031746032,-325.0,72.77777777777777,68.4920634920635,-173.73015873015873,325.0,175.79365079365078,209.28571428571428,4.682539682539682,1.507936507936508,-321.8253968253968
234,-160.7142857142857,314.5238095238095,-325.0,271.5079365079365,-151.19047619047618,-163.88888888888889,-160.23809523809524,-139.44444444444443,-325.0,251.8253968253968,125.31746031746032,-121.03174603174602,-119.44444444444444,83.25396825396825,-325.0,325.0,-6.26984126984127,-170.3968253968254,325.0,171.984126984127,204.84126984126982,-7.5396825396825395,-8.015873015873016,-321.8253968253968
235,-160.7142857142857,314.5238095238095,-325.0,271.5079365079365,-151.19047619047618,-163.88888888888889,-160.23809523809524,-139.44444444444443,-325.0,251.8253968253968,125.31746031746032,-121.03174603174602,-119.44444444444444,83.25396825396825,-325.0,325.0,-6.26984126984127,-170.3968253968254,325.0,171.984126984127,204.84126984126982,-7.5396825396825395,-8.015873015873016,-321.8253968253968
236,-158.65079365079364,69.92063492063491,-325.0,268.3333333333333,-149.44444444444443,-161.66666666666666,-158.33333333333331,-137.69841269841268,-325.0,10.079365079365079,-36.269841269841265,-119.6031746031746,-325.0,82.3015873015873,-325.0,95.63492063492063,56.74603174603174,-168.17460317460316,325.0,169.9206349206349,202.3015873015873,5.0,1.6666666666666665,-321.8253968253968
237,-158.65079365079364,69.92063492063491,-325.0,268.3333333333333,-149.44444444444443,-161.66666666666666,-158.33333333333331,-137.69841269841268,-325.0,10.079365079365079,-36.269841269841265,-119.6031746031746,-325.0,82.3015873015873,-325.0,95.63492063492063,56.74603174603174,-168.17460317460316,325.0,169.9206349206349,202.3015873015873,5.0,1.6666666666666665,-321.8253968253968
238,-156.74603174603175,197.38095238095238,-325.0,264.8412698412698,-147.69841269841268,-159.76190476190476,-156.42857142857142,-136.11111111111111,-325.0,137.38095238095238,32.77777777777778,-118.33333333333333,-211.5079365079365,81.19047619047619,-325.0,210.2380952380952,33.25396825396825,-166.26984126984127,325.0,167.85714285714286,199.76190476190476,-2.619047619047619,-6.428571428571428,-321.8253968253968
239,-156.74603174603175,197.38095238095238,-325.0,264.8412698412698,-147.69841269841268,-159.76190476190476,-156.42857142857142,-136.11111111111111,-325.0,137.38095238095238,32.77777777777778,-118.33333333333333,-211.5079365079365,81.19047619047619,-325.0,210.2380952380952,33.25396825396825,-166.26984126984127,325.0,167.85714285714286,199.76190476190476,-2.619047619047619,-6.428571428571428,-321.8253968253968
240,-153.4126984126984,42.460317460317455,-325.0,259.44444444444446,-144.52380952380952,-156.58730158730157,-152.93650793650792,-133.4126984126984,-325.0,8.015873015873016,-8.968253968253968,-115.47619047619047,-325.0,79.28571428571428,-325.0,71.66666666666666,66.58730158730158,-162.93650793650792,325.0,164.36507936507937,195.3174603174603,3.888888888888889,2.142857142857143,-166.26984126984127
241,-153.4126984126984,42.460317460317455,-325.0,259.44444444444446,-144.52380952380952,-156.58730158730157,-152.93650793650792,-133.4126984126984,-325.0,8.015873015873016,-8.968253968253968,-115.47619047619047,-325.0,79.28571428571428,-325.0,71.66666666666666,66.58730158730158,-162.93650793650792,325.0,164.36507936507937,195.3174603174603,3.888888888888889,2.142857142857143,-166.26984126984127
242,-150.23809523809524,325.0,-325.0,254.04761904761904,-141.66666666666666,-153.4126984126984,-149.9206349206349,-130.7142857142857,-325.0,267.6984126984127,158.4920634920635,-113.25396825396825,-149.44444444444443,77.6984126984127,-325.0,325.0,25.0,-159.76190476190476,325.0,160.87301587301587,191.03174603174602,-8.174603174603174,-7.698412698412698,-166.26984126984127
243,-150.23809523809524,325.0,-325.0,254.04761904761904,-141.66666666666666,-153.4126984126984,-149.9206349206349,-130.7142857142857,-325.0,267.6984126984127,158.4920634920635,-113.25396825396825,-149.44444444444443,77.6984126984127,-325.0,325.0,25.0,-159.76190476190476,325.0,160.87301587301587,191.03174603174602,-8.174603174603174,-7.698412698412698,-166.26984126984127
244,-148.015873015873,146.26984126984127,-325.0,250.87301587301585,-139.9206349206349,-151.5079365079365,-148.015873015873,-129.28571428571428,-325.0,3.4126984126984126,2.619047619047619,-111.66666666666666,-325.0,76.74603174603175,-325.0,64.84126984126983,67.06349206349206,-157.69841269841268,325.0,158.65079365079364,188.65079365079364,5.158730158730158,1.984126984126984,-166.26984126984127
245,-148.015873015873,146.26984126984127,-325.0,250.87301587301585,-139.9206349206349,-151.5079365079365,-148.015873015873,-129.28571428571428,-325.0,3.4126984126984126,2.619047619047619,-111.66666666666666,-325.0,76.74603174603175,-325.0,64.84126984126983,67.06349206349206,-157.69841269841268,325.0,158.65079365079364,188.65079365079364,5.158730158730158,1.984126984126984,-166.26984126984127
246,-146.26984126984127,235.63492063492063,-325.0,247.69841269841268,-138.4920634920635,-149.76190476190476,-146.26984126984127,-127.85714285714285,-325.0,135.0,60.873015873015866,-110.39682539682539,-240.2380952380952,75.79365079365078,-325.0,194.84126984126982,37.698412698412696,-155.95238095238093,325.0,156.58730158730157,186.11111111111111,-2.142857142857143,-6.111111111111111,-166.26984126984127
247,-146.26984126984127,235.63492063492063,-325.0,247.69841269841268,-138.4920634920635,-149.76190476190476,-146.26984126984127,-127.85714285714285,-325.0,135.0,60.873015873015866,-110.39682539682539,-240.2380952380952,75.79365079365078,-325.0,194.84126984126982,37.698412698412696,-155.95238095238093,325.0,156.58730158730157,186.11111111111111,-2.142857142857143,-6.111111111111111,-166.26984126984127
248,-142.3015873015873,42.14285714285714,-325.0,241.34920634920633,-135.0,-146.11111111111111,-142.46031746031744,-124.36507936507935,-325.0,-15.0,45.15873015873016,-107.38095238095238,-325.0,73.73015873015872,-325.0,74.2063492063492,70.87301587301587,-151.984126984127,325.0,152.93650793650792,181.19047619047618,6.746031746031746,6.904761904761904,-166.26984126984127
249,-142.3015873015873,42.14285714285714,-325.0,241.34920634920633,-135.0,-146.11111111111111,-142.46031746031744,-124.36507936507935,-325.0,-15.0,45.15873015873016,-107.38095238095238,-325.0,73.73015873015872,-325.0,74.2063492063492,70.87301587301587,-151.984126984127,325.0,152.93650793650792,181.19047619047618,6.746031746031746,6.904761904761904,-166.26984126984127
250,-140.07936507936506,325.0,-325.0,237.06349206349205,-132.93650793650792,-143.73015873015873,-140.23809523809524,-122.46031746031746,-325.0,296.1111111111111,153.09523809523807,-105.79365079365078,-195.79365079365078,72.46031746031746,-325.0,325.0,-4.682539682539682,-149.76190476190476,325.0,150.3968253968254,178.17460317460316,-8.015873015873016,-8.333333333333332,-321.8253968253968
251,-140.07936507936506,325.0,-325.0,237.06349206349205,-132.93650793650792,-143.73015873015873,-140.23809523809524,-122.46031746031746,-325.0,296.1111111111111,153.09523809523807,-105.79365079365078,-195.79365079365078,72.46031746031746,-325.0,325.0,-4.682539682539682,-149.76190476190476,325.0,150.3968253968254,178.17460317460316,-8.015873015873016,-8.333333333333332,-321.8253968253968
252,-137.69841269841268,325.0,-325.0,233.09523809523807,-130.7142857142857,-141.34920634920636,-137.85714285714286,-120.39682539682539,-325.0,306.1111111111111,152.77777777777777,-104.04761904761904,-197.06349206349205,71.03174603174602,-325.0,325.0,-7.857142857142857,-147.38095238095238,325.0,147.85714285714286,175.0,-8.333333333333332,-7.857142857142857,-321.8253968253968
253,-137.69841269841268,325.0,-325.0,233.09523809523807,-130.7142857142857,-141.34920634920636,-137.85714285714286,-120.39682539682539,-325.0,306.1111111111111,152.77777777777777,-104.04761904761904,-197.06349206349205,71.03174603174602,-325.0,325.0,-7.857142857142857,-147.38095238095238,325.0,147.85714285714286,175.0,-8.333333333333332,-7.857142857142857,-321.8253968253968
254,-132.93650793650792,96.74603174603175,-325.0,225.63492063492063,-126.26984126984127,-136.58730158730157,-133.25396825396825,-116.58730158730158,-325.0,-2.142857142857143,34.047619047619044,-100.55555555555554,-325.0,68.4920634920635,-325.0,78.01587301587301,67.06349206349206,-142.61904761904762,325.0,142.93650793650792,169.12698412698413,7.063492063492063,7.698412698412698,-321.8253968253968
255,-132.93650793650792,96.74603174603175,-325.0,225.63492063492063,-126.26984126984127,-136.58730158730157,-133.25396825396825,-116.58730158730158,-325.0,-2.142857142857143,34.047619047619044,-100.55555555555554,-325.0,68.4920634920635,-325.0,78.01587301587301,67.06349206349206,-142.61904761904762,325.0,142.93650793650792,169.12698412698413,7.063492063492063,7.698412698412698,-321.8253968253968
256,-132.3015873015873,45.79365079365079,-325.0,224.68253968253967,-125.63492063492063,-136.11111111111111,-132.46031746031744,-116.1111111111111,-325.0,-8.809523809523808,83.57142857142857,-100.07936507936508,-325.0,68.17460317460318,-325.0,105.79365079365078,77.22222222222221,-141.984126984127,325.0,142.46031746031744,168.33333333333331,8.968253968253968,12.936507936507935,-321.8253968253968
257,-132.3015873015873,45.79365079365079,-325.0,224.68253968253967,-125.63492063492063,-136.11111111111111,-132.46031746031744,-116.1111111111111,-325.0,-8.809523809523808,83.57142857142857,-100.07936507936508,-325.0,68.17460317460318,-325.0,105.79365079365078,77.22222222222221,-141.984126984127,325.0,142.46031746031744,168.33333333333331,8.968253968253968,12.936507936507935,-321.8253968253968
258,-127.38095238095238,187.2222222222222,-325.0,216.1111111111111,-121.34920634920634,-131.03174603174602,-127.6984126984127,-111.98412698412697,-325.0,166.26984126984127,145.0,-96.42857142857142,-266.90476190476187,65.63492063492063,-325.0,223.09523809523807,45.317460317460316,-137.06349206349205,325.0,137.06349206349205,161.984126984127,1.1904761904761905,4.365079365079365,-321.8253968253968
259,-127.38095238095238,187.2222222222222,-325.0,216.1111111111111,-121.34920634920634,-131.03174603174602,-127.6984126984127,-111.98412698412697,-325.0,166.26984126984127,145.0,-96.42857142857142,-266.90476190476187,65.63492063492063,-325.0,223.09523809523807,45.317460317460316,-137.06349206349205,325.0,137.06349206349205,161.984126984127,1.1904761904761905,4.365079365079365,-321.8253968253968
260,-125.31746031746032,232.3015873015873,-325.0,212.46031746031744,-119.6031746031746,-129.12698412698413,-125.79365079365078,-110.55555555555554,-325.0,167.06349206349205,41.507936507936506,-94.84126984126983,-291.3492063492063,64.52380952380952,-325.0,188.33333333333331,36.904761904761905,-135.0,325.0,134.84126984126982,159.12698412698413,-1.349206349206349,-5.7936507936507935,-166.26984126984127
261,-125.31746031746032,232.3015873015873,-325.0,212.46031746031744,-119.6031746031746,-129.12698412698413,-125.79365079365078,-110.55555555555554,-325.0,167.06349206349205,41.507936507936506,-94.84126984126983,-291.3492063492063,64.52380952380952,-325.0,188.33333333333331,36.904761904761905,-135.0,325.0,134.84126984126982,159.12698412698413,-1.349206349206349,-5.7936507936507935,-166.26984126984127
262,-123.57142857142857,232.3015873015873,-325.0,209.76190476190476,-118.01587301587301,-127.38095238095238,-124.04761904761904,-109.12698412698413,-325.0,167.06349206349205,87.6984126984127,-93.57142857142857,-269.9206349206349,63.73015873015873,-325.0,188.33333333333331,32.14285714285714,-133.4126984126984,325.0,133.0952380952381,157.06349206349205,-0.5555555555555556,-1.0317460317460316,-166.26984126984127
263,-123.57142857142857,232.3015873015873,-325.0,209.76190476190476,-118.01587301587301,-127.38095238095238,-124.04761904761904,-109.12698412698413,-325.0,167.06349206349205,87.6984126984127,-93.57142857142857,-269.9206349206349,63.73015873015873,-325.0,188.33333333333331,32.14285714285714,-133.4126984126984,325.0,133.0952380952381,157.06349206349205,-0.5555555555555556,-1.0317460317460316,-166.26984126984127
264,-121.66666666666666,325.0,-325.0,206.26984126984127,-116.42857142857142,-125.31746031746032,-122.14285714285714,-107.53968253968253,-325.0,325.0,84.84126984126983,-92.14285714285714,-287.06349206349205,62.61904761904761,-325.0,325.0,-2.619047619047619,-131.03174603174602,325.0,130.7142857142857,154.36507936507937,-9.761904761904761,-13.253968253968253,-166.26984126984127
265,-121.66666666666666,325.0,-325.0,206.26984126984127,-116.42857142857142,-125.31746031746032,-122.14285714285714,-107.53968253968253,-325.0,325.0,84.84126984126983,-92.14285714285714,-287.06349206349205,62.61904761904761,-325.0,325.0,-2.619047619047619,-131.03174603174602,325.0,130.7142857142857,154.36507936507937,-9.761904761904761,-13.253968253968253,-166.26984126984127
266,-119.92063492063491,325.0,-325.0,203.7301587301587,-115.0,-123.73015873015872,-120.55555555555554,-106.1111111111111,-325.0,325.0,133.0952380952381,-91.03174603174602,-261.984126984127,61.82539682539682,-325.0,325.0,31.349206349206348,-129.44444444444443,325.0,129.12698412698413,152.3015873015873,-8.65079365079365,-8.968253968253968,-166.26984126984127
267,-119.92063492063491,325.0,-325.0,203.7301587301587,-115.0,-123.73015873015872,-120.55555555555554,-106.1111111111111,-325.0,325.0,133.0952380952381,-91.03174603174602,-261.984126984127,61.82539682539682,-325.0,325.0,31.349206349206348,-129.44444444444443,325.0,129.12698412698413,152.3015873015873,-8.65079365079365,-8.968253968253968,-166.26984126984127
268,-116.9047619047619,257.38095238095235,-325.0,198.4920634920635,-112.14285714285714,-121.19047619047619,-117.53968253968253,-103.57142857142857,-325.0,161.8253968253968,14.682539682539682,-88.4920634920635,-322.1428571428571,60.079365079365076,-325.0,182.14285714285714,67.53968253968253,-126.42857142857142,325.0,125.95238095238095,148.17460317460316,-2.3015873015873014,-5.476190476190476,-166.26984126984127
269,-116.9047619047619,257.38095238095235,-325.0,198.4920634920635,-112.14285714285714,-121.19047619047619,-117.53968253968253,-103.57142857142857,-325.0,161.8253968253968,14.682539682539682,-88.4920634920635,-322.1428571428571,60.079365079365076,-325.0,182.14285714285714,67.53968253968253,-126.42857142857142,325.0,125.95238095238095,148.17460317460316,-2.3015873015873014,-5.476190476190476,-166.26984126984127
270,-116.26984126984127,189.76190476190476,-325.0,197.85714285714283,-111.66666666666666,-120.71428571428571,-116.9047619047619,-103.09523809523809,-325.0,-1.349206349206349,-40.714285714285715,-88.01587301587301,-325.0,59.92063492063492,-325.0,39.44444444444444,68.4920634920635,-125.95238095238095,325.0,125.47619047619047,147.53968253968253,5.476190476190476,2.619047619047619,-321.8253968253968
271,-116.26984126984127,189.76190476190476,-325.0,197.85714285714283,-111.66666666666666,-120.71428571428571,-116.9047619047619,-103.09523809523809,-325.0,-1.349206349206349,-40.714285714285715,-88.01587301587301,-325.0,59.92063492063492,-325.0,39.44444444444444,68.4920634920635,-125.95238095238095,325.0,125.47619047619047,147.53968253968253,5.476190476190476,2.619047619047619,-321.8253968253968
272,-112.93650793650794,242.77777777777777,-325.0,191.8253968253968,-108.65079365079364,-116.9047619047619,-113.73015873015872,-100.23809523809523,-325.0,166.42857142857142,11.349206349206348,-85.63492063492063,-325.0,58.01587301587301,-325.0,183.7301587301587,66.26984126984127,-122.46031746031746,325.0,121.5079365079365,143.09523809523807,-1.6666666666666665,-5.317460317460317,-321.8253968253968
273,-112.93650793650794,242.77777777777777,-325.0,191.8253968253968,-108.65079365079364,-116.9047619047619,-113.73015873015872,-100.23809523809523,-325.0,166.42857142857142,11.349206349206348,-85.63492063492063,-325.0,58.01587301587301,-325.0,183.7301587301587,66.26984126984127,-122.46031746031746,325.0,121.5079365079365,143.09523809523807,-1.6666666666666665,-5.317460317460317,-321.8253968253968
274,-111.34920634920634,242.77777777777777,-325.0,189.44444444444443,-107.22222222222221,-115.31746031746032,-112.14285714285714,-98.80952380952381,-325.0,166.42857142857142,65.95238095238095,-84.36507936507937,-298.6507936507936,57.22222222222222,-325.0,183.7301587301587,65.47619047619047,-120.87301587301586,325.0,120.07936507936508,141.34920634920636,-1.1904761904761905,-1.0317460317460316,-321.8253968253968
275,-111.34920634920634,242.77777777777777,-325.0,189.44444444444443,-107.22222222222221,-115.31746031746032,-112.14285714285714,-98.80952380952381,-325.0,166.42857142857142,65.95238095238095,-84.36507936507937,-298.6507936507936,57.22222222222222,-325.0,183.7301587301587,65.47619047619047,-120.87301587301586,325.0,120.07936507936508,141.34920634920636,-1.1904761904761905,-1.0317460317460316,-321.8253968253968
276,-109.28571428571428,228.33333333333331,-325.0,185.3174603174603,-105.0,-113.09523809523809,-110.07936507936508,-97.06349206349206,-325.0,165.47619047619045,28.65079365079365,-82.93650793650794,-325.0,55.95238095238095,-325.0,178.65079365079364,63.888888888888886,-118.65079365079364,325.0,117.6984126984127,138.33333333333331,-1.349206349206349,-3.73015873015873,-321.8253968253968
277,-109.28571428571428,228.33333333333331,-325.0,185.3174603174603,-105.0,-113.09523809523809,-110.07936507936508,-97.06349206349206,-325.0,165.47619047619045,28.65079365079365,-82.93650793650794,-325.0,55.95238095238095,-325.0,178.65079365079364,63.888888888888886,-118.65079365079364,325.0,117.6984126984127,138.33333333333331,-1.349206349206349,-3.73015873015873,-321.8253968253968
278,-107.85714285714285,228.33333333333331,-325.0,182.93650793650792,-103.73015873015872,-111.5079365079365,-108.65079365079364,-95.63492063492063,-325.0,165.47619047619045,91.19047619047619,-81.82539682539682,-305.1587301587301,55.15873015873016,-325.0,178.65079365079364,-3.571428571428571,-117.22222222222221,325.0,116.1111111111111,136.58730158730157,-1.0317460317460316,-0.07936507936507936,-321.8253968253968
279,-107.85714285714285,228.33333333333331,-325.0,182.93650793650792,-103.73015873015872,-111.5079365079365,-108.65079365079364,-95.63492063492063,-325.0,165.47619047619045,91.19047619047619,-81.82539682539682,-305.1587301587301,55.15873015873016,-325.0,178.65079365079364,-3.571428571428571,-117.22222222222221,325.0,116.1111111111111,136.58730158730157,-1.0317460317460316,-0.07936507936507936,-321.8253968253968
280,-105.47619047619047,247.06349206349205,-325.0,179.28571428571428,-101.66666666666666,-109.44444444444444,-106.1111111111111,-93.88888888888889,-324.04761904761904,166.9047619047619,43.41269841269841,-80.07936507936508,-325.0,53.888888888888886,-325.0,179.9206349206349,1.984126984126984,-115.0,325.0,113.73015873015872,133.57142857142856,-1.507936507936508,-4.682539682539682,-166.26984126984127
281,-105.47619047619047,247.06349206349205,-325.0,179.28571428571428,-101.66666666666666,-109.44444444444444,-106.1111111111111,-93.88888888888889,-324.04761904761904,166.9047619047619,43.41269841269841,-80.07936507936508,-325.0,53.888888888888886,-325.0,179.9206349206349,1.984126984126984,-115.0,325.0,113.73015873015872,133.57142857142856,-1.507936507936508,-4.682539682539682,-166.26984126984127
282,-104.2063492063492,247.06349206349205,-325.0,176.9047619047619,-100.39682539682539,-108.17460317460316,-104.84126984126983,-92.77777777777777,-320.55555555555554,166.9047619047619,97.38095238095238,-78.96825396825396,-321.8253968253968,53.25396825396825,-325.0,179.9206349206349,4.841269841269841,-113.57142857142857,325.0,112.30158730158729,131.8253968253968,-1.1904761904761905,-0.873015873015873,-166.26984126984127
283,-104.2063492063492,247.06349206349205,-325.0,176.9047619047619,-100.39682539682539,-108.17460317460316,-104.84126984126983,-92.77777777777777,-320.55555555555554,166.9047619047619,97.38095238095238,-78.96825396825396,-321.8253968253968,53.25396825396825,-325.0,179.9206349206349,4.841269841269841,-113.57142857142857,325.0,112.30158730158729,131.8253968253968,-1.1904761904761905,-0.873015873015873,-166.26984126984127
284,-102.30158730158729,325.0,-325.0,174.04761904761904,-98.96825396825396,-106.42857142857142,-103.09523809523809,-91.5079365079365,-315.3174603174603,325.0,91.19047619047619,-77.6984126984127,-325.0,52.460317460317455,-325.0,325.0,-21.666666666666664,-111.98412698412697,325.0,110.55555555555554,129.44444444444443,-8.174603174603174,-12.619047619047619,-166.26984126984127
285,-102.30158730158729,325.0,-325.0,174.04761904761904,-98.96825396825396,-106.42857142857142,-103.09523809523809,-91.5079365079365,-315.3174603174603,325.0,91.19047619047619,-77.6984126984127,-325.0,52.460317460317455,-325.0,325.0,-21.666666666666664,-111.98412698412697,325.0,110.55555555555554,129.44444444444443,-8.174603174603174,-12.619047619047619,-166.26984126984127
286,-102.30158730158729,325.0,-325.0,174.04761904761904,-98.96825396825396,-106.42857142857142,-103.09523809523809,-91.5079365079365,-315.3174603174603,325.0,91.19047619047619,-77.6984126984127,-325.0,52.460317460317455,-325.0,325.0,-21.666666666666664,-111.98412698412697,325.0,110.55555555555554,129.44444444444443,-8.174603174603174,-12.619047619047619,-166.26984126984127
287,-102.30158730158729,325.0,-325.0,174.04761904761904,-98.96825396825396,-106.42857142857142,-103.09523809523809,-91.5079365079365,-315.3174603174603,325.0,91.19047619047619,-77.6984126984127,-325.0,52.460317460317455,-325.0,325.0,-21.666666666666664,-111.98412698412697,325.0,110.55555555555554,129.44444444444443,-8.174603174603174,-12.619047619047619,-166.26984126984127
288,-100.39682539682539,180.07936507936506,-325.0,170.23809523809524,-96.9047619047619,-104.36507936507935,-101.03174603174602,-89.6031746031746,-308.968253968254,167.85714285714286,25.0,-76.1111111111111,-325.0,51.34920634920635,-325.0,174.52380952380952,19.76190476190476,-109.6031746031746,325.0,108.17460317460316,126.58730158730158,-1.6666666666666665,-4.682539682539682,-166.26984126984127
289,-100.39682539682539,180.07936507936506,-325.0,170.23809523809524,-96.9047619047619,-104.36507936507935,-101.03174603174602,-89.6031746031746,-308.968253968254,167.85714285714286,25.0,-76.1111111111111,-325.0,51.34920634920635,-325.0,174.52380952380952,19.76190476190476,-109.6031746031746,325.0,108.17460317460316,126.58730158730158,-1.6666666666666665,-4.682539682539682,-166.26984126984127
290,-97.38095238095238,180.07936507936506,-325.0,165.15873015873015,-94.04761904761904,-101.19047619047619,-98.33333333333333,-87.06349206349206,-300.23809523809524,167.85714285714286,56.74603174603174,-73.88888888888889,-325.0,49.76190476190476,-325.0,174.52380952380952,60.873015873015866,-106.26984126984127,325.0,105.0,122.77777777777777,-1.6666666666666665,-0.873015873015873,-321.8253968253968
291,-97.38095238095238,180.07936507936506,-325.0,165.15873015873015,-94.04761904761904,-101.19047619047619,-98.33333333333333,-87.06349206349206,-300.23809523809524,167.85714285714286,56.74603174603174,-73.88888888888889,-325.0,49.76190476190476,-325.0,174.52380952380952,60.873015873015866,-106.26984126984127,325.0,105.0,122.77777777777777,-1.6666666666666665,-0.873015873015873,-321.8253968253968
292,-95.15873015873015,144.84126984126982,-325.0,161.66666666666666,-92.30158730158729,-99.28571428571428,-96.1111111111111,-85.31746031746032,-294.04761904761904,168.4920634920635,2.619047619047619,-72.14285714285714,-325.0,48.650793650793645,-325.0,173.25396825396825,59.44444444444444,-104.2063492063492,325.0,102.77777777777777,120.07936507936508,-0.873015873015873,-4.841269841269841,-321.8253968253968
293,-95.15873015873015,144.84126984126982,-325.0,161.66666666666666,-92.30158730158729,-99.28571428571428,-96.1111111111111,-85.31746031746032,-294.04761904761904,168.4920634920635,2.619047619047619,-72.14285714285714,-325.0,48.650793650793645,-325.0,173.25396825396825,59.44444444444444,-104.2063492063492,325.0,102.77777777777777,120.07936507936508,-0.873015873015873,-4.841269841269841,-321.8253968253968
294,-93.88888888888889,144.84126984126982,-325.0,159.6031746031746,-91.19047619047619,-98.01587301587301,-94.84126984126983,-84.2063492063492,-290.55555555555554,168.4920634920635,64.84126984126983,-71.34920634920634,-325.0,48.01587301587301,-325.0,173.25396825396825,58.650793650793645,-102.93650793650794,325.0,101.5079365079365,118.49206349206348,-0.873015873015873,-1.8253968253968254,-321.8253968253968
295,-93.88888888888889,144.84126984126982,-325.0,159.6031746031746,-91.19047619047619,-98.01587301587301,-94.84126984126983,-84.2063492063492,-290.55555555555554,168.4920634920635,64.84126984126983,-71.34920634920634,-325.0,48.01587301587301,-325.0,173.25396825396825,58.650793650793645,-102.93650793650794,325.0,101.5079365079365,118.49206349206348,-0.873015873015873,-1.8253968253968254,-321.8253968253968
296,-91.98412698412697,170.3968253968254,-325.0,156.26984126984127,-89.44444444444444,-95.95238095238095,-93.25396825396825,-82.61904761904762,-284.8412698412698,170.3968253968254,35.317460317460316,-69.92063492063491,-325.0,46.904761904761905,-325.0,171.19047619047618,57.38095238095238,-100.87301587301587,325.0,99.28571428571428,115.95238095238095,-1.0317460317460316,-3.73015873015873,-321.8253968253968
297,-91.98412698412697,170.3968253968254,-325.0,156.26984126984127,-89.44444444444444,-95.95238095238095,-93.25396825396825,-82.61904761904762,-284.8412698412698,170.3968253968254,35.317460317460316,-69.92063492063491,-325.0,46.904761904761905,-325.0,171.19047619047618,57.38095238095238,-100.87301587301587,325.0,99.28571428571428,115.95238095238095,-1.0317460317460316,-3.73015873015873,-321.8253968253968
298,-91.5079365079365,15.793650793650793,-325.0,155.47619047619048,-88.80952380952381,-95.63492063492063,-92.77777777777777,-82.14285714285714,-283.73015873015873,15.95238095238095,-1.507936507936508,-69.6031746031746,-325.0,46.74603174603175,-325.0,17.38095238095238,57.22222222222222,-100.39682539682539,325.0,98.96825396825396,115.47619047619047,5.952380952380952,5.158730158730158,-321.8253968253968
299,-91.5079365079365,15.793650793650793,-325.0,155.47619047619048,-88.80952380952381,-95.63492063492063,-92.77777777777777,-82.14285714285714,-283.73015873015873,15.95238095238095,-1.507936507936508,-69.6031746031746,-325.0,46.74603174603175,-325.0,17.38095238095238,57.22222222222222,-100.39682539682539,325.0,98.96825396825396,115.47619047619047,5.952380952380952,5.158730158730158,-321.8253968253968
300,-88.80952380952381,196.11111111111111,-325.0,150.87301587301587,-86.58730158730158,-92.93650793650794,-90.07936507936508,-79.92063492063491,-275.6349206349206,164.52380952380952,-136.11111111111111,-67.53968253968253,-325.0,45.317460317460316,-325.0,162.93650793650792,55.476190476190474,-97.85714285714285,325.0,96.1111111111111,111.98412698412697,-1.1904761904761905,-3.4126984126984126,-166.26984126984127
301,-88.80952380952381,196.11111111111111,-325.0,150.87301587301587,-86.58730158730158,-92.93650793650794,-90.07936507936508,-79.92063492063491,-275.6349206349206,164.52380952380952,-136.11111111111111,-67.53968253968253,-325.0,45.317460317460316,-325.0,162.93650793650792,55.476190476190474,-97.85714285714285,325.0,96.1111111111111,111.98412698412697,-1.1904761904761905,-3.4126984126984126,-166.26984126984127
302,-88.33333333333333,67.22222222222221,-325.0,150.23809523809524,-86.1111111111111,-92.61904761904762,-89.44444444444444,-79.44444444444444,-274.36507936507934,4.2063492063492065,-165.47619047619045,-67.06349206349206,-325.0,45.15873015873016,-325.0,0.873015873015873,55.15873015873016,-97.38095238095238,325.0,95.79365079365078,111.34920634920634,5.317460317460317,4.523809523809524,-166.26984126984127
303,-88.33333333333333,67.22222222222221,-325.0,150.23809523809524,-86.1111111111111,-92.61904761904762,-89.44444444444444,-79.44444444444444,-274.36507936507934,4.2063492063492065,-165.47619047619045,-67.06349206349206,-325.0,45.15873015873016,-325.0,0.873015873015873,55.15873015873016,-97.38095238095238,325.0,95.79365079365078,111.34920634920634,5.317460317460317,4.523809523809524,-166.26984126984127
304,-86.9047619047619,85.63492063492063,-325.0,147.69841269841268,-84.68253968253968,-91.03174603174602,-88.01587301587301,-78.17460317460316,-270.07936507936506,-0.07936507936507936,-159.12698412698413,-66.11111111111111,-325.0,44.36507936507936,-325.0,-4.682539682539682,54.047619047619044,-95.79365079365078,325.0,93.88888888888889,109.44444444444444,5.317460317460317,4.682539682539682,-166.26984126984127
305,-86.9047619047619,85.63492063492063,-325.0,147.69841269841268,-84.68253968253968,-91.03174603174602,-88.01587301587301,-78.17460317460316,-270.07936507936506,-0.07936507936507936,-159.12698412698413,-66.11111111111111,-325.0,44.36507936507936,-325.0,-4.682539682539682,54.047619047619044,-95.79365079365078,325.0,93.88888888888889,109.44444444444444,5.317460317460317,4.682539682539682,-166.26984126984127
306,-85.31746031746032,104.04761904761904,-325.0,145.15873015873015,-83.25396825396825,-89.44444444444444,-86.58730158730158,-76.9047619047619,-265.6349206349206,-4.2063492063492065,-152.61904761904762,-65.0,-325.0,43.73015873015873,-325.0,-10.079365079365079,53.095238095238095,-94.2063492063492,325.0,92.14285714285714,107.6984126984127,5.476190476190476,5.0,-166.26984126984127
307,-85.31746031746032,104.04761904761904,-325.0,145.15873015873015,-83.25396825396825,-89.44444444444444,-86.58730158730158,-76.9047619047619,-265.6349206349206,-4.2063492063492065,-152.61904761904762,-65.0,-325.0,43.73015873015873,-325.0,-10.079365079365079,53.095238095238095,-94.2063492063492,325.0,92.14285714285714,107.6984126984127,5.476190476190476,5.0,-166.26984126984127
308,-85.31746031746032,104.04761904761904,-325.0,145.15873015873015,-83.25396825396825,-89.44444444444444,-86.58730158730158,-76.9047619047619,-265.6349206349206,-4.2063492063492065,-152.61904761904762,-65.0,-325.0,43.73015873015873,-325.0,-10.079365079365079,53.095238095238095,-94.2063492063492,325.0,92.14285714285714,107.6984126984127,5.476190476190476,5.0,-166.26984126984127
309,-85.31746031746032,104.04761904761904,-325.0,145.15873015873015,-83.25396825396825,-89.44444444444444,-86.58730158730158,-76.9047619047619,-265.6349206349206,-4.2063492063492065,-152.61904761904762,-65.0,-325.0,43.73015873015873,-325.0,-10.079365079365079,53.095238095238095,-94.2063492063492,325.0,92.14285714285714,107.6984126984127,5.476190476190476,5.0,-166.26984126984127
310,-81.82539682539682,150.3968253968254,-325.0,138.96825396825395,-80.07936507936508,-85.95238095238095,-82.93650793650794,-73.88888888888889,-254.84126984126982,101.19047619047619,-145.79365079365078,-62.3015873015873,-325.0,41.82539682539682,-325.0,127.38095238095238,50.87301587301587,-90.55555555555556,325.0,88.4920634920635,102.93650793650794,7.698412698412698,11.507936507936508,-321.8253968253968
