,Fp1[1],Fp2[2],F3[3],F4[4],C3[5],C4[6],P3[7],P4[8],O1[9],O2[10],F7[11],F8[12],T3[13],T4[14],T5[15],T6[16],Fz[17],Pz[18],Cz[19],Pg1[20],Pg2[21],EOGR[22],EOOGL[23],EMG[24]
0,-77.6984126984127,-169.76190476190476,-165.15873015873015,-160.87301587301587,-160.07936507936506,-162.46031746031744,4.0476190476190474,-8.174603174603174,325.0,325.0,-325.0,325.0,325.0,325.0,325.0,-325.0,325.0,325.0,325.0,-325.0,-325.0,-13.888888888888888,-26.587301587301585,-166.26984126984127
1,-77.6984126984127,-169.76190476190476,-165.15873015873015,-160.87301587301587,-160.07936507936506,-162.46031746031744,4.0476190476190474,-8.174603174603174,325.0,325.0,-325.0,325.0,325.0,325.0,325.0,-325.0,325.0,325.0,325.0,-325.0,-325.0,-13.888888888888888,-26.587301587301585,-166.26984126984127
2,-325.0,325.0,325.0,325.0,-325.0,325.0,325.0,325.0,325.0,325.0,-325.0,325.0,325.0,325.0,325.0,-325.0,325.0,325.0,325.0,-325.0,-325.0,10.873015873015872,26.587301587301585,-166.26984126984127
3,-325.0,325.0,325.0,325.0,-325.0,325.0,325.0,325.0,325.0,325.0,-325.0,325.0,325.0,325.0,325.0,-325.0,325.0,325.0,325.0,-325.0,-325.0,10.873015873015872,26.587301587301585,-166.26984126984127
4,-325.0,316.1111111111111,325.0,320.39682539682536,-325.0,325.0,325.0,325.0,325.0,322.46031746031747,-325.0,325.0,325.0,319.4444444444444,325.0,-325.0,325.0,325.0,-197.2222222222222,-325.0,-325.0,10.714285714285714,25.158730158730158,-166.26984126984127
5,-325.0,316.1111111111111,325.0,320.39682539682536,-325.0,325.0,325.0,325.0,325.0,322.46031746031747,-325.0,325.0,325.0,319.4444444444444,325.0,-325.0,325.0,325.0,-197.2222222222222,-325.0,-325.0,10.714285714285714,25.158730158730158,-166.26984126984127
6,-325.0,300.7142857142857,325.0,304.2063492063492,-325.0,312.46031746031747,325.0,315.3174603174603,325.0,306.1111111111111,-325.0,311.3492063492063,325.0,302.9365079365079,325.0,-316.58730158730157,325.0,325.0,-325.0,-325.0,-325.0,-0.23809523809523808,-1.1904761904761905,-166.26984126984127
7,-325.0,300.7142857142857,325.0,304.2063492063492,-325.0,312.46031746031747,325.0,315.3174603174603,325.0,306.1111111111111,-325.0,311.3492063492063,325.0,302.9365079365079,325.0,-316.58730158730157,325.0,325.0,-325.0,-325.0,-325.0,-0.23809523809523808,-1.1904761904761905,-166.26984126984127
8,-325.0,286.90476190476187,325.0,290.07936507936506,-325.0,298.3333333333333,325.0,301.3492063492063,325.0,291.8253968253968,-325.0,297.06349206349205,325.0,288.3333333333333,325.0,-301.8253968253968,320.87301587301585,319.9206349206349,-325.0,-325.0,-325.0,6.904761904761904,14.047619047619047,-166.26984126984127
9,-325.0,286.90476190476187,325.0,290.07936507936506,-325.0,298.3333333333333,325.0,301.3492063492063,325.0,291.8253968253968,-325.0,297.06349206349205,325.0,288.3333333333333,325.0,-301.8253968253968,320.87301587301585,319.9206349206349,-325.0,-325.0,-325.0,6.904761904761904,14.047619047619047,-166.26984126984127
10,-325.0,282.3015873015873,325.0,285.1587301587301,-325.0,293.25396825396825,325.0,296.4285714285714,325.0,287.06349206349205,-325.0,291.8253968253968,325.0,283.4126984126984,325.0,-296.58730158730157,315.4761904761905,314.68253968253964,-325.0,-325.0,-325.0,-8.809523809523808,-15.0,-321.8253968253968
11,-325.0,282.3015873015873,325.0,285.1587301587301,-325.0,293.25396825396825,325.0,296.4285714285714,325.0,287.06349206349205,-325.0,291.8253968253968,325.0,283.4126984126984,325.0,-296.58730158730157,315.4761904761905,314.68253968253964,-325.0,-325.0,-325.0,-8.809523809523808,-15.0,-321.8253968253968
12,-325.0,277.06349206349205,325.0,280.07936507936506,-325.0,288.4920634920635,325.0,291.66666666666663,325.0,281.984126984127,-325.0,286.90476190476187,325.0,278.3333333333333,325.0,-291.66666666666663,309.9206349206349,309.4444444444444,-325.0,-325.0,-325.0,6.587301587301587,14.206349206349206,-321.8253968253968
13,-325.0,277.06349206349205,325.0,280.07936507936506,-325.0,288.4920634920635,325.0,291.66666666666663,325.0,281.984126984127,-325.0,286.90476190476187,325.0,278.3333333333333,325.0,-291.66666666666663,309.9206349206349,309.4444444444444,-325.0,-325.0,-325.0,6.587301587301587,14.206349206349206,-321.8253968253968
14,-325.0,255.0,325.0,275.3174603174603,-325.0,283.57142857142856,325.0,286.74603174603175,325.0,277.06349206349205,-325.0,282.1428571428571,325.0,273.57142857142856,325.0,-286.58730158730157,304.68253968253964,304.36507936507934,-325.0,-325.0,-325.0,-7.857142857142857,-14.365079365079364,-321.8253968253968
15,-325.0,255.0,325.0,275.3174603174603,-325.0,283.57142857142856,325.0,286.74603174603175,325.0,277.06349206349205,-325.0,282.1428571428571,325.0,273.57142857142856,325.0,-286.58730158730157,304.68253968253964,304.36507936507934,-325.0,-325.0,-325.0,-7.857142857142857,-14.365079365079364,-321.8253968253968
16,-325.0,201.98412698412696,325.0,270.7142857142857,-325.0,278.8095238095238,325.0,282.1428571428571,325.0,272.3015873015873,-313.25396825396825,277.38095238095235,325.0,268.8095238095238,325.0,-281.8253968253968,299.2857142857143,299.4444444444444,-325.0,-325.0,-325.0,7.5396825396825395,14.682539682539682,-321.8253968253968
17,-325.0,201.98412698412696,325.0,270.7142857142857,-325.0,278.8095238095238,325.0,282.1428571428571,325.0,272.3015873015873,-313.25396825396825,277.38095238095235,325.0,268.8095238095238,325.0,-281.8253968253968,299.2857142857143,299.4444444444444,-325.0,-325.0,-325.0,7.5396825396825395,14.682539682539682,-321.8253968253968
18,-325.0,83.4126984126984,325.0,267.22222222222223,-325.0,255.0,325.0,278.4920634920635,325.0,268.8095238095238,-316.74603174603175,273.57142857142856,325.0,233.57142857142856,295.95238095238096,-278.015873015873,295.4761904761905,295.7936507936508,-325.0,-325.0,-325.0,0.07936507936507936,-0.23809523809523808,-321.8253968253968
19,-325.0,83.4126984126984,325.0,267.22222222222223,-325.0,255.0,325.0,278.4920634920635,325.0,268.8095238095238,-316.74603174603175,273.57142857142856,325.0,233.57142857142856,295.95238095238096,-278.015873015873,295.4761904761905,295.7936507936508,-325.0,-325.0,-325.0,0.07936507936507936,-0.23809523809523808,-321.8253968253968
20,-325.0,-41.82539682539682,325.0,262.46031746031747,-325.0,142.61904761904762,325.0,274.2063492063492,325.0,264.36507936507934,-269.6031746031746,268.968253968254,325.0,138.8095238095238,207.69841269841268,-273.25396825396825,290.55555555555554,291.19047619047615,-325.0,-325.0,-325.0,2.619047619047619,3.571428571428571,-166.26984126984127
21,-325.0,-41.82539682539682,325.0,262.46031746031747,-325.0,142.61904761904762,325.0,274.2063492063492,325.0,264.36507936507934,-269.6031746031746,268.968253968254,325.0,138.8095238095238,207.69841269841268,-273.25396825396825,290.55555555555554,291.19047619047615,-325.0,-325.0,-325.0,2.619047619047619,3.571428571428571,-166.26984126984127
22,-325.0,-41.82539682539682,325.0,262.46031746031747,-325.0,142.61904761904762,325.0,274.2063492063492,325.0,264.36507936507934,-269.6031746031746,268.968253968254,325.0,138.8095238095238,207.69841269841268,-273.25396825396825,290.55555555555554,291.19047619047615,-325.0,-325.0,-325.0,2.619047619047619,3.571428571428571,-166.26984126984127
23,-325.0,-41.82539682539682,325.0,262.46031746031747,-325.0,142.61904761904762,325.0,274.2063492063492,325.0,264.36507936507934,-269.6031746031746,268.968253968254,325.0,138.8095238095238,207.69841269841268,-273.25396825396825,290.55555555555554,291.19047619047615,-325.0,-325.0,-325.0,2.619047619047619,3.571428571428571,-166.26984126984127
24,-323.25396825396825,-325.0,323.0952380952381,243.7301587301587,-309.1269841269841,-325.0,325.0,255.3174603174603,316.1111111111111,245.47619047619045,-263.73015873015873,248.8095238095238,325.0,-277.85714285714283,-122.93650793650794,-253.88888888888889,269.9206349206349,53.73015873015873,-325.0,-319.2857142857143,-313.57142857142856,-7.5396825396825395,-15.158730158730158,-166.26984126984127
25,-323.25396825396825,-325.0,323.0952380952381,243.7301587301587,-309.1269841269841,-325.0,325.0,255.3174603174603,316.1111111111111,245.47619047619045,-263.73015873015873,248.8095238095238,325.0,-277.85714285714283,-122.93650793650794,-253.88888888888889,269.9206349206349,53.73015873015873,-325.0,-319.2857142857143,-313.57142857142856,-7.5396825396825395,-15.158730158730158,-166.26984126984127
26,-311.3492063492063,-325.0,311.8253968253968,231.19047619047618,-293.73015873015873,-325.0,323.4126984126984,242.93650793650792,300.7142857142857,180.55555555555554,-173.25396825396825,90.07936507936508,321.19047619047615,-325.0,-299.76190476190476,-240.7142857142857,256.4285714285714,-310.7142857142857,-325.0,-304.04761904761904,-296.90476190476187,6.904761904761904,14.206349206349206,-166.26984126984127
27,-311.3492063492063,-325.0,311.8253968253968,231.19047619047618,-293.73015873015873,-325.0,323.4126984126984,242.93650793650792,300.7142857142857,180.55555555555554,-173.25396825396825,90.07936507936508,321.19047619047615,-325.0,-299.76190476190476,-240.7142857142857,256.4285714285714,-310.7142857142857,-325.0,-304.04761904761904,-296.90476190476187,6.904761904761904,14.206349206349206,-166.26984126984127
28,-277.53968253968253,-325.0,278.6507936507936,206.58730158730157,-263.4126984126984,-325.0,291.66666666666663,218.17460317460316,269.6031746031746,-222.77777777777777,-161.8253968253968,-325.0,287.85714285714283,-325.0,-325.0,-215.0,228.8095238095238,-325.0,-325.0,-272.1428571428571,-264.36507936507934,3.4126984126984126,10.714285714285714,-166.26984126984127
29,-277.53968253968253,-325.0,278.6507936507936,206.58730158730157,-263.4126984126984,-325.0,291.66666666666663,218.17460317460316,269.6031746031746,-222.77777777777777,-161.8253968253968,-325.0,287.85714285714283,-325.0,-325.0,-215.0,228.8095238095238,-325.0,-325.0,-272.1428571428571,-264.36507936507934,3.4126984126984126,10.714285714285714,-166.26984126984127
30,-271.3492063492063,-325.0,272.6190476190476,201.98412698412696,-257.6984126984127,-325.0,285.3174603174603,213.7301587301587,263.88888888888886,-325.0,-158.96825396825395,-325.0,281.66666666666663,-325.0,-325.0,-210.2380952380952,223.7301587301587,-325.0,-325.0,-266.26984126984127,-258.4920634920635,-4.523809523809524,-3.888888888888889,-321.8253968253968
31,-271.3492063492063,-325.0,272.6190476190476,201.98412698412696,-257.6984126984127,-325.0,285.3174603174603,213.7301587301587,263.88888888888886,-325.0,-158.96825396825395,-325.0,281.66666666666663,-325.0,-325.0,-210.2380952380952,223.7301587301587,-325.0,-325.0,-266.26984126984127,-258.4920634920635,-4.523809523809524,-3.888888888888889,-321.8253968253968
32,106.42857142857142,-220.3968253968254,-282.6190476190476,-313.57142857142856,325.0,-226.26984126984127,-314.5238095238095,-312.3015873015873,-315.7936507936508,-263.25396825396825,214.84126984126982,-260.7142857142857,-313.57142857142856,-230.87301587301587,-228.8095238095238,325.0,-0.07936507936507936,-250.2380952380952,-8.333333333333332,-89.76190476190476,-83.4126984126984,-8.333333333333332,-22.936507936507937,-321.8253968253968
33,106.42857142857142,-220.3968253968254,-282.6190476190476,-313.57142857142856,325.0,-226.26984126984127,-314.5238095238095,-312.3015873015873,-315.7936507936508,-263.25396825396825,214.84126984126982,-260.7142857142857,-313.57142857142856,-230.87301587301587,-228.8095238095238,325.0,-0.07936507936507936,-250.2380952380952,-8.333333333333332,-89.76190476190476,-83.4126984126984,-8.333333333333332,-22.936507936507937,-321.8253968253968
34,325.0,-166.74603174603175,-240.2380952380952,-302.1428571428571,325.0,-171.5079365079365,-304.04761904761904,-299.4444444444444,-306.58730158730157,-201.5079365079365,205.79365079365078,-196.26984126984127,-301.984126984127,-168.17460317460316,-167.85714285714286,325.0,325.0,-190.87301587301587,200.55555555555554,-67.6984126984127,-61.666666666666664,-3.888888888888889,-19.285714285714285,-321.8253968253968
35,325.0,-166.74603174603175,-240.2380952380952,-302.1428571428571,325.0,-171.5079365079365,-304.04761904761904,-299.4444444444444,-306.58730158730157,-201.5079365079365,205.79365079365078,-196.26984126984127,-301.984126984127,-168.17460317460316,-167.85714285714286,325.0,325.0,-190.87301587301587,200.55555555555554,-67.6984126984127,-61.666666666666664,-3.888888888888889,-19.285714285714285,-321.8253968253968
36,325.0,-113.57142857142857,-154.2063492063492,-193.88888888888889,238.49206349206347,-100.87301587301587,-195.63492063492063,-196.58730158730157,-198.4920634920635,-129.12698412698413,186.9047619047619,-125.63492063492063,-193.88888888888889,-66.42857142857143,28.96825396825397,325.0,-325.0,-125.0,231.66666666666666,-43.57142857142857,-39.285714285714285,-13.412698412698411,-25.317460317460316,-321.8253968253968
37,325.0,-113.57142857142857,-154.2063492063492,-193.88888888888889,238.49206349206347,-100.87301587301587,-195.63492063492063,-196.58730158730157,-198.4920634920635,-129.12698412698413,186.9047619047619,-125.63492063492063,-193.88888888888889,-66.42857142857143,28.96825396825397,325.0,-325.0,-125.0,231.66666666666666,-43.57142857142857,-39.285714285714285,-13.412698412698411,-25.317460317460316,-321.8253968253968
38,325.0,-113.57142857142857,-154.2063492063492,-193.88888888888889,238.49206349206347,-100.87301587301587,-195.63492063492063,-196.58730158730157,-198.4920634920635,-129.12698412698413,186.9047619047619,-125.63492063492063,-193.88888888888889,-66.42857142857143,28.96825396825397,325.0,-325.0,-125.0,231.66666666666666,-43.57142857142857,-39.285714285714285,-13.412698412698411,-25.317460317460316,-321.8253968253968
39,325.0,-113.57142857142857,-154.2063492063492,-193.88888888888889,238.49206349206347,-100.87301587301587,-195.63492063492063,-196.58730158730157,-198.4920634920635,-129.12698412698413,186.9047619047619,-125.63492063492063,-193.88888888888889,-66.42857142857143,28.96825396825397,325.0,-325.0,-125.0,231.66666666666666,-43.57142857142857,-39.285714285714285,-13.412698412698411,-25.317460317460316,-321.8253968253968
40,325.0,-113.57142857142857,-154.2063492063492,-193.88888888888889,238.49206349206347,-100.87301587301587,-195.63492063492063,-196.58730158730157,-198.4920634920635,-129.12698412698413,186.9047619047619,-125.63492063492063,-193.88888888888889,-66.42857142857143,28.96825396825397,325.0,-325.0,-125.0,231.66666666666666,-43.57142857142857,-39.285714285714285,-13.412698412698411,-25.317460317460316,-166.26984126984127
41,325.0,-113.57142857142857,-154.2063492063492,-193.88888888888889,238.49206349206347,-100.87301587301587,-195.63492063492063,-196.58730158730157,-198.4920634920635,-129.12698412698413,186.9047619047619,-125.63492063492063,-193.88888888888889,-66.42857142857143,28.96825396825397,325.0,-325.0,-125.0,231.66666666666666,-43.57142857142857,-39.285714285714285,-13.412698412698411,-25.317460317460316,-166.26984126984127
42,325.0,-113.57142857142857,-154.2063492063492,-193.88888888888889,238.49206349206347,-100.87301587301587,-195.63492063492063,-196.58730158730157,-198.4920634920635,-129.12698412698413,186.9047619047619,-125.63492063492063,-193.88888888888889,-66.42857142857143,28.96825396825397,325.0,-325.0,-125.0,231.66666666666666,-43.57142857142857,-39.285714285714285,-13.412698412698411,-25.317460317460316,-166.26984126984127
43,325.0,-113.57142857142857,-154.2063492063492,-193.88888888888889,238.49206349206347,-100.87301587301587,-195.63492063492063,-196.58730158730157,-198.4920634920635,-129.12698412698413,186.9047619047619,-125.63492063492063,-193.88888888888889,-66.42857142857143,28.96825396825397,325.0,-325.0,-125.0,231.66666666666666,-43.57142857142857,-39.285714285714285,-13.412698412698411,-25.317460317460316,-166.26984126984127
44,325.0,41.98412698412698,-132.14285714285714,-166.26984126984127,205.63492063492063,79.28571428571428,-168.17460317460316,-170.23809523809524,-170.7142857142857,-110.39682539682539,80.07936507936508,-107.85714285714285,-166.58730158730157,94.84126984126983,100.39682539682539,325.0,-325.0,-108.33333333333333,325.0,-37.38095238095238,-33.57142857142857,7.063492063492063,21.825396825396822,-166.26984126984127
45,325.0,41.98412698412698,-132.14285714285714,-166.26984126984127,205.63492063492063,79.28571428571428,-168.17460317460316,-170.23809523809524,-170.7142857142857,-110.39682539682539,80.07936507936508,-107.85714285714285,-166.58730158730157,94.84126984126983,100.39682539682539,325.0,-325.0,-108.33333333333333,325.0,-37.38095238095238,-33.57142857142857,7.063492063492063,21.825396825396822,-166.26984126984127
46,325.0,41.98412698412698,-132.14285714285714,-166.26984126984127,205.63492063492063,79.28571428571428,-168.17460317460316,-170.23809523809524,-170.7142857142857,-110.39682539682539,80.07936507936508,-107.85714285714285,-166.58730158730157,94.84126984126983,100.39682539682539,325.0,-325.0,-108.33333333333333,325.0,-37.38095238095238,-33.57142857142857,7.063492063492063,21.825396825396822,-166.26984126984127
47,325.0,41.98412698412698,-132.14285714285714,-166.26984126984127,205.63492063492063,79.28571428571428,-168.17460317460316,-170.23809523809524,-170.7142857142857,-110.39682539682539,80.07936507936508,-107.85714285714285,-166.58730158730157,94.84126984126983,100.39682539682539,325.0,-325.0,-108.33333333333333,325.0,-37.38095238095238,-33.57142857142857,7.063492063492063,21.825396825396822,-166.26984126984127
48,325.0,41.98412698412698,-132.14285714285714,-166.26984126984127,205.63492063492063,79.28571428571428,-168.17460317460316,-170.23809523809524,-170.7142857142857,-110.39682539682539,80.07936507936508,-107.85714285714285,-166.58730158730157,94.84126984126983,100.39682539682539,325.0,-325.0,-108.33333333333333,325.0,-37.38095238095238,-33.57142857142857,7.063492063492063,21.825396825396822,-166.26984126984127
49,325.0,41.98412698412698,-132.14285714285714,-166.26984126984127,205.63492063492063,79.28571428571428,-168.17460317460316,-170.23809523809524,-170.7142857142857,-110.39682539682539,80.07936507936508,-107.85714285714285,-166.58730158730157,94.84126984126983,100.39682539682539,325.0,-325.0,-108.33333333333333,325.0,-37.38095238095238,-33.57142857142857,7.063492063492063,21.825396825396822,-166.26984126984127
50,316.74603174603175,35.63492063492063,-118.17460317460316,-148.65079365079364,184.2063492063492,79.76190476190476,-150.23809523809524,-152.77777777777777,-152.93650793650792,-99.76190476190476,55.95238095238095,-96.42857142857142,-148.8095238095238,51.507936507936506,115.47619047619047,303.73015873015873,-314.04761904761904,-98.33333333333333,242.3015873015873,143.73015873015873,118.8095238095238,8.333333333333332,22.46031746031746,-321.8253968253968
51,316.74603174603175,35.63492063492063,-118.17460317460316,-148.65079365079364,184.2063492063492,79.76190476190476,-150.23809523809524,-152.77777777777777,-152.93650793650792,-99.76190476190476,55.95238095238095,-96.42857142857142,-148.8095238095238,51.507936507936506,115.47619047619047,303.73015873015873,-314.04761904761904,-98.33333333333333,242.3015873015873,143.73015873015873,118.8095238095238,8.333333333333332,22.46031746031746,-321.8253968253968
52,300.55555555555554,151.8253968253968,-101.5079365079365,-127.38095238095238,158.96825396825395,173.73015873015873,-129.12698412698413,-132.14285714285714,-131.8253968253968,-63.25396825396825,71.98412698412697,-83.09523809523809,-127.53968253968253,155.0,122.93650793650794,302.46031746031747,-295.3174603174603,-46.269841269841265,250.87301587301585,325.0,325.0,-2.46031746031746,-2.142857142857143,-321.8253968253968
53,300.55555555555554,151.8253968253968,-101.5079365079365,-127.38095238095238,158.96825396825395,173.73015873015873,-129.12698412698413,-132.14285714285714,-131.8253968253968,-63.25396825396825,71.98412698412697,-83.09523809523809,-127.53968253968253,155.0,122.93650793650794,302.46031746031747,-295.3174603174603,-46.269841269841265,250.87301587301585,325.0,325.0,-2.46031746031746,-2.142857142857143,-321.8253968253968
54,179.76190476190476,183.57142857142856,7.5396825396825395,-77.06349206349206,67.6984126984127,190.23809523809524,-78.33333333333333,-81.19047619047619,-80.23809523809523,77.6984126984127,78.01587301587301,71.98412698412697,-77.22222222222221,171.8253968253968,124.2063492063492,249.60317460317458,-179.9206349206349,109.12698412698413,180.23809523809524,263.88888888888886,261.1904761904762,7.698412698412698,16.26984126984127,-321.8253968253968
55,179.76190476190476,183.57142857142856,7.5396825396825395,-77.06349206349206,67.6984126984127,190.23809523809524,-78.33333333333333,-81.19047619047619,-80.23809523809523,77.6984126984127,78.01587301587301,71.98412698412697,-77.22222222222221,171.8253968253968,124.2063492063492,249.60317460317458,-179.9206349206349,109.12698412698413,180.23809523809524,263.88888888888886,261.1904761904762,7.698412698412698,16.26984126984127,-321.8253968253968
56,61.19047619047619,213.09523809523807,136.9047619047619,-27.698412698412696,-144.68253968253967,268.3333333333333,-28.65079365079365,-30.87301587301587,-29.285714285714285,284.8412698412698,16.26984126984127,262.46031746031747,-27.698412698412696,235.79365079365078,144.36507936507937,-16.11111111111111,-66.58730158730158,318.4920634920635,142.77777777777777,201.19047619047618,195.79365079365078,11.349206349206348,24.047619047619047,-321.8253968253968
57,61.19047619047619,213.09523809523807,136.9047619047619,-27.698412698412696,-144.68253968253967,268.3333333333333,-28.65079365079365,-30.87301587301587,-29.285714285714285,284.8412698412698,16.26984126984127,262.46031746031747,-27.698412698412696,235.79365079365078,144.36507936507937,-16.11111111111111,-66.58730158730158,318.4920634920635,142.77777777777777,201.19047619047618,195.79365079365078,11.349206349206348,24.047619047619047,-321.8253968253968
58,60.238095238095234,228.015873015873,132.46031746031744,-27.38095238095238,-84.52380952380952,238.65079365079364,-28.333333333333332,-30.555555555555554,-28.96825396825397,258.015873015873,76.1111111111111,256.4285714285714,-27.38095238095238,193.25396825396825,134.36507936507937,100.71428571428571,-65.95238095238095,294.8412698412698,138.33333333333331,198.65079365079364,193.25396825396825,8.333333333333332,16.904761904761905,-321.8253968253968
59,60.238095238095234,228.015873015873,132.46031746031744,-27.38095238095238,-84.52380952380952,238.65079365079364,-28.333333333333332,-30.555555555555554,-28.96825396825397,258.015873015873,76.1111111111111,256.4285714285714,-27.38095238095238,193.25396825396825,134.36507936507937,100.71428571428571,-65.95238095238095,294.8412698412698,138.33333333333331,198.65079365079364,193.25396825396825,8.333333333333332,16.904761904761905,-321.8253968253968
60,58.650793650793645,196.26984126984127,150.3968253968254,-26.587301587301585,-155.47619047619048,277.22222222222223,-27.539682539682538,-29.76190476190476,-28.015873015873016,288.4920634920635,-1.0317460317460316,257.38095238095235,-26.746031746031743,200.3968253968254,152.93650793650792,-43.25396825396825,-64.04761904761905,318.968253968254,153.25396825396825,193.7301587301587,188.17460317460316,3.4126984126984126,6.111111111111111,-166.26984126984127
61,58.650793650793645,196.26984126984127,150.3968253968254,-26.587301587301585,-155.47619047619048,277.22222222222223,-27.539682539682538,-29.76190476190476,-28.015873015873016,288.4920634920635,-1.0317460317460316,257.38095238095235,-26.746031746031743,200.3968253968254,152.93650793650792,-43.25396825396825,-64.04761904761905,318.968253968254,153.25396825396825,193.7301587301587,188.17460317460316,3.4126984126984126,6.111111111111111,-166.26984126984127
62,56.74603174603174,292.9365079365079,146.11111111111111,-25.952380952380953,-38.33333333333333,282.9365079365079,-26.746031746031743,-0.3968253968253968,-27.539682539682538,289.1269841269841,112.30158730158729,301.3492063492063,-25.952380952380953,234.2063492063492,125.79365079365078,224.52380952380952,-62.14285714285714,309.4444444444444,211.03174603174602,188.015873015873,182.61904761904762,-12.619047619047619,-25.158730158730158,-166.26984126984127
63,56.74603174603174,292.9365079365079,146.11111111111111,-25.952380952380953,-38.33333333333333,282.9365079365079,-26.746031746031743,-0.3968253968253968,-27.539682539682538,289.1269841269841,112.30158730158729,301.3492063492063,-25.952380952380953,234.2063492063492,125.79365079365078,224.52380952380952,-62.14285714285714,309.4444444444444,211.03174603174602,188.015873015873,182.61904761904762,-12.619047619047619,-25.158730158730158,-166.26984126984127
64,37.38095238095238,75.79365079365078,-14.682539682539682,-14.682539682539682,-80.39682539682539,226.9047619047619,-15.634920634920634,-1.1904761904761905,-14.682539682539682,258.015873015873,-101.82539682539682,238.015873015873,147.69841269841268,208.4920634920635,-12.142857142857142,97.6984126984127,102.93650793650794,270.87301587301585,159.28571428571428,180.23809523809524,22.3015873015873,0.07936507936507936,171.984126984127,-166.26984126984127
65,37.38095238095238,75.79365079365078,-14.682539682539682,-14.682539682539682,-80.39682539682539,226.9047619047619,-15.634920634920634,-1.1904761904761905,-14.682539682539682,258.015873015873,-101.82539682539682,238.015873015873,147.69841269841268,208.4920634920635,-12.142857142857142,97.6984126984127,102.93650793650794,270.87301587301585,159.28571428571428,180.23809523809524,22.3015873015873,0.07936507936507936,171.984126984127,-166.26984126984127
66,53.095238095238095,114.04761904761904,158.17460317460316,-24.365079365079364,-132.14285714285714,149.28571428571428,-25.158730158730158,-31.03174603174603,-22.777777777777775,191.03174603174602,4.682539682539682,171.34920634920633,-24.206349206349206,108.01587301587301,146.58730158730157,-29.285714285714285,-58.01587301587301,216.74603174603175,35.79365079365079,175.63492063492063,170.07936507936506,11.507936507936508,24.206349206349206,-166.26984126984127
67,53.095238095238095,114.04761904761904,158.17460317460316,-24.365079365079364,-132.14285714285714,149.28571428571428,-25.158730158730158,-31.03174603174603,-22.777777777777775,191.03174603174602,4.682539682539682,171.34920634920633,-24.206349206349206,108.01587301587301,146.58730158730157,-29.285714285714285,-58.01587301587301,216.74603174603175,35.79365079365079,175.63492063492063,170.07936507936506,11.507936507936508,24.206349206349206,-166.26984126984127
68,8.333333333333332,243.7301587301587,58.96825396825397,229.28571428571428,-69.28571428571428,102.93650793650794,105.15873015873015,220.7142857142857,71.66666666666666,120.71428571428571,-48.650793650793645,251.5079365079365,46.11111111111111,122.14285714285714,10.079365079365079,166.9047619047619,325.0,93.25396825396825,70.55555555555556,27.38095238095238,25.317460317460316,-13.253968253968253,-24.68253968253968,-166.26984126984127
69,8.333333333333332,243.7301587301587,58.96825396825397,229.28571428571428,-69.28571428571428,102.93650793650794,105.15873015873015,220.7142857142857,71.66666666666666,120.71428571428571,-48.650793650793645,251.5079365079365,46.11111111111111,122.14285714285714,10.079365079365079,166.9047619047619,325.0,93.25396825396825,70.55555555555556,27.38095238095238,25.317460317460316,-13.253968253968253,-24.68253968253968,-166.26984126984127
70,8.333333333333332,243.7301587301587,58.96825396825397,229.28571428571428,-69.28571428571428,102.93650793650794,105.15873015873015,220.7142857142857,71.66666666666666,120.71428571428571,-48.650793650793645,251.5079365079365,46.11111111111111,122.14285714285714,10.079365079365079,166.9047619047619,325.0,93.25396825396825,70.55555555555556,27.38095238095238,25.317460317460316,-13.253968253968253,-24.68253968253968,-321.8253968253968
71,8.333333333333332,243.7301587301587,58.96825396825397,229.28571428571428,-69.28571428571428,102.93650793650794,105.15873015873015,220.7142857142857,71.66666666666666,120.71428571428571,-48.650793650793645,251.5079365079365,46.11111111111111,122.14285714285714,10.079365079365079,166.9047619047619,325.0,93.25396825396825,70.55555555555556,27.38095238095238,25.317460317460316,-13.253968253968253,-24.68253968253968,-321.8253968253968
72,8.174603174603174,63.57142857142857,48.33333333333333,113.4126984126984,-82.77777777777777,-22.619047619047617,100.87301587301587,104.84126984126983,97.38095238095238,13.412698412698411,-60.39682539682539,123.09523809523809,95.47619047619047,20.238095238095237,7.5396825396825395,159.76190476190476,325.0,-14.206349206349206,-57.53968253968254,26.9047619047619,24.365079365079364,-12.46031746031746,-23.88888888888889,-321.8253968253968
73,8.174603174603174,63.57142857142857,48.33333333333333,113.4126984126984,-82.77777777777777,-22.619047619047617,100.87301587301587,104.84126984126983,97.38095238095238,13.412698412698411,-60.39682539682539,123.09523809523809,95.47619047619047,20.238095238095237,7.5396825396825395,159.76190476190476,325.0,-14.206349206349206,-57.53968253968254,26.9047619047619,24.365079365079364,-12.46031746031746,-23.88888888888889,-321.8253968253968
74,8.174603174603174,63.57142857142857,48.33333333333333,113.4126984126984,-82.77777777777777,-22.619047619047617,100.87301587301587,104.84126984126983,97.38095238095238,13.412698412698411,-60.39682539682539,123.09523809523809,95.47619047619047,20.238095238095237,7.5396825396825395,159.76190476190476,325.0,-14.206349206349206,-57.53968253968254,26.9047619047619,24.365079365079364,-12.46031746031746,-23.88888888888889,-321.8253968253968
75,8.174603174603174,63.57142857142857,48.33333333333333,113.4126984126984,-82.77777777777777,-22.619047619047617,100.87301587301587,104.84126984126983,97.38095238095238,13.412698412698411,-60.39682539682539,123.09523809523809,95.47619047619047,20.238095238095237,7.5396825396825395,159.76190476190476,325.0,-14.206349206349206,-57.53968253968254,26.9047619047619,24.365079365079364,-12.46031746031746,-23.88888888888889,-321.8253968253968
76,7.857142857142857,102.61904761904762,59.92063492063492,167.06349206349205,-52.460317460317455,31.507936507936506,99.6031746031746,164.36507936507937,109.28571428571428,79.6031746031746,-42.93650793650794,175.79365079365078,64.52380952380952,68.65079365079364,6.26984126984127,177.2222222222222,325.0,52.93650793650794,21.666666666666664,25.79365079365079,23.57142857142857,-2.46031746031746,-6.111111111111111,-321.8253968253968
77,7.857142857142857,102.61904761904762,59.92063492063492,167.06349206349205,-52.460317460317455,31.507936507936506,99.6031746031746,164.36507936507937,109.28571428571428,79.6031746031746,-42.93650793650794,175.79365079365078,64.52380952380952,68.65079365079364,6.26984126984127,177.2222222222222,325.0,52.93650793650794,21.666666666666664,25.79365079365079,23.57142857142857,-2.46031746031746,-6.111111111111111,-321.8253968253968
78,7.857142857142857,106.26984126984127,57.857142857142854,163.4126984126984,-40.87301587301587,28.65079365079365,96.74603174603175,158.65079365079364,105.0,80.55555555555556,-34.52380952380952,177.06349206349205,55.15873015873016,59.44444444444444,7.222222222222221,187.06349206349205,325.0,51.98412698412698,24.523809523809522,25.79365079365079,23.41269841269841,6.904761904761904,11.825396825396824,-321.8253968253968
79,7.857142857142857,106.26984126984127,57.857142857142854,163.4126984126984,-40.87301587301587,28.65079365079365,96.74603174603175,158.65079365079364,105.0,80.55555555555556,-34.52380952380952,177.06349206349205,55.15873015873016,59.44444444444444,7.222222222222221,187.06349206349205,325.0,51.98412698412698,24.523809523809522,25.79365079365079,23.41269841269841,6.904761904761904,11.825396825396824,-321.8253968253968
80,7.5396825396825395,138.8095238095238,43.57142857142857,215.79365079365078,-48.01587301587301,85.47619047619047,106.26984126984127,207.38095238095238,100.39682539682539,123.09523809523809,-48.49206349206349,210.2380952380952,84.52380952380952,119.44444444444444,9.603174603174603,185.63492063492063,325.0,99.76190476190476,71.66666666666666,25.0,22.619047619047617,-2.619047619047619,-6.587301587301587,-166.26984126984127
81,7.5396825396825395,138.8095238095238,43.57142857142857,215.79365079365078,-48.01587301587301,85.47619047619047,106.26984126984127,207.38095238095238,100.39682539682539,123.09523809523809,-48.49206349206349,210.2380952380952,84.52380952380952,119.44444444444444,9.603174603174603,185.63492063492063,325.0,99.76190476190476,71.66666666666666,25.0,22.619047619047617,-2.619047619047619,-6.587301587301587,-166.26984126984127
82,7.3809523809523805,61.666666666666664,55.79365079365079,262.1428571428571,-162.77777777777777,131.8253968253968,151.34920634920633,255.0,138.96825396825395,167.38095238095238,-166.26984126984127,199.76190476190476,136.74603174603175,154.84126984126982,43.25396825396825,-155.3174603174603,325.0,148.65079365079364,71.19047619047619,24.523809523809522,22.619047619047617,9.920634920634921,21.666666666666664,-166.26984126984127
83,7.3809523809523805,61.666666666666664,55.79365079365079,262.1428571428571,-162.77777777777777,131.8253968253968,151.34920634920633,255.0,138.96825396825395,167.38095238095238,-166.26984126984127,199.76190476190476,136.74603174603175,154.84126984126982,43.25396825396825,-155.3174603174603,325.0,148.65079365079364,71.19047619047619,24.523809523809522,22.619047619047617,9.920634920634921,21.666666666666664,-166.26984126984127
84,4.365079365079365,8.015873015873016,45.79365079365079,171.66666666666666,-113.25396825396825,51.82539682539682,129.76190476190476,178.8095238095238,127.85714285714285,86.58730158730158,-106.58730158730158,131.19047619047618,107.85714285714285,64.84126984126983,27.698412698412696,6.26984126984127,325.0,68.65079365079364,1.984126984126984,23.88888888888889,21.666666666666664,-1.349206349206349,-1.1904761904761905,-166.26984126984127
85,4.365079365079365,8.015873015873016,45.79365079365079,171.66666666666666,-113.25396825396825,51.82539682539682,129.76190476190476,178.8095238095238,127.85714285714285,86.58730158730158,-106.58730158730158,131.19047619047618,107.85714285714285,64.84126984126983,27.698412698412696,6.26984126984127,325.0,68.65079365079364,1.984126984126984,23.88888888888889,21.666666666666664,-1.349206349206349,-1.1904761904761905,-166.26984126984127
86,1.507936507936508,-45.63492063492063,35.95238095238095,81.19047619047619,-63.73015873015873,-28.174603174603174,108.33333333333333,102.77777777777777,116.9047619047619,5.7936507936507935,-46.74603174603175,62.77777777777777,79.12698412698413,-25.0,12.142857142857142,167.85714285714286,325.0,-11.349206349206348,-67.22222222222221,23.41269841269841,20.71428571428571,-12.46031746031746,-24.047619047619047,-166.26984126984127
87,1.507936507936508,-45.63492063492063,35.95238095238095,81.19047619047619,-63.73015873015873,-28.174603174603174,108.33333333333333,102.77777777777777,116.9047619047619,5.7936507936507935,-46.74603174603175,62.77777777777777,79.12698412698413,-25.0,12.142857142857142,167.85714285714286,325.0,-11.349206349206348,-67.22222222222221,23.41269841269841,20.71428571428571,-12.46031746031746,-24.047619047619047,-166.26984126984127
88,1.507936507936508,-45.63492063492063,35.95238095238095,81.19047619047619,-63.73015873015873,-28.174603174603174,108.33333333333333,102.77777777777777,116.9047619047619,5.7936507936507935,-46.74603174603175,62.77777777777777,79.12698412698413,-25.0,12.142857142857142,167.85714285714286,325.0,-11.349206349206348,-67.22222222222221,23.41269841269841,20.71428571428571,-12.46031746031746,-24.047619047619047,-166.26984126984127
89,1.507936507936508,-45.63492063492063,35.95238095238095,81.19047619047619,-63.73015873015873,-28.174603174603174,108.33333333333333,102.77777777777777,116.9047619047619,5.7936507936507935,-46.74603174603175,62.77777777777777,79.12698412698413,-25.0,12.142857142857142,167.85714285714286,325.0,-11.349206349206348,-67.22222222222221,23.41269841269841,20.71428571428571,-12.46031746031746,-24.047619047619047,-166.26984126984127
90,-74.04761904761904,-47.857142857142854,45.15873015873016,129.12698412698413,-147.53968253968253,43.25396825396825,99.92063492063491,128.65079365079364,84.36507936507937,43.888888888888886,-78.96825396825396,14.365079365079364,112.93650793650794,17.063492063492063,2.46031746031746,-130.87301587301587,225.15873015873015,11.19047619047619,-15.634920634920634,-143.4126984126984,-172.93650793650792,-6.111111111111111,-14.047619047619047,-321.8253968253968
91,-74.04761904761904,-47.857142857142854,45.15873015873016,129.12698412698413,-147.53968253968253,43.25396825396825,99.92063492063491,128.65079365079364,84.36507936507937,43.888888888888886,-78.96825396825396,14.365079365079364,112.93650793650794,17.063492063492063,2.46031746031746,-130.87301587301587,225.15873015873015,11.19047619047619,-15.634920634920634,-143.4126984126984,-172.93650793650792,-6.111111111111111,-14.047619047619047,-321.8253968253968
92,-66.58730158730158,-180.87301587301587,34.36507936507936,-72.61904761904762,-68.01587301587301,-175.47619047619045,68.01587301587301,-81.5079365079365,31.666666666666664,-166.74603174603175,-21.03174603174603,-143.4126984126984,86.9047619047619,-182.61904761904762,-6.428571428571428,-17.698412698412696,134.68253968253967,-196.42857142857142,-178.65079365079364,-106.42857142857142,-208.015873015873,-8.015873015873016,-18.174603174603174,-321.8253968253968
93,-66.58730158730158,-180.87301587301587,34.36507936507936,-72.61904761904762,-68.01587301587301,-175.47619047619045,68.01587301587301,-81.5079365079365,31.666666666666664,-166.74603174603175,-21.03174603174603,-143.4126984126984,86.9047619047619,-182.61904761904762,-6.428571428571428,-17.698412698412696,134.68253968253967,-196.42857142857142,-178.65079365079364,-106.42857142857142,-208.015873015873,-8.015873015873016,-18.174603174603174,-321.8253968253968
94,-49.12698412698413,-91.03174603174602,19.6031746031746,-78.4920634920635,-6.746031746031746,-186.26984126984127,43.73015873015873,-95.15873015873015,-1.6666666666666665,-168.65079365079364,16.11111111111111,-98.17460317460316,58.49206349206349,-153.09523809523807,-21.984126984126984,171.984126984127,122.30158730158729,-198.015873015873,-160.23809523809524,-31.349206349206348,-90.87301587301587,-11.349206349206348,-22.142857142857142,-321.8253968253968
95,-49.12698412698413,-91.03174603174602,19.6031746031746,-78.4920634920635,-6.746031746031746,-186.26984126984127,43.73015873015873,-95.15873015873015,-1.6666666666666665,-168.65079365079364,16.11111111111111,-98.17460317460316,58.49206349206349,-153.09523809523807,-21.984126984126984,171.984126984127,122.30158730158729,-198.015873015873,-160.23809523809524,-31.349206349206348,-90.87301587301587,-11.349206349206348,-22.142857142857142,-321.8253968253968
96,-49.12698412698413,-91.03174603174602,19.6031746031746,-78.4920634920635,-6.746031746031746,-186.26984126984127,43.73015873015873,-95.15873015873015,-1.6666666666666665,-168.65079365079364,16.11111111111111,-98.17460317460316,58.49206349206349,-153.09523809523807,-21.984126984126984,171.984126984127,122.30158730158729,-198.015873015873,-160.23809523809524,-31.349206349206348,-90.87301587301587,-11.349206349206348,-22.142857142857142,-321.8253968253968
97,-49.12698412698413,-91.03174603174602,19.6031746031746,-78.4920634920635,-6.746031746031746,-186.26984126984127,43.73015873015873,-95.15873015873015,-1.6666666666666665,-168.65079365079364,16.11111111111111,-98.17460317460316,58.49206349206349,-153.09523809523807,-21.984126984126984,171.984126984127,122.30158730158729,-198.015873015873,-160.23809523809524,-31.349206349206348,-90.87301587301587,-11.349206349206348,-22.142857142857142,-321.8253968253968
98,-57.22222222222222,-1.349206349206349,18.333333333333332,78.33333333333333,-64.36507936507937,-26.587301587301585,65.15873015873015,63.73015873015873,18.96825396825397,-6.587301587301587,-47.06349206349206,28.65079365079365,60.71428571428571,-7.063492063492063,-10.555555555555555,-76.58730158730158,119.12698412698413,-30.87301587301587,-21.19047619047619,-102.61904761904762,-97.6984126984127,-1.0317460317460316,-0.07936507936507936,-321.8253968253968
99,-57.22222222222222,-1.349206349206349,18.333333333333332,78.33333333333333,-64.36507936507937,-26.587301587301585,65.15873015873015,63.73015873015873,18.96825396825397,-6.587301587301587,-47.06349206349206,28.65079365079365,60.71428571428571,-7.063492063492063,-10.555555555555555,-76.58730158730158,119.12698412698413,-30.87301587301587,-21.19047619047619,-102.61904761904762,-97.6984126984127,-1.0317460317460316,-0.07936507936507936,-321.8253968253968
100,-62.61904761904761,79.12698412698413,15.0,189.12698412698413,-49.12698412698413,102.93650793650794,75.31746031746032,192.77777777777777,47.38095238095238,122.30158730158729,-31.825396825396822,139.12698412698413,60.39682539682539,116.74603174603173,-1.984126984126984,-62.77777777777777,109.28571428571428,112.77777777777777,106.9047619047619,-134.68253968253967,-64.2063492063492,-1.8253968253968254,-0.23809523809523808,-166.26984126984127
101,-62.61904761904761,79.12698412698413,15.0,189.12698412698413,-49.12698412698413,102.93650793650794,75.31746031746032,192.77777777777777,47.38095238095238,122.30158730158729,-31.825396825396822,139.12698412698413,60.39682539682539,116.74603174603173,-1.984126984126984,-62.77777777777777,109.28571428571428,112.77777777777777,106.9047619047619,-134.68253968253967,-64.2063492063492,-1.8253968253968254,-0.23809523809523808,-166.26984126984127
102,-60.079365079365076,69.76190476190476,13.095238095238095,143.09523809523807,23.730158730158728,72.93650793650794,63.888888888888886,163.09523809523807,55.15873015873016,89.12698412698413,46.74603174603175,122.93650793650794,57.857142857142854,94.52380952380952,-4.682539682539682,199.60317460317458,102.61904761904762,89.44444444444444,95.79365079365078,-95.31746031746032,-24.047619047619047,-13.095238095238095,-22.46031746031746,-166.26984126984127
103,-60.079365079365076,69.76190476190476,13.095238095238095,143.09523809523807,23.730158730158728,72.93650793650794,63.888888888888886,163.09523809523807,55.15873015873016,89.12698412698413,46.74603174603175,122.93650793650794,57.857142857142854,94.52380952380952,-4.682539682539682,199.60317460317458,102.61904761904762,89.44444444444444,95.79365079365078,-95.31746031746032,-24.047619047619047,-13.095238095238095,-22.46031746031746,-166.26984126984127
104,-78.96825396825396,181.19047619047618,28.809523809523807,286.26984126984127,-25.0,236.74603174603175,95.0,295.6349206349206,115.31746031746032,248.65079365079364,-1.1904761904761905,250.3968253968254,71.19047619047619,217.69841269841268,18.49206349206349,75.95238095238095,99.6031746031746,244.2063492063492,221.98412698412696,-229.28571428571428,-123.88888888888889,-9.761904761904761,-18.65079365079365,-166.26984126984127
105,-78.96825396825396,181.19047619047618,28.809523809523807,286.26984126984127,-25.0,236.74603174603175,95.0,295.6349206349206,115.31746031746032,248.65079365079364,-1.1904761904761905,250.3968253968254,71.19047619047619,217.69841269841268,18.49206349206349,75.95238095238095,99.6031746031746,244.2063492063492,221.98412698412696,-229.28571428571428,-123.88888888888889,-9.761904761904761,-18.65079365079365,-166.26984126984127
106,-61.82539682539682,160.3968253968254,14.84126984126984,208.015873015873,39.44444444444444,140.3968253968254,66.74603174603175,217.53968253968253,83.73015873015872,152.93650793650792,55.476190476190474,183.09523809523807,45.0,123.09523809523809,1.6666666666666665,154.68253968253967,98.17460317460316,149.44444444444443,155.3174603174603,66.26984126984127,142.14285714285714,6.904761904761904,13.095238095238095,-166.26984126984127
107,-61.82539682539682,160.3968253968254,14.84126984126984,208.015873015873,39.44444444444444,140.3968253968254,66.74603174603175,217.53968253968253,83.73015873015872,152.93650793650792,55.476190476190474,183.09523809523807,45.0,123.09523809523809,1.6666666666666665,154.68253968253967,98.17460317460316,149.44444444444443,155.3174603174603,66.26984126984127,142.14285714285714,6.904761904761904,13.095238095238095,-166.26984126984127
108,-58.8095238095238,96.1111111111111,27.698412698412696,172.14285714285714,30.87301587301587,112.14285714285714,61.03174603174603,187.2222222222222,79.92063492063491,111.19047619047619,58.8095238095238,143.09523809523807,27.857142857142854,105.0,2.142857142857143,212.77777777777777,95.47619047619047,103.4126984126984,109.92063492063491,-111.66666666666666,-12.46031746031746,-11.984126984126984,-24.206349206349206,-166.26984126984127
109,-58.8095238095238,96.1111111111111,27.698412698412696,172.14285714285714,30.87301587301587,112.14285714285714,61.03174603174603,187.2222222222222,79.92063492063491,111.19047619047619,58.8095238095238,143.09523809523807,27.857142857142854,105.0,2.142857142857143,212.77777777777777,95.47619047619047,103.4126984126984,109.92063492063491,-111.66666666666666,-12.46031746031746,-11.984126984126984,-24.206349206349206,-166.26984126984127
110,8.015873015873016,-134.36507936507937,152.93650793650792,184.68253968253967,90.07936507936508,-69.44444444444444,-107.85714285714285,200.55555555555554,143.57142857142856,40.714285714285715,-14.84126984126984,-45.63492063492063,67.38095238095238,171.5079365079365,-141.66666666666666,-155.63492063492063,-72.46031746031746,4.841269841269841,-63.73015873015873,-159.9206349206349,-81.98412698412697,-125.95238095238095,85.0,-321.8253968253968
111,8.015873015873016,-134.36507936507937,152.93650793650792,184.68253968253967,90.07936507936508,-69.44444444444444,-107.85714285714285,200.55555555555554,143.57142857142856,40.714285714285715,-14.84126984126984,-45.63492063492063,67.38095238095238,171.5079365079365,-141.66666666666666,-155.63492063492063,-72.46031746031746,4.841269841269841,-63.73015873015873,-159.9206349206349,-81.98412698412697,-125.95238095238095,85.0,-321.8253968253968
112,103.4126984126984,-287.53968253968253,265.6349206349206,174.36507936507937,288.8095238095238,-263.4126984126984,-300.7142857142857,207.69841269841268,187.06349206349205,-32.93650793650794,44.68253968253968,-186.42857142857142,19.92063492063492,248.49206349206347,-298.17460317460313,-192.14285714285714,-237.85714285714283,-99.92063492063491,-204.52380952380952,5.158730158730158,161.19047619047618,-246.42857142857142,184.2063492063492,-321.8253968253968
113,103.4126984126984,-287.53968253968253,265.6349206349206,174.36507936507937,288.8095238095238,-263.4126984126984,-300.7142857142857,207.69841269841268,187.06349206349205,-32.93650793650794,44.68253968253968,-186.42857142857142,19.92063492063492,248.49206349206347,-298.17460317460313,-192.14285714285714,-237.85714285714283,-99.92063492063491,-204.52380952380952,5.158730158730158,161.19047619047618,-246.42857142857142,184.2063492063492,-321.8253968253968
114,26.428571428571427,-150.55555555555554,143.88888888888889,107.38095238095238,148.015873015873,-144.36507936507937,-137.53968253968253,122.93650793650794,115.95238095238095,-25.317460317460316,47.22222222222222,-83.73015873015872,9.285714285714285,106.74603174603175,-163.73015873015873,-42.77777777777778,-74.68253968253968,-64.36507936507937,-103.88888888888889,51.19047619047619,145.95238095238093,-119.92063492063491,98.33333333333333,-321.8253968253968
115,26.428571428571427,-150.55555555555554,143.88888888888889,107.38095238095238,148.015873015873,-144.36507936507937,-137.53968253968253,122.93650793650794,115.95238095238095,-25.317460317460316,47.22222222222222,-83.73015873015872,9.285714285714285,106.74603174603175,-163.73015873015873,-42.77777777777778,-74.68253968253968,-64.36507936507937,-103.88888888888889,51.19047619047619,145.95238095238093,-119.92063492063491,98.33333333333333,-321.8253968253968
116,-50.55555555555555,-13.412698412698411,22.3015873015873,40.39682539682539,7.222222222222221,-25.317460317460316,25.634920634920633,38.33333333333333,44.84126984126984,-17.698412698412696,49.92063492063492,19.126984126984127,-1.349206349206349,-35.0,-29.126984126984127,106.74603174603175,88.4920634920635,-28.809523809523807,-3.253968253968254,97.22222222222221,130.87301587301587,6.587301587301587,12.619047619047619,-321.8253968253968
117,-50.55555555555555,-13.412698412698411,22.3015873015873,40.39682539682539,7.222222222222221,-25.317460317460316,25.634920634920633,38.33333333333333,44.84126984126984,-17.698412698412696,49.92063492063492,19.126984126984127,-1.349206349206349,-35.0,-29.126984126984127,106.74603174603175,88.4920634920635,-28.809523809523807,-3.253968253968254,97.22222222222221,130.87301587301587,6.587301587301587,12.619047619047619,-321.8253968253968
118,-62.3015873015873,39.44444444444444,-4.2063492063492065,79.76190476190476,9.444444444444445,22.936507936507937,38.49206349206349,98.65079365079364,48.49206349206349,41.82539682539682,43.57142857142857,52.77777777777777,58.650793650793645,32.77777777777778,-24.523809523809522,179.9206349206349,85.63492063492063,30.396825396825395,38.17460317460317,-7.063492063492063,60.39682539682539,-2.7777777777777777,-5.317460317460317,-321.8253968253968
119,-62.3015873015873,39.44444444444444,-4.2063492063492065,79.76190476190476,9.444444444444445,22.936507936507937,38.49206349206349,98.65079365079364,48.49206349206349,41.82539682539682,43.57142857142857,52.77777777777777,58.650793650793645,32.77777777777778,-24.523809523809522,179.9206349206349,85.63492063492063,30.396825396825395,38.17460317460317,-7.063492063492063,60.39682539682539,-2.7777777777777777,-5.317460317460317,-321.8253968253968
120,-57.22222222222222,35.317460317460316,-6.111111111111111,68.65079365079364,13.253968253968253,10.238095238095237,37.698412698412696,85.63492063492063,45.63492063492063,31.507936507936506,44.68253968253968,44.84126984126984,59.92063492063492,19.6031746031746,-27.22222222222222,141.984126984127,85.15873015873015,20.238095238095237,30.71428571428571,90.87301587301587,140.23809523809524,6.26984126984127,13.253968253968253,-166.26984126984127
121,-57.22222222222222,35.317460317460316,-6.111111111111111,68.65079365079364,13.253968253968253,10.238095238095237,37.698412698412696,85.63492063492063,45.63492063492063,31.507936507936506,44.68253968253968,44.84126984126984,59.92063492063492,19.6031746031746,-27.22222222222222,141.984126984127,85.15873015873015,20.238095238095237,30.71428571428571,90.87301587301587,140.23809523809524,6.26984126984127,13.253968253968253,-166.26984126984127
122,-57.22222222222222,35.317460317460316,-6.111111111111111,68.65079365079364,13.253968253968253,10.238095238095237,37.698412698412696,85.63492063492063,45.63492063492063,31.507936507936506,44.68253968253968,44.84126984126984,59.92063492063492,19.6031746031746,-27.22222222222222,141.984126984127,85.15873015873015,20.238095238095237,30.71428571428571,90.87301587301587,140.23809523809524,6.26984126984127,13.253968253968253,-166.26984126984127
123,-57.22222222222222,35.317460317460316,-6.111111111111111,68.65079365079364,13.253968253968253,10.238095238095237,37.698412698412696,85.63492063492063,45.63492063492063,31.507936507936506,44.68253968253968,44.84126984126984,59.92063492063492,19.6031746031746,-27.22222222222222,141.984126984127,85.15873015873015,20.238095238095237,30.71428571428571,90.87301587301587,140.23809523809524,6.26984126984127,13.253968253968253,-166.26984126984127
124,-57.22222222222222,35.317460317460316,-6.111111111111111,68.65079365079364,13.253968253968253,10.238095238095237,37.698412698412696,85.63492063492063,45.63492063492063,31.507936507936506,44.68253968253968,44.84126984126984,59.92063492063492,19.6031746031746,-27.22222222222222,141.984126984127,85.15873015873015,20.238095238095237,30.71428571428571,90.87301587301587,140.23809523809524,6.26984126984127,13.253968253968253,-166.26984126984127
125,-57.22222222222222,35.317460317460316,-6.111111111111111,68.65079365079364,13.253968253968253,10.238095238095237,37.698412698412696,85.63492063492063,45.63492063492063,31.507936507936506,44.68253968253968,44.84126984126984,59.92063492063492,19.6031746031746,-27.22222222222222,141.984126984127,85.15873015873015,20.238095238095237,30.71428571428571,90.87301587301587,140.23809523809524,6.26984126984127,13.253968253968253,-166.26984126984127
126,-57.22222222222222,35.317460317460316,-6.111111111111111,68.65079365079364,13.253968253968253,10.238095238095237,37.698412698412696,85.63492063492063,45.63492063492063,31.507936507936506,44.68253968253968,44.84126984126984,59.92063492063492,19.6031746031746,-27.22222222222222,141.984126984127,85.15873015873015,20.238095238095237,30.71428571428571,90.87301587301587,140.23809523809524,6.26984126984127,13.253968253968253,-166.26984126984127
127,-57.22222222222222,35.317460317460316,-6.111111111111111,68.65079365079364,13.253968253968253,10.238095238095237,37.698412698412696,85.63492063492063,45.63492063492063,31.507936507936506,44.68253968253968,44.84126984126984,59.92063492063492,19.6031746031746,-27.22222222222222,141.984126984127,85.15873015873015,20.238095238095237,30.71428571428571,90.87301587301587,140.23809523809524,6.26984126984127,13.253968253968253,-166.26984126984127
128,-57.22222222222222,35.317460317460316,-6.111111111111111,68.65079365079364,13.253968253968253,10.238095238095237,37.698412698412696,85.63492063492063,45.63492063492063,31.507936507936506,44.68253968253968,44.84126984126984,59.92063492063492,19.6031746031746,-27.22222222222222,141.984126984127,85.15873015873015,20.238095238095237,30.71428571428571,90.87301587301587,140.23809523809524,6.26984126984127,13.253968253968253,-166.26984126984127
129,-57.22222222222222,35.317460317460316,-6.111111111111111,68.65079365079364,13.253968253968253,10.238095238095237,37.698412698412696,85.63492063492063,45.63492063492063,31.507936507936506,44.68253968253968,44.84126984126984,59.92063492063492,19.6031746031746,-27.22222222222222,141.984126984127,85.15873015873015,20.238095238095237,30.71428571428571,90.87301587301587,140.23809523809524,6.26984126984127,13.253968253968253,-166.26984126984127
130,-57.22222222222222,35.317460317460316,-6.111111111111111,68.65079365079364,13.253968253968253,10.238095238095237,37.698412698412696,85.63492063492063,45.63492063492063,31.507936507936506,44.68253968253968,44.84126984126984,59.92063492063492,19.6031746031746,-27.22222222222222,141.984126984127,85.15873015873015,20.238095238095237,30.71428571428571,90.87301587301587,140.23809523809524,6.26984126984127,13.253968253968253,-321.8253968253968
131,-57.22222222222222,35.317460317460316,-6.111111111111111,68.65079365079364,13.253968253968253,10.238095238095237,37.698412698412696,85.63492063492063,45.63492063492063,31.507936507936506,44.68253968253968,44.84126984126984,59.92063492063492,19.6031746031746,-27.22222222222222,141.984126984127,85.15873015873015,20.238095238095237,30.71428571428571,90.87301587301587,140.23809523809524,6.26984126984127,13.253968253968253,-321.8253968253968
132,-51.82539682539682,-131.5079365079365,46.11111111111111,28.333333333333332,-98.17460317460316,-42.3015873015873,77.53968253968253,14.523809523809524,86.74603174603175,-35.476190476190474,-47.38095238095238,-73.09523809523809,95.63492063492063,-65.95238095238095,11.984126984126984,-325.0,75.95238095238095,-55.317460317460316,-75.79365079365078,-127.53968253968253,-233.4126984126984,10.873015873015872,22.142857142857142,-321.8253968253968
133,-51.82539682539682,-131.5079365079365,46.11111111111111,28.333333333333332,-98.17460317460316,-42.3015873015873,77.53968253968253,14.523809523809524,86.74603174603175,-35.476190476190474,-47.38095238095238,-73.09523809523809,95.63492063492063,-65.95238095238095,11.984126984126984,-325.0,75.95238095238095,-55.317460317460316,-75.79365079365078,-127.53968253968253,-233.4126984126984,10.873015873015872,22.142857142857142,-321.8253968253968
134,-51.82539682539682,-131.5079365079365,46.11111111111111,28.333333333333332,-98.17460317460316,-42.3015873015873,77.53968253968253,14.523809523809524,86.74603174603175,-35.476190476190474,-47.38095238095238,-73.09523809523809,95.63492063492063,-65.95238095238095,11.984126984126984,-325.0,75.95238095238095,-55.317460317460316,-75.79365079365078,-127.53968253968253,-233.4126984126984,10.873015873015872,22.142857142857142,-321.8253968253968
135,-51.82539682539682,-131.5079365079365,46.11111111111111,28.333333333333332,-98.17460317460316,-42.3015873015873,77.53968253968253,14.523809523809524,86.74603174603175,-35.476190476190474,-47.38095238095238,-73.09523809523809,95.63492063492063,-65.95238095238095,11.984126984126984,-325.0,75.95238095238095,-55.317460317460316,-75.79365079365078,-127.53968253968253,-233.4126984126984,10.873015873015872,22.142857142857142,-321.8253968253968
136,-55.317460317460316,-228.33333333333331,36.58730158730159,-140.07936507936506,-22.142857142857142,-183.7301587301587,65.79365079365078,-155.3174603174603,65.0,-180.23809523809524,13.412698412698411,-199.12698412698413,73.09523809523809,-195.47619047619045,6.111111111111111,-95.63492063492063,67.06349206349206,-190.23809523809524,-200.3968253968254,-35.15873015873016,-244.68253968253967,-0.07936507936507936,0.07936507936507936,-321.8253968253968
137,-55.317460317460316,-228.33333333333331,36.58730158730159,-140.07936507936506,-22.142857142857142,-183.7301587301587,65.79365079365078,-155.3174603174603,65.0,-180.23809523809524,13.412698412698411,-199.12698412698413,73.09523809523809,-195.47619047619045,6.111111111111111,-95.63492063492063,67.06349206349206,-190.23809523809524,-200.3968253968254,-35.15873015873016,-244.68253968253967,-0.07936507936507936,0.07936507936507936,-321.8253968253968
138,-58.650793650793645,-325.0,27.063492063492063,-308.3333333333333,53.888888888888886,-325.0,54.2063492063492,-325.0,43.41269841269841,-325.0,74.2063492063492,-325.0,50.71428571428571,-325.0,0.3968253968253968,133.88888888888889,58.33333333333333,-325.0,-325.0,57.38095238095238,-255.95238095238093,-10.873015873015872,-21.825396825396822,-321.8253968253968
139,-58.650793650793645,-325.0,27.063492063492063,-308.3333333333333,53.888888888888886,-325.0,54.2063492063492,-325.0,43.41269841269841,-325.0,74.2063492063492,-325.0,50.71428571428571,-325.0,0.3968253968253968,133.88888888888889,58.33333333333333,-325.0,-325.0,57.38095238095238,-255.95238095238093,-10.873015873015872,-21.825396825396822,-321.8253968253968
140,-58.650793650793645,-325.0,27.063492063492063,-308.3333333333333,53.888888888888886,-325.0,54.2063492063492,-325.0,43.41269841269841,-325.0,74.2063492063492,-325.0,50.71428571428571,-325.0,0.3968253968253968,133.88888888888889,58.33333333333333,-325.0,-325.0,57.38095238095238,-255.95238095238093,-10.873015873015872,-21.825396825396822,-166.26984126984127
141,-58.650793650793645,-325.0,27.063492063492063,-308.3333333333333,53.888888888888886,-325.0,54.2063492063492,-325.0,43.41269841269841,-325.0,74.2063492063492,-325.0,50.71428571428571,-325.0,0.3968253968253968,133.88888888888889,58.33333333333333,-325.0,-325.0,57.38095238095238,-255.95238095238093,-10.873015873015872,-21.825396825396822,-166.26984126984127
142,-58.650793650793645,-325.0,27.063492063492063,-308.3333333333333,53.888888888888886,-325.0,54.2063492063492,-325.0,43.41269841269841,-325.0,74.2063492063492,-325.0,50.71428571428571,-325.0,0.3968253968253968,133.88888888888889,58.33333333333333,-325.0,-325.0,57.38095238095238,-255.95238095238093,-10.873015873015872,-21.825396825396822,-166.26984126984127
143,-58.650793650793645,-325.0,27.063492063492063,-308.3333333333333,53.888888888888886,-325.0,54.2063492063492,-325.0,43.41269841269841,-325.0,74.2063492063492,-325.0,50.71428571428571,-325.0,0.3968253968253968,133.88888888888889,58.33333333333333,-325.0,-325.0,57.38095238095238,-255.95238095238093,-10.873015873015872,-21.825396825396822,-166.26984126984127
144,-150.55555555555554,-58.49206349206349,-8.809523809523808,80.07936507936508,-107.6984126984127,16.26984126984127,48.80952380952381,88.80952380952381,42.61904761904761,48.96825396825397,-99.44444444444444,7.063492063492063,52.14285714285714,21.825396825396822,-12.619047619047619,-143.57142857142856,53.25396825396825,41.507936507936506,20.873015873015873,-325.0,-325.0,-7.857142857142857,-14.206349206349206,-166.26984126984127
145,-150.55555555555554,-58.49206349206349,-8.809523809523808,80.07936507936508,-107.6984126984127,16.26984126984127,48.80952380952381,88.80952380952381,42.61904761904761,48.96825396825397,-99.44444444444444,7.063492063492063,52.14285714285714,21.825396825396822,-12.619047619047619,-143.57142857142856,53.25396825396825,41.507936507936506,20.873015873015873,-325.0,-325.0,-7.857142857142857,-14.206349206349206,-166.26984126984127
146,-119.92063492063491,-52.3015873015873,-45.476190476190474,27.38095238095238,-74.2063492063492,-30.07936507936508,-3.73015873015873,35.0,-9.761904761904761,-6.111111111111111,-64.04761904761905,-23.253968253968253,2.619047619047619,-1.984126984126984,-52.3015873015873,-113.73015873015872,51.82539682539682,-14.523809523809524,-3.095238095238095,-24.84126984126984,12.142857142857142,9.285714285714285,17.38095238095238,-166.26984126984127
147,-119.92063492063491,-52.3015873015873,-45.476190476190474,27.38095238095238,-74.2063492063492,-30.07936507936508,-3.73015873015873,35.0,-9.761904761904761,-6.111111111111111,-64.04761904761905,-23.253968253968253,2.619047619047619,-1.984126984126984,-52.3015873015873,-113.73015873015872,51.82539682539682,-14.523809523809524,-3.095238095238095,-24.84126984126984,12.142857142857142,9.285714285714285,17.38095238095238,-166.26984126984127
148,-159.44444444444443,-78.4920634920635,-39.92063492063492,1.349206349206349,-84.2063492063492,-51.34920634920635,-8.492063492063492,13.095238095238095,-3.4126984126984126,-36.42857142857142,-65.63492063492063,-49.6031746031746,-5.0,-54.36507936507936,-58.96825396825397,30.555555555555554,50.87301587301587,-45.317460317460316,-38.65079365079365,-199.60317460317458,-187.85714285714283,-8.809523809523808,-18.80952380952381,-166.26984126984127
149,-159.44444444444443,-78.4920634920635,-39.92063492063492,1.349206349206349,-84.2063492063492,-51.34920634920635,-8.492063492063492,13.095238095238095,-3.4126984126984126,-36.42857142857142,-65.63492063492063,-49.6031746031746,-5.0,-54.36507936507936,-58.96825396825397,30.555555555555554,50.87301587301587,-45.317460317460316,-38.65079365079365,-199.60317460317458,-187.85714285714283,-8.809523809523808,-18.80952380952381,-166.26984126984127
150,-153.88888888888889,19.444444444444443,-41.98412698412698,96.58730158730158,-82.46031746031746,52.93650793650794,-9.761904761904761,109.6031746031746,3.095238095238095,73.57142857142857,-64.52380952380952,59.6031746031746,-7.5396825396825395,62.93650793650793,-59.92063492063492,-88.96825396825396,50.079365079365076,60.238095238095234,67.6984126984127,-50.55555555555555,45.317460317460316,7.063492063492063,16.746031746031743,-321.8253968253968
151,-153.88888888888889,19.444444444444443,-41.98412698412698,96.58730158730158,-82.46031746031746,52.93650793650794,-9.761904761904761,109.6031746031746,3.095238095238095,73.57142857142857,-64.52380952380952,59.6031746031746,-7.5396825396825395,62.93650793650793,-59.92063492063492,-88.96825396825396,50.079365079365076,60.238095238095234,67.6984126984127,-50.55555555555555,45.317460317460316,7.063492063492063,16.746031746031743,-321.8253968253968
152,-166.11111111111111,24.365079365079364,-32.93650793650794,155.95238095238093,-146.74603174603175,110.07936507936508,9.761904761904761,165.3174603174603,21.984126984126984,127.53968253968253,-126.74603174603173,85.63492063492063,13.412698412698411,126.42857142857142,-46.269841269841265,-325.0,49.76190476190476,112.46031746031746,96.42857142857142,-211.8253968253968,-134.36507936507937,7.3809523809523805,20.238095238095237,-321.8253968253968
153,-166.11111111111111,24.365079365079364,-32.93650793650794,155.95238095238093,-146.74603174603175,110.07936507936508,9.761904761904761,165.3174603174603,21.984126984126984,127.53968253968253,-126.74603174603173,85.63492063492063,13.412698412698411,126.42857142857142,-46.269841269841265,-325.0,49.76190476190476,112.46031746031746,96.42857142857142,-211.8253968253968,-134.36507936507937,7.3809523809523805,20.238095238095237,-321.8253968253968
154,-135.47619047619048,-22.46031746031746,-20.555555555555554,94.2063492063492,-137.06349206349205,45.317460317460316,18.333333333333332,97.22222222222221,31.98412698412698,60.238095238095234,-113.57142857142857,21.825396825396822,34.36507936507936,65.15873015873015,-35.0,-325.0,48.96825396825397,45.0,32.77777777777778,-181.984126984127,-177.2222222222222,8.809523809523808,20.396825396825395,-321.8253968253968
155,-135.47619047619048,-22.46031746031746,-20.555555555555554,94.2063492063492,-137.06349206349205,45.317460317460316,18.333333333333332,97.22222222222221,31.98412698412698,60.238095238095234,-113.57142857142857,21.825396825396822,34.36507936507936,65.15873015873015,-35.0,-325.0,48.96825396825397,45.0,32.77777777777778,-181.984126984127,-177.2222222222222,8.809523809523808,20.396825396825395,-321.8253968253968
156,-111.82539682539682,-29.444444444444443,-14.047619047619047,38.80952380952381,-63.888888888888886,-12.142857142857142,11.349206349206348,43.25396825396825,21.984126984126984,1.507936507936508,-26.587301587301585,-4.365079365079365,18.49206349206349,12.46031746031746,-32.93650793650794,57.38095238095238,47.38095238095238,-12.936507936507935,-2.9365079365079363,-202.46031746031744,-182.46031746031744,-9.920634920634921,-19.126984126984127,-321.8253968253968
157,-111.82539682539682,-29.444444444444443,-14.047619047619047,38.80952380952381,-63.888888888888886,-12.142857142857142,11.349206349206348,43.25396825396825,21.984126984126984,1.507936507936508,-26.587301587301585,-4.365079365079365,18.49206349206349,12.46031746031746,-32.93650793650794,57.38095238095238,47.38095238095238,-12.936507936507935,-2.9365079365079363,-202.46031746031744,-182.46031746031744,-9.920634920634921,-19.126984126984127,-321.8253968253968
158,-122.46031746031746,-8.333333333333332,-20.238095238095237,57.53968253968254,-64.52380952380952,6.746031746031746,3.095238095238095,66.58730158730158,9.444444444444445,34.047619047619044,-39.44444444444444,16.26984126984127,15.0,10.714285714285714,-35.0,-96.26984126984127,46.42857142857142,17.698412698412696,22.619047619047617,-29.126984126984127,17.38095238095238,8.809523809523808,16.587301587301585,-321.8253968253968
159,-122.46031746031746,-8.333333333333332,-20.238095238095237,57.53968253968254,-64.52380952380952,6.746031746031746,3.095238095238095,66.58730158730158,9.444444444444445,34.047619047619044,-39.44444444444444,16.26984126984127,15.0,10.714285714285714,-35.0,-96.26984126984127,46.42857142857142,17.698412698412696,22.619047619047617,-29.126984126984127,17.38095238095238,8.809523809523808,16.587301587301585,-321.8253968253968
160,-132.14285714285714,-29.126984126984127,-13.253968253968253,87.6984126984127,-129.44444444444443,33.25396825396825,21.349206349206348,91.98412698412697,27.22222222222222,58.33333333333333,-101.34920634920634,17.063492063492063,46.269841269841265,33.73015873015873,-21.507936507936506,-325.0,46.11111111111111,41.507936507936506,23.095238095238095,-182.14285714285714,-179.60317460317458,11.349206349206348,21.507936507936506,-166.26984126984127
161,-132.14285714285714,-29.126984126984127,-13.253968253968253,87.6984126984127,-129.44444444444443,33.25396825396825,21.349206349206348,91.98412698412697,27.22222222222222,58.33333333333333,-101.34920634920634,17.063492063492063,46.269841269841265,33.73015873015873,-21.507936507936506,-325.0,46.11111111111111,41.507936507936506,23.095238095238095,-182.14285714285714,-179.60317460317458,11.349206349206348,21.507936507936506,-166.26984126984127
162,-132.14285714285714,-29.126984126984127,-13.253968253968253,87.6984126984127,-129.44444444444443,33.25396825396825,21.349206349206348,91.98412698412697,27.22222222222222,58.33333333333333,-101.34920634920634,17.063492063492063,46.269841269841265,33.73015873015873,-21.507936507936506,-325.0,46.11111111111111,41.507936507936506,23.095238095238095,-182.14285714285714,-179.60317460317458,11.349206349206348,21.507936507936506,-166.26984126984127
163,-132.14285714285714,-29.126984126984127,-13.253968253968253,87.6984126984127,-129.44444444444443,33.25396825396825,21.349206349206348,91.98412698412697,27.22222222222222,58.33333333333333,-101.34920634920634,17.063492063492063,46.269841269841265,33.73015873015873,-21.507936507936506,-325.0,46.11111111111111,41.507936507936506,23.095238095238095,-182.14285714285714,-179.60317460317458,11.349206349206348,21.507936507936506,-166.26984126984127
164,-128.65079365079364,-47.38095238095238,8.492063492063492,68.80952380952381,-94.52380952380952,26.746031746031743,52.14285714285714,56.269841269841265,50.238095238095234,17.857142857142858,-65.79365079365078,-5.158730158730158,77.06349206349206,35.0,17.857142857142858,-229.28571428571428,43.095238095238095,15.476190476190474,-5.158730158730158,-239.9206349206349,-260.23809523809524,0.7142857142857142,2.7777777777777777,-166.26984126984127
165,-128.65079365079364,-47.38095238095238,8.492063492063492,68.80952380952381,-94.52380952380952,26.746031746031743,52.14285714285714,56.269841269841265,50.238095238095234,17.857142857142858,-65.79365079365078,-5.158730158730158,77.06349206349206,35.0,17.857142857142858,-229.28571428571428,43.095238095238095,15.476190476190474,-5.158730158730158,-239.9206349206349,-260.23809523809524,0.7142857142857142,2.7777777777777777,-166.26984126984127
166,-102.30158730158729,-35.0,-1.8253968253968254,2.9365079365079363,-32.14285714285714,-25.79365079365079,30.238095238095237,-1.984126984126984,33.095238095238095,-38.96825396825397,-0.07936507936507936,-34.2063492063492,47.06349206349206,-31.349206349206348,-1.349206349206349,-19.126984126984127,42.61904761904761,-40.079365079365076,-39.285714285714285,-90.71428571428571,-61.98412698412698,0.3968253968253968,-0.5555555555555556,-166.26984126984127
167,-102.30158730158729,-35.0,-1.8253968253968254,2.9365079365079363,-32.14285714285714,-25.79365079365079,30.238095238095237,-1.984126984126984,33.095238095238095,-38.96825396825397,-0.07936507936507936,-34.2063492063492,47.06349206349206,-31.349206349206348,-1.349206349206349,-19.126984126984127,42.61904761904761,-40.079365079365076,-39.285714285714285,-90.71428571428571,-61.98412698412698,0.3968253968253968,-0.5555555555555556,-166.26984126984127
168,-101.03174603174602,-53.25396825396825,11.031746031746032,55.79365079365079,-92.77777777777777,27.38095238095238,56.904761904761905,52.93650793650794,61.507936507936506,15.634920634920634,-54.2063492063492,-5.158730158730158,71.19047619047619,5.158730158730158,14.206349206349206,-219.76190476190476,41.507936507936506,14.206349206349206,-12.46031746031746,-232.93650793650792,-268.4920634920635,0.873015873015873,2.142857142857143,-166.26984126984127
169,-101.03174603174602,-53.25396825396825,11.031746031746032,55.79365079365079,-92.77777777777777,27.38095238095238,56.904761904761905,52.93650793650794,61.507936507936506,15.634920634920634,-54.2063492063492,-5.158730158730158,71.19047619047619,5.158730158730158,14.206349206349206,-219.76190476190476,41.507936507936506,14.206349206349206,-12.46031746031746,-232.93650793650792,-268.4920634920635,0.873015873015873,2.142857142857143,-166.26984126984127
170,-100.55555555555554,60.873015873015866,-6.26984126984127,59.44444444444444,30.396825396825395,35.63492063492063,17.857142857142858,70.23809523809524,29.126984126984127,42.3015873015873,72.3015873015873,70.07936507936508,-4.2063492063492065,43.73015873015873,-10.079365079365079,217.06349206349205,40.87301587301587,39.285714285714285,50.238095238095234,28.96825396825397,105.63492063492063,-3.4126984126984126,-5.0,-321.8253968253968
171,-100.55555555555554,60.873015873015866,-6.26984126984127,59.44444444444444,30.396825396825395,35.63492063492063,17.857142857142858,70.23809523809524,29.126984126984127,42.3015873015873,72.3015873015873,70.07936507936508,-4.2063492063492065,43.73015873015873,-10.079365079365079,217.06349206349205,40.87301587301587,39.285714285714285,50.238095238095234,28.96825396825397,105.63492063492063,-3.4126984126984126,-5.0,-321.8253968253968
172,-96.1111111111111,100.55555555555554,-9.126984126984127,90.23809523809523,28.96825396825397,65.15873015873015,15.158730158730158,98.96825396825396,26.428571428571427,77.22222222222221,69.6031746031746,101.5079365079365,-1.1904761904761905,78.33333333333333,-10.238095238095237,178.33333333333331,40.55555555555555,72.61904761904762,83.25396825396825,122.14285714285714,237.06349206349205,4.682539682539682,12.619047619047619,-321.8253968253968
173,-96.1111111111111,100.55555555555554,-9.126984126984127,90.23809523809523,28.96825396825397,65.15873015873015,15.158730158730158,98.96825396825396,26.428571428571427,77.22222222222221,69.6031746031746,101.5079365079365,-1.1904761904761905,78.33333333333333,-10.238095238095237,178.33333333333331,40.55555555555555,72.61904761904762,83.25396825396825,122.14285714285714,237.06349206349205,4.682539682539682,12.619047619047619,-321.8253968253968
174,-66.11111111111111,47.53968253968254,9.126984126984127,29.920634920634917,34.2063492063492,-15.95238095238095,18.49206349206349,36.269841269841265,17.698412698412696,14.682539682539682,80.71428571428571,30.07936507936508,35.63492063492063,17.698412698412696,-8.65079365079365,189.28571428571428,39.12698412698413,4.365079365079365,10.714285714285714,32.14285714285714,104.36507936507935,-1.6666666666666665,-4.365079365079365,-321.8253968253968
175,-66.11111111111111,47.53968253968254,9.126984126984127,29.920634920634917,34.2063492063492,-15.95238095238095,18.49206349206349,36.269841269841265,17.698412698412696,14.682539682539682,80.71428571428571,30.07936507936508,35.63492063492063,17.698412698412696,-8.65079365079365,189.28571428571428,39.12698412698413,4.365079365079365,10.714285714285714,32.14285714285714,104.36507936507935,-1.6666666666666665,-4.365079365079365,-321.8253968253968
176,-67.6984126984127,9.761904761904761,20.71428571428571,57.22222222222222,-25.634920634920633,5.158730158730158,41.507936507936506,59.44444444444444,37.06349206349206,38.33333333333333,18.80952380952381,24.84126984126984,54.841269841269835,22.46031746031746,8.492063492063492,4.0476190476190474,38.65079365079365,25.79365079365079,16.11111111111111,-88.17460317460316,-56.58730158730158,0.23809523809523808,-0.3968253968253968,-321.8253968253968
177,-67.6984126984127,9.761904761904761,20.71428571428571,57.22222222222222,-25.634920634920633,5.158730158730158,41.507936507936506,59.44444444444444,37.06349206349206,38.33333333333333,18.80952380952381,24.84126984126984,54.841269841269835,22.46031746031746,8.492063492063492,4.0476190476190474,38.65079365079365,25.79365079365079,16.11111111111111,-88.17460317460316,-56.58730158730158,0.23809523809523808,-0.3968253968253968,-321.8253968253968
178,-99.76190476190476,90.07936507936508,25.158730158730158,188.015873015873,-85.95238095238095,127.22222222222221,62.14285714285714,189.9206349206349,66.11111111111111,170.3968253968254,-50.55555555555555,124.52380952380952,67.06349206349206,133.88888888888889,20.07936507936508,-189.60317460317458,38.01587301587301,155.95238095238093,127.38095238095238,-284.5238095238095,-198.015873015873,1.349206349206349,2.619047619047619,-321.8253968253968
179,-99.76190476190476,90.07936507936508,25.158730158730158,188.015873015873,-85.95238095238095,127.22222222222221,62.14285714285714,189.9206349206349,66.11111111111111,170.3968253968254,-50.55555555555555,124.52380952380952,67.06349206349206,133.88888888888889,20.07936507936508,-189.60317460317458,38.01587301587301,155.95238095238093,127.38095238095238,-284.5238095238095,-198.015873015873,1.349206349206349,2.619047619047619,-321.8253968253968
180,-122.30158730158729,183.7301587301587,21.03174603174603,271.19047619047615,-82.77777777777777,207.06349206349205,61.03174603174603,275.0,74.84126984126983,262.46031746031747,-56.904761904761905,210.55555555555554,51.19047619047619,218.33333333333331,18.80952380952381,-271.5079365079365,37.698412698412696,245.79365079365078,218.65079365079364,-243.88888888888889,-71.03174603174602,9.761904761904761,19.92063492063492,-166.26984126984127
181,-122.30158730158729,183.7301587301587,21.03174603174603,271.19047619047615,-82.77777777777777,207.06349206349205,61.03174603174603,275.0,74.84126984126983,262.46031746031747,-56.904761904761905,210.55555555555554,51.19047619047619,218.33333333333331,18.80952380952381,-271.5079365079365,37.698412698412696,245.79365079365078,218.65079365079364,-243.88888888888889,-71.03174603174602,9.761904761904761,19.92063492063492,-166.26984126984127
182,-125.15873015873015,214.04761904761904,6.746031746031746,313.25396825396825,-84.2063492063492,242.14285714285714,57.06349206349206,315.6349206349206,57.22222222222222,300.23809523809524,-67.06349206349206,251.98412698412696,65.0,291.19047619047615,15.317460317460316,-266.26984126984127,35.95238095238095,291.3492063492063,270.23809523809524,-261.3492063492063,-84.04761904761904,11.031746031746032,21.19047619047619,-166.26984126984127
183,-125.15873015873015,214.04761904761904,6.746031746031746,313.25396825396825,-84.2063492063492,242.14285714285714,57.06349206349206,315.6349206349206,57.22222222222222,300.23809523809524,-67.06349206349206,251.98412698412696,65.0,291.19047619047615,15.317460317460316,-266.26984126984127,35.95238095238095,291.3492063492063,270.23809523809524,-261.3492063492063,-84.04761904761904,11.031746031746032,21.19047619047619,-166.26984126984127
184,-125.15873015873015,214.04761904761904,6.746031746031746,313.25396825396825,-84.2063492063492,242.14285714285714,57.06349206349206,315.6349206349206,57.22222222222222,300.23809523809524,-67.06349206349206,251.98412698412696,65.0,291.19047619047615,15.317460317460316,-266.26984126984127,35.95238095238095,291.3492063492063,270.23809523809524,-261.3492063492063,-84.04761904761904,11.031746031746032,21.19047619047619,-166.26984126984127
185,-125.15873015873015,214.04761904761904,6.746031746031746,313.25396825396825,-84.2063492063492,242.14285714285714,57.06349206349206,315.6349206349206,57.22222222222222,300.23809523809524,-67.06349206349206,251.98412698412696,65.0,291.19047619047615,15.317460317460316,-266.26984126984127,35.95238095238095,291.3492063492063,270.23809523809524,-261.3492063492063,-84.04761904761904,11.031746031746032,21.19047619047619,-166.26984126984127
186,-125.15873015873015,214.04761904761904,6.746031746031746,313.25396825396825,-84.2063492063492,242.14285714285714,57.06349206349206,315.6349206349206,57.22222222222222,300.23809523809524,-67.06349206349206,251.98412698412696,65.0,291.19047619047615,15.317460317460316,-266.26984126984127,35.95238095238095,291.3492063492063,270.23809523809524,-261.3492063492063,-84.04761904761904,11.031746031746032,21.19047619047619,-166.26984126984127
187,-125.15873015873015,214.04761904761904,6.746031746031746,313.25396825396825,-84.2063492063492,242.14285714285714,57.06349206349206,315.6349206349206,57.22222222222222,300.23809523809524,-67.06349206349206,251.98412698412696,65.0,291.19047619047615,15.317460317460316,-266.26984126984127,35.95238095238095,291.3492063492063,270.23809523809524,-261.3492063492063,-84.04761904761904,11.031746031746032,21.19047619047619,-166.26984126984127
188,-97.85714285714285,200.7142857142857,9.126984126984127,249.76190476190476,-25.158730158730158,178.33333333333331,47.22222222222222,253.4126984126984,52.14285714285714,227.06349206349205,10.079365079365079,203.25396825396825,54.841269841269835,231.5079365079365,8.65079365079365,-38.49206349206349,10.396825396825395,218.96825396825395,210.7142857142857,-229.9206349206349,-50.71428571428571,3.888888888888889,2.619047619047619,-166.26984126984127
189,-97.85714285714285,200.7142857142857,9.126984126984127,249.76190476190476,-25.158730158730158,178.33333333333331,47.22222222222222,253.4126984126984,52.14285714285714,227.06349206349205,10.079365079365079,203.25396825396825,54.841269841269835,231.5079365079365,8.65079365079365,-38.49206349206349,10.396825396825395,218.96825396825395,210.7142857142857,-229.9206349206349,-50.71428571428571,3.888888888888889,2.619047619047619,-166.26984126984127
190,-70.55555555555556,187.53968253968253,11.507936507936508,186.26984126984127,34.047619047619044,114.52380952380952,37.38095238095238,191.34920634920633,47.22222222222222,153.88888888888889,87.38095238095238,154.52380952380952,44.68253968253968,171.984126984127,2.142857142857143,189.28571428571428,-15.0,146.74603174603175,151.34920634920633,-198.33333333333331,-17.38095238095238,-3.095238095238095,-15.95238095238095,-321.8253968253968
191,-70.55555555555556,187.53968253968253,11.507936507936508,186.26984126984127,34.047619047619044,114.52380952380952,37.38095238095238,191.34920634920633,47.22222222222222,153.88888888888889,87.38095238095238,154.52380952380952,44.68253968253968,171.984126984127,2.142857142857143,189.28571428571428,-15.0,146.74603174603175,151.34920634920633,-198.33333333333331,-17.38095238095238,-3.095238095238095,-15.95238095238095,-321.8253968253968
192,-70.55555555555556,187.53968253968253,11.507936507936508,186.26984126984127,34.047619047619044,114.52380952380952,37.38095238095238,191.34920634920633,47.22222222222222,153.88888888888889,87.38095238095238,154.52380952380952,44.68253968253968,171.984126984127,2.142857142857143,189.28571428571428,-15.0,146.74603174603175,151.34920634920633,-198.33333333333331,-17.38095238095238,-3.095238095238095,-15.95238095238095,-321.8253968253968
193,-70.55555555555556,187.53968253968253,11.507936507936508,186.26984126984127,34.047619047619044,114.52380952380952,37.38095238095238,191.34920634920633,47.22222222222222,153.88888888888889,87.38095238095238,154.52380952380952,44.68253968253968,171.984126984127,2.142857142857143,189.28571428571428,-15.0,146.74603174603175,151.34920634920633,-198.33333333333331,-17.38095238095238,-3.095238095238095,-15.95238095238095,-321.8253968253968
194,-75.0,267.38095238095235,21.825396825396822,312.6190476190476,3.095238095238095,250.2380952380952,49.76190476190476,308.8095238095238,35.15873015873016,281.5079365079365,17.539682539682538,267.53968253968253,46.904761904761905,262.9365079365079,12.777777777777777,-27.38095238095238,-325.0,268.6507936507936,277.6984126984127,-112.46031746031746,99.92063492063491,0.7142857142857142,10.555555555555555,-321.8253968253968
195,-75.0,267.38095238095235,21.825396825396822,312.6190476190476,3.095238095238095,250.2380952380952,49.76190476190476,308.8095238095238,35.15873015873016,281.5079365079365,17.539682539682538,267.53968253968253,46.904761904761905,262.9365079365079,12.777777777777777,-27.38095238095238,-325.0,268.6507936507936,277.6984126984127,-112.46031746031746,99.92063492063491,0.7142857142857142,10.555555555555555,-321.8253968253968
196,-83.57142857142857,208.33333333333331,28.015873015873016,325.0,-63.888888888888886,257.38095238095235,68.96825396825396,323.0952380952381,42.77777777777778,278.17460317460313,-36.58730158730159,246.26984126984127,84.84126984126983,281.5079365079365,24.523809523809522,-27.063492063492063,-325.0,263.88888888888886,253.57142857142856,-325.0,-321.031746031746,-13.571428571428571,-22.142857142857142,-321.8253968253968
197,-83.57142857142857,208.33333333333331,28.015873015873016,325.0,-63.888888888888886,257.38095238095235,68.96825396825396,323.0952380952381,42.77777777777778,278.17460317460313,-36.58730158730159,246.26984126984127,84.84126984126983,281.5079365079365,24.523809523809522,-27.063492063492063,-325.0,263.88888888888886,253.57142857142856,-325.0,-321.031746031746,-13.571428571428571,-22.142857142857142,-321.8253968253968
198,-89.28571428571428,231.5079365079365,29.444444444444443,325.0,-59.285714285714285,262.9365079365079,64.04761904761905,324.04761904761904,40.87301587301587,288.015873015873,-39.6031746031746,252.6190476190476,86.58730158730158,298.3333333333333,22.619047619047617,-102.14285714285714,-325.0,264.36507936507934,264.36507936507934,-282.6190476190476,-196.26984126984127,-7.698412698412698,-5.0,-321.8253968253968
199,-89.28571428571428,231.5079365079365,29.444444444444443,325.0,-59.285714285714285,262.9365079365079,64.04761904761905,324.04761904761904,40.87301587301587,288.015873015873,-39.6031746031746,252.6190476190476,86.58730158730158,298.3333333333333,22.619047619047617,-102.14285714285714,-325.0,264.36507936507934,264.36507936507934,-282.6190476190476,-196.26984126984127,-7.698412698412698,-5.0,-321.8253968253968
200,-68.65079365079364,293.25396825396825,31.98412698412698,312.3015873015873,14.682539682539682,264.04761904761904,42.61904761904761,315.0,39.12698412698413,293.4126984126984,31.666666666666664,278.4920634920635,51.82539682539682,280.07936507936506,6.746031746031746,162.61904761904762,-325.0,261.984126984127,290.23809523809524,-237.38095238095238,-87.6984126984127,-14.682539682539682,-22.936507936507937,-166.26984126984127
201,-68.65079365079364,293.25396825396825,31.98412698412698,312.3015873015873,14.682539682539682,264.04761904761904,42.61904761904761,315.0,39.12698412698413,293.4126984126984,31.666666666666664,278.4920634920635,51.82539682539682,280.07936507936506,6.746031746031746,162.61904761904762,-325.0,261.984126984127,290.23809523809524,-237.38095238095238,-87.6984126984127,-14.682539682539682,-22.936507936507937,-166.26984126984127
202,-50.71428571428571,309.1269841269841,21.03174603174603,299.76190476190476,76.42857142857143,234.36507936507934,21.825396825396822,305.1587301587301,22.142857142857142,266.90476190476187,94.52380952380952,276.1111111111111,18.49206349206349,240.7142857142857,-10.555555555555555,298.17460317460313,-325.0,236.26984126984127,285.1587301587301,-149.6031746031746,106.58730158730158,-15.317460317460316,-25.79365079365079,-166.26984126984127
203,-50.71428571428571,309.1269841269841,21.03174603174603,299.76190476190476,76.42857142857143,234.36507936507934,21.825396825396822,305.1587301587301,22.142857142857142,266.90476190476187,94.52380952380952,276.1111111111111,18.49206349206349,240.7142857142857,-10.555555555555555,298.17460317460313,-325.0,236.26984126984127,285.1587301587301,-149.6031746031746,106.58730158730158,-15.317460317460316,-25.79365079365079,-166.26984126984127
204,-77.22222222222221,259.76190476190476,15.634920634920634,288.015873015873,2.46031746031746,225.95238095238093,45.317460317460316,292.6190476190476,43.095238095238095,268.968253968254,13.095238095238095,241.5079365079365,54.52380952380952,254.2063492063492,19.76190476190476,132.93650793650792,320.87301587301585,247.06349206349205,255.47619047619045,-236.74603174603175,-112.77777777777777,-8.174603174603174,-17.22222222222222,-166.26984126984127
205,-77.22222222222221,259.76190476190476,15.634920634920634,288.015873015873,2.46031746031746,225.95238095238093,45.317460317460316,292.6190476190476,43.095238095238095,268.968253968254,13.095238095238095,241.5079365079365,54.52380952380952,254.2063492063492,19.76190476190476,132.93650793650792,320.87301587301585,247.06349206349205,255.47619047619045,-236.74603174603175,-112.77777777777777,-8.174603174603174,-17.22222222222222,-166.26984126984127
206,-49.285714285714285,271.3492063492063,24.047619047619047,286.1111111111111,7.698412698412698,211.03174603174602,41.507936507936506,285.1587301587301,48.650793650793645,257.85714285714283,25.0,233.09523809523807,28.96825396825397,265.1587301587301,20.555555555555554,-3.888888888888889,314.04761904761904,235.95238095238093,251.98412698412696,-82.77777777777777,101.5079365079365,8.809523809523808,17.539682539682538,-166.26984126984127
207,-49.285714285714285,271.3492063492063,24.047619047619047,286.1111111111111,7.698412698412698,211.03174603174602,41.507936507936506,285.1587301587301,48.650793650793645,257.85714285714283,25.0,233.09523809523807,28.96825396825397,265.1587301587301,20.555555555555554,-3.888888888888889,314.04761904761904,235.95238095238093,251.98412698412696,-82.77777777777777,101.5079365079365,8.809523809523808,17.539682539682538,-166.26984126984127
208,-55.63492063492063,251.34920634920633,28.333333333333332,281.8253968253968,6.904761904761904,207.85714285714283,40.55555555555555,279.44444444444446,47.22222222222222,246.26984126984127,27.857142857142854,221.19047619047618,51.34920634920635,250.7142857142857,18.49206349206349,19.126984126984127,306.4285714285714,225.15873015873015,238.96825396825395,-199.12698412698413,-5.634920634920634,-1.6666666666666665,-1.6666666666666665,-166.26984126984127
209,-55.63492063492063,251.34920634920633,28.333333333333332,281.8253968253968,6.904761904761904,207.85714285714283,40.55555555555555,279.44444444444446,47.22222222222222,246.26984126984127,27.857142857142854,221.19047619047618,51.34920634920635,250.7142857142857,18.49206349206349,19.126984126984127,306.4285714285714,225.15873015873015,238.96825396825395,-199.12698412698413,-5.634920634920634,-1.6666666666666665,-1.6666666666666665,-166.26984126984127
210,-45.63492063492063,207.2222222222222,26.746031746031743,257.53968253968253,4.841269841269841,184.04761904761904,41.34920634920635,245.95238095238093,51.34920634920635,215.47619047619045,21.666666666666664,186.74603174603175,59.285714285714285,177.69841269841268,17.22222222222222,-18.96825396825397,294.2063492063492,194.52380952380952,207.85714285714283,-57.857142857142854,92.14285714285714,9.444444444444445,17.38095238095238,-321.8253968253968
211,-45.63492063492063,207.2222222222222,26.746031746031743,257.53968253968253,4.841269841269841,184.04761904761904,41.34920634920635,245.95238095238093,51.34920634920635,215.47619047619045,21.666666666666664,186.74603174603175,59.285714285714285,177.69841269841268,17.22222222222222,-18.96825396825397,294.2063492063492,194.52380952380952,207.85714285714283,-57.857142857142854,92.14285714285714,9.444444444444445,17.38095238095238,-321.8253968253968
212,-52.3015873015873,195.0,37.53968253968254,304.2063492063492,-57.06349206349206,226.9047619047619,65.63492063492063,288.17460317460313,76.9047619047619,255.3174603174603,-41.03174603174603,199.9206349206349,88.33333333333333,218.17460317460316,35.476190476190474,-255.0,293.73015873015873,234.2063492063492,224.36507936507934,-246.58730158730157,-96.26984126984127,11.825396825396824,21.825396825396822,-321.8253968253968
213,-52.3015873015873,195.0,37.53968253968254,304.2063492063492,-57.06349206349206,226.9047619047619,65.63492063492063,288.17460317460313,76.9047619047619,255.3174603174603,-41.03174603174603,199.9206349206349,88.33333333333333,218.17460317460316,35.476190476190474,-255.0,293.73015873015873,234.2063492063492,224.36507936507934,-246.58730158730157,-96.26984126984127,11.825396825396824,21.825396825396822,-321.8253968253968
214,-52.3015873015873,195.0,37.53968253968254,304.2063492063492,-57.06349206349206,226.9047619047619,65.63492063492063,288.17460317460313,76.9047619047619,255.3174603174603,-41.03174603174603,199.9206349206349,88.33333333333333,218.17460317460316,35.476190476190474,-255.0,293.73015873015873,234.2063492063492,224.36507936507934,-246.58730158730157,-96.26984126984127,11.825396825396824,21.825396825396822,-321.8253968253968
215,-52.3015873015873,195.0,37.53968253968254,304.2063492063492,-57.06349206349206,226.9047619047619,65.63492063492063,288.17460317460313,76.9047619047619,255.3174603174603,-41.03174603174603,199.9206349206349,88.33333333333333,218.17460317460316,35.476190476190474,-255.0,293.73015873015873,234.2063492063492,224.36507936507934,-246.58730158730157,-96.26984126984127,11.825396825396824,21.825396825396822,-321.8253968253968
216,-69.12698412698413,196.58730158730157,35.15873015873016,295.6349206349206,-80.39682539682539,210.7142857142857,57.06349206349206,285.4761904761905,77.6984126984127,248.8095238095238,-37.53968253968254,193.4126984126984,63.73015873015873,249.28571428571428,32.77777777777778,-86.74603174603175,222.77777777777777,228.65079365079364,205.0,-325.0,-325.0,-3.888888888888889,-11.984126984126984,-321.8253968253968
217,-69.12698412698413,196.58730158730157,35.15873015873016,295.6349206349206,-80.39682539682539,210.7142857142857,57.06349206349206,285.4761904761905,77.6984126984127,248.8095238095238,-37.53968253968254,193.4126984126984,63.73015873015873,249.28571428571428,32.77777777777778,-86.74603174603175,222.77777777777777,228.65079365079364,205.0,-325.0,-325.0,-3.888888888888889,-11.984126984126984,-321.8253968253968
218,-69.12698412698413,196.58730158730157,35.15873015873016,295.6349206349206,-80.39682539682539,210.7142857142857,57.06349206349206,285.4761904761905,77.6984126984127,248.8095238095238,-37.53968253968254,193.4126984126984,63.73015873015873,249.28571428571428,32.77777777777778,-86.74603174603175,222.77777777777777,228.65079365079364,205.0,-325.0,-325.0,-3.888888888888889,-11.984126984126984,-321.8253968253968
219,-69.12698412698413,196.58730158730157,35.15873015873016,295.6349206349206,-80.39682539682539,210.7142857142857,57.06349206349206,285.4761904761905,77.6984126984127,248.8095238095238,-37.53968253968254,193.4126984126984,63.73015873015873,249.28571428571428,32.77777777777778,-86.74603174603175,222.77777777777777,228.65079365079364,205.0,-325.0,-325.0,-3.888888888888889,-11.984126984126984,-321.8253968253968
220,-75.0,318.8095238095238,5.7936507936507935,317.69841269841265,-6.26984126984127,283.57142857142856,52.14285714285714,321.031746031746,77.6984126984127,311.031746031746,6.111111111111111,297.22222222222223,51.82539682539682,300.39682539682536,32.460317460317455,-29.6031746031746,95.95238095238095,306.4285714285714,310.87301587301585,-146.58730158730157,120.23809523809523,10.396825396825395,19.92063492063492,-166.26984126984127
221,-75.0,318.8095238095238,5.7936507936507935,317.69841269841265,-6.26984126984127,283.57142857142856,52.14285714285714,321.031746031746,77.6984126984127,311.031746031746,6.111111111111111,297.22222222222223,51.82539682539682,300.39682539682536,32.460317460317455,-29.6031746031746,95.95238095238095,306.4285714285714,310.87301587301585,-146.58730158730157,120.23809523809523,10.396825396825395,19.92063492063492,-166.26984126984127
222,-95.95238095238095,325.0,-2.46031746031746,325.0,-0.5555555555555556,313.73015873015873,56.58730158730158,325.0,78.96825396825396,325.0,14.365079365079364,325.0,51.82539682539682,325.0,29.285714285714285,116.42857142857142,154.84126984126982,325.0,325.0,-288.968253968254,-76.1111111111111,-8.65079365079365,-18.49206349206349,-166.26984126984127
223,-95.95238095238095,325.0,-2.46031746031746,325.0,-0.5555555555555556,313.73015873015873,56.58730158730158,325.0,78.96825396825396,325.0,14.365079365079364,325.0,51.82539682539682,325.0,29.285714285714285,116.42857142857142,154.84126984126982,325.0,325.0,-288.968253968254,-76.1111111111111,-8.65079365079365,-18.49206349206349,-166.26984126984127
224,-80.55555555555556,325.0,-11.984126984126984,325.0,63.888888888888886,322.46031746031747,33.888888888888886,325.0,65.15873015873015,325.0,74.52380952380952,325.0,14.206349206349206,325.0,19.444444444444443,249.9206349206349,153.57142857142856,325.0,325.0,-11.825396825396824,308.8095238095238,4.523809523809524,12.3015873015873,-166.26984126984127
225,-80.55555555555556,325.0,-11.984126984126984,325.0,63.888888888888886,322.46031746031747,33.888888888888886,325.0,65.15873015873015,325.0,74.52380952380952,325.0,14.206349206349206,325.0,19.444444444444443,249.9206349206349,153.57142857142856,325.0,325.0,-11.825396825396824,308.8095238095238,4.523809523809524,12.3015873015873,-166.26984126984127
226,-77.6984126984127,324.5238095238095,20.238095238095237,320.87301587301585,12.619047619047619,284.5238095238095,74.68253968253968,325.0,116.58730158730158,313.25396825396825,42.460317460317455,302.46031746031747,54.047619047619044,284.04761904761904,50.71428571428571,138.015873015873,62.14285714285714,309.6031746031746,305.7936507936508,-268.015873015873,-95.79365079365078,-6.111111111111111,-15.158730158730158,-166.26984126984127
227,-77.6984126984127,324.5238095238095,20.238095238095237,320.87301587301585,12.619047619047619,284.5238095238095,74.68253968253968,325.0,116.58730158730158,313.25396825396825,42.460317460317455,302.46031746031747,54.047619047619044,284.04761904761904,50.71428571428571,138.015873015873,62.14285714285714,309.6031746031746,305.7936507936508,-268.015873015873,-95.79365079365078,-6.111111111111111,-15.158730158730158,-166.26984126984127
228,-55.15873015873016,301.5079365079365,20.238095238095237,320.87301587301585,-0.07936507936507936,270.87301587301585,70.71428571428571,325.0,107.85714285714285,313.25396825396825,41.03174603174603,280.39682539682536,66.11111111111111,280.39682539682536,46.42857142857142,90.55555555555556,140.87301587301587,309.6031746031746,289.9206349206349,-268.015873015873,-119.44444444444444,-3.571428571428571,-13.412698412698411,-166.26984126984127
229,-55.15873015873016,301.5079365079365,20.238095238095237,320.87301587301585,-0.07936507936507936,270.87301587301585,70.71428571428571,325.0,107.85714285714285,313.25396825396825,41.03174603174603,280.39682539682536,66.11111111111111,280.39682539682536,46.42857142857142,90.55555555555556,140.87301587301587,309.6031746031746,289.9206349206349,-268.015873015873,-119.44444444444444,-3.571428571428571,-13.412698412698411,-166.26984126984127
230,-54.36507936507936,263.73015873015873,3.4126984126984126,249.12698412698413,15.95238095238095,170.87301587301587,30.555555555555554,256.4285714285714,52.14285714285714,226.9047619047619,88.80952380952381,204.2063492063492,41.19047619047619,199.9206349206349,11.666666666666666,106.58730158730158,151.19047619047618,217.85714285714283,210.07936507936506,-132.61904761904762,129.76190476190476,13.888888888888888,9.285714285714285,-321.8253968253968
231,-54.36507936507936,263.73015873015873,3.4126984126984126,249.12698412698413,15.95238095238095,170.87301587301587,30.555555555555554,256.4285714285714,52.14285714285714,226.9047619047619,88.80952380952381,204.2063492063492,41.19047619047619,199.9206349206349,11.666666666666666,106.58730158730158,151.19047619047618,217.85714285714283,210.07936507936506,-132.61904761904762,129.76190476190476,13.888888888888888,9.285714285714285,-321.8253968253968
232,-100.55555555555554,189.9206349206349,23.88888888888889,283.4126984126984,-136.42857142857142,196.42857142857142,64.84126984126983,279.2857142857143,72.77777777777777,238.17460317460316,-42.3015873015873,171.19047619047618,76.26984126984127,213.4126984126984,41.19047619047619,-308.17460317460313,181.66666666666666,231.98412698412696,180.87301587301587,-325.0,-276.74603174603175,19.444444444444443,18.174603174603174,-321.8253968253968
233,-100.55555555555554,189.9206349206349,23.88888888888889,283.4126984126984,-136.42857142857142,196.42857142857142,64.84126984126983,279.2857142857143,72.77777777777777,238.17460317460316,-42.3015873015873,171.19047619047618,76.26984126984127,213.4126984126984,41.19047619047619,-308.17460317460313,181.66666666666666,231.98412698412696,180.87301587301587,-325.0,-276.74603174603175,19.444444444444443,18.174603174603174,-321.8253968253968
234,-60.39682539682539,260.07936507936506,18.65079365079365,256.4285714285714,26.587301587301585,173.09523809523807,23.253968253968253,253.57142857142856,40.39682539682539,219.60317460317458,90.87301587301587,216.58730158730157,8.174603174603174,220.55555555555554,17.063492063492063,155.0,216.58730158730157,207.69841269841268,216.9047619047619,-114.04761904761904,119.76190476190476,-3.253968253968254,-4.523809523809524,-321.8253968253968
235,-60.39682539682539,260.07936507936506,18.65079365079365,256.4285714285714,26.587301587301585,173.09523809523807,23.253968253968253,253.57142857142856,40.39682539682539,219.60317460317458,90.87301587301587,216.58730158730157,8.174603174603174,220.55555555555554,17.063492063492063,155.0,216.58730158730157,207.69841269841268,216.9047619047619,-114.04761904761904,119.76190476190476,-3.253968253968254,-4.523809523809524,-321.8253968253968
236,-43.888888888888886,275.1587301587301,11.666666666666666,258.015873015873,71.03174603174602,179.12698412698413,25.79365079365079,263.25396825396825,47.698412698412696,238.49206349206347,92.46031746031746,232.93650793650792,18.174603174603174,219.76190476190476,12.777777777777777,214.68253968253967,149.12698412698413,221.03174603174602,236.42857142857142,-60.39682539682539,183.88888888888889,-15.158730158730158,-16.26984126984127,-321.8253968253968
237,-43.888888888888886,275.1587301587301,11.666666666666666,258.015873015873,71.03174603174602,179.12698412698413,25.79365079365079,263.25396825396825,47.698412698412696,238.49206349206347,92.46031746031746,232.93650793650792,18.174603174603174,219.76190476190476,12.777777777777777,214.68253968253967,149.12698412698413,221.03174603174602,236.42857142857142,-60.39682539682539,183.88888888888889,-15.158730158730158,-16.26984126984127,-321.8253968253968
238,-66.26984126984127,188.65079365079364,32.3015873015873,281.3492063492063,-22.46031746031746,191.98412698412696,80.23809523809523,276.58730158730157,99.12698412698413,249.12698412698413,-24.523809523809522,201.66666666666666,71.66666666666666,221.5079365079365,44.2063492063492,15.317460317460316,118.33333333333333,235.79365079365078,209.44444444444443,-296.74603174603175,-206.26984126984127,-5.634920634920634,-3.571428571428571,-321.8253968253968
239,-66.26984126984127,188.65079365079364,32.3015873015873,281.3492063492063,-22.46031746031746,191.98412698412696,80.23809523809523,276.58730158730157,99.12698412698413,249.12698412698413,-24.523809523809522,201.66666666666666,71.66666666666666,221.5079365079365,44.2063492063492,15.317460317460316,118.33333333333333,235.79365079365078,209.44444444444443,-296.74603174603175,-206.26984126984127,-5.634920634920634,-3.571428571428571,-321.8253968253968
240,-63.888888888888886,152.77777777777777,34.682539682539684,249.9206349206349,-23.57142857142857,159.44444444444443,83.09523809523809,245.47619047619045,101.19047619047619,210.3968253968254,-22.3015873015873,165.0,80.71428571428571,191.8253968253968,42.3015873015873,83.4126984126984,127.22222222222221,200.07936507936506,172.61904761904762,-325.0,-325.0,-11.349206349206348,-19.6031746031746,-166.26984126984127
241,-63.888888888888886,152.77777777777777,34.682539682539684,249.9206349206349,-23.57142857142857,159.44444444444443,83.09523809523809,245.47619047619045,101.19047619047619,210.3968253968254,-22.3015873015873,165.0,80.71428571428571,191.8253968253968,42.3015873015873,83.4126984126984,127.22222222222221,200.07936507936506,172.61904761904762,-325.0,-325.0,-11.349206349206348,-19.6031746031746,-166.26984126984127
242,-51.98412698412698,108.49206349206348,45.317460317460316,201.03174603174602,-23.57142857142857,118.8095238095238,88.01587301587301,193.25396825396825,101.98412698412697,153.73015873015873,-16.746031746031743,114.84126984126983,98.49206349206348,150.07936507936506,51.03174603174603,26.587301587301585,-3.4126984126984126,145.0,122.30158730158729,-325.0,-325.0,-9.761904761904761,-17.539682539682538,-166.26984126984127
243,-51.98412698412698,108.49206349206348,45.317460317460316,201.03174603174602,-23.57142857142857,118.8095238095238,88.01587301587301,193.25396825396825,101.98412698412697,153.73015873015873,-16.746031746031743,114.84126984126983,98.49206349206348,150.07936507936506,51.03174603174603,26.587301587301585,-3.4126984126984126,145.0,122.30158730158729,-325.0,-325.0,-9.761904761904761,-17.539682539682538,-166.26984126984127
244,-22.3015873015873,133.0952380952381,31.666666666666664,104.2063492063492,93.4126984126984,41.34920634920635,42.61904761904761,103.57142857142857,54.2063492063492,64.68253968253968,109.28571428571428,90.55555555555556,35.63492063492063,74.84126984126983,23.41269841269841,270.87301587301585,-185.47619047619045,61.19047619047619,90.07936507936508,-90.55555555555556,-3.4126984126984126,-8.174603174603174,-20.396825396825395,-166.26984126984127
245,-22.3015873015873,133.0952380952381,31.666666666666664,104.2063492063492,93.4126984126984,41.34920634920635,42.61904761904761,103.57142857142857,54.2063492063492,64.68253968253968,109.28571428571428,90.55555555555556,35.63492063492063,74.84126984126983,23.41269841269841,270.87301587301585,-185.47619047619045,61.19047619047619,90.07936507936508,-90.55555555555556,-3.4126984126984126,-8.174603174603174,-20.396825396825395,-166.26984126984127
246,-39.6031746031746,199.76190476190476,39.92063492063492,214.52380952380952,31.666666666666664,174.52380952380952,61.19047619047619,214.2063492063492,70.07936507936508,194.84126984126982,46.904761904761905,193.09523809523807,71.34920634920634,184.84126984126982,37.22222222222222,160.3968253968254,-71.03174603174602,186.9047619047619,191.5079365079365,-207.85714285714283,-128.4920634920635,-11.19047619047619,-20.71428571428571,-166.26984126984127
247,-39.6031746031746,199.76190476190476,39.92063492063492,214.52380952380952,31.666666666666664,174.52380952380952,61.19047619047619,214.2063492063492,70.07936507936508,194.84126984126982,46.904761904761905,193.09523809523807,71.34920634920634,184.84126984126982,37.22222222222222,160.3968253968254,-71.03174603174602,186.9047619047619,191.5079365079365,-207.85714285714283,-128.4920634920635,-11.19047619047619,-20.71428571428571,-166.26984126984127
248,-41.34920634920635,295.6349206349206,37.06349206349206,325.0,28.96825396825397,287.22222222222223,55.95238095238095,323.88888888888886,68.4920634920635,313.73015873015873,45.317460317460316,309.9206349206349,70.87301587301587,289.9206349206349,33.095238095238095,154.84126984126982,77.6984126984127,299.2857142857143,298.3333333333333,-116.26984126984127,29.76190476190476,-6.587301587301587,-6.111111111111111,-166.26984126984127
249,-41.34920634920635,295.6349206349206,37.06349206349206,325.0,28.96825396825397,287.22222222222223,55.95238095238095,323.88888888888886,68.4920634920635,313.73015873015873,45.317460317460316,309.9206349206349,70.87301587301587,289.9206349206349,33.095238095238095,154.84126984126982,77.6984126984127,299.2857142857143,298.3333333333333,-116.26984126984127,29.76190476190476,-6.587301587301587,-6.111111111111111,-166.26984126984127
250,-58.01587301587301,325.0,41.03174603174603,325.0,-47.22222222222222,325.0,63.57142857142857,325.0,80.07936507936508,325.0,-23.57142857142857,325.0,44.2063492063492,325.0,38.17460317460317,-66.58730158730158,158.8095238095238,325.0,325.0,-312.1428571428571,13.253968253968253,5.634920634920634,17.063492063492063,-321.8253968253968
251,-58.01587301587301,325.0,41.03174603174603,325.0,-47.22222222222222,325.0,63.57142857142857,325.0,80.07936507936508,325.0,-23.57142857142857,325.0,44.2063492063492,325.0,38.17460317460317,-66.58730158730158,158.8095238095238,325.0,325.0,-312.1428571428571,13.253968253968253,5.634920634920634,17.063492063492063,-321.8253968253968
252,-2.46031746031746,325.0,35.95238095238095,325.0,79.6031746031746,325.0,18.015873015873016,325.0,36.904761904761905,325.0,113.73015873015872,325.0,37.22222222222222,325.0,12.936507936507935,270.07936507936506,176.58730158730157,325.0,325.0,-86.74603174603175,248.65079365079364,-6.587301587301587,-8.333333333333332,-321.8253968253968
253,-2.46031746031746,325.0,35.95238095238095,325.0,79.6031746031746,325.0,18.015873015873016,325.0,36.904761904761905,325.0,113.73015873015872,325.0,37.22222222222222,325.0,12.936507936507935,270.07936507936506,176.58730158730157,325.0,325.0,-86.74603174603175,248.65079365079364,-6.587301587301587,-8.333333333333332,-321.8253968253968
254,-38.96825396825397,300.55555555555554,47.698412698412696,325.0,-38.96825396825397,302.6190476190476,70.71428571428571,325.0,83.09523809523809,312.46031746031747,-6.587301587301587,298.6507936507936,98.49206349206348,308.6507936507936,47.53968253968254,-40.55555555555555,88.4920634920635,307.69841269841265,296.74603174603175,-305.4761904761905,-176.58730158730157,-0.873015873015873,1.0317460317460316,-321.8253968253968
255,-38.96825396825397,300.55555555555554,47.698412698412696,325.0,-38.96825396825397,302.6190476190476,70.71428571428571,325.0,83.09523809523809,312.46031746031747,-6.587301587301587,298.6507936507936,98.49206349206348,308.6507936507936,47.53968253968254,-40.55555555555555,88.4920634920635,307.69841269841265,296.74603174603175,-305.4761904761905,-176.58730158730157,-0.873015873015873,1.0317460317460316,-321.8253968253968
256,-33.25396825396825,246.26984126984127,37.38095238095238,253.57142857142856,29.285714285714285,198.4920634920635,62.77777777777777,250.87301587301585,76.58730158730158,224.2063492063492,54.2063492063492,219.28571428571428,68.4920634920635,213.09523809523807,42.14285714285714,116.1111111111111,70.39682539682539,219.9206349206349,218.8095238095238,-78.65079365079364,-16.904761904761905,-0.7142857142857142,-1.1904761904761905,-321.8253968253968
257,-33.25396825396825,246.26984126984127,37.38095238095238,253.57142857142856,29.285714285714285,198.4920634920635,62.77777777777777,250.87301587301585,76.58730158730158,224.2063492063492,54.2063492063492,219.28571428571428,68.4920634920635,213.09523809523807,42.14285714285714,116.1111111111111,70.39682539682539,219.9206349206349,218.8095238095238,-78.65079365079364,-16.904761904761905,-0.7142857142857142,-1.1904761904761905,-321.8253968253968
258,-15.476190476190474,266.74603174603175,41.666666666666664,255.79365079365078,101.66666666666666,201.03174603174602,57.857142857142854,259.2857142857143,86.1111111111111,217.2222222222222,117.06349206349206,225.47619047619045,44.52380952380952,209.44444444444443,33.73015873015873,226.1111111111111,133.57142857142856,215.47619047619045,232.93650793650792,1.6666666666666665,187.38095238095238,-0.5555555555555556,-2.619047619047619,-321.8253968253968
259,-15.476190476190474,266.74603174603175,41.666666666666664,255.79365079365078,101.66666666666666,201.03174603174602,57.857142857142854,259.2857142857143,86.1111111111111,217.2222222222222,117.06349206349206,225.47619047619045,44.52380952380952,209.44444444444443,33.73015873015873,226.1111111111111,133.57142857142856,215.47619047619045,232.93650793650792,1.6666666666666665,187.38095238095238,-0.5555555555555556,-2.619047619047619,-321.8253968253968
260,-37.38095238095238,263.0952380952381,45.15873015873016,325.0,-42.61904761904761,309.76190476190476,87.22222222222221,325.0,102.14285714285714,312.1428571428571,-21.507936507936506,272.6190476190476,104.52380952380952,312.1428571428571,56.42857142857142,-138.33333333333331,-257.06349206349205,309.1269841269841,282.9365079365079,-295.6349206349206,-173.25396825396825,5.0,5.952380952380952,-166.26984126984127
261,-37.38095238095238,263.0952380952381,45.15873015873016,325.0,-42.61904761904761,309.76190476190476,87.22222222222221,325.0,102.14285714285714,312.1428571428571,-21.507936507936506,272.6190476190476,104.52380952380952,312.1428571428571,56.42857142857142,-138.33333333333331,-257.06349206349205,309.1269841269841,282.9365079365079,-295.6349206349206,-173.25396825396825,5.0,5.952380952380952,-166.26984126984127
262,-32.460317460317455,271.19047619047615,28.174603174603174,263.88888888888886,78.17460317460316,219.76190476190476,40.238095238095234,265.95238095238096,48.96825396825397,215.0,101.34920634920634,233.57142857142856,17.38095238095238,215.0,23.41269841269841,264.04761904761904,-325.0,212.77777777777777,227.69841269841268,-139.6031746031746,93.4126984126984,-9.444444444444445,-19.76190476190476,-166.26984126984127
263,-32.460317460317455,271.19047619047615,28.174603174603174,263.88888888888886,78.17460317460316,219.76190476190476,40.238095238095234,265.95238095238096,48.96825396825397,215.0,101.34920634920634,233.57142857142856,17.38095238095238,215.0,23.41269841269841,264.04761904761904,-325.0,212.77777777777777,227.69841269841268,-139.6031746031746,93.4126984126984,-9.444444444444445,-19.76190476190476,-166.26984126984127
264,-63.095238095238095,210.2380952380952,43.73015873015873,306.26984126984127,-53.888888888888886,250.07936507936506,81.98412698412697,291.984126984127,81.34920634920634,248.65079365079364,-23.730158730158728,218.17460317460316,81.98412698412697,243.4126984126984,56.42857142857142,-164.2063492063492,-325.0,247.06349206349205,210.07936507936506,-287.38095238095235,-209.9206349206349,3.253968253968254,3.73015873015873,-166.26984126984127
265,-63.095238095238095,210.2380952380952,43.73015873015873,306.26984126984127,-53.888888888888886,250.07936507936506,81.98412698412697,291.984126984127,81.34920634920634,248.65079365079364,-23.730158730158728,218.17460317460316,81.98412698412697,243.4126984126984,56.42857142857142,-164.2063492063492,-325.0,247.06349206349205,210.07936507936506,-287.38095238095235,-209.9206349206349,3.253968253968254,3.73015873015873,-166.26984126984127
266,-22.46031746031746,311.031746031746,25.634920634920633,300.07936507936506,66.26984126984127,273.4126984126984,38.96825396825397,297.38095238095235,52.93650793650794,278.968253968254,104.04761904761904,291.19047619047615,26.428571428571427,249.60317460317458,25.634920634920633,244.04761904761904,-325.0,279.76190476190476,280.07936507936506,-59.285714285714285,197.38095238095238,0.3968253968253968,-2.3015873015873014,-166.26984126984127
267,-22.46031746031746,311.031746031746,25.634920634920633,300.07936507936506,66.26984126984127,273.4126984126984,38.96825396825397,297.38095238095235,52.93650793650794,278.968253968254,104.04761904761904,291.19047619047615,26.428571428571427,249.60317460317458,25.634920634920633,244.04761904761904,-325.0,279.76190476190476,280.07936507936506,-59.285714285714285,197.38095238095238,0.3968253968253968,-2.3015873015873014,-166.26984126984127
268,-32.3015873015873,325.0,35.63492063492063,325.0,0.23809523809523808,323.4126984126984,55.476190476190474,325.0,76.1111111111111,325.0,41.34920634920635,325.0,61.82539682539682,313.73015873015873,33.888888888888886,114.68253968253967,-325.0,325.0,325.0,-143.4126984126984,52.61904761904761,1.8253968253968254,1.0317460317460316,-166.26984126984127
269,-32.3015873015873,325.0,35.63492063492063,325.0,0.23809523809523808,323.4126984126984,55.476190476190474,325.0,76.1111111111111,325.0,41.34920634920635,325.0,61.82539682539682,313.73015873015873,33.888888888888886,114.68253968253967,-325.0,325.0,325.0,-143.4126984126984,52.61904761904761,1.8253968253968254,1.0317460317460316,-166.26984126984127
270,-20.873015873015873,325.0,29.444444444444443,319.6031746031746,58.33333333333333,247.53968253968253,27.698412698412696,310.55555555555554,59.285714285714285,274.04761904761904,106.74603174603175,298.3333333333333,46.11111111111111,294.36507936507934,18.015873015873016,266.58730158730157,-325.0,268.4920634920635,269.6031746031746,-177.85714285714286,143.4126984126984,-9.920634920634921,-21.507936507936506,-321.8253968253968
271,-20.873015873015873,325.0,29.444444444444443,319.6031746031746,58.33333333333333,247.53968253968253,27.698412698412696,310.55555555555554,59.285714285714285,274.04761904761904,106.74603174603175,298.3333333333333,46.11111111111111,294.36507936507934,18.015873015873016,266.58730158730157,-325.0,268.4920634920635,269.6031746031746,-177.85714285714286,143.4126984126984,-9.920634920634921,-21.507936507936506,-321.8253968253968
272,-39.285714285714285,214.84126984126982,44.84126984126984,301.66666666666663,-75.15873015873015,231.8253968253968,62.3015873015873,283.4126984126984,77.85714285714285,252.93650793650792,-34.52380952380952,220.55555555555554,98.01587301587301,238.33333333333331,44.36507936507936,-292.46031746031747,-325.0,247.85714285714283,219.76190476190476,-263.73015873015873,-120.07936507936508,13.095238095238095,24.84126984126984,-321.8253968253968
273,-39.285714285714285,214.84126984126982,44.84126984126984,301.66666666666663,-75.15873015873015,231.8253968253968,62.3015873015873,283.4126984126984,77.85714285714285,252.93650793650792,-34.52380952380952,220.55555555555554,98.01587301587301,238.33333333333331,44.36507936507936,-292.46031746031747,-325.0,247.85714285714283,219.76190476190476,-263.73015873015873,-120.07936507936508,13.095238095238095,24.84126984126984,-321.8253968253968
274,-31.507936507936506,218.8095238095238,13.888888888888888,197.53968253968253,52.3015873015873,133.25396825396825,14.047619047619047,196.42857142857142,13.73015873015873,158.96825396825395,89.6031746031746,179.76190476190476,-13.73015873015873,135.3174603174603,-2.142857142857143,201.19047619047618,-325.0,154.68253968253967,166.26984126984127,-21.825396825396822,154.52380952380952,0.3968253968253968,-1.8253968253968254,-321.8253968253968
275,-31.507936507936506,218.8095238095238,13.888888888888888,197.53968253968253,52.3015873015873,133.25396825396825,14.047619047619047,196.42857142857142,13.73015873015873,158.96825396825395,89.6031746031746,179.76190476190476,-13.73015873015873,135.3174603174603,-2.142857142857143,201.19047619047618,-325.0,154.68253968253967,166.26984126984127,-21.825396825396822,154.52380952380952,0.3968253968253968,-1.8253968253968254,-321.8253968253968
276,-49.285714285714285,133.88888888888889,24.84126984126984,193.25396825396825,-63.41269841269841,124.36507936507935,63.73015873015873,183.09523809523807,51.98412698412698,144.36507936507937,-40.55555555555555,114.84126984126983,69.12698412698413,133.4126984126984,30.07936507936508,-201.8253968253968,-325.0,141.984126984127,103.4126984126984,-276.58730158730157,-238.015873015873,1.1904761904761905,2.46031746031746,-321.8253968253968
277,-49.285714285714285,133.88888888888889,24.84126984126984,193.25396825396825,-63.41269841269841,124.36507936507935,63.73015873015873,183.09523809523807,51.98412698412698,144.36507936507937,-40.55555555555555,114.84126984126983,69.12698412698413,133.4126984126984,30.07936507936508,-201.8253968253968,-325.0,141.984126984127,103.4126984126984,-276.58730158730157,-238.015873015873,1.1904761904761905,2.46031746031746,-321.8253968253968
278,-32.61904761904762,118.65079365079364,7.857142857142857,83.57142857142857,71.5079365079365,23.730158730158728,27.698412698412696,80.87301587301587,18.174603174603174,46.74603174603175,81.66666666666666,69.28571428571428,43.73015873015873,70.07936507936508,0.5555555555555556,200.7142857142857,-325.0,48.650793650793645,47.06349206349206,44.2063492063492,136.26984126984127,-2.142857142857143,-4.0476190476190474,-321.8253968253968
279,-32.61904761904762,118.65079365079364,7.857142857142857,83.57142857142857,71.5079365079365,23.730158730158728,27.698412698412696,80.87301587301587,18.174603174603174,46.74603174603175,81.66666666666666,69.28571428571428,43.73015873015873,70.07936507936508,0.5555555555555556,200.7142857142857,-325.0,48.650793650793645,47.06349206349206,44.2063492063492,136.26984126984127,-2.142857142857143,-4.0476190476190474,-321.8253968253968
280,-24.523809523809522,145.0,18.96825396825397,111.03174603174602,83.4126984126984,67.53968253968253,33.73015873015873,99.76190476190476,18.49206349206349,71.82539682539682,89.92063492063491,88.80952380952381,28.49206349206349,79.44444444444444,17.698412698412696,187.85714285714283,-325.0,81.19047619047619,76.42857142857143,164.36507936507937,278.968253968254,6.428571428571428,14.84126984126984,-166.26984126984127
281,-24.523809523809522,145.0,18.96825396825397,111.03174603174602,83.4126984126984,67.53968253968253,33.73015873015873,99.76190476190476,18.49206349206349,71.82539682539682,89.92063492063491,88.80952380952381,28.49206349206349,79.44444444444444,17.698412698412696,187.85714285714283,-325.0,81.19047619047619,76.42857142857143,164.36507936507937,278.968253968254,6.428571428571428,14.84126984126984,-166.26984126984127
282,-24.523809523809522,145.0,18.96825396825397,111.03174603174602,83.4126984126984,67.53968253968253,33.73015873015873,99.76190476190476,18.49206349206349,71.82539682539682,89.92063492063491,88.80952380952381,28.49206349206349,79.44444444444444,17.698412698412696,187.85714285714283,-325.0,81.19047619047619,76.42857142857143,164.36507936507937,278.968253968254,6.428571428571428,14.84126984126984,-166.26984126984127
283,-24.523809523809522,145.0,18.96825396825397,111.03174603174602,83.4126984126984,67.53968253968253,33.73015873015873,99.76190476190476,18.49206349206349,71.82539682539682,89.92063492063491,88.80952380952381,28.49206349206349,79.44444444444444,17.698412698412696,187.85714285714283,-325.0,81.19047619047619,76.42857142857143,164.36507936507937,278.968253968254,6.428571428571428,14.84126984126984,-166.26984126984127
