,Fp1[1],Fp2[2],F3[3],F4[4],C3[5],C4[6],P3[7],P4[8],O1[9],O2[10],F7[11],F8[12],T3[13],T4[14],T5[15],T6[16],Fz[17],Pz[18],Cz[19],Pg1[20],Pg2[21],EOGR[22],EOOGL[23],EMG[24]
0,-250.7142857142857,325.0,-251.19047619047618,-22.936507936507937,-251.98412698412696,325.0,-253.7301587301587,325.0,-252.46031746031744,-285.95238095238096,-260.39682539682536,-25.476190476190474,-254.68253968253967,75.31746031746032,-252.93650793650792,325.0,-275.95238095238096,325.0,-162.3015873015873,-325.0,-260.7142857142857,-3.253968253968254,3.571428571428571,-166.26984126984127
1,-250.7142857142857,325.0,-251.19047619047618,-22.936507936507937,-251.98412698412696,325.0,-253.7301587301587,325.0,-252.46031746031744,-285.95238095238096,-260.39682539682536,-25.476190476190474,-254.68253968253967,75.31746031746032,-252.93650793650792,325.0,-275.95238095238096,325.0,-162.3015873015873,-325.0,-260.7142857142857,-3.253968253968254,3.571428571428571,-166.26984126984127
2,-246.74603174603172,325.0,-246.26984126984127,-16.26984126984127,-248.33333333333331,325.0,-250.2380952380952,325.0,-250.2380952380952,-273.4126984126984,-258.8095238095238,-16.746031746031743,-250.55555555555554,71.66666666666666,-249.60317460317458,325.0,-273.57142857142856,325.0,-127.6984126984127,-325.0,-212.77777777777777,-4.365079365079365,2.46031746031746,-166.26984126984127
3,-246.74603174603172,325.0,-246.26984126984127,-16.26984126984127,-248.33333333333331,325.0,-250.2380952380952,325.0,-250.2380952380952,-273.4126984126984,-258.8095238095238,-16.746031746031743,-250.55555555555554,71.66666666666666,-249.60317460317458,325.0,-273.57142857142856,325.0,-127.6984126984127,-325.0,-212.77777777777777,-4.365079365079365,2.46031746031746,-166.26984126984127
4,-229.44444444444443,325.0,-228.49206349206347,-7.857142857142857,-231.98412698412696,325.0,-233.09523809523807,325.0,-234.84126984126982,-251.03174603174602,-245.47619047619045,-5.476190476190476,-234.04761904761904,65.47619047619047,-232.6190476190476,325.0,-257.85714285714283,325.0,-72.93650793650794,-325.0,-127.85714285714285,-4.365079365079365,2.46031746031746,-166.26984126984127
5,-229.44444444444443,325.0,-228.49206349206347,-7.857142857142857,-231.98412698412696,325.0,-233.09523809523807,325.0,-234.84126984126982,-251.03174603174602,-245.47619047619045,-5.476190476190476,-234.04761904761904,65.47619047619047,-232.6190476190476,325.0,-257.85714285714283,325.0,-72.93650793650794,-325.0,-127.85714285714285,-4.365079365079365,2.46031746031746,-166.26984126984127
6,-226.26984126984127,325.0,-225.47619047619045,-7.698412698412698,-229.12698412698413,325.0,-229.76190476190476,325.0,-231.98412698412696,-246.58730158730157,-242.93650793650792,-5.0,-231.03174603174602,64.36507936507937,-229.60317460317458,325.0,-254.2063492063492,325.0,-65.47619047619047,-325.0,-113.25396825396825,-4.0476190476190474,2.3015873015873014,-166.26984126984127
7,-226.26984126984127,325.0,-225.47619047619045,-7.698412698412698,-229.12698412698413,325.0,-229.76190476190476,325.0,-231.98412698412696,-246.58730158730157,-242.93650793650792,-5.0,-231.03174603174602,64.36507936507937,-229.60317460317458,325.0,-254.2063492063492,325.0,-65.47619047619047,-325.0,-113.25396825396825,-4.0476190476190474,2.3015873015873014,-166.26984126984127
8,-229.60317460317458,325.0,-228.8095238095238,-5.0,-231.98412698412696,325.0,-232.77777777777777,325.0,-234.52380952380952,-240.3968253968254,-245.3174603174603,-2.619047619047619,-231.98412698412696,62.61904761904761,-230.3968253968254,325.0,-252.93650793650792,325.0,-52.61904761904761,-325.0,-90.23809523809523,0.23809523809523808,-0.23809523809523808,-166.26984126984127
9,-229.60317460317458,325.0,-228.8095238095238,-5.0,-231.98412698412696,325.0,-232.77777777777777,325.0,-234.52380952380952,-240.3968253968254,-245.3174603174603,-2.619047619047619,-231.98412698412696,62.61904761904761,-230.3968253968254,325.0,-252.93650793650792,325.0,-52.61904761904761,-325.0,-90.23809523809523,0.23809523809523808,-0.23809523809523808,-166.26984126984127
10,-239.60317460317458,325.0,-238.65079365079364,1.507936507936508,-242.93650793650792,325.0,-244.04761904761904,325.0,-246.9047619047619,-228.49206349206347,-257.22222222222223,3.888888888888889,-242.93650793650792,59.285714285714285,-242.3015873015873,325.0,-259.1269841269841,325.0,-28.333333333333332,-325.0,-47.38095238095238,-0.3968253968253968,-1.0317460317460316,-321.8253968253968
11,-239.60317460317458,325.0,-238.65079365079364,1.507936507936508,-242.93650793650792,325.0,-244.04761904761904,325.0,-246.9047619047619,-228.49206349206347,-257.22222222222223,3.888888888888889,-242.93650793650792,59.285714285714285,-242.3015873015873,325.0,-259.1269841269841,325.0,-28.333333333333332,-325.0,-47.38095238095238,-0.3968253968253968,-1.0317460317460316,-321.8253968253968
12,-232.14285714285714,325.0,-231.03174603174602,8.65079365079365,-235.79365079365078,325.0,-236.42857142857142,325.0,-240.3968253968254,-219.12698412698413,-250.2380952380952,10.714285714285714,-235.79365079365078,56.74603174603174,-234.36507936507934,318.968253968254,-248.015873015873,325.0,-8.968253968253968,-325.0,-12.619047619047619,-3.4126984126984126,2.46031746031746,-321.8253968253968
13,-232.14285714285714,325.0,-231.03174603174602,8.65079365079365,-235.79365079365078,325.0,-236.42857142857142,325.0,-240.3968253968254,-219.12698412698413,-250.2380952380952,10.714285714285714,-235.79365079365078,56.74603174603174,-234.36507936507934,318.968253968254,-248.015873015873,325.0,-8.968253968253968,-325.0,-12.619047619047619,-3.4126984126984126,2.46031746031746,-321.8253968253968
14,-219.28571428571428,325.0,-217.2222222222222,11.507936507936508,-223.09523809523807,325.0,-223.88888888888889,325.0,-228.65079365079364,-206.42857142857142,-237.06349206349205,11.507936507936508,-222.61904761904762,53.25396825396825,-221.34920634920633,303.73015873015873,-230.3968253968254,325.0,7.222222222222221,-325.0,21.349206349206348,-1.349206349206349,-0.5555555555555556,-321.8253968253968
15,-219.28571428571428,325.0,-217.2222222222222,11.507936507936508,-223.09523809523807,325.0,-223.88888888888889,325.0,-228.65079365079364,-206.42857142857142,-237.06349206349205,11.507936507936508,-222.61904761904762,53.25396825396825,-221.34920634920633,303.73015873015873,-230.3968253968254,325.0,7.222222222222221,-325.0,21.349206349206348,-1.349206349206349,-0.5555555555555556,-321.8253968253968
16,-216.42857142857142,325.0,-215.3174603174603,12.936507936507935,-220.3968253968254,324.04761904761904,-220.7142857142857,325.0,-225.15873015873015,-202.77777777777777,-233.4126984126984,10.079365079365079,-216.58730158730157,52.3015873015873,-216.58730158730157,298.6507936507936,-222.3015873015873,325.0,9.126984126984127,-325.0,29.920634920634917,0.873015873015873,-0.07936507936507936,-321.8253968253968
17,-216.42857142857142,325.0,-215.3174603174603,12.936507936507935,-220.3968253968254,324.04761904761904,-220.7142857142857,325.0,-225.15873015873015,-202.77777777777777,-233.4126984126984,10.079365079365079,-216.58730158730157,52.3015873015873,-216.58730158730157,298.6507936507936,-222.3015873015873,325.0,9.126984126984127,-325.0,29.920634920634917,0.873015873015873,-0.07936507936507936,-321.8253968253968
18,-222.46031746031744,325.0,-220.3968253968254,22.777777777777775,-226.74603174603175,317.85714285714283,-226.9047619047619,321.5079365079365,-232.3015873015873,-198.4920634920635,-240.2380952380952,18.49206349206349,-226.58730158730157,51.34920634920635,-224.04761904761904,292.3015873015873,-231.19047619047618,319.4444444444444,22.619047619047617,-325.0,46.904761904761905,-3.888888888888889,1.507936507936508,-321.8253968253968
19,-222.46031746031744,325.0,-220.3968253968254,22.777777777777775,-226.74603174603175,317.85714285714283,-226.9047619047619,321.5079365079365,-232.3015873015873,-198.4920634920635,-240.2380952380952,18.49206349206349,-226.58730158730157,51.34920634920635,-224.04761904761904,292.3015873015873,-231.19047619047618,319.4444444444444,22.619047619047617,-325.0,46.904761904761905,-3.888888888888889,1.507936507936508,-321.8253968253968
20,-201.03174603174602,325.0,-199.9206349206349,26.11111111111111,-205.47619047619045,303.25396825396825,-205.15873015873015,307.06349206349205,-210.3968253968254,-189.44444444444443,-216.9047619047619,17.063492063492063,-200.87301587301587,42.14285714285714,-200.55555555555554,278.8095238095238,-202.3015873015873,305.1587301587301,28.809523809523807,-321.66666666666663,65.63492063492063,1.507936507936508,-0.07936507936507936,-166.26984126984127
21,-201.03174603174602,325.0,-199.9206349206349,26.11111111111111,-205.47619047619045,303.25396825396825,-205.15873015873015,307.06349206349205,-210.3968253968254,-189.44444444444443,-216.9047619047619,17.063492063492063,-200.87301587301587,42.14285714285714,-200.55555555555554,278.8095238095238,-202.3015873015873,305.1587301587301,28.809523809523807,-321.66666666666663,65.63492063492063,1.507936507936508,-0.07936507936507936,-166.26984126984127
22,-207.06349206349205,325.0,-205.47619047619045,31.666666666666664,-211.03174603174602,302.1428571428571,-211.5079365079365,305.95238095238096,-216.26984126984127,-188.65079365079364,-222.3015873015873,22.3015873015873,-205.3174603174603,36.74603174603175,-206.1111111111111,277.6984126984127,-206.58730158730157,304.04761904761904,34.36507936507936,-320.39682539682536,71.98412698412697,4.682539682539682,-3.4126984126984126,-166.26984126984127
23,-207.06349206349205,325.0,-205.47619047619045,31.666666666666664,-211.03174603174602,302.1428571428571,-211.5079365079365,305.95238095238096,-216.26984126984127,-188.65079365079364,-222.3015873015873,22.3015873015873,-205.3174603174603,36.74603174603175,-206.1111111111111,277.6984126984127,-206.58730158730157,304.04761904761904,34.36507936507936,-320.39682539682536,71.98412698412697,4.682539682539682,-3.4126984126984126,-166.26984126984127
24,12.777777777777777,-12.777777777777777,11.031746031746032,12.3015873015873,8.968253968253968,164.04761904761904,11.349206349206348,167.38095238095238,10.873015873015872,-102.93650793650794,4.0476190476190474,7.5396825396825395,12.3015873015873,-120.55555555555554,12.3015873015873,-39.44444444444444,77.06349206349206,80.39682539682539,24.206349206349206,-173.4126984126984,-115.47619047619047,-5.0,2.619047619047619,-166.26984126984127
25,12.777777777777777,-12.777777777777777,11.031746031746032,12.3015873015873,8.968253968253968,164.04761904761904,11.349206349206348,167.38095238095238,10.873015873015872,-102.93650793650794,4.0476190476190474,7.5396825396825395,12.3015873015873,-120.55555555555554,12.3015873015873,-39.44444444444444,77.06349206349206,80.39682539682539,24.206349206349206,-173.4126984126984,-115.47619047619047,-5.0,2.619047619047619,-166.26984126984127
26,186.26984126984127,-325.0,183.4126984126984,-7.698412698412698,188.17460317460316,58.17460317460317,188.96825396825395,-68.33333333333333,195.3174603174603,-37.06349206349206,187.69841269841268,-0.07936507936507936,191.8253968253968,-297.53968253968253,189.76190476190476,-325.0,325.0,-325.0,4.841269841269841,-60.873015873015866,-325.0,-5.158730158730158,3.4126984126984126,-166.26984126984127
27,186.26984126984127,-325.0,183.4126984126984,-7.698412698412698,188.17460317460316,58.17460317460317,188.96825396825395,-68.33333333333333,195.3174603174603,-37.06349206349206,187.69841269841268,-0.07936507936507936,191.8253968253968,-297.53968253968253,189.76190476190476,-325.0,325.0,-325.0,4.841269841269841,-60.873015873015866,-325.0,-5.158730158730158,3.4126984126984126,-166.26984126984127
28,186.26984126984127,-325.0,183.4126984126984,-7.698412698412698,188.17460317460316,58.17460317460317,188.96825396825395,-68.33333333333333,195.3174603174603,-37.06349206349206,187.69841269841268,-0.07936507936507936,191.8253968253968,-297.53968253968253,189.76190476190476,-325.0,325.0,-325.0,4.841269841269841,-60.873015873015866,-325.0,-5.158730158730158,3.4126984126984126,-166.26984126984127
29,186.26984126984127,-325.0,183.4126984126984,-7.698412698412698,188.17460317460316,58.17460317460317,188.96825396825395,-68.33333333333333,195.3174603174603,-37.06349206349206,187.69841269841268,-0.07936507936507936,191.8253968253968,-297.53968253968253,189.76190476190476,-325.0,325.0,-325.0,4.841269841269841,-60.873015873015866,-325.0,-5.158730158730158,3.4126984126984126,-166.26984126984127
30,215.63492063492063,-290.07936507936506,208.4920634920635,-20.71428571428571,219.60317460317458,-325.0,219.44444444444443,-325.0,221.19047619047618,-26.587301587301585,214.2063492063492,-5.0,220.3968253968254,-233.7301587301587,217.2222222222222,-325.0,325.0,-325.0,-7.698412698412698,325.0,-284.2063492063492,-4.2063492063492065,4.2063492063492065,-321.8253968253968
31,215.63492063492063,-290.07936507936506,208.4920634920635,-20.71428571428571,219.60317460317458,-325.0,219.44444444444443,-325.0,221.19047619047618,-26.587301587301585,214.2063492063492,-5.0,220.3968253968254,-233.7301587301587,217.2222222222222,-325.0,325.0,-325.0,-7.698412698412698,325.0,-284.2063492063492,-4.2063492063492065,4.2063492063492065,-321.8253968253968
32,180.7142857142857,-286.74603174603175,175.47619047619045,-18.49206349206349,186.42857142857142,-325.0,184.52380952380952,-325.0,186.9047619047619,-26.11111111111111,180.7142857142857,-1.8253968253968254,185.47619047619045,-230.87301587301587,183.25396825396825,-325.0,325.0,-325.0,-4.841269841269841,325.0,-280.55555555555554,-4.0476190476190474,2.619047619047619,-321.8253968253968
33,180.7142857142857,-286.74603174603175,175.47619047619045,-18.49206349206349,186.42857142857142,-325.0,184.52380952380952,-325.0,186.9047619047619,-26.11111111111111,180.7142857142857,-1.8253968253968254,185.47619047619045,-230.87301587301587,183.25396825396825,-325.0,325.0,-325.0,-4.841269841269841,325.0,-280.55555555555554,-4.0476190476190474,2.619047619047619,-321.8253968253968
34,118.65079365079364,-279.6031746031746,114.52380952380952,-10.714285714285714,126.26984126984127,-325.0,121.98412698412697,-325.0,124.68253968253967,-25.317460317460316,118.65079365079364,6.26984126984127,125.15873015873015,-225.0,122.30158730158729,-325.0,325.0,-325.0,1.6666666666666665,325.0,-273.0952380952381,0.07936507936507936,-0.07936507936507936,-321.8253968253968
35,118.65079365079364,-279.6031746031746,114.52380952380952,-10.714285714285714,126.26984126984127,-325.0,121.98412698412697,-325.0,124.68253968253967,-25.317460317460316,118.65079365079364,6.26984126984127,125.15873015873015,-225.0,122.30158730158729,-325.0,325.0,-325.0,1.6666666666666665,325.0,-273.0952380952381,0.07936507936507936,-0.07936507936507936,-321.8253968253968
36,128.96825396825395,-276.1111111111111,124.84126984126983,-16.26984126984127,135.95238095238093,-325.0,132.14285714285714,-325.0,134.52380952380952,-25.158730158730158,129.12698412698413,1.349206349206349,134.68253968253967,-222.14285714285714,131.8253968253968,-325.0,325.0,-325.0,-3.253968253968254,325.0,-269.6031746031746,-0.23809523809523808,-1.0317460317460316,-321.8253968253968
37,128.96825396825395,-276.1111111111111,124.84126984126983,-16.26984126984127,135.95238095238093,-325.0,132.14285714285714,-325.0,134.52380952380952,-25.158730158730158,129.12698412698413,1.349206349206349,134.68253968253967,-222.14285714285714,131.8253968253968,-325.0,325.0,-325.0,-3.253968253968254,325.0,-269.6031746031746,-0.23809523809523808,-1.0317460317460316,-321.8253968253968
38,103.73015873015872,-270.55555555555554,100.39682539682539,-16.904761904761905,111.82539682539682,-325.0,106.58730158730158,-325.0,108.17460317460316,-24.523809523809522,103.09523809523809,1.1904761904761905,108.33333333333333,-217.53968253968253,106.1111111111111,-325.0,325.0,-325.0,-4.365079365079365,325.0,-263.57142857142856,-0.7142857142857142,-0.07936507936507936,-321.8253968253968
39,103.73015873015872,-270.55555555555554,100.39682539682539,-16.904761904761905,111.82539682539682,-325.0,106.58730158730158,-325.0,108.17460317460316,-24.523809523809522,103.09523809523809,1.1904761904761905,108.33333333333333,-217.53968253968253,106.1111111111111,-325.0,325.0,-325.0,-4.365079365079365,325.0,-263.57142857142856,-0.7142857142857142,-0.07936507936507936,-321.8253968253968
40,147.53968253968253,-267.22222222222223,141.34920634920636,-22.619047619047617,152.77777777777777,-325.0,151.03174603174602,-325.0,152.3015873015873,-24.206349206349206,146.26984126984127,-3.73015873015873,150.23809523809524,-214.36507936507937,148.4920634920635,-325.0,325.0,-325.0,-8.333333333333332,325.0,-260.07936507936506,5.317460317460317,-3.888888888888889,-166.26984126984127
41,147.53968253968253,-267.22222222222223,141.34920634920636,-22.619047619047617,152.77777777777777,-325.0,151.03174603174602,-325.0,152.3015873015873,-24.206349206349206,146.26984126984127,-3.73015873015873,150.23809523809524,-214.36507936507937,148.4920634920635,-325.0,325.0,-325.0,-8.333333333333332,325.0,-260.07936507936506,5.317460317460317,-3.888888888888889,-166.26984126984127
42,85.95238095238095,-262.77777777777777,82.77777777777777,-13.095238095238095,94.2063492063492,-325.0,88.01587301587301,-325.0,89.12698412698413,-23.88888888888889,84.68253968253968,5.317460317460317,90.55555555555556,-210.87301587301587,87.6984126984127,-325.0,325.0,-325.0,-1.0317460317460316,325.0,-255.63492063492063,-5.317460317460317,1.984126984126984,-166.26984126984127
43,85.95238095238095,-262.77777777777777,82.77777777777777,-13.095238095238095,94.2063492063492,-325.0,88.01587301587301,-325.0,89.12698412698413,-23.88888888888889,84.68253968253968,5.317460317460317,90.55555555555556,-210.87301587301587,87.6984126984127,-325.0,325.0,-325.0,-1.0317460317460316,325.0,-255.63492063492063,-5.317460317460317,1.984126984126984,-166.26984126984127
44,6.428571428571428,-198.4920634920635,3.888888888888889,-15.793650793650793,13.888888888888888,-325.0,6.111111111111111,-325.0,4.682539682539682,325.0,5.952380952380952,5.317460317460317,7.698412698412698,-156.58730158730157,3.888888888888889,-319.76190476190476,250.55555555555554,-325.0,-2.3015873015873014,325.0,-188.4920634920635,2.46031746031746,-4.682539682539682,-166.26984126984127
45,6.428571428571428,-198.4920634920635,3.888888888888889,-15.793650793650793,13.888888888888888,-325.0,6.111111111111111,-325.0,4.682539682539682,325.0,5.952380952380952,5.317460317460317,7.698412698412698,-156.58730158730157,3.888888888888889,-319.76190476190476,250.55555555555554,-325.0,-2.3015873015873014,325.0,-188.4920634920635,2.46031746031746,-4.682539682539682,-166.26984126984127
46,-48.33333333333333,-144.84126984126982,-49.6031746031746,-5.476190476190476,-44.84126984126984,-266.58730158730157,-49.285714285714285,-265.7936507936508,-49.12698412698413,-0.07936507936507936,-47.06349206349206,9.920634920634921,-47.53968253968254,-133.4126984126984,-49.92063492063492,-233.7301587301587,180.23809523809524,-263.73015873015873,4.2063492063492065,295.3174603174603,-135.15873015873015,-1.8253968253968254,-0.07936507936507936,-166.26984126984127
47,-48.33333333333333,-144.84126984126982,-49.6031746031746,-5.476190476190476,-44.84126984126984,-266.58730158730157,-49.285714285714285,-265.7936507936508,-49.12698412698413,-0.07936507936507936,-47.06349206349206,9.920634920634921,-47.53968253968254,-133.4126984126984,-49.92063492063492,-233.7301587301587,180.23809523809524,-263.73015873015873,4.2063492063492065,295.3174603174603,-135.15873015873015,-1.8253968253968254,-0.07936507936507936,-166.26984126984127
48,-84.84126984126983,-90.55555555555556,-83.88888888888889,1.507936507936508,-85.79365079365078,-206.26984126984127,-86.1111111111111,-204.84126984126982,-86.42857142857143,162.46031746031744,-83.57142857142857,10.238095238095237,-87.22222222222221,-106.9047619047619,-86.26984126984127,-146.42857142857142,108.80952380952381,-200.55555555555554,6.904761904761904,263.0952380952381,-80.87301587301587,-1.349206349206349,2.142857142857143,-166.26984126984127
49,-84.84126984126983,-90.55555555555556,-83.88888888888889,1.507936507936508,-85.79365079365078,-206.26984126984127,-86.1111111111111,-204.84126984126982,-86.42857142857143,162.46031746031744,-83.57142857142857,10.238095238095237,-87.22222222222221,-106.9047619047619,-86.26984126984127,-146.42857142857142,108.80952380952381,-200.55555555555554,6.904761904761904,263.0952380952381,-80.87301587301587,-1.349206349206349,2.142857142857143,-166.26984126984127
50,-146.58730158730157,-87.6984126984127,-145.0,1.507936507936508,-146.74603174603175,-199.76190476190476,-149.12698412698413,-198.4920634920635,-147.38095238095238,325.0,-144.2063492063492,10.396825396825395,-147.53968253968253,-93.4126984126984,-148.015873015873,-141.66666666666666,105.15873015873015,-194.2063492063492,7.222222222222221,254.52380952380952,-78.17460317460316,-0.873015873015873,-0.873015873015873,-321.8253968253968
51,-146.58730158730157,-87.6984126984127,-145.0,1.507936507936508,-146.74603174603175,-199.76190476190476,-149.12698412698413,-198.4920634920635,-147.38095238095238,325.0,-144.2063492063492,10.396825396825395,-147.53968253968253,-93.4126984126984,-148.015873015873,-141.66666666666666,105.15873015873015,-194.2063492063492,7.222222222222221,254.52380952380952,-78.17460317460316,-0.873015873015873,-0.873015873015873,-321.8253968253968
52,-26.428571428571427,-58.650793650793645,-25.317460317460316,-165.63492063492063,-26.9047619047619,-133.57142857142856,-24.68253968253968,-133.57142857142856,-20.71428571428571,-0.07936507936507936,98.17460317460316,-0.873015873015873,-21.349206349206348,-114.36507936507935,-20.873015873015873,-94.36507936507935,68.65079365079364,-130.7142857142857,-0.7142857142857142,168.96825396825395,124.36507936507935,-3.73015873015873,4.2063492063492065,-321.8253968253968
53,-26.428571428571427,-58.650793650793645,-25.317460317460316,-165.63492063492063,-26.9047619047619,-133.57142857142856,-24.68253968253968,-133.57142857142856,-20.71428571428571,-0.07936507936507936,98.17460317460316,-0.873015873015873,-21.349206349206348,-114.36507936507935,-20.873015873015873,-94.36507936507935,68.65079365079364,-130.7142857142857,-0.7142857142857142,168.96825396825395,124.36507936507935,-3.73015873015873,4.2063492063492065,-321.8253968253968
54,76.1111111111111,-31.19047619047619,76.42857142857143,-325.0,74.68253968253968,-71.03174603174602,78.80952380952381,-71.98412698412697,83.73015873015872,-325.0,323.25396825396825,-8.492063492063492,85.0,-56.58730158730158,83.09523809523809,-49.6031746031746,34.36507936507936,-70.55555555555556,-4.841269841269841,88.01587301587301,325.0,-4.365079365079365,4.523809523809524,-321.8253968253968
55,76.1111111111111,-31.19047619047619,76.42857142857143,-325.0,74.68253968253968,-71.03174603174602,78.80952380952381,-71.98412698412697,83.73015873015872,-325.0,323.25396825396825,-8.492063492063492,85.0,-56.58730158730158,83.09523809523809,-49.6031746031746,34.36507936507936,-70.55555555555556,-4.841269841269841,88.01587301587301,325.0,-4.365079365079365,4.523809523809524,-321.8253968253968
56,52.3015873015873,-29.444444444444443,52.77777777777777,-325.0,48.80952380952381,-66.11111111111111,51.98412698412698,-67.53968253968253,53.888888888888886,-325.0,305.7936507936508,-2.7777777777777777,51.03174603174603,300.07936507936506,50.238095238095234,-46.42857142857142,31.825396825396822,-66.11111111111111,1.507936507936508,82.14285714285714,296.90476190476187,0.5555555555555556,-0.23809523809523808,-321.8253968253968
57,52.3015873015873,-29.444444444444443,52.77777777777777,-325.0,48.80952380952381,-66.11111111111111,51.98412698412698,-67.53968253968253,53.888888888888886,-325.0,305.7936507936508,-2.7777777777777777,51.03174603174603,300.07936507936506,50.238095238095234,-46.42857142857142,31.825396825396822,-66.11111111111111,1.507936507936508,82.14285714285714,296.90476190476187,0.5555555555555556,-0.23809523809523808,-321.8253968253968
58,45.95238095238095,-28.809523809523807,47.53968253968254,-325.0,43.57142857142857,-65.0,45.79365079365079,-66.26984126984127,47.698412698412696,-325.0,299.4444444444444,-0.3968253968253968,43.888888888888886,274.5238095238095,43.73015873015873,-45.476190476190474,31.19047619047619,-64.84126984126983,3.888888888888889,80.23809523809523,325.0,0.7142857142857142,-1.984126984126984,-321.8253968253968
59,45.95238095238095,-28.809523809523807,47.53968253968254,-325.0,43.57142857142857,-65.0,45.79365079365079,-66.26984126984127,47.698412698412696,-325.0,299.4444444444444,-0.3968253968253968,43.888888888888886,274.5238095238095,43.73015873015873,-45.476190476190474,31.19047619047619,-64.84126984126983,3.888888888888889,80.23809523809523,325.0,0.7142857142857142,-1.984126984126984,-321.8253968253968
60,61.98412698412698,-27.38095238095238,61.34920634920635,-319.1269841269841,59.44444444444444,-62.460317460317455,64.04761904761905,-63.41269841269841,66.42857142857143,-325.0,287.22222222222223,-7.063492063492063,61.98412698412698,143.57142857142856,63.73015873015873,-43.57142857142857,30.07936507936508,-61.98412698412698,-3.888888888888889,77.22222222222221,325.0,-3.4126984126984126,2.9365079365079363,-166.26984126984127
61,61.98412698412698,-27.38095238095238,61.34920634920635,-319.1269841269841,59.44444444444444,-62.460317460317455,64.04761904761905,-63.41269841269841,66.42857142857143,-325.0,287.22222222222223,-7.063492063492063,61.98412698412698,143.57142857142856,63.73015873015873,-43.57142857142857,30.07936507936508,-61.98412698412698,-3.888888888888889,77.22222222222221,325.0,-3.4126984126984126,2.9365079365079363,-166.26984126984127
62,53.73015873015873,-26.587301587301585,55.476190476190474,-306.26984126984127,52.14285714285714,-59.92063492063492,54.2063492063492,-61.03174603174603,55.79365079365079,-325.0,275.3174603174603,-9.126984126984127,51.98412698412698,104.04761904761904,51.666666666666664,-41.98412698412698,28.49206349206349,-59.76190476190476,-5.7936507936507935,73.73015873015872,325.0,0.23809523809523808,-1.6666666666666665,-166.26984126984127
63,53.73015873015873,-26.587301587301585,55.476190476190474,-306.26984126984127,52.14285714285714,-59.92063492063492,54.2063492063492,-61.03174603174603,55.79365079365079,-325.0,275.3174603174603,-9.126984126984127,51.98412698412698,104.04761904761904,51.666666666666664,-41.98412698412698,28.49206349206349,-59.76190476190476,-5.7936507936507935,73.73015873015872,325.0,0.23809523809523808,-1.6666666666666665,-166.26984126984127
64,49.12698412698413,-26.11111111111111,48.96825396825397,-300.87301587301585,47.06349206349206,-58.8095238095238,49.12698412698413,-60.079365079365076,52.3015873015873,-325.0,270.7142857142857,-8.333333333333332,51.98412698412698,124.84126984126983,50.238095238095234,-41.03174603174603,27.857142857142854,-58.8095238095238,-5.317460317460317,72.61904761904762,307.69841269841265,-0.3968253968253968,1.1904761904761905,-166.26984126984127
65,49.12698412698413,-26.11111111111111,48.96825396825397,-300.87301587301585,47.06349206349206,-58.8095238095238,49.12698412698413,-60.079365079365076,52.3015873015873,-325.0,270.7142857142857,-8.333333333333332,51.98412698412698,124.84126984126983,50.238095238095234,-41.03174603174603,27.857142857142854,-58.8095238095238,-5.317460317460317,72.61904761904762,307.69841269841265,-0.3968253968253968,1.1904761904761905,-166.26984126984127
66,51.19047619047619,-25.79365079365079,51.666666666666664,-297.06349206349205,48.33333333333333,-58.01587301587301,50.39682539682539,-59.285714285714285,51.666666666666664,-325.0,267.38095238095235,-4.2063492063492065,48.650793650793645,68.33333333333333,47.698412698412696,-40.55555555555555,27.698412698412696,-58.01587301587301,-0.5555555555555556,71.66666666666666,307.69841269841265,-0.07936507936507936,-0.23809523809523808,-166.26984126984127
67,51.19047619047619,-25.79365079365079,51.666666666666664,-297.06349206349205,48.33333333333333,-58.01587301587301,50.39682539682539,-59.285714285714285,51.666666666666664,-325.0,267.38095238095235,-4.2063492063492065,48.650793650793645,68.33333333333333,47.698412698412696,-40.55555555555555,27.698412698412696,-58.01587301587301,-0.5555555555555556,71.66666666666666,307.69841269841265,-0.07936507936507936,-0.23809523809523808,-166.26984126984127
68,34.84126984126984,-25.158730158730158,33.57142857142857,-291.984126984127,33.25396825396825,-57.06349206349206,38.01587301587301,-58.17460317460317,41.82539682539682,-325.0,262.77777777777777,-4.523809523809524,40.079365079365076,79.44444444444444,41.34920634920635,-39.92063492063492,27.22222222222222,-56.904761904761905,-2.46031746031746,70.55555555555556,325.0,-2.3015873015873014,5.476190476190476,-166.26984126984127
69,34.84126984126984,-25.158730158730158,33.57142857142857,-291.984126984127,33.25396825396825,-57.06349206349206,38.01587301587301,-58.17460317460317,41.82539682539682,-325.0,262.77777777777777,-4.523809523809524,40.079365079365076,79.44444444444444,41.34920634920635,-39.92063492063492,27.22222222222222,-56.904761904761905,-2.46031746031746,70.55555555555556,325.0,-2.3015873015873014,5.476190476190476,-166.26984126984127
70,39.12698412698413,-25.0,39.6031746031746,-288.17460317460313,37.857142857142854,-56.58730158730158,40.87301587301587,-57.53968253968254,43.57142857142857,-259.2857142857143,259.44444444444446,-8.333333333333332,39.285714285714285,-10.238095238095237,41.03174603174603,-39.44444444444444,26.746031746031743,-56.42857142857142,-5.7936507936507935,69.6031746031746,325.0,-2.9365079365079363,3.095238095238095,-321.8253968253968
71,39.12698412698413,-25.0,39.6031746031746,-288.17460317460313,37.857142857142854,-56.58730158730158,40.87301587301587,-57.53968253968254,43.57142857142857,-259.2857142857143,259.44444444444446,-8.333333333333332,39.285714285714285,-10.238095238095237,41.03174603174603,-39.44444444444444,26.746031746031743,-56.42857142857142,-5.7936507936507935,69.6031746031746,325.0,-2.9365079365079363,3.095238095238095,-321.8253968253968
72,25.317460317460316,-24.523809523809522,24.84126984126984,-281.8253968253968,23.730158730158728,-55.317460317460316,26.9047619047619,-56.74603174603174,30.07936507936508,-29.6031746031746,254.2063492063492,-11.19047619047619,25.79365079365079,-128.96825396825395,27.38095238095238,-38.65079365079365,26.11111111111111,-55.63492063492063,-8.492063492063492,67.85714285714285,325.0,-2.7777777777777777,3.888888888888889,-321.8253968253968
73,25.317460317460316,-24.523809523809522,24.84126984126984,-281.8253968253968,23.730158730158728,-55.317460317460316,26.9047619047619,-56.74603174603174,30.07936507936508,-29.6031746031746,254.2063492063492,-11.19047619047619,25.79365079365079,-128.96825396825395,27.38095238095238,-38.65079365079365,26.11111111111111,-55.63492063492063,-8.492063492063492,67.85714285714285,325.0,-2.7777777777777777,3.888888888888889,-321.8253968253968
74,39.76190476190476,-23.41269841269841,40.714285714285715,-266.1111111111111,38.80952380952381,-52.61904761904761,40.079365079365076,-53.73015873015873,42.14285714285714,96.26984126984127,240.7142857142857,-3.571428571428571,38.65079365079365,-239.60317460317458,37.53968253968254,-36.74603174603175,24.84126984126984,-52.61904761904761,-0.7142857142857142,64.36507936507937,325.0,0.5555555555555556,-2.142857142857143,-321.8253968253968
75,39.76190476190476,-23.41269841269841,40.714285714285715,-266.1111111111111,38.80952380952381,-52.61904761904761,40.079365079365076,-53.73015873015873,42.14285714285714,96.26984126984127,240.7142857142857,-3.571428571428571,38.65079365079365,-239.60317460317458,37.53968253968254,-36.74603174603175,24.84126984126984,-52.61904761904761,-0.7142857142857142,64.36507936507937,325.0,0.5555555555555556,-2.142857142857143,-321.8253968253968
76,6.428571428571428,-22.3015873015873,6.587301587301587,-254.84126984126982,6.111111111111111,-50.238095238095234,7.5396825396825395,-51.666666666666664,10.238095238095237,240.07936507936506,230.7142857142857,-1.984126984126984,4.841269841269841,-238.65079365079364,6.904761904761904,-35.0,23.730158730158728,-50.55555555555555,0.3968253968253968,61.82539682539682,323.4126984126984,-3.4126984126984126,3.73015873015873,-321.8253968253968
77,6.428571428571428,-22.3015873015873,6.587301587301587,-254.84126984126982,6.111111111111111,-50.238095238095234,7.5396825396825395,-51.666666666666664,10.238095238095237,240.07936507936506,230.7142857142857,-1.984126984126984,4.841269841269841,-238.65079365079364,6.904761904761904,-35.0,23.730158730158728,-50.55555555555555,0.3968253968253968,61.82539682539682,323.4126984126984,-3.4126984126984126,3.73015873015873,-321.8253968253968
78,10.873015873015872,-22.142857142857142,10.555555555555555,-250.3968253968254,8.968253968253968,-49.76190476190476,8.968253968253968,-50.71428571428571,11.349206349206348,325.0,226.58730158730157,-4.682539682539682,11.666666666666666,-219.76190476190476,7.063492063492063,-34.682539682539684,20.71428571428571,-49.6031746031746,-2.619047619047619,60.71428571428571,312.6190476190476,1.8253968253968254,-3.571428571428571,-321.8253968253968
79,10.873015873015872,-22.142857142857142,10.555555555555555,-250.3968253968254,8.968253968253968,-49.76190476190476,8.968253968253968,-50.71428571428571,11.349206349206348,325.0,226.58730158730157,-4.682539682539682,11.666666666666666,-219.76190476190476,7.063492063492063,-34.682539682539684,20.71428571428571,-49.6031746031746,-2.619047619047619,60.71428571428571,312.6190476190476,1.8253968253968254,-3.571428571428571,-321.8253968253968
80,4.0476190476190474,-21.825396825396822,4.365079365079365,-245.0,3.253968253968254,-48.650793650793645,2.619047619047619,-49.92063492063492,6.111111111111111,325.0,221.98412698412696,-0.5555555555555556,6.904761904761904,-215.3174603174603,1.0317460317460316,-34.047619047619044,13.73015873015873,-48.80952380952381,1.349206349206349,59.44444444444444,325.0,2.3015873015873014,-4.682539682539682,-166.26984126984127
81,4.0476190476190474,-21.825396825396822,4.365079365079365,-245.0,3.253968253968254,-48.650793650793645,2.619047619047619,-49.92063492063492,6.111111111111111,325.0,221.98412698412696,-0.5555555555555556,6.904761904761904,-215.3174603174603,1.0317460317460316,-34.047619047619044,13.73015873015873,-48.80952380952381,1.349206349206349,59.44444444444444,325.0,2.3015873015873014,-4.682539682539682,-166.26984126984127
82,30.396825396825395,-20.873015873015873,29.285714285714285,-237.53968253968253,28.49206349206349,-47.22222222222222,28.809523809523807,-48.49206349206349,52.460317460317455,-0.07936507936507936,215.3174603174603,3.888888888888889,34.682539682539684,-222.46031746031744,28.333333333333332,-33.095238095238095,6.428571428571428,-47.38095238095238,5.0,57.698412698412696,312.46031746031747,3.095238095238095,-3.4126984126984126,-166.26984126984127
83,30.396825396825395,-20.873015873015873,29.285714285714285,-237.53968253968253,28.49206349206349,-47.22222222222222,28.809523809523807,-48.49206349206349,52.460317460317455,-0.07936507936507936,215.3174603174603,3.888888888888889,34.682539682539684,-222.46031746031744,28.333333333333332,-33.095238095238095,6.428571428571428,-47.38095238095238,5.0,57.698412698412696,312.46031746031747,3.095238095238095,-3.4126984126984126,-166.26984126984127
84,46.904761904761905,-20.238095238095237,47.698412698412696,-229.44444444444443,46.74603174603175,-45.63492063492063,50.079365079365076,-46.74603174603175,208.015873015873,-282.77777777777777,208.17460317460316,-7.5396825396825395,46.42857142857142,-148.96825396825395,50.079365079365076,-31.98412698412698,20.07936507936508,-45.79365079365079,-6.111111111111111,55.79365079365079,301.984126984127,-2.7777777777777777,2.9365079365079363,-166.26984126984127
85,46.904761904761905,-20.238095238095237,47.698412698412696,-229.44444444444443,46.74603174603175,-45.63492063492063,50.079365079365076,-46.74603174603175,208.015873015873,-282.77777777777777,208.17460317460316,-7.5396825396825395,46.42857142857142,-148.96825396825395,50.079365079365076,-31.98412698412698,20.07936507936508,-45.79365079365079,-6.111111111111111,55.79365079365079,301.984126984127,-2.7777777777777777,2.9365079365079363,-166.26984126984127
86,48.49206349206349,-19.92063492063492,48.01587301587301,-226.26984126984127,47.53968253968254,-45.15873015873016,49.12698412698413,-46.269841269841265,216.1111111111111,-50.238095238095234,205.63492063492063,-7.3809523809523805,49.92063492063492,-152.3015873015873,48.49206349206349,-31.507936507936506,0.5555555555555556,-45.317460317460316,-6.111111111111111,55.0,301.984126984127,0.23809523809523808,-0.5555555555555556,-166.26984126984127
87,48.49206349206349,-19.92063492063492,48.01587301587301,-226.26984126984127,47.53968253968254,-45.15873015873016,49.12698412698413,-46.269841269841265,216.1111111111111,-50.238095238095234,205.63492063492063,-7.3809523809523805,49.92063492063492,-152.3015873015873,48.49206349206349,-31.507936507936506,0.5555555555555556,-45.317460317460316,-6.111111111111111,55.0,301.984126984127,0.23809523809523808,-0.5555555555555556,-166.26984126984127
88,20.873015873015873,-19.76190476190476,20.238095238095237,-222.46031746031744,20.07936507936508,-44.36507936507936,21.349206349206348,-45.476190476190474,221.19047619047618,274.68253968253964,202.14285714285714,-5.317460317460317,21.666666666666664,-134.36507936507937,20.555555555555554,-31.03174603174603,0.5555555555555556,-44.52380952380952,-3.888888888888889,54.047619047619044,294.36507936507934,0.3968253968253968,-0.873015873015873,-166.26984126984127
89,20.873015873015873,-19.76190476190476,20.238095238095237,-222.46031746031744,20.07936507936508,-44.36507936507936,21.349206349206348,-45.476190476190474,221.19047619047618,274.68253968253964,202.14285714285714,-5.317460317460317,21.666666666666664,-134.36507936507937,20.555555555555554,-31.03174603174603,0.5555555555555556,-44.52380952380952,-3.888888888888889,54.047619047619044,294.36507936507934,0.3968253968253968,-0.873015873015873,-166.26984126984127
90,-5.0,-19.444444444444443,-5.317460317460317,-215.79365079365078,-6.587301587301587,-43.095238095238095,-5.7936507936507935,-44.2063492063492,259.6031746031746,325.0,196.26984126984127,-1.6666666666666665,-6.111111111111111,-71.03174603174602,-8.968253968253968,-30.238095238095237,-12.619047619047619,-43.25396825396825,-0.23809523809523808,52.460317460317455,325.0,-0.873015873015873,-1.1904761904761905,-321.8253968253968
91,-5.0,-19.444444444444443,-5.317460317460317,-215.79365079365078,-6.587301587301587,-43.095238095238095,-5.7936507936507935,-44.2063492063492,259.6031746031746,325.0,196.26984126984127,-1.6666666666666665,-6.111111111111111,-71.03174603174602,-8.968253968253968,-30.238095238095237,-12.619047619047619,-43.25396825396825,-0.23809523809523808,52.460317460317455,325.0,-0.873015873015873,-1.1904761904761905,-321.8253968253968
92,-20.07936507936508,-18.96825396825397,-21.19047619047619,-210.07936507936506,-21.984126984126984,-41.98412698412698,-22.46031746031746,-43.25396825396825,324.8412698412698,325.0,191.34920634920633,-0.07936507936507936,-20.07936507936508,-60.55555555555555,-24.206349206349206,-29.444444444444443,-38.01587301587301,-42.460317460317455,0.7142857142857142,51.03174603174603,311.031746031746,3.4126984126984126,-3.095238095238095,-321.8253968253968
93,-20.07936507936508,-18.96825396825397,-21.19047619047619,-210.07936507936506,-21.984126984126984,-41.98412698412698,-22.46031746031746,-43.25396825396825,324.8412698412698,325.0,191.34920634920633,-0.07936507936507936,-20.07936507936508,-60.55555555555555,-24.206349206349206,-29.444444444444443,-38.01587301587301,-42.460317460317455,0.7142857142857142,51.03174603174603,311.031746031746,3.4126984126984126,-3.095238095238095,-321.8253968253968
94,3.888888888888889,-18.80952380952381,1.6666666666666665,-209.12698412698413,1.507936507936508,-41.82539682539682,2.619047619047619,-43.095238095238095,324.68253968253964,325.0,190.55555555555554,-5.317460317460317,5.7936507936507935,-104.68253968253968,0.23809523809523808,-29.444444444444443,-48.33333333333333,-42.3015873015873,-4.523809523809524,50.87301587301587,325.0,3.888888888888889,-3.095238095238095,-321.8253968253968
95,3.888888888888889,-18.80952380952381,1.6666666666666665,-209.12698412698413,1.507936507936508,-41.82539682539682,2.619047619047619,-43.095238095238095,324.68253968253964,325.0,190.55555555555554,-5.317460317460317,5.7936507936507935,-104.68253968253968,0.23809523809523808,-29.444444444444443,-48.33333333333333,-42.3015873015873,-4.523809523809524,50.87301587301587,325.0,3.888888888888889,-3.095238095238095,-321.8253968253968
96,-3.095238095238095,-17.063492063492063,-0.873015873015873,-188.17460317460316,-3.095238095238095,-38.01587301587301,-5.317460317460317,-39.285714285714285,323.57142857142856,325.0,171.984126984127,2.46031746031746,-7.3809523809523805,-44.047619047619044,-7.857142857142857,-26.428571428571427,-101.66666666666666,-38.33333333333333,2.9365079365079363,45.95238095238095,312.9365079365079,-1.8253968253968254,-1.0317460317460316,-321.8253968253968
97,-3.095238095238095,-17.063492063492063,-0.873015873015873,-188.17460317460316,-3.095238095238095,-38.01587301587301,-5.317460317460317,-39.285714285714285,323.57142857142856,325.0,171.984126984127,2.46031746031746,-7.3809523809523805,-44.047619047619044,-7.857142857142857,-26.428571428571427,-101.66666666666666,-38.33333333333333,2.9365079365079363,45.95238095238095,312.9365079365079,-1.8253968253968254,-1.0317460317460316,-321.8253968253968
98,-36.11111111111111,-16.904761904761905,-37.38095238095238,-184.04761904761904,-37.38095238095238,-37.38095238095238,-36.11111111111111,-38.49206349206349,325.0,325.0,168.33333333333331,11.507936507936508,-35.95238095238095,-75.47619047619047,-35.79365079365079,-25.952380952380953,-89.44444444444444,-37.698412698412696,11.349206349206348,45.15873015873016,244.52380952380952,1.349206349206349,1.349206349206349,-321.8253968253968
99,-36.11111111111111,-16.904761904761905,-37.38095238095238,-184.04761904761904,-37.38095238095238,-37.38095238095238,-36.11111111111111,-38.49206349206349,325.0,325.0,168.33333333333331,11.507936507936508,-35.95238095238095,-75.47619047619047,-35.79365079365079,-25.952380952380953,-89.44444444444444,-37.698412698412696,11.349206349206348,45.15873015873016,244.52380952380952,1.349206349206349,1.349206349206349,-321.8253968253968
100,-49.285714285714285,-16.746031746031743,-48.17460317460317,-181.66666666666666,-49.285714285714285,-36.904761904761905,-50.87301587301587,-38.17460317460317,325.0,325.0,166.26984126984127,13.73015873015873,-50.39682539682539,-16.904761904761905,-51.666666666666664,-25.79365079365079,-143.09523809523807,-37.22222222222222,13.73015873015873,44.52380952380952,312.77777777777777,-0.5555555555555556,-0.873015873015873,-166.26984126984127
101,-49.285714285714285,-16.746031746031743,-48.17460317460317,-181.66666666666666,-49.285714285714285,-36.904761904761905,-50.87301587301587,-38.17460317460317,325.0,325.0,166.26984126984127,13.73015873015873,-50.39682539682539,-16.904761904761905,-51.666666666666664,-25.79365079365079,-143.09523809523807,-37.22222222222222,13.73015873015873,44.52380952380952,312.77777777777777,-0.5555555555555556,-0.873015873015873,-166.26984126984127
102,-44.047619047619044,-16.428571428571427,-44.52380952380952,-178.015873015873,-45.317460317460316,-35.95238095238095,-43.73015873015873,-37.22222222222222,325.0,325.0,162.77777777777777,8.015873015873016,-45.476190476190474,40.079365079365076,-44.047619047619044,-25.317460317460316,-122.6190476190476,-36.42857142857142,7.857142857142857,43.41269841269841,244.04761904761904,1.984126984126984,0.873015873015873,-166.26984126984127
103,-44.047619047619044,-16.428571428571427,-44.52380952380952,-178.015873015873,-45.317460317460316,-35.95238095238095,-43.73015873015873,-37.22222222222222,325.0,325.0,162.77777777777777,8.015873015873016,-45.476190476190474,40.079365079365076,-44.047619047619044,-25.317460317460316,-122.6190476190476,-36.42857142857142,7.857142857142857,43.41269841269841,244.04761904761904,1.984126984126984,0.873015873015873,-166.26984126984127
104,1.984126984126984,-16.11111111111111,-0.07936507936507936,-175.15873015873015,0.07936507936507936,-35.476190476190474,-0.23809523809523808,-37.06349206349206,325.0,325.0,160.55555555555554,1.0317460317460316,2.9365079365079363,-18.49206349206349,-2.7777777777777777,-24.68253968253968,-177.2222222222222,-36.11111111111111,1.6666666666666665,43.095238095238095,325.0,3.73015873015873,-3.888888888888889,-166.26984126984127
105,1.984126984126984,-16.11111111111111,-0.07936507936507936,-175.15873015873015,0.07936507936507936,-35.476190476190474,-0.23809523809523808,-37.06349206349206,325.0,325.0,160.55555555555554,1.0317460317460316,2.9365079365079363,-18.49206349206349,-2.7777777777777777,-24.68253968253968,-177.2222222222222,-36.11111111111111,1.6666666666666665,43.095238095238095,325.0,3.73015873015873,-3.888888888888889,-166.26984126984127
106,-6.428571428571428,-15.634920634920634,-7.857142857142857,-170.23809523809524,-7.5396825396825395,-34.52380952380952,-7.698412698412698,-35.63492063492063,325.0,325.0,155.95238095238093,4.682539682539682,-5.476190476190476,-5.634920634920634,-8.492063492063492,-24.206349206349206,-216.1111111111111,-35.0,4.523809523809524,41.82539682539682,319.1269841269841,4.365079365079365,-2.3015873015873014,-166.26984126984127
107,-6.428571428571428,-15.634920634920634,-7.857142857142857,-170.23809523809524,-7.5396825396825395,-34.52380952380952,-7.698412698412698,-35.63492063492063,325.0,325.0,155.95238095238093,4.682539682539682,-5.476190476190476,-5.634920634920634,-8.492063492063492,-24.206349206349206,-216.1111111111111,-35.0,4.523809523809524,41.82539682539682,319.1269841269841,4.365079365079365,-2.3015873015873014,-166.26984126984127
108,-39.44444444444444,-15.476190476190474,-38.01587301587301,-167.38095238095238,-39.44444444444444,-34.047619047619044,-38.96825396825397,-35.317460317460316,325.0,325.0,153.25396825396825,10.396825396825395,-41.98412698412698,-71.98412698412697,-40.39682539682539,-24.047619047619047,-175.47619047619045,-34.682539682539684,10.079365079365079,40.87301587301587,246.58730158730157,-3.571428571428571,3.253968253968254,-166.26984126984127
109,-39.44444444444444,-15.476190476190474,-38.01587301587301,-167.38095238095238,-39.44444444444444,-34.047619047619044,-38.96825396825397,-35.317460317460316,325.0,325.0,153.25396825396825,10.396825396825395,-41.98412698412698,-71.98412698412697,-40.39682539682539,-24.047619047619047,-175.47619047619045,-34.682539682539684,10.079365079365079,40.87301587301587,246.58730158730157,-3.571428571428571,3.253968253968254,-166.26984126984127
110,-21.349206349206348,-15.158730158730158,-23.095238095238095,-165.15873015873015,-23.253968253968253,-33.57142857142857,-22.142857142857142,-34.52380952380952,325.0,325.0,151.19047619047618,5.158730158730158,-22.777777777777775,-100.39682539682539,-21.666666666666664,-23.57142857142857,-269.76190476190476,-34.047619047619044,4.2063492063492065,40.55555555555555,314.04761904761904,6.904761904761904,-1.6666666666666665,-321.8253968253968
111,-21.349206349206348,-15.158730158730158,-23.095238095238095,-165.15873015873015,-23.253968253968253,-33.57142857142857,-22.142857142857142,-34.52380952380952,325.0,325.0,151.19047619047618,5.158730158730158,-22.777777777777775,-100.39682539682539,-21.666666666666664,-23.57142857142857,-269.76190476190476,-34.047619047619044,4.2063492063492065,40.55555555555555,314.04761904761904,6.904761904761904,-1.6666666666666665,-321.8253968253968
112,21.507936507936506,-148.8095238095238,5.7936507936507935,-219.76190476190476,143.4126984126984,-57.06349206349206,151.66666666666666,126.58730158730158,179.76190476190476,122.46031746031746,87.85714285714285,52.93650793650794,66.11111111111111,-87.22222222222221,-78.33333333333333,21.19047619047619,-165.47619047619045,-6.428571428571428,44.36507936507936,-22.619047619047617,63.888888888888886,-58.650793650793645,53.888888888888886,-321.8253968253968
113,21.507936507936506,-148.8095238095238,5.7936507936507935,-219.76190476190476,143.4126984126984,-57.06349206349206,151.66666666666666,126.58730158730158,179.76190476190476,122.46031746031746,87.85714285714285,52.93650793650794,66.11111111111111,-87.22222222222221,-78.33333333333333,21.19047619047619,-165.47619047619045,-6.428571428571428,44.36507936507936,-22.619047619047617,63.888888888888886,-58.650793650793645,53.888888888888886,-321.8253968253968
114,9.761904761904761,-14.206349206349206,9.761904761904761,-151.8253968253968,9.285714285714285,-31.19047619047619,7.698412698412698,-32.3015873015873,325.0,325.0,139.44444444444443,1.1904761904761905,10.714285714285714,-132.14285714285714,5.158730158730158,-21.666666666666664,-313.25396825396825,-31.825396825396822,1.1904761904761905,37.38095238095238,325.0,-1.6666666666666665,-1.984126984126984,-321.8253968253968
115,9.761904761904761,-14.206349206349206,9.761904761904761,-151.8253968253968,9.285714285714285,-31.19047619047619,7.698412698412698,-32.3015873015873,325.0,325.0,139.44444444444443,1.1904761904761905,10.714285714285714,-132.14285714285714,5.158730158730158,-21.666666666666664,-313.25396825396825,-31.825396825396822,1.1904761904761905,37.38095238095238,325.0,-1.6666666666666665,-1.984126984126984,-321.8253968253968
116,-20.07936507936508,-14.047619047619047,-19.6031746031746,-148.8095238095238,-20.71428571428571,-30.87301587301587,-19.126984126984127,-31.825396825396822,325.0,325.0,137.06349206349205,2.142857142857143,-23.095238095238095,-9.285714285714285,-19.126984126984127,-21.507936507936506,-244.2063492063492,-31.19047619047619,1.6666666666666665,36.74603174603175,244.36507936507934,3.253968253968254,1.349206349206349,-321.8253968253968
117,-20.07936507936508,-14.047619047619047,-19.6031746031746,-148.8095238095238,-20.71428571428571,-30.87301587301587,-19.126984126984127,-31.825396825396822,325.0,325.0,137.06349206349205,2.142857142857143,-23.095238095238095,-9.285714285714285,-19.126984126984127,-21.507936507936506,-244.2063492063492,-31.19047619047619,1.6666666666666665,36.74603174603175,244.36507936507934,3.253968253968254,1.349206349206349,-321.8253968253968
118,-5.476190476190476,-13.73015873015873,-5.476190476190476,-144.36507936507937,-5.952380952380952,-29.920634920634917,-5.476190476190476,-31.03174603174603,325.0,325.0,132.93650793650792,-0.5555555555555556,-5.317460317460317,-15.793650793650793,-6.746031746031746,-21.03174603174603,-325.0,-30.396825396825395,-1.349206349206349,35.79365079365079,325.0,0.3968253968253968,-0.3968253968253968,-321.8253968253968
119,-5.476190476190476,-13.73015873015873,-5.476190476190476,-144.36507936507937,-5.952380952380952,-29.920634920634917,-5.476190476190476,-31.03174603174603,325.0,325.0,132.93650793650792,-0.5555555555555556,-5.317460317460317,-15.793650793650793,-6.746031746031746,-21.03174603174603,-325.0,-30.396825396825395,-1.349206349206349,35.79365079365079,325.0,0.3968253968253968,-0.3968253968253968,-321.8253968253968
120,7.3809523809523805,-13.412698412698411,7.3809523809523805,-141.34920634920636,7.222222222222221,-29.285714285714285,5.158730158730158,-30.396825396825395,325.0,325.0,130.07936507936506,-0.873015873015873,8.174603174603174,12.46031746031746,2.9365079365079363,-20.555555555555554,-325.0,-29.76190476190476,-1.0317460317460316,33.888888888888886,325.0,-2.7777777777777777,-1.984126984126984,-166.26984126984127
121,7.3809523809523805,-13.412698412698411,7.3809523809523805,-141.34920634920636,7.222222222222221,-29.285714285714285,5.158730158730158,-30.396825396825395,325.0,325.0,130.07936507936506,-0.873015873015873,8.174603174603174,12.46031746031746,2.9365079365079363,-20.555555555555554,-325.0,-29.76190476190476,-1.0317460317460316,33.888888888888886,325.0,-2.7777777777777777,-1.984126984126984,-166.26984126984127
122,10.714285714285714,-13.095238095238095,10.396825396825395,-138.33333333333331,9.126984126984127,-28.809523809523807,9.603174603174603,-29.76190476190476,325.0,325.0,127.22222222222221,-2.7777777777777777,8.174603174603174,135.15873015873015,7.063492063492063,-20.07936507936508,-260.55555555555554,-29.285714285714285,-3.253968253968254,32.61904761904762,241.8253968253968,0.23809523809523808,-0.23809523809523808,-166.26984126984127
123,10.714285714285714,-13.095238095238095,10.396825396825395,-138.33333333333331,9.126984126984127,-28.809523809523807,9.603174603174603,-29.76190476190476,325.0,325.0,127.22222222222221,-2.7777777777777777,8.174603174603174,135.15873015873015,7.063492063492063,-20.07936507936508,-260.55555555555554,-29.285714285714285,-3.253968253968254,32.61904761904762,241.8253968253968,0.23809523809523808,-0.23809523809523808,-166.26984126984127
124,-17.698412698412696,-12.936507936507935,-16.587301587301585,-134.68253968253967,-17.22222222222222,-28.174603174603174,-18.333333333333332,-29.285714285714285,325.0,325.0,124.04761904761904,-1.507936507936508,-17.698412698412696,174.2063492063492,-18.80952380952381,-19.76190476190476,-325.0,-28.809523809523807,-2.142857142857143,32.93650793650794,325.0,0.23809523809523808,-0.7142857142857142,-166.26984126984127
125,-17.698412698412696,-12.936507936507935,-16.587301587301585,-134.68253968253967,-17.22222222222222,-28.174603174603174,-18.333333333333332,-29.285714285714285,325.0,325.0,124.04761904761904,-1.507936507936508,-17.698412698412696,174.2063492063492,-18.80952380952381,-19.76190476190476,-325.0,-28.809523809523807,-2.142857142857143,32.93650793650794,325.0,0.23809523809523808,-0.7142857142857142,-166.26984126984127
126,11.984126984126984,-12.619047619047619,12.142857142857142,-131.66666666666666,11.666666666666666,-27.539682539682538,10.396825396825395,-28.49206349206349,325.0,325.0,121.5079365079365,-4.523809523809524,12.777777777777777,60.238095238095234,8.015873015873016,-19.126984126984127,-325.0,-27.857142857142854,-4.682539682539682,21.507936507936506,325.0,-1.984126984126984,-1.1904761904761905,-166.26984126984127
127,11.984126984126984,-12.619047619047619,12.142857142857142,-131.66666666666666,11.666666666666666,-27.539682539682538,10.396825396825395,-28.49206349206349,325.0,325.0,121.5079365079365,-4.523809523809524,12.777777777777777,60.238095238095234,8.015873015873016,-19.126984126984127,-325.0,-27.857142857142854,-4.682539682539682,21.507936507936506,325.0,-1.984126984126984,-1.1904761904761905,-166.26984126984127
128,5.0,-12.46031746031746,6.587301587301587,-129.9206349206349,3.888888888888889,-26.9047619047619,6.587301587301587,-28.333333333333332,325.0,325.0,120.07936507936508,4.0476190476190474,-0.07936507936507936,-68.17460317460318,5.0,-19.285714285714285,-208.8095238095238,-27.698412698412696,2.9365079365079363,32.3015873015873,151.19047619047618,-1.507936507936508,4.2063492063492065,-166.26984126984127
129,5.0,-12.46031746031746,6.587301587301587,-129.9206349206349,3.888888888888889,-26.9047619047619,6.587301587301587,-28.333333333333332,325.0,325.0,120.07936507936508,4.0476190476190474,-0.07936507936507936,-68.17460317460318,5.0,-19.285714285714285,-208.8095238095238,-27.698412698412696,2.9365079365079363,32.3015873015873,151.19047619047618,-1.507936507936508,4.2063492063492065,-166.26984126984127
130,1.984126984126984,-12.3015873015873,4.365079365079365,-127.6984126984127,1.507936507936508,-26.587301587301585,3.095238095238095,-27.857142857142854,325.0,325.0,117.85714285714285,3.73015873015873,-3.253968253968254,-60.238095238095234,1.349206349206349,-18.65079365079365,-207.2222222222222,-27.22222222222222,2.9365079365079363,31.98412698412698,154.36507936507937,-1.984126984126984,4.0476190476190474,-321.8253968253968
131,1.984126984126984,-12.3015873015873,4.365079365079365,-127.6984126984127,1.507936507936508,-26.587301587301585,3.095238095238095,-27.857142857142854,325.0,325.0,117.85714285714285,3.73015873015873,-3.253968253968254,-60.238095238095234,1.349206349206349,-18.65079365079365,-207.2222222222222,-27.22222222222222,2.9365079365079363,31.98412698412698,154.36507936507937,-1.984126984126984,4.0476190476190474,-321.8253968253968
132,11.031746031746032,-11.984126984126984,12.3015873015873,-121.19047619047619,11.825396825396824,-25.476190476190474,10.555555555555555,-26.428571428571427,325.0,325.0,111.98412698412697,6.587301587301587,11.19047619047619,-130.07936507936506,9.920634920634921,-17.698412698412696,-325.0,-25.952380952380953,5.7936507936507935,-1.6666666666666665,325.0,-0.3968253968253968,-1.0317460317460316,-321.8253968253968
133,11.031746031746032,-11.984126984126984,12.3015873015873,-121.19047619047619,11.825396825396824,-25.476190476190474,10.555555555555555,-26.428571428571427,325.0,325.0,111.98412698412697,6.587301587301587,11.19047619047619,-130.07936507936506,9.920634920634921,-17.698412698412696,-325.0,-25.952380952380953,5.7936507936507935,-1.6666666666666665,325.0,-0.3968253968253968,-1.0317460317460316,-321.8253968253968
134,30.555555555555554,-11.507936507936508,30.87301587301587,-118.49206349206348,31.03174603174603,-24.84126984126984,29.920634920634917,-26.26984126984127,325.0,325.0,109.44444444444444,3.253968253968254,31.825396825396822,-86.74603174603175,28.174603174603174,-17.539682539682538,-325.0,-25.634920634920633,2.7777777777777777,-61.507936507936506,325.0,-1.8253968253968254,-0.07936507936507936,-321.8253968253968
135,30.555555555555554,-11.507936507936508,30.87301587301587,-118.49206349206348,31.03174603174603,-24.84126984126984,29.920634920634917,-26.26984126984127,325.0,325.0,109.44444444444444,3.253968253968254,31.825396825396822,-86.74603174603175,28.174603174603174,-17.539682539682538,-325.0,-25.634920634920633,2.7777777777777777,-61.507936507936506,325.0,-1.8253968253968254,-0.07936507936507936,-321.8253968253968
136,19.126984126984127,-11.349206349206348,20.238095238095237,-116.42857142857142,18.49206349206349,-24.68253968253968,18.49206349206349,-25.634920634920633,323.57142857142856,322.6190476190476,107.6984126984127,5.317460317460317,16.26984126984127,-90.39682539682539,17.063492063492063,-17.22222222222222,-263.25396825396825,-25.158730158730158,4.2063492063492065,-4.841269841269841,238.49206349206347,1.6666666666666665,0.5555555555555556,-321.8253968253968
137,19.126984126984127,-11.349206349206348,20.238095238095237,-116.42857142857142,18.49206349206349,-24.68253968253968,18.49206349206349,-25.634920634920633,323.57142857142856,322.6190476190476,107.6984126984127,5.317460317460317,16.26984126984127,-90.39682539682539,17.063492063492063,-17.22222222222222,-263.25396825396825,-25.158730158730158,4.2063492063492065,-4.841269841269841,238.49206349206347,1.6666666666666665,0.5555555555555556,-321.8253968253968
138,6.428571428571428,-11.349206349206348,8.333333333333332,-113.09523809523809,7.857142857142857,-23.730158730158728,6.111111111111111,-24.84126984126984,314.04761904761904,313.0952380952381,104.52380952380952,5.158730158730158,7.063492063492063,122.6190476190476,5.634920634920634,-16.746031746031743,-325.0,-24.523809523809522,4.0476190476190474,-59.12698412698413,325.0,-0.5555555555555556,-1.1904761904761905,-321.8253968253968
139,6.428571428571428,-11.349206349206348,8.333333333333332,-113.09523809523809,7.857142857142857,-23.730158730158728,6.111111111111111,-24.84126984126984,314.04761904761904,313.0952380952381,104.52380952380952,5.158730158730158,7.063492063492063,122.6190476190476,5.634920634920634,-16.746031746031743,-325.0,-24.523809523809522,4.0476190476190474,-59.12698412698413,325.0,-0.5555555555555556,-1.1904761904761905,-321.8253968253968
140,21.349206349206348,-10.873015873015872,21.666666666666664,-110.23809523809523,21.825396825396822,-23.41269841269841,20.873015873015873,-24.523809523809522,307.69841269841265,306.26984126984127,102.14285714285714,5.158730158730158,22.142857142857142,149.6031746031746,19.6031746031746,-16.428571428571427,-325.0,-24.047619047619047,4.365079365079365,-143.25396825396825,325.0,-2.46031746031746,-1.507936507936508,-166.26984126984127
141,21.349206349206348,-10.873015873015872,21.666666666666664,-110.23809523809523,21.825396825396822,-23.41269841269841,20.873015873015873,-24.523809523809522,307.69841269841265,306.26984126984127,102.14285714285714,5.158730158730158,22.142857142857142,149.6031746031746,19.6031746031746,-16.428571428571427,-325.0,-24.047619047619047,4.365079365079365,-143.25396825396825,325.0,-2.46031746031746,-1.507936507936508,-166.26984126984127
142,38.65079365079365,-10.714285714285714,39.285714285714285,-108.49206349206348,37.38095238095238,-23.095238095238095,38.49206349206349,-24.047619047619047,302.3015873015873,155.95238095238093,100.55555555555554,-0.7142857142857142,36.42857142857142,237.2222222222222,36.269841269841265,-16.26984126984127,-269.76190476190476,-23.57142857142857,-1.6666666666666665,-46.904761904761905,244.84126984126982,1.6666666666666665,-0.5555555555555556,-166.26984126984127
143,38.65079365079365,-10.714285714285714,39.285714285714285,-108.49206349206348,37.38095238095238,-23.095238095238095,38.49206349206349,-24.047619047619047,302.3015873015873,155.95238095238093,100.55555555555554,-0.7142857142857142,36.42857142857142,237.2222222222222,36.269841269841265,-16.26984126984127,-269.76190476190476,-23.57142857142857,-1.6666666666666665,-46.904761904761905,244.84126984126982,1.6666666666666665,-0.5555555555555556,-166.26984126984127
144,63.095238095238095,-10.396825396825395,63.73015873015873,-106.1111111111111,63.888888888888886,-22.619047619047617,63.57142857142857,-23.41269841269841,296.1111111111111,-138.33333333333331,98.33333333333333,2.3015873015873014,64.68253968253968,288.4920634920635,62.14285714285714,-15.793650793650793,-325.0,-23.253968253968253,1.349206349206349,-95.63492063492063,325.0,-5.7936507936507935,1.984126984126984,-166.26984126984127
145,63.095238095238095,-10.396825396825395,63.73015873015873,-106.1111111111111,63.888888888888886,-22.619047619047617,63.57142857142857,-23.41269841269841,296.1111111111111,-138.33333333333331,98.33333333333333,2.3015873015873014,64.68253968253968,288.4920634920635,62.14285714285714,-15.793650793650793,-325.0,-23.253968253968253,1.349206349206349,-95.63492063492063,325.0,-5.7936507936507935,1.984126984126984,-166.26984126984127
146,79.6031746031746,-10.396825396825395,80.07936507936508,-103.57142857142857,80.07936507936508,-22.142857142857142,78.80952380952381,-23.095238095238095,289.76190476190476,-79.76190476190476,96.1111111111111,0.7142857142857142,79.28571428571428,113.88888888888889,76.74603174603175,-15.476190476190474,-325.0,-22.777777777777775,0.23809523809523808,-248.33333333333331,325.0,3.571428571428571,-2.9365079365079363,-166.26984126984127
147,79.6031746031746,-10.396825396825395,80.07936507936508,-103.57142857142857,80.07936507936508,-22.142857142857142,78.80952380952381,-23.095238095238095,289.76190476190476,-79.76190476190476,96.1111111111111,0.7142857142857142,79.28571428571428,113.88888888888889,76.74603174603175,-15.476190476190474,-325.0,-22.777777777777775,0.23809523809523808,-248.33333333333331,325.0,3.571428571428571,-2.9365079365079363,-166.26984126984127
148,44.2063492063492,-9.761904761904761,44.68253968253968,-101.98412698412697,44.84126984126984,-21.825396825396822,42.3015873015873,-22.777777777777775,285.1587301587301,222.46031746031744,94.52380952380952,4.523809523809524,43.41269841269841,81.82539682539682,40.238095238095234,-15.476190476190474,-325.0,-22.46031746031746,3.73015873015873,-269.6031746031746,325.0,2.7777777777777777,-3.73015873015873,-166.26984126984127
149,44.2063492063492,-9.761904761904761,44.68253968253968,-101.98412698412697,44.84126984126984,-21.825396825396822,42.3015873015873,-22.777777777777775,285.1587301587301,222.46031746031744,94.52380952380952,4.523809523809524,43.41269841269841,81.82539682539682,40.238095238095234,-15.476190476190474,-325.0,-22.46031746031746,3.73015873015873,-269.6031746031746,325.0,2.7777777777777777,-3.73015873015873,-166.26984126984127
150,40.39682539682539,-10.079365079365079,41.19047619047619,-99.12698412698413,41.34920634920635,-21.19047619047619,40.87301587301587,-22.3015873015873,277.85714285714283,305.3174603174603,92.14285714285714,1.1904761904761905,41.19047619047619,43.25396825396825,39.44444444444444,-14.84126984126984,-325.0,-21.984126984126984,0.5555555555555556,-244.04761904761904,325.0,-1.6666666666666665,-0.3968253968253968,-321.8253968253968
151,40.39682539682539,-10.079365079365079,41.19047619047619,-99.12698412698413,41.34920634920635,-21.19047619047619,40.87301587301587,-22.3015873015873,277.85714285714283,305.3174603174603,92.14285714285714,1.1904761904761905,41.19047619047619,43.25396825396825,39.44444444444444,-14.84126984126984,-325.0,-21.984126984126984,0.5555555555555556,-244.04761904761904,325.0,-1.6666666666666665,-0.3968253968253968,-321.8253968253968
152,61.82539682539682,-1.8253968253968254,61.98412698412698,-97.53968253968253,59.76190476190476,-21.03174603174603,60.71428571428571,-22.3015873015873,274.5238095238095,297.85714285714283,91.03174603174602,-2.9365079365079363,57.698412698412696,117.06349206349206,57.22222222222222,-14.682539682539682,-191.5079365079365,-21.507936507936506,-3.4126984126984126,-5.476190476190476,188.33333333333331,-2.3015873015873014,1.8253968253968254,-321.8253968253968
153,61.82539682539682,-1.8253968253968254,61.98412698412698,-97.53968253968253,59.76190476190476,-21.03174603174603,60.71428571428571,-22.3015873015873,274.5238095238095,297.85714285714283,91.03174603174602,-2.9365079365079363,57.698412698412696,117.06349206349206,57.22222222222222,-14.682539682539682,-191.5079365079365,-21.507936507936506,-3.4126984126984126,-5.476190476190476,188.33333333333331,-2.3015873015873014,1.8253968253968254,-321.8253968253968
154,41.666666666666664,-3.253968253968254,42.460317460317455,-94.84126984126983,41.82539682539682,-20.396825396825395,41.19047619047619,-21.666666666666664,266.4285714285714,288.6507936507936,88.17460317460316,2.46031746031746,41.03174603174603,106.74603174603175,39.92063492063492,-14.365079365079364,-258.3333333333333,-21.03174603174603,1.507936507936508,-118.8095238095238,256.58730158730157,-4.365079365079365,1.8253968253968254,-321.8253968253968
155,41.666666666666664,-3.253968253968254,42.460317460317455,-94.84126984126983,41.82539682539682,-20.396825396825395,41.19047619047619,-21.666666666666664,266.4285714285714,288.6507936507936,88.17460317460316,2.46031746031746,41.03174603174603,106.74603174603175,39.92063492063492,-14.365079365079364,-258.3333333333333,-21.03174603174603,1.507936507936508,-118.8095238095238,256.58730158730157,-4.365079365079365,1.8253968253968254,-321.8253968253968
156,21.507936507936506,-4.682539682539682,23.095238095238095,-91.98412698412697,23.88888888888889,-19.76190476190476,21.825396825396822,-21.03174603174603,258.3333333333333,279.6031746031746,85.47619047619047,7.857142857142857,24.365079365079364,96.42857142857142,22.777777777777775,-13.888888888888888,-325.0,-20.555555555555554,6.428571428571428,-232.14285714285714,325.0,-6.428571428571428,1.8253968253968254,-321.8253968253968
157,21.507936507936506,-4.682539682539682,23.095238095238095,-91.98412698412697,23.88888888888889,-19.76190476190476,21.825396825396822,-21.03174603174603,258.3333333333333,279.6031746031746,85.47619047619047,7.857142857142857,24.365079365079364,96.42857142857142,22.777777777777775,-13.888888888888888,-325.0,-20.555555555555554,6.428571428571428,-232.14285714285714,325.0,-6.428571428571428,1.8253968253968254,-321.8253968253968
158,21.666666666666664,6.904761904761904,21.984126984126984,-84.68253968253968,22.619047619047617,-18.333333333333332,21.984126984126984,-19.444444444444443,238.33333333333331,257.85714285714283,78.96825396825396,-5.634920634920634,21.349206349206348,325.0,21.03174603174603,-12.936507936507935,-325.0,-18.96825396825397,-5.952380952380952,-292.9365079365079,325.0,-2.619047619047619,0.3968253968253968,-321.8253968253968
159,21.666666666666664,6.904761904761904,21.984126984126984,-84.68253968253968,22.619047619047617,-18.333333333333332,21.984126984126984,-19.444444444444443,238.33333333333331,257.85714285714283,78.96825396825396,-5.634920634920634,21.349206349206348,325.0,21.03174603174603,-12.936507936507935,-325.0,-18.96825396825397,-5.952380952380952,-292.9365079365079,325.0,-2.619047619047619,0.3968253968253968,-321.8253968253968
160,23.41269841269841,38.33333333333333,24.047619047619047,-75.47619047619047,23.57142857142857,-16.746031746031743,24.047619047619047,-17.857142857142858,213.09523809523807,173.09523809523807,70.39682539682539,1.0317460317460316,20.238095238095237,91.82539682539682,22.142857142857142,-11.825396825396824,-325.0,-17.539682539682538,0.873015873015873,-325.0,322.3015873015873,3.888888888888889,-2.7777777777777777,-166.26984126984127
161,23.41269841269841,38.33333333333333,24.047619047619047,-75.47619047619047,23.57142857142857,-16.746031746031743,24.047619047619047,-17.857142857142858,213.09523809523807,173.09523809523807,70.39682539682539,1.0317460317460316,20.238095238095237,91.82539682539682,22.142857142857142,-11.825396825396824,-325.0,-17.539682539682538,0.873015873015873,-325.0,322.3015873015873,3.888888888888889,-2.7777777777777777,-166.26984126984127
162,36.42857142857142,15.476190476190474,35.95238095238095,-75.0,36.58730158730159,-16.587301587301585,37.38095238095238,-17.539682539682538,212.14285714285714,115.47619047619047,70.07936507936508,-1.6666666666666665,32.460317460317455,50.55555555555555,35.95238095238095,-11.666666666666666,-325.0,-17.22222222222222,-1.6666666666666665,-325.0,325.0,1.6666666666666665,-1.349206349206349,-166.26984126984127
163,36.42857142857142,15.476190476190474,35.95238095238095,-75.0,36.58730158730159,-16.587301587301585,37.38095238095238,-17.539682539682538,212.14285714285714,115.47619047619047,70.07936507936508,-1.6666666666666665,32.460317460317455,50.55555555555555,35.95238095238095,-11.666666666666666,-325.0,-17.22222222222222,-1.6666666666666665,-325.0,325.0,1.6666666666666665,-1.349206349206349,-166.26984126984127
164,121.82539682539682,36.269841269841265,124.2063492063492,-69.92063492063491,124.36507936507935,-15.476190476190474,124.2063492063492,-16.26984126984127,198.015873015873,-325.0,65.47619047619047,-2.142857142857143,119.44444444444444,-283.25396825396825,121.98412698412697,-10.873015873015872,-325.0,-16.11111111111111,-1.984126984126984,-325.0,322.46031746031747,1.0317460317460316,-2.7777777777777777,-166.26984126984127
165,121.82539682539682,36.269841269841265,124.2063492063492,-69.92063492063491,124.36507936507935,-15.476190476190474,124.2063492063492,-16.26984126984127,198.015873015873,-325.0,65.47619047619047,-2.142857142857143,119.44444444444444,-283.25396825396825,121.98412698412697,-10.873015873015872,-325.0,-16.11111111111111,-1.984126984126984,-325.0,322.46031746031747,1.0317460317460316,-2.7777777777777777,-166.26984126984127
166,121.82539682539682,36.269841269841265,124.2063492063492,-69.92063492063491,124.36507936507935,-15.476190476190474,124.2063492063492,-16.26984126984127,198.015873015873,-325.0,65.47619047619047,-2.142857142857143,119.44444444444444,-283.25396825396825,121.98412698412697,-10.873015873015872,-325.0,-16.11111111111111,-1.984126984126984,-325.0,322.46031746031747,1.0317460317460316,-2.7777777777777777,-166.26984126984127
167,121.82539682539682,36.269841269841265,124.2063492063492,-69.92063492063491,124.36507936507935,-15.476190476190474,124.2063492063492,-16.26984126984127,198.015873015873,-325.0,65.47619047619047,-2.142857142857143,119.44444444444444,-283.25396825396825,121.98412698412697,-10.873015873015872,-325.0,-16.11111111111111,-1.984126984126984,-325.0,322.46031746031747,1.0317460317460316,-2.7777777777777777,-166.26984126984127
168,121.82539682539682,36.269841269841265,124.2063492063492,-69.92063492063491,124.36507936507935,-15.476190476190474,124.2063492063492,-16.26984126984127,198.015873015873,-325.0,65.47619047619047,-2.142857142857143,119.44444444444444,-283.25396825396825,121.98412698412697,-10.873015873015872,-325.0,-16.11111111111111,-1.984126984126984,-325.0,322.46031746031747,1.0317460317460316,-2.7777777777777777,-166.26984126984127
169,121.82539682539682,36.269841269841265,124.2063492063492,-69.92063492063491,124.36507936507935,-15.476190476190474,124.2063492063492,-16.26984126984127,198.015873015873,-325.0,65.47619047619047,-2.142857142857143,119.44444444444444,-283.25396825396825,121.98412698412697,-10.873015873015872,-325.0,-16.11111111111111,-1.984126984126984,-325.0,322.46031746031747,1.0317460317460316,-2.7777777777777777,-166.26984126984127
170,-16.428571428571427,118.33333333333333,-15.634920634920634,-66.26984126984127,-15.317460317460316,-15.0,-19.6031746031746,-15.95238095238095,188.33333333333331,218.96825396825395,61.98412698412698,11.031746031746032,-14.365079365079364,12.3015873015873,-19.285714285714285,-10.714285714285714,-109.44444444444444,-15.634920634920634,9.603174603174603,-325.0,260.23809523809524,-3.253968253968254,0.7142857142857142,-321.8253968253968
171,-16.428571428571427,118.33333333333333,-15.634920634920634,-66.26984126984127,-15.317460317460316,-15.0,-19.6031746031746,-15.95238095238095,188.33333333333331,218.96825396825395,61.98412698412698,11.031746031746032,-14.365079365079364,12.3015873015873,-19.285714285714285,-10.714285714285714,-109.44444444444444,-15.634920634920634,9.603174603174603,-325.0,260.23809523809524,-3.253968253968254,0.7142857142857142,-321.8253968253968
172,73.57142857142857,119.28571428571428,73.4126984126984,-64.04761904761905,74.36507936507937,-14.365079365079364,74.2063492063492,-15.476190476190474,182.61904761904762,-325.0,60.39682539682539,4.365079365079365,75.79365079365078,65.15873015873015,73.4126984126984,-10.396825396825395,-213.7301587301587,-15.317460317460316,3.888888888888889,-325.0,276.1111111111111,-4.365079365079365,1.6666666666666665,-321.8253968253968
173,73.57142857142857,119.28571428571428,73.4126984126984,-64.04761904761905,74.36507936507937,-14.365079365079364,74.2063492063492,-15.476190476190474,182.61904761904762,-325.0,60.39682539682539,4.365079365079365,75.79365079365078,65.15873015873015,73.4126984126984,-10.396825396825395,-213.7301587301587,-15.317460317460316,3.888888888888889,-325.0,276.1111111111111,-4.365079365079365,1.6666666666666665,-321.8253968253968
174,65.79365079365078,149.28571428571428,65.79365079365078,-63.095238095238095,66.9047619047619,-14.206349206349206,66.11111111111111,-15.158730158730158,179.44444444444443,-325.0,59.285714285714285,5.476190476190476,67.6984126984127,147.53968253968253,65.31746031746032,-10.079365079365079,-213.7301587301587,-15.0,5.158730158730158,-325.0,270.07936507936506,-4.0476190476190474,1.6666666666666665,-321.8253968253968
175,65.79365079365078,149.28571428571428,65.79365079365078,-63.095238095238095,66.9047619047619,-14.206349206349206,66.11111111111111,-15.158730158730158,179.44444444444443,-325.0,59.285714285714285,5.476190476190476,67.6984126984127,147.53968253968253,65.31746031746032,-10.079365079365079,-213.7301587301587,-15.0,5.158730158730158,-325.0,270.07936507936506,-4.0476190476190474,1.6666666666666665,-321.8253968253968
176,41.666666666666664,199.44444444444443,42.460317460317455,-61.34920634920635,42.3015873015873,-14.206349206349206,41.03174603174603,-14.84126984126984,175.0,-325.0,57.53968253968254,12.142857142857142,41.34920634920635,260.07936507936506,38.65079365079365,-10.079365079365079,-206.26984126984127,-14.682539682539682,11.825396825396824,-325.0,259.9206349206349,2.619047619047619,-1.8253968253968254,-321.8253968253968
177,41.666666666666664,199.44444444444443,42.460317460317455,-61.34920634920635,42.3015873015873,-14.206349206349206,41.03174603174603,-14.84126984126984,175.0,-325.0,57.53968253968254,12.142857142857142,41.34920634920635,260.07936507936506,38.65079365079365,-10.079365079365079,-206.26984126984127,-14.682539682539682,11.825396825396824,-325.0,259.9206349206349,2.619047619047619,-1.8253968253968254,-321.8253968253968
178,50.238095238095234,175.79365079365078,49.285714285714285,-60.39682539682539,51.19047619047619,-13.888888888888888,51.666666666666664,-14.523809523809524,171.66666666666666,-325.0,56.58730158730158,3.4126984126984126,50.87301587301587,307.06349206349205,50.238095238095234,-9.761904761904761,-325.0,-14.523809523809524,3.253968253968254,-325.0,277.85714285714283,-3.095238095238095,0.07936507936507936,-321.8253968253968
179,50.238095238095234,175.79365079365078,49.285714285714285,-60.39682539682539,51.19047619047619,-13.888888888888888,51.666666666666664,-14.523809523809524,171.66666666666666,-325.0,56.58730158730158,3.4126984126984126,50.87301587301587,307.06349206349205,50.238095238095234,-9.761904761904761,-325.0,-14.523809523809524,3.253968253968254,-325.0,277.85714285714283,-3.095238095238095,0.07936507936507936,-321.8253968253968
180,1.6666666666666665,178.33333333333331,1.349206349206349,-59.285714285714285,3.253968253968254,-13.73015873015873,2.3015873015873014,-14.682539682539682,169.12698412698413,-0.07936507936507936,55.79365079365079,1.349206349206349,1.349206349206349,325.0,1.349206349206349,-9.761904761904761,-325.0,-14.523809523809524,1.349206349206349,-325.0,273.0952380952381,-2.9365079365079363,0.07936507936507936,-166.26984126984127
181,1.6666666666666665,178.33333333333331,1.349206349206349,-59.285714285714285,3.253968253968254,-13.73015873015873,2.3015873015873014,-14.682539682539682,169.12698412698413,-0.07936507936507936,55.79365079365079,1.349206349206349,1.349206349206349,325.0,1.349206349206349,-9.761904761904761,-325.0,-14.523809523809524,1.349206349206349,-325.0,273.0952380952381,-2.9365079365079363,0.07936507936507936,-166.26984126984127
182,-49.92063492063492,206.58730158730157,-50.87301587301587,-57.857142857142854,-49.6031746031746,-13.412698412698411,-50.55555555555555,-14.206349206349206,164.52380952380952,325.0,54.047619047619044,3.73015873015873,-49.12698412698413,325.0,-50.87301587301587,-9.444444444444445,-194.84126984126982,-14.047619047619047,3.4126984126984126,-325.0,243.88888888888889,-3.4126984126984126,1.984126984126984,-166.26984126984127
183,-49.92063492063492,206.58730158730157,-50.87301587301587,-57.857142857142854,-49.6031746031746,-13.412698412698411,-50.55555555555555,-14.206349206349206,164.52380952380952,325.0,54.047619047619044,3.73015873015873,-49.12698412698413,325.0,-50.87301587301587,-9.444444444444445,-194.84126984126982,-14.047619047619047,3.4126984126984126,-325.0,243.88888888888889,-3.4126984126984126,1.984126984126984,-166.26984126984127
184,0.23809523809523808,192.14285714285714,0.5555555555555556,-55.317460317460316,0.23809523809523808,-12.777777777777777,-0.873015873015873,-13.73015873015873,158.33333333333331,-13.412698412698411,52.61904761904761,-3.253968253968254,2.3015873015873014,306.74603174603175,-1.349206349206349,-8.968253968253968,-66.9047619047619,-13.412698412698411,-3.571428571428571,-325.0,226.58730158730157,-1.8253968253968254,0.7142857142857142,-166.26984126984127
185,0.23809523809523808,192.14285714285714,0.5555555555555556,-55.317460317460316,0.23809523809523808,-12.777777777777777,-0.873015873015873,-13.73015873015873,158.33333333333331,-13.412698412698411,52.61904761904761,-3.253968253968254,2.3015873015873014,306.74603174603175,-1.349206349206349,-8.968253968253968,-66.9047619047619,-13.412698412698411,-3.571428571428571,-325.0,226.58730158730157,-1.8253968253968254,0.7142857142857142,-166.26984126984127
186,6.428571428571428,111.19047619047619,6.26984126984127,-54.52380952380952,8.174603174603174,-12.619047619047619,8.333333333333332,-13.571428571428571,154.84126984126982,194.84126984126982,49.76190476190476,1.6666666666666665,7.222222222222221,245.63492063492063,8.174603174603174,-8.968253968253968,-325.0,-13.412698412698411,1.8253968253968254,-325.0,252.6190476190476,-2.7777777777777777,1.349206349206349,-166.26984126984127
187,6.428571428571428,111.19047619047619,6.26984126984127,-54.52380952380952,8.174603174603174,-12.619047619047619,8.333333333333332,-13.571428571428571,154.84126984126982,194.84126984126982,49.76190476190476,1.6666666666666665,7.222222222222221,245.63492063492063,8.174603174603174,-8.968253968253968,-325.0,-13.412698412698411,1.8253968253968254,-325.0,252.6190476190476,-2.7777777777777777,1.349206349206349,-166.26984126984127
188,6.428571428571428,139.28571428571428,6.111111111111111,-53.41269841269841,6.26984126984127,-12.46031746031746,5.317460317460317,-13.412698412698411,152.46031746031744,267.38095238095235,41.507936507936506,4.0476190476190474,5.317460317460317,223.25396825396825,2.3015873015873014,-8.809523809523808,-194.84126984126982,-13.253968253968253,3.888888888888889,-325.0,237.2222222222222,2.619047619047619,-2.142857142857143,-166.26984126984127
189,6.428571428571428,139.28571428571428,6.111111111111111,-53.41269841269841,6.26984126984127,-12.46031746031746,5.317460317460317,-13.412698412698411,152.46031746031744,267.38095238095235,41.507936507936506,4.0476190476190474,5.317460317460317,223.25396825396825,2.3015873015873014,-8.809523809523808,-194.84126984126982,-13.253968253968253,3.888888888888889,-325.0,237.2222222222222,2.619047619047619,-2.142857142857143,-166.26984126984127
190,-40.55555555555555,122.77777777777777,-41.03174603174603,-51.98412698412698,-39.92063492063492,-12.46031746031746,-40.238095238095234,-13.095238095238095,148.33333333333331,325.0,46.269841269841265,6.587301587301587,-39.44444444444444,106.9047619047619,-40.238095238095234,-8.809523809523808,-193.25396825396825,-12.936507936507935,6.587301587301587,-325.0,235.63492063492063,-3.253968253968254,2.3015873015873014,-321.8253968253968
191,-40.55555555555555,122.77777777777777,-41.03174603174603,-51.98412698412698,-39.92063492063492,-12.46031746031746,-40.238095238095234,-13.095238095238095,148.33333333333331,325.0,46.269841269841265,6.587301587301587,-39.44444444444444,106.9047619047619,-40.238095238095234,-8.809523809523808,-193.25396825396825,-12.936507936507935,6.587301587301587,-325.0,235.63492063492063,-3.253968253968254,2.3015873015873014,-321.8253968253968
192,-5.7936507936507935,75.47619047619047,-6.746031746031746,-51.19047619047619,-6.26984126984127,-11.984126984126984,-5.952380952380952,-12.936507936507935,145.63492063492063,325.0,29.126984126984127,2.46031746031746,-8.015873015873016,34.047619047619044,-9.285714285714285,-8.65079365079365,-325.0,-12.777777777777777,2.7777777777777777,-325.0,237.53968253968253,2.46031746031746,-2.3015873015873014,-321.8253968253968
193,-5.7936507936507935,75.47619047619047,-6.746031746031746,-51.19047619047619,-6.26984126984127,-11.984126984126984,-5.952380952380952,-12.936507936507935,145.63492063492063,325.0,29.126984126984127,2.46031746031746,-8.015873015873016,34.047619047619044,-9.285714285714285,-8.65079365079365,-325.0,-12.777777777777777,2.7777777777777777,-325.0,237.53968253968253,2.46031746031746,-2.3015873015873014,-321.8253968253968
194,-10.555555555555555,94.84126984126983,-11.666666666666666,-49.92063492063492,-9.920634920634921,-11.666666666666666,-9.126984126984127,-12.777777777777777,142.77777777777777,325.0,12.619047619047619,8.968253968253968,-9.444444444444445,147.69841269841268,-10.555555555555555,-8.333333333333332,-325.0,-12.619047619047619,8.968253968253968,-325.0,233.4126984126984,0.7142857142857142,0.23809523809523808,-321.8253968253968
195,-10.555555555555555,94.84126984126983,-11.666666666666666,-49.92063492063492,-9.920634920634921,-11.666666666666666,-9.126984126984127,-12.777777777777777,142.77777777777777,325.0,12.619047619047619,8.968253968253968,-9.444444444444445,147.69841269841268,-10.555555555555555,-8.333333333333332,-325.0,-12.619047619047619,8.968253968253968,-325.0,233.4126984126984,0.7142857142857142,0.23809523809523808,-321.8253968253968
196,-20.71428571428571,54.36507936507936,-21.349206349206348,-49.285714285714285,-20.07936507936508,-11.666666666666666,-21.349206349206348,-12.46031746031746,140.07936507936506,325.0,27.857142857142854,4.682539682539682,-24.206349206349206,230.87301587301587,-23.88888888888889,-8.174603174603174,-325.0,-12.3015873015873,5.476190476190476,-325.0,230.7142857142857,-1.0317460317460316,-1.349206349206349,-321.8253968253968
197,-20.71428571428571,54.36507936507936,-21.349206349206348,-49.285714285714285,-20.07936507936508,-11.666666666666666,-21.349206349206348,-12.46031746031746,140.07936507936506,325.0,27.857142857142854,4.682539682539682,-24.206349206349206,230.87301587301587,-23.88888888888889,-8.174603174603174,-325.0,-12.3015873015873,5.476190476190476,-325.0,230.7142857142857,-1.0317460317460316,-1.349206349206349,-321.8253968253968
198,-28.809523809523807,91.66666666666666,-28.96825396825397,-48.17460317460317,-28.809523809523807,-11.507936507936508,-29.126984126984127,-12.3015873015873,137.06349206349205,324.5238095238095,8.015873015873016,-0.7142857142857142,-29.285714285714285,221.98412698412696,-31.19047619047619,-8.174603174603174,-195.47619047619045,-12.142857142857142,-0.5555555555555556,-325.0,218.8095238095238,3.095238095238095,-1.507936507936508,-321.8253968253968
199,-28.809523809523807,91.66666666666666,-28.96825396825397,-48.17460317460317,-28.809523809523807,-11.507936507936508,-29.126984126984127,-12.3015873015873,137.06349206349205,324.5238095238095,8.015873015873016,-0.7142857142857142,-29.285714285714285,221.98412698412696,-31.19047619047619,-8.174603174603174,-195.47619047619045,-12.142857142857142,-0.5555555555555556,-325.0,218.8095238095238,3.095238095238095,-1.507936507936508,-321.8253968253968
200,-3.4126984126984126,43.57142857142857,-5.0,-47.22222222222222,-3.095238095238095,-11.031746031746032,-2.3015873015873014,-12.142857142857142,134.84126984126982,319.4444444444444,1.984126984126984,-0.07936507936507936,-3.571428571428571,216.26984126984127,-4.2063492063492065,-8.015873015873016,-325.0,-11.984126984126984,0.5555555555555556,-325.0,221.8253968253968,-3.571428571428571,1.0317460317460316,-166.26984126984127
201,-3.4126984126984126,43.57142857142857,-5.0,-47.22222222222222,-3.095238095238095,-11.031746031746032,-2.3015873015873014,-12.142857142857142,134.84126984126982,319.4444444444444,1.984126984126984,-0.07936507936507936,-3.571428571428571,216.26984126984127,-4.2063492063492065,-8.015873015873016,-325.0,-11.984126984126984,0.5555555555555556,-325.0,221.8253968253968,-3.571428571428571,1.0317460317460316,-166.26984126984127
202,-23.57142857142857,74.04761904761904,-23.095238095238095,-46.42857142857142,-22.936507936507937,-11.19047619047619,-23.730158730158728,-12.142857142857142,132.61904761904762,313.73015873015873,-12.142857142857142,3.73015873015873,-24.047619047619047,265.7936507936508,-25.79365079365079,-8.015873015873016,-193.09523809523807,-11.984126984126984,4.0476190476190474,-325.0,213.57142857142856,3.253968253968254,-1.6666666666666665,-166.26984126984127
203,-23.57142857142857,74.04761904761904,-23.095238095238095,-46.42857142857142,-22.936507936507937,-11.19047619047619,-23.730158730158728,-12.142857142857142,132.61904761904762,313.73015873015873,-12.142857142857142,3.73015873015873,-24.047619047619047,265.7936507936508,-25.79365079365079,-8.015873015873016,-193.09523809523807,-11.984126984126984,4.0476190476190474,-325.0,213.57142857142856,3.253968253968254,-1.6666666666666665,-166.26984126984127
204,-17.698412698412696,61.19047619047619,-17.539682539682538,-44.84126984126984,-17.063492063492063,-10.873015873015872,-18.015873015873016,-11.507936507936508,127.53968253968253,301.3492063492063,8.174603174603174,1.8253968253968254,-19.444444444444443,299.6031746031746,-20.238095238095237,-7.698412698412698,-189.28571428571428,-11.507936507936508,2.46031746031746,-325.0,207.69841269841268,-1.0317460317460316,-0.5555555555555556,-166.26984126984127
205,-17.698412698412696,61.19047619047619,-17.539682539682538,-44.84126984126984,-17.063492063492063,-10.873015873015872,-18.015873015873016,-11.507936507936508,127.53968253968253,301.3492063492063,8.174603174603174,1.8253968253968254,-19.444444444444443,299.6031746031746,-20.238095238095237,-7.698412698412698,-189.28571428571428,-11.507936507936508,2.46031746031746,-325.0,207.69841269841268,-1.0317460317460316,-0.5555555555555556,-166.26984126984127
206,-13.73015873015873,47.53968253968254,-14.206349206349206,-42.93650793650794,-13.253968253968253,-10.396825396825395,-13.412698412698411,-11.19047619047619,122.6190476190476,288.968253968254,-55.95238095238095,-1.0317460317460316,-16.428571428571427,325.0,-16.26984126984127,-7.5396825396825395,-325.0,-11.031746031746032,-0.07936507936507936,-325.0,201.03174603174602,2.142857142857143,-2.142857142857143,-166.26984126984127
207,-13.73015873015873,47.53968253968254,-14.206349206349206,-42.93650793650794,-13.253968253968253,-10.396825396825395,-13.412698412698411,-11.19047619047619,122.6190476190476,288.968253968254,-55.95238095238095,-1.0317460317460316,-16.428571428571427,325.0,-16.26984126984127,-7.5396825396825395,-325.0,-11.031746031746032,-0.07936507936507936,-325.0,201.03174603174602,2.142857142857143,-2.142857142857143,-166.26984126984127
208,-0.07936507936507936,73.25396825396825,-1.6666666666666665,-41.98412698412698,-0.07936507936507936,-10.238095238095237,1.1904761904761905,-11.031746031746032,120.07936507936508,282.46031746031747,-99.92063492063491,-1.349206349206349,0.3968253968253968,325.0,-0.7142857142857142,-7.5396825396825395,-325.0,-11.031746031746032,-1.0317460317460316,-325.0,195.95238095238093,-0.07936507936507936,-0.23809523809523808,-166.26984126984127
209,-0.07936507936507936,73.25396825396825,-1.6666666666666665,-41.98412698412698,-0.07936507936507936,-10.238095238095237,1.1904761904761905,-11.031746031746032,120.07936507936508,282.46031746031747,-99.92063492063491,-1.349206349206349,0.3968253968253968,325.0,-0.7142857142857142,-7.5396825396825395,-325.0,-11.031746031746032,-1.0317460317460316,-325.0,195.95238095238093,-0.07936507936507936,-0.23809523809523808,-166.26984126984127
210,-0.7142857142857142,58.8095238095238,-2.619047619047619,-40.714285714285715,-0.3968253968253968,-10.079365079365079,0.07936507936507936,-11.031746031746032,117.38095238095238,276.1111111111111,-68.4920634920635,-2.7777777777777777,-1.6666666666666665,325.0,-1.8253968253968254,-7.222222222222221,-325.0,-10.714285714285714,-1.8253968253968254,-325.0,192.61904761904762,-3.4126984126984126,1.8253968253968254,-321.8253968253968
211,-0.7142857142857142,58.8095238095238,-2.619047619047619,-40.714285714285715,-0.3968253968253968,-10.079365079365079,0.07936507936507936,-11.031746031746032,117.38095238095238,276.1111111111111,-68.4920634920635,-2.7777777777777777,-1.6666666666666665,325.0,-1.8253968253968254,-7.222222222222221,-325.0,-10.714285714285714,-1.8253968253968254,-325.0,192.61904761904762,-3.4126984126984126,1.8253968253968254,-321.8253968253968
212,-25.952380952380953,112.6190476190476,-25.158730158730158,-40.55555555555555,-25.158730158730158,-10.238095238095237,-25.79365079365079,-10.873015873015872,115.95238095238095,272.3015873015873,-2.3015873015873014,2.619047619047619,-24.206349206349206,325.0,-27.063492063492063,-7.3809523809523805,-36.42857142857142,-10.714285714285714,2.619047619047619,-325.0,186.11111111111111,-0.23809523809523808,0.7142857142857142,-321.8253968253968
213,-25.952380952380953,112.6190476190476,-25.158730158730158,-40.55555555555555,-25.158730158730158,-10.238095238095237,-25.79365079365079,-10.873015873015872,115.95238095238095,272.3015873015873,-2.3015873015873014,2.619047619047619,-24.206349206349206,325.0,-27.063492063492063,-7.3809523809523805,-36.42857142857142,-10.714285714285714,2.619047619047619,-325.0,186.11111111111111,-0.23809523809523808,0.7142857142857142,-321.8253968253968
214,6.428571428571428,57.698412698412696,4.2063492063492065,-36.904761904761905,6.428571428571428,-9.761904761904761,7.5396825396825395,-10.555555555555555,113.4126984126984,266.26984126984127,-94.36507936507935,3.571428571428571,5.952380952380952,325.0,5.317460317460317,-6.904761904761904,-325.0,-10.555555555555555,4.2063492063492065,-325.0,185.47619047619045,-3.73015873015873,1.1904761904761905,-321.8253968253968
215,6.428571428571428,57.698412698412696,4.2063492063492065,-36.904761904761905,6.428571428571428,-9.761904761904761,7.5396825396825395,-10.555555555555555,113.4126984126984,266.26984126984127,-94.36507936507935,3.571428571428571,5.952380952380952,325.0,5.317460317460317,-6.904761904761904,-325.0,-10.555555555555555,4.2063492063492065,-325.0,185.47619047619045,-3.73015873015873,1.1904761904761905,-321.8253968253968
216,-17.22222222222222,105.79365079365078,-16.26984126984127,-39.44444444444444,-16.428571428571427,-9.603174603174603,-17.698412698412696,-10.555555555555555,111.98412698412697,262.6190476190476,-14.682539682539682,5.0,-16.587301587301585,325.0,-19.285714285714285,-6.904761904761904,-33.25396825396825,-10.396825396825395,5.476190476190476,-325.0,175.15873015873015,-0.3968253968253968,-0.07936507936507936,-321.8253968253968
217,-17.22222222222222,105.79365079365078,-16.26984126984127,-39.44444444444444,-16.428571428571427,-9.603174603174603,-17.698412698412696,-10.555555555555555,111.98412698412697,262.6190476190476,-14.682539682539682,5.0,-16.587301587301585,325.0,-19.285714285714285,-6.904761904761904,-33.25396825396825,-10.396825396825395,5.476190476190476,-325.0,175.15873015873015,-0.3968253968253968,-0.07936507936507936,-321.8253968253968
218,4.365079365079365,57.38095238095238,2.142857142857143,-30.555555555555554,4.365079365079365,-9.444444444444445,5.476190476190476,-10.079365079365079,109.6031746031746,256.74603174603175,-111.03174603174602,0.7142857142857142,3.253968253968254,325.0,3.095238095238095,-6.746031746031746,-325.0,-10.238095238095237,1.349206349206349,-325.0,179.76190476190476,-2.9365079365079363,1.349206349206349,-321.8253968253968
219,4.365079365079365,57.38095238095238,2.142857142857143,-30.555555555555554,4.365079365079365,-9.444444444444445,5.476190476190476,-10.079365079365079,109.6031746031746,256.74603174603175,-111.03174603174602,0.7142857142857142,3.253968253968254,325.0,3.095238095238095,-6.746031746031746,-325.0,-10.238095238095237,1.349206349206349,-325.0,179.76190476190476,-2.9365079365079363,1.349206349206349,-321.8253968253968
220,-17.38095238095238,107.6984126984127,-17.063492063492063,-38.17460317460317,-16.428571428571427,-9.444444444444445,-17.063492063492063,-10.238095238095237,108.01587301587301,253.25396825396825,-32.460317460317455,4.0476190476190474,-15.634920634920634,325.0,-18.80952380952381,-6.587301587301587,-24.84126984126984,-10.238095238095237,4.682539682539682,-325.0,174.52380952380952,0.3968253968253968,-0.3968253968253968,-166.26984126984127
221,-17.38095238095238,107.6984126984127,-17.063492063492063,-38.17460317460317,-16.428571428571427,-9.444444444444445,-17.063492063492063,-10.238095238095237,108.01587301587301,253.25396825396825,-32.460317460317455,4.0476190476190474,-15.634920634920634,325.0,-18.80952380952381,-6.587301587301587,-24.84126984126984,-10.238095238095237,4.682539682539682,-325.0,174.52380952380952,0.3968253968253968,-0.3968253968253968,-166.26984126984127
222,9.285714285714285,75.15873015873015,7.3809523809523805,-22.936507936507937,10.396825396825395,-8.968253968253968,11.19047619047619,-9.920634920634921,104.36507936507935,244.04761904761904,-208.17460317460316,6.746031746031746,10.396825396825395,325.0,8.968253968253968,-5.7936507936507935,-325.0,-9.920634920634921,7.5396825396825395,-325.0,170.7142857142857,0.5555555555555556,-0.7142857142857142,-166.26984126984127
223,9.285714285714285,75.15873015873015,7.3809523809523805,-22.936507936507937,10.396825396825395,-8.968253968253968,11.19047619047619,-9.920634920634921,104.36507936507935,244.04761904761904,-208.17460317460316,6.746031746031746,10.396825396825395,325.0,8.968253968253968,-5.7936507936507935,-325.0,-9.920634920634921,7.5396825396825395,-325.0,170.7142857142857,0.5555555555555556,-0.7142857142857142,-166.26984126984127
224,14.047619047619047,71.03174603174602,12.142857142857142,0.7142857142857142,75.31746031746032,-8.809523809523808,14.84126984126984,-9.603174603174603,100.39682539682539,234.36507936507934,-155.79365079365078,-2.7777777777777777,12.777777777777777,325.0,11.825396825396824,-4.365079365079365,-321.5079365079365,-9.444444444444445,-1.0317460317460316,-325.0,164.36507936507937,-3.888888888888889,0.5555555555555556,-166.26984126984127
225,14.047619047619047,71.03174603174602,12.142857142857142,0.7142857142857142,75.31746031746032,-8.809523809523808,14.84126984126984,-9.603174603174603,100.39682539682539,234.36507936507934,-155.79365079365078,-2.7777777777777777,12.777777777777777,325.0,11.825396825396824,-4.365079365079365,-321.5079365079365,-9.444444444444445,-1.0317460317460316,-325.0,164.36507936507937,-3.888888888888889,0.5555555555555556,-166.26984126984127
226,-11.349206349206348,101.34920634920634,-11.031746031746032,-11.507936507936508,77.38095238095238,-8.492063492063492,-9.603174603174603,-9.444444444444445,96.74603174603175,225.95238095238093,-201.8253968253968,3.73015873015873,-9.920634920634921,315.95238095238096,-11.19047619047619,-6.746031746031746,-168.015873015873,-9.285714285714285,4.365079365079365,-325.0,157.06349206349205,3.253968253968254,-2.142857142857143,-166.26984126984127
227,-11.349206349206348,101.34920634920634,-11.031746031746032,-11.507936507936508,77.38095238095238,-8.492063492063492,-9.603174603174603,-9.444444444444445,96.74603174603175,225.95238095238093,-201.8253968253968,3.73015873015873,-9.920634920634921,315.95238095238096,-11.19047619047619,-6.746031746031746,-168.015873015873,-9.285714285714285,4.365079365079365,-325.0,157.06349206349205,3.253968253968254,-2.142857142857143,-166.26984126984127
228,14.365079365079364,81.03174603174602,12.3015873015873,28.49206349206349,138.96825396825395,-8.333333333333332,15.634920634920634,-9.285714285714285,95.31746031746032,221.98412698412696,-189.76190476190476,-3.73015873015873,14.365079365079364,226.58730158730157,13.73015873015873,-6.26984126984127,-317.69841269841265,-9.126984126984127,-2.9365079365079363,-325.0,155.3174603174603,-4.365079365079365,1.0317460317460316,-166.26984126984127
229,14.365079365079364,81.03174603174602,12.3015873015873,28.49206349206349,138.96825396825395,-8.333333333333332,15.634920634920634,-9.285714285714285,95.31746031746032,221.98412698412696,-189.76190476190476,-3.73015873015873,14.365079365079364,226.58730158730157,13.73015873015873,-6.26984126984127,-317.69841269841265,-9.126984126984127,-2.9365079365079363,-325.0,155.3174603174603,-4.365079365079365,1.0317460317460316,-166.26984126984127
230,7.698412698412698,83.09523809523809,7.3809523809523805,44.84126984126984,249.9206349206349,-8.333333333333332,10.714285714285714,-9.126984126984127,93.25396825396825,217.06349206349205,-325.0,-11.349206349206348,8.809523809523808,229.76190476190476,9.285714285714285,5.634920634920634,-325.0,-8.968253968253968,-9.761904761904761,-325.0,151.984126984127,6.587301587301587,-2.619047619047619,-321.8253968253968
231,7.698412698412698,83.09523809523809,7.3809523809523805,44.84126984126984,249.9206349206349,-8.333333333333332,10.714285714285714,-9.126984126984127,93.25396825396825,217.06349206349205,-325.0,-11.349206349206348,8.809523809523808,229.76190476190476,9.285714285714285,5.634920634920634,-325.0,-8.968253968253968,-9.761904761904761,-325.0,151.984126984127,6.587301587301587,-2.619047619047619,-321.8253968253968
232,28.49206349206349,105.79365079365078,25.952380952380953,-7.698412698412698,255.0,-8.174603174603174,31.03174603174603,-8.809523809523808,91.66666666666666,213.09523809523807,-219.12698412698413,-9.126984126984127,32.61904761904762,260.87301587301585,30.07936507936508,47.53968253968254,-295.0,-8.809523809523808,-8.015873015873016,-325.0,149.44444444444443,-6.746031746031746,3.73015873015873,-321.8253968253968
233,28.49206349206349,105.79365079365078,25.952380952380953,-7.698412698412698,255.0,-8.174603174603174,31.03174603174603,-8.809523809523808,91.66666666666666,213.09523809523807,-219.12698412698413,-9.126984126984127,32.61904761904762,260.87301587301585,30.07936507936508,47.53968253968254,-295.0,-8.809523809523808,-8.015873015873016,-325.0,149.44444444444443,-6.746031746031746,3.73015873015873,-321.8253968253968
234,31.19047619047619,107.22222222222221,28.174603174603174,-5.158730158730158,264.68253968253964,-8.174603174603174,33.73015873015873,-8.65079365079365,90.07936507936508,206.74603174603175,-226.74603174603175,-10.238095238095237,35.95238095238095,292.9365079365079,33.25396825396825,22.142857142857142,-285.6349206349206,-8.809523809523808,-9.603174603174603,-325.0,146.74603174603175,-6.428571428571428,3.571428571428571,-321.8253968253968
235,31.19047619047619,107.22222222222221,28.174603174603174,-5.158730158730158,264.68253968253964,-8.174603174603174,33.73015873015873,-8.65079365079365,90.07936507936508,206.74603174603175,-226.74603174603175,-10.238095238095237,35.95238095238095,292.9365079365079,33.25396825396825,22.142857142857142,-285.6349206349206,-8.809523809523808,-9.603174603174603,-325.0,146.74603174603175,-6.428571428571428,3.571428571428571,-321.8253968253968
236,16.26984126984127,110.87301587301587,16.11111111111111,26.11111111111111,320.07936507936506,-7.698412698412698,18.015873015873016,-8.809523809523808,87.38095238095238,201.03174603174602,-224.68253968253967,-8.333333333333332,17.063492063492063,325.0,15.793650793650793,115.15873015873015,-162.3015873015873,-8.65079365079365,-6.904761904761904,-325.0,138.65079365079364,4.841269841269841,-1.507936507936508,-321.8253968253968
237,16.26984126984127,110.87301587301587,16.11111111111111,26.11111111111111,320.07936507936506,-7.698412698412698,18.015873015873016,-8.809523809523808,87.38095238095238,201.03174603174602,-224.68253968253967,-8.333333333333332,17.063492063492063,325.0,15.793650793650793,115.15873015873015,-162.3015873015873,-8.65079365079365,-6.904761904761904,-325.0,138.65079365079364,4.841269841269841,-1.507936507936508,-321.8253968253968
238,16.587301587301585,95.63492063492063,15.0,49.6031746031746,315.6349206349206,-7.698412698412698,19.6031746031746,-8.492063492063492,86.1111111111111,200.23809523809524,-285.4761904761905,-6.26984126984127,20.238095238095237,325.0,19.444444444444443,92.93650793650794,-290.07936507936506,-8.492063492063492,-5.0,-325.0,139.12698412698413,1.349206349206349,0.07936507936507936,-321.8253968253968
239,16.587301587301585,95.63492063492063,15.0,49.6031746031746,315.6349206349206,-7.698412698412698,19.6031746031746,-8.492063492063492,86.1111111111111,200.23809523809524,-285.4761904761905,-6.26984126984127,20.238095238095237,325.0,19.444444444444443,92.93650793650794,-290.07936507936506,-8.492063492063492,-5.0,-325.0,139.12698412698413,1.349206349206349,0.07936507936507936,-321.8253968253968
240,22.936507936507937,79.92063492063491,21.984126984126984,153.73015873015873,230.87301587301587,-7.5396825396825395,24.84126984126984,-8.333333333333332,83.57142857142857,194.52380952380952,-291.66666666666663,-7.222222222222221,21.984126984126984,325.0,22.777777777777775,-12.46031746031746,-325.0,-8.333333333333332,-5.634920634920634,-325.0,136.11111111111111,1.984126984126984,-1.6666666666666665,-166.26984126984127
241,22.936507936507937,79.92063492063491,21.984126984126984,153.73015873015873,230.87301587301587,-7.5396825396825395,24.84126984126984,-8.333333333333332,83.57142857142857,194.52380952380952,-291.66666666666663,-7.222222222222221,21.984126984126984,325.0,22.777777777777775,-12.46031746031746,-325.0,-8.333333333333332,-5.634920634920634,-325.0,136.11111111111111,1.984126984126984,-1.6666666666666665,-166.26984126984127
242,40.714285714285715,130.3968253968254,37.53968253968254,21.666666666666664,325.0,-7.222222222222221,42.93650793650794,-8.333333333333332,79.76190476190476,185.63492063492063,-276.4285714285714,-6.428571428571428,46.904761904761905,315.7936507936508,42.61904761904761,-11.349206349206348,-232.3015873015873,-7.857142857142857,-5.317460317460317,-325.0,125.63492063492063,-5.634920634920634,2.3015873015873014,-166.26984126984127
243,40.714285714285715,130.3968253968254,37.53968253968254,21.666666666666664,325.0,-7.222222222222221,42.93650793650794,-8.333333333333332,79.76190476190476,185.63492063492063,-276.4285714285714,-6.428571428571428,46.904761904761905,315.7936507936508,42.61904761904761,-11.349206349206348,-232.3015873015873,-7.857142857142857,-5.317460317460317,-325.0,125.63492063492063,-5.634920634920634,2.3015873015873014,-166.26984126984127
244,144.2063492063492,-2.9365079365079363,-21.19047619047619,-27.063492063492063,-321.8253968253968,-20.396825396825395,-282.1428571428571,-8.333333333333332,79.76190476190476,185.63492063492063,-276.4285714285714,-6.428571428571428,-278.17460317460313,295.4761904761905,-262.1428571428571,-11.349206349206348,113.09523809523809,-7.857142857142857,299.4444444444444,-325.0,-179.12698412698413,-25.952380952380953,-322.77777777777777,-166.26984126984127
245,144.2063492063492,-2.9365079365079363,-21.19047619047619,-27.063492063492063,-321.8253968253968,-20.396825396825395,-282.1428571428571,-8.333333333333332,79.76190476190476,185.63492063492063,-276.4285714285714,-6.428571428571428,-278.17460317460313,295.4761904761905,-262.1428571428571,-11.349206349206348,113.09523809523809,-7.857142857142857,299.4444444444444,-325.0,-179.12698412698413,-25.952380952380953,-322.77777777777777,-166.26984126984127
246,3.4126984126984126,87.38095238095238,2.46031746031746,283.25396825396825,259.1269841269841,-6.904761904761904,4.682539682539682,-7.5396825396825395,72.61904761904762,169.28571428571428,-325.0,-4.523809523809524,1.6666666666666665,325.0,3.253968253968254,-10.714285714285714,-325.0,-7.5396825396825395,-3.095238095238095,-325.0,118.17460317460316,1.984126984126984,-1.507936507936508,-166.26984126984127
247,3.4126984126984126,87.38095238095238,2.46031746031746,283.25396825396825,259.1269841269841,-6.904761904761904,4.682539682539682,-7.5396825396825395,72.61904761904762,169.28571428571428,-325.0,-4.523809523809524,1.6666666666666665,325.0,3.253968253968254,-10.714285714285714,-325.0,-7.5396825396825395,-3.095238095238095,-325.0,118.17460317460316,1.984126984126984,-1.507936507936508,-166.26984126984127
248,16.746031746031743,112.46031746031746,14.365079365079364,165.15873015873015,325.0,-6.746031746031746,19.285714285714285,-7.3809523809523805,71.03174603174602,165.63492063492063,-301.984126984127,-4.682539682539682,20.07936507936508,325.0,18.96825396825397,-10.396825396825395,-252.77777777777777,-7.3809523809523805,-3.571428571428571,-322.1428571428571,113.88888888888889,0.873015873015873,1.0317460317460316,-166.26984126984127
249,16.746031746031743,112.46031746031746,14.365079365079364,165.15873015873015,325.0,-6.746031746031746,19.285714285714285,-7.3809523809523805,71.03174603174602,165.63492063492063,-301.984126984127,-4.682539682539682,20.07936507936508,325.0,18.96825396825397,-10.396825396825395,-252.77777777777777,-7.3809523809523805,-3.571428571428571,-322.1428571428571,113.88888888888889,0.873015873015873,1.0317460317460316,-166.26984126984127
250,23.88888888888889,102.14285714285714,20.555555555555554,188.4920634920635,292.3015873015873,-6.587301587301587,23.88888888888889,-7.3809523809523805,69.76190476190476,161.8253968253968,-301.19047619047615,-5.7936507936507935,24.047619047619047,325.0,21.349206349206348,-10.238095238095237,-246.9047619047619,-7.222222222222221,-4.0476190476190474,-320.7142857142857,113.09523809523809,-4.523809523809524,1.8253968253968254,-321.8253968253968
251,23.88888888888889,102.14285714285714,20.555555555555554,188.4920634920635,292.3015873015873,-6.587301587301587,23.88888888888889,-7.3809523809523805,69.76190476190476,161.8253968253968,-301.19047619047615,-5.7936507936507935,24.047619047619047,325.0,21.349206349206348,-10.238095238095237,-246.9047619047619,-7.222222222222221,-4.0476190476190474,-320.7142857142857,113.09523809523809,-4.523809523809524,1.8253968253968254,-321.8253968253968
252,2.619047619047619,151.66666666666666,3.095238095238095,-2.3015873015873014,325.0,-6.587301587301587,4.2063492063492065,-7.222222222222221,68.65079365079364,159.76190476190476,-211.03174603174602,4.841269841269841,3.73015873015873,325.0,2.46031746031746,-9.920634920634921,16.11111111111111,-7.222222222222221,6.111111111111111,-325.0,103.4126984126984,1.6666666666666665,-0.7142857142857142,-321.8253968253968
253,2.619047619047619,151.66666666666666,3.095238095238095,-2.3015873015873014,325.0,-6.587301587301587,4.2063492063492065,-7.222222222222221,68.65079365079364,159.76190476190476,-211.03174603174602,4.841269841269841,3.73015873015873,325.0,2.46031746031746,-9.920634920634921,16.11111111111111,-7.222222222222221,6.111111111111111,-325.0,103.4126984126984,1.6666666666666665,-0.7142857142857142,-321.8253968253968
254,2.619047619047619,151.66666666666666,3.095238095238095,-2.3015873015873014,325.0,-6.587301587301587,4.2063492063492065,-7.222222222222221,68.65079365079364,159.76190476190476,-211.03174603174602,4.841269841269841,3.73015873015873,325.0,2.46031746031746,-9.920634920634921,16.11111111111111,-7.222222222222221,6.111111111111111,-325.0,103.4126984126984,1.6666666666666665,-0.7142857142857142,-321.8253968253968
255,2.619047619047619,151.66666666666666,3.095238095238095,-2.3015873015873014,325.0,-6.587301587301587,4.2063492063492065,-7.222222222222221,68.65079365079364,159.76190476190476,-211.03174603174602,4.841269841269841,3.73015873015873,325.0,2.46031746031746,-9.920634920634921,16.11111111111111,-7.222222222222221,6.111111111111111,-325.0,103.4126984126984,1.6666666666666665,-0.7142857142857142,-321.8253968253968
256,-5.158730158730158,108.80952380952381,-5.7936507936507935,325.0,325.0,-6.111111111111111,-2.142857142857143,-7.063492063492063,65.95238095238095,114.04761904761904,-325.0,-0.07936507936507936,-2.7777777777777777,325.0,-1.1904761904761905,-8.809523809523808,-319.6031746031746,-7.063492063492063,1.349206349206349,-325.0,106.1111111111111,7.222222222222221,-2.619047619047619,-321.8253968253968
257,-5.158730158730158,108.80952380952381,-5.7936507936507935,325.0,325.0,-6.111111111111111,-2.142857142857143,-7.063492063492063,65.95238095238095,114.04761904761904,-325.0,-0.07936507936507936,-2.7777777777777777,325.0,-1.1904761904761905,-8.809523809523808,-319.6031746031746,-7.063492063492063,1.349206349206349,-325.0,106.1111111111111,7.222222222222221,-2.619047619047619,-321.8253968253968
258,-5.158730158730158,108.80952380952381,-5.7936507936507935,325.0,325.0,-6.111111111111111,-2.142857142857143,-7.063492063492063,65.95238095238095,114.04761904761904,-325.0,-0.07936507936507936,-2.7777777777777777,325.0,-1.1904761904761905,-8.809523809523808,-319.6031746031746,-7.063492063492063,1.349206349206349,-325.0,106.1111111111111,7.222222222222221,-2.619047619047619,-321.8253968253968
259,-5.158730158730158,108.80952380952381,-5.7936507936507935,325.0,325.0,-6.111111111111111,-2.142857142857143,-7.063492063492063,65.95238095238095,114.04761904761904,-325.0,-0.07936507936507936,-2.7777777777777777,325.0,-1.1904761904761905,-8.809523809523808,-319.6031746031746,-7.063492063492063,1.349206349206349,-325.0,106.1111111111111,7.222222222222221,-2.619047619047619,-321.8253968253968
260,49.92063492063492,127.38095238095238,46.11111111111111,202.61904761904762,325.0,-6.111111111111111,53.25396825396825,-6.746031746031746,64.04761904761905,-105.47619047619047,-293.25396825396825,-7.5396825396825395,52.14285714285714,289.9206349206349,52.3015873015873,8.333333333333332,-220.87301587301587,-6.904761904761904,-6.111111111111111,-306.58730158730157,103.4126984126984,2.3015873015873014,1.1904761904761905,-166.26984126984127
261,49.92063492063492,127.38095238095238,46.11111111111111,202.61904761904762,325.0,-6.111111111111111,53.25396825396825,-6.746031746031746,64.04761904761905,-105.47619047619047,-293.25396825396825,-7.5396825396825395,52.14285714285714,289.9206349206349,52.3015873015873,8.333333333333332,-220.87301587301587,-6.904761904761904,-6.111111111111111,-306.58730158730157,103.4126984126984,2.3015873015873014,1.1904761904761905,-166.26984126984127
262,105.15873015873015,145.95238095238093,98.17460317460316,80.39682539682539,325.0,-6.111111111111111,108.80952380952381,-6.428571428571428,62.14285714285714,-325.0,-261.5079365079365,-15.0,107.06349206349206,255.0,105.79365079365078,25.634920634920633,-121.98412698412697,-6.587301587301587,-13.412698412698411,-288.17460317460313,100.71428571428571,-2.46031746031746,5.158730158730158,-166.26984126984127
263,105.15873015873015,145.95238095238093,98.17460317460316,80.39682539682539,325.0,-6.111111111111111,108.80952380952381,-6.428571428571428,62.14285714285714,-325.0,-261.5079365079365,-15.0,107.06349206349206,255.0,105.79365079365078,25.634920634920633,-121.98412698412697,-6.587301587301587,-13.412698412698411,-288.17460317460313,100.71428571428571,-2.46031746031746,5.158730158730158,-166.26984126984127
264,105.15873015873015,145.95238095238093,98.17460317460316,80.39682539682539,325.0,-6.111111111111111,108.80952380952381,-6.428571428571428,62.14285714285714,-325.0,-261.5079365079365,-15.0,107.06349206349206,255.0,105.79365079365078,25.634920634920633,-121.98412698412697,-6.587301587301587,-13.412698412698411,-288.17460317460313,100.71428571428571,-2.46031746031746,5.158730158730158,-166.26984126984127
265,105.15873015873015,145.95238095238093,98.17460317460316,80.39682539682539,325.0,-6.111111111111111,108.80952380952381,-6.428571428571428,62.14285714285714,-325.0,-261.5079365079365,-15.0,107.06349206349206,255.0,105.79365079365078,25.634920634920633,-121.98412698412697,-6.587301587301587,-13.412698412698411,-288.17460317460313,100.71428571428571,-2.46031746031746,5.158730158730158,-166.26984126984127
266,105.15873015873015,145.95238095238093,98.17460317460316,80.39682539682539,325.0,-6.111111111111111,108.80952380952381,-6.428571428571428,62.14285714285714,-325.0,-261.5079365079365,-15.0,107.06349206349206,255.0,105.79365079365078,25.634920634920633,-121.98412698412697,-6.587301587301587,-13.412698412698411,-288.17460317460313,100.71428571428571,-2.46031746031746,5.158730158730158,-166.26984126984127
267,105.15873015873015,145.95238095238093,98.17460317460316,80.39682539682539,325.0,-6.111111111111111,108.80952380952381,-6.428571428571428,62.14285714285714,-325.0,-261.5079365079365,-15.0,107.06349206349206,255.0,105.79365079365078,25.634920634920633,-121.98412698412697,-6.587301587301587,-13.412698412698411,-288.17460317460313,100.71428571428571,-2.46031746031746,5.158730158730158,-166.26984126984127
268,105.15873015873015,145.95238095238093,98.17460317460316,80.39682539682539,325.0,-6.111111111111111,108.80952380952381,-6.428571428571428,62.14285714285714,-325.0,-261.5079365079365,-15.0,107.06349206349206,255.0,105.79365079365078,25.634920634920633,-121.98412698412697,-6.587301587301587,-13.412698412698411,-288.17460317460313,100.71428571428571,-2.46031746031746,5.158730158730158,-166.26984126984127
269,105.15873015873015,145.95238095238093,98.17460317460316,80.39682539682539,325.0,-6.111111111111111,108.80952380952381,-6.428571428571428,62.14285714285714,-325.0,-261.5079365079365,-15.0,107.06349206349206,255.0,105.79365079365078,25.634920634920633,-121.98412698412697,-6.587301587301587,-13.412698412698411,-288.17460317460313,100.71428571428571,-2.46031746031746,5.158730158730158,-166.26984126984127
270,57.38095238095238,114.84126984126983,53.25396825396825,202.61904761904762,325.0,-5.952380952380952,58.17460317460317,-6.428571428571428,59.44444444444444,-60.71428571428571,-293.25396825396825,-9.285714285714285,56.42857142857142,258.8095238095238,54.841269841269835,83.4126984126984,-223.57142857142856,-6.587301587301587,-7.3809523809523805,-300.07936507936506,97.38095238095238,-4.365079365079365,2.619047619047619,-321.8253968253968
271,57.38095238095238,114.84126984126983,53.25396825396825,202.61904761904762,325.0,-5.952380952380952,58.17460317460317,-6.428571428571428,59.44444444444444,-60.71428571428571,-293.25396825396825,-9.285714285714285,56.42857142857142,258.8095238095238,54.841269841269835,83.4126984126984,-223.57142857142856,-6.587301587301587,-7.3809523809523805,-300.07936507936506,97.38095238095238,-4.365079365079365,2.619047619047619,-321.8253968253968
272,-3.888888888888889,138.17460317460316,-7.063492063492063,100.87301587301587,325.0,-5.634920634920634,-2.619047619047619,-6.26984126984127,56.42857142857142,289.76190476190476,-238.17460317460316,-4.365079365079365,-4.682539682539682,223.4126984126984,-4.0476190476190474,113.09523809523809,-79.12698412698413,-6.26984126984127,-2.46031746031746,-279.2857142857143,86.26984126984127,-4.523809523809524,4.2063492063492065,-321.8253968253968
273,-3.888888888888889,138.17460317460316,-7.063492063492063,100.87301587301587,325.0,-5.634920634920634,-2.619047619047619,-6.26984126984127,56.42857142857142,289.76190476190476,-238.17460317460316,-4.365079365079365,-4.682539682539682,223.4126984126984,-4.0476190476190474,113.09523809523809,-79.12698412698413,-6.26984126984127,-2.46031746031746,-279.2857142857143,86.26984126984127,-4.523809523809524,4.2063492063492065,-321.8253968253968
274,-21.19047619047619,112.6190476190476,-24.047619047619047,219.28571428571428,325.0,-5.476190476190476,-21.349206349206348,-6.111111111111111,54.68253968253968,273.73015873015873,-277.38095238095235,-0.873015873015873,-23.41269841269841,155.3174603174603,-24.047619047619047,154.36507936507937,-194.36507936507937,-6.26984126984127,0.7142857142857142,-285.0,89.6031746031746,-4.841269841269841,1.8253968253968254,-321.8253968253968
275,-21.19047619047619,112.6190476190476,-24.047619047619047,219.28571428571428,325.0,-5.476190476190476,-21.349206349206348,-6.111111111111111,54.68253968253968,273.73015873015873,-277.38095238095235,-0.873015873015873,-23.41269841269841,155.3174603174603,-24.047619047619047,154.36507936507937,-194.36507936507937,-6.26984126984127,0.7142857142857142,-285.0,89.6031746031746,-4.841269841269841,1.8253968253968254,-321.8253968253968
276,-18.65079365079365,111.82539682539682,-21.984126984126984,219.28571428571428,325.0,-5.476190476190476,-18.174603174603174,-5.952380952380952,53.888888888888886,269.9206349206349,-277.38095238095235,-0.5555555555555556,-18.015873015873016,82.61904761904762,-18.96825396825397,111.5079365079365,-185.47619047619045,-6.111111111111111,0.873015873015873,-279.9206349206349,88.17460317460316,0.7142857142857142,0.3968253968253968,-321.8253968253968
277,-18.65079365079365,111.82539682539682,-21.984126984126984,219.28571428571428,325.0,-5.476190476190476,-18.174603174603174,-5.952380952380952,53.888888888888886,269.9206349206349,-277.38095238095235,-0.5555555555555556,-18.015873015873016,82.61904761904762,-18.96825396825397,111.5079365079365,-185.47619047619045,-6.111111111111111,0.873015873015873,-279.9206349206349,88.17460317460316,0.7142857142857142,0.3968253968253968,-321.8253968253968
278,-22.46031746031746,118.17460317460316,-25.0,216.42857142857142,325.0,-5.317460317460317,-23.095238095238095,-5.634920634920634,52.460317460317455,248.65079365079364,-288.015873015873,2.619047619047619,-21.666666666666664,63.57142857142857,-23.253968253968253,43.57142857142857,-144.84126984126982,-6.111111111111111,4.2063492063492065,-281.031746031746,85.79365079365078,5.0,-1.984126984126984,-321.8253968253968
279,-22.46031746031746,118.17460317460316,-25.0,216.42857142857142,325.0,-5.317460317460317,-23.095238095238095,-5.634920634920634,52.460317460317455,248.65079365079364,-288.015873015873,2.619047619047619,-21.666666666666664,63.57142857142857,-23.253968253968253,43.57142857142857,-144.84126984126982,-6.111111111111111,4.2063492063492065,-281.031746031746,85.79365079365078,5.0,-1.984126984126984,-321.8253968253968
280,-19.92063492063492,121.03174603174602,-21.03174603174603,216.42857142857142,325.0,-5.317460317460317,-20.873015873015873,-5.7936507936507935,50.55555555555555,247.2222222222222,-288.015873015873,4.523809523809524,-22.619047619047617,199.60317460317458,-22.619047619047617,-17.539682539682538,-153.88888888888889,-5.952380952380952,6.26984126984127,-272.1428571428571,82.61904761904762,0.07936507936507936,-0.3968253968253968,-166.26984126984127
