Fp1[1],Fp2[2],F3[3],F4[4],C3[5],C4[6],P3[7],P4[8],O1[9],O2[10],F7[11],F8[12],T3[13],T4[14],T5[15],T6[16],Fz[17],Pz[18],Cz[19],Pg1[20],Pg2[21],EOGR[22],EOOGL[23],EMG[24]
-155.3174603174603,-179.60317460317458,-177.85714285714286,-175.79365079365078,-160.7142857142857,-163.57142857142856,5.317460317460317,-4.841269841269841,-309.2857142857143,-325.0,-315.0,-17.22222222222222,-312.46031746031747,-9.285714285714285,-310.39682539682536,325.0,-317.53968253968253,325.0,-158.65079365079364,-325.0,-238.49206349206347,-3.73015873015873,3.4126984126984126,-166.26984126984127
-155.3174603174603,-179.60317460317458,-177.85714285714286,-175.79365079365078,-160.7142857142857,-163.57142857142856,5.317460317460317,-4.841269841269841,-309.2857142857143,-325.0,-315.0,-17.22222222222222,-312.46031746031747,-9.285714285714285,-310.39682539682536,325.0,-317.53968253968253,325.0,-158.65079365079364,-325.0,-238.49206349206347,-3.73015873015873,3.4126984126984126,-166.26984126984127
-155.3174603174603,-179.60317460317458,-177.85714285714286,-175.79365079365078,-160.7142857142857,-163.57142857142856,5.317460317460317,-4.841269841269841,-309.2857142857143,-325.0,-315.0,-17.22222222222222,-312.46031746031747,-9.285714285714285,-310.39682539682536,325.0,-317.53968253968253,325.0,-158.65079365079364,-325.0,-238.49206349206347,-3.73015873015873,3.4126984126984126,-166.26984126984127
-155.3174603174603,-179.60317460317458,-177.85714285714286,-175.79365079365078,-160.7142857142857,-163.57142857142856,5.317460317460317,-4.841269841269841,-309.2857142857143,-325.0,-315.0,-17.22222222222222,-312.46031746031747,-9.285714285714285,-310.39682539682536,325.0,-317.53968253968253,325.0,-158.65079365079364,-325.0,-238.49206349206347,-3.73015873015873,3.4126984126984126,-166.26984126984127
-264.2063492063492,325.0,-262.9365079365079,2.3015873015873014,-265.3174603174603,325.0,-267.85714285714283,325.0,-264.68253968253964,-324.36507936507934,-267.53968253968253,-4.0476190476190474,-269.9206349206349,-8.492063492063492,-267.85714285714283,325.0,-264.5238095238095,325.0,-69.44444444444444,-325.0,-103.4126984126984,-5.0,1.6666666666666665,-166.26984126984127
-264.2063492063492,325.0,-262.9365079365079,2.3015873015873014,-265.3174603174603,325.0,-267.85714285714283,325.0,-264.68253968253964,-324.36507936507934,-267.53968253968253,-4.0476190476190474,-269.9206349206349,-8.492063492063492,-267.85714285714283,325.0,-264.5238095238095,325.0,-69.44444444444444,-325.0,-103.4126984126984,-5.0,1.6666666666666665,-166.26984126984127
-283.4126984126984,325.0,-281.19047619047615,8.65079365079365,-283.88888888888886,325.0,-287.85714285714283,325.0,-284.04761904761904,-317.06349206349205,-286.1111111111111,5.317460317460317,-289.2857142857143,-8.333333333333332,-287.22222222222223,325.0,-282.3015873015873,325.0,-47.38095238095238,-325.0,-74.68253968253968,-5.317460317460317,1.507936507936508,-166.26984126984127
-283.4126984126984,325.0,-281.19047619047615,8.65079365079365,-283.88888888888886,325.0,-287.85714285714283,325.0,-284.04761904761904,-317.06349206349205,-286.1111111111111,5.317460317460317,-289.2857142857143,-8.333333333333332,-287.22222222222223,325.0,-282.3015873015873,325.0,-47.38095238095238,-325.0,-74.68253968253968,-5.317460317460317,1.507936507936508,-166.26984126984127
-246.42857142857142,325.0,-245.63492063492063,4.2063492063492065,-247.85714285714283,325.0,-250.3968253968254,325.0,-246.58730158730157,-308.8095238095238,-248.96825396825395,1.984126984126984,-251.5079365079365,-8.174603174603174,-250.55555555555554,325.0,-242.77777777777777,325.0,-41.19047619047619,-325.0,-62.93650793650793,1.8253968253968254,0.7142857142857142,-166.26984126984127
-246.42857142857142,325.0,-245.63492063492063,4.2063492063492065,-247.85714285714283,325.0,-250.3968253968254,325.0,-246.58730158730157,-308.8095238095238,-248.96825396825395,1.984126984126984,-251.5079365079365,-8.174603174603174,-250.55555555555554,325.0,-242.77777777777777,325.0,-41.19047619047619,-325.0,-62.93650793650793,1.8253968253968254,0.7142857142857142,-166.26984126984127
-254.52380952380952,325.0,-252.46031746031744,7.222222222222221,-255.15873015873015,325.0,-259.2857142857143,325.0,-255.3174603174603,-303.73015873015873,-257.06349206349205,5.634920634920634,-260.07936507936506,-8.015873015873016,-259.44444444444446,325.0,-251.8253968253968,325.0,-31.507936507936506,-325.0,-50.238095238095234,-1.507936507936508,-1.507936507936508,-321.8253968253968
-254.52380952380952,325.0,-252.46031746031744,7.222222222222221,-255.15873015873015,325.0,-259.2857142857143,325.0,-255.3174603174603,-303.73015873015873,-257.06349206349205,5.634920634920634,-260.07936507936506,-8.015873015873016,-259.44444444444446,325.0,-251.8253968253968,325.0,-31.507936507936506,-325.0,-50.238095238095234,-1.507936507936508,-1.507936507936508,-321.8253968253968
-248.015873015873,325.0,-246.58730158730157,4.682539682539682,-248.8095238095238,325.0,-252.14285714285714,325.0,-247.85714285714283,-298.6507936507936,-249.76190476190476,4.2063492063492065,-252.77777777777777,-7.857142857142857,-251.8253968253968,321.984126984127,-242.93650793650792,325.0,-28.174603174603174,-325.0,-44.2063492063492,1.984126984126984,-0.3968253968253968,-321.8253968253968
-248.015873015873,325.0,-246.58730158730157,4.682539682539682,-248.8095238095238,325.0,-252.14285714285714,325.0,-247.85714285714283,-298.6507936507936,-249.76190476190476,4.2063492063492065,-252.77777777777777,-7.857142857142857,-251.8253968253968,321.984126984127,-242.93650793650792,325.0,-28.174603174603174,-325.0,-44.2063492063492,1.984126984126984,-0.3968253968253968,-321.8253968253968
-252.3015873015873,325.0,-250.3968253968254,7.063492063492063,-253.09523809523807,325.0,-256.58730158730157,325.0,-253.09523809523807,-293.4126984126984,-254.36507936507934,7.3809523809523805,-257.53968253968253,-7.857142857142857,-257.06349206349205,316.74603174603175,-248.17460317460316,325.0,-19.92063492063492,-325.0,-33.095238095238095,-2.142857142857143,-0.3968253968253968,-321.8253968253968
-252.3015873015873,325.0,-250.3968253968254,7.063492063492063,-253.09523809523807,325.0,-256.58730158730157,325.0,-253.09523809523807,-293.4126984126984,-254.36507936507934,7.3809523809523805,-257.53968253968253,-7.857142857142857,-257.06349206349205,316.74603174603175,-248.17460317460316,325.0,-19.92063492063492,-325.0,-33.095238095238095,-2.142857142857143,-0.3968253968253968,-321.8253968253968
-234.68253968253967,325.0,-233.7301587301587,6.26984126984127,-235.63492063492063,325.0,-238.65079365079364,325.0,-234.36507936507934,-288.3333333333333,-236.1111111111111,7.3809523809523805,-239.44444444444443,-7.698412698412698,-238.65079365079364,311.3492063492063,-228.33333333333331,325.0,-14.84126984126984,-325.0,-25.476190476190474,2.3015873015873014,0.07936507936507936,-321.8253968253968
-234.68253968253967,325.0,-233.7301587301587,6.26984126984127,-235.63492063492063,325.0,-238.65079365079364,325.0,-234.36507936507934,-288.3333333333333,-236.1111111111111,7.3809523809523805,-239.44444444444443,-7.698412698412698,-238.65079365079364,311.3492063492063,-228.33333333333331,325.0,-14.84126984126984,-325.0,-25.476190476190474,2.3015873015873014,0.07936507936507936,-321.8253968253968
-247.69841269841268,325.0,-244.84126984126982,10.396825396825395,-247.69841269841268,325.0,-252.14285714285714,325.0,-247.85714285714283,-283.57142857142856,-248.8095238095238,12.142857142857142,-252.46031746031744,-7.698412698412698,-251.98412698412696,306.1111111111111,-241.98412698412696,325.0,-5.476190476190476,-325.0,-13.73015873015873,-2.46031746031746,-0.7142857142857142,-321.8253968253968
-247.69841269841268,325.0,-244.84126984126982,10.396825396825395,-247.69841269841268,325.0,-252.14285714285714,325.0,-247.85714285714283,-283.57142857142856,-248.8095238095238,12.142857142857142,-252.46031746031744,-7.698412698412698,-251.98412698412696,306.1111111111111,-241.98412698412696,325.0,-5.476190476190476,-325.0,-13.73015873015873,-2.46031746031746,-0.7142857142857142,-321.8253968253968
-224.2063492063492,325.0,-223.25396825396825,8.333333333333332,-225.47619047619045,325.0,-228.015873015873,325.0,-223.7301587301587,-278.6507936507936,-225.15873015873015,10.714285714285714,-228.8095238095238,-7.5396825396825395,-228.015873015873,300.7142857142857,-216.58730158730157,325.0,-2.7777777777777777,-325.0,-9.126984126984127,2.619047619047619,0.3968253968253968,-166.26984126984127
-224.2063492063492,325.0,-223.25396825396825,8.333333333333332,-225.47619047619045,325.0,-228.015873015873,325.0,-223.7301587301587,-278.6507936507936,-225.15873015873015,10.714285714285714,-228.8095238095238,-7.5396825396825395,-228.015873015873,300.7142857142857,-216.58730158730157,325.0,-2.7777777777777777,-325.0,-9.126984126984127,2.619047619047619,0.3968253968253968,-166.26984126984127
-231.98412698412696,325.0,-229.12698412698413,10.238095238095237,-232.3015873015873,325.0,-236.42857142857142,325.0,-232.46031746031744,-273.88888888888886,-233.09523809523807,13.412698412698411,-237.38095238095238,-7.5396825396825395,-236.74603174603175,295.7936507936508,-226.26984126984127,325.0,3.73015873015873,-325.0,-0.07936507936507936,-2.46031746031746,-1.507936507936508,-166.26984126984127
-231.98412698412696,325.0,-229.12698412698413,10.238095238095237,-232.3015873015873,325.0,-236.42857142857142,325.0,-232.46031746031744,-273.88888888888886,-233.09523809523807,13.412698412698411,-237.38095238095238,-7.5396825396825395,-236.74603174603175,295.7936507936508,-226.26984126984127,325.0,3.73015873015873,-325.0,-0.07936507936507936,-2.46031746031746,-1.507936507936508,-166.26984126984127
-195.15873015873015,315.1587301587301,-194.04761904761904,9.603174603174603,-195.47619047619045,325.0,-198.96825396825395,325.0,-193.7301587301587,-250.2380952380952,-194.84126984126982,15.158730158730158,-196.58730158730157,-6.904761904761904,-197.69841269841268,270.39682539682536,-184.52380952380952,325.0,23.253968253968253,-325.0,24.047619047619047,7.222222222222221,-1.1904761904761905,-166.26984126984127
-195.15873015873015,315.1587301587301,-194.04761904761904,9.603174603174603,-195.47619047619045,325.0,-198.96825396825395,325.0,-193.7301587301587,-250.2380952380952,-194.84126984126982,15.158730158730158,-196.58730158730157,-6.904761904761904,-197.69841269841268,270.39682539682536,-184.52380952380952,325.0,23.253968253968253,-325.0,24.047619047619047,7.222222222222221,-1.1904761904761905,-166.26984126984127
43.73015873015873,169.44444444444443,44.52380952380952,-5.317460317460317,41.03174603174603,176.74603174603175,41.19047619047619,180.07936507936506,38.65079365079365,-133.4126984126984,38.01587301587301,0.3968253968253968,39.12698412698413,-4.523809523809524,37.698412698412696,145.0,40.39682539682539,178.17460317460316,39.6031746031746,-176.58730158730157,60.238095238095234,-0.873015873015873,-1.507936507936508,-166.26984126984127
43.73015873015873,169.44444444444443,44.52380952380952,-5.317460317460317,41.03174603174603,176.74603174603175,41.19047619047619,180.07936507936506,38.65079365079365,-133.4126984126984,38.01587301587301,0.3968253968253968,39.12698412698413,-4.523809523809524,37.698412698412696,145.0,40.39682539682539,178.17460317460316,39.6031746031746,-176.58730158730157,60.238095238095234,-0.873015873015873,-1.507936507936508,-166.26984126984127
43.73015873015873,169.44444444444443,44.52380952380952,-5.317460317460317,41.03174603174603,176.74603174603175,41.19047619047619,180.07936507936506,38.65079365079365,-133.4126984126984,38.01587301587301,0.3968253968253968,39.12698412698413,-4.523809523809524,37.698412698412696,145.0,40.39682539682539,178.17460317460316,39.6031746031746,-176.58730158730157,60.238095238095234,-0.873015873015873,-1.507936507936508,-166.26984126984127
43.73015873015873,169.44444444444443,44.52380952380952,-5.317460317460317,41.03174603174603,176.74603174603175,41.19047619047619,180.07936507936506,38.65079365079365,-133.4126984126984,38.01587301587301,0.3968253968253968,39.12698412698413,-4.523809523809524,37.698412698412696,145.0,40.39682539682539,178.17460317460316,39.6031746031746,-176.58730158730157,60.238095238095234,-0.873015873015873,-1.507936507936508,-166.26984126984127
166.74603174603175,-325.0,166.58730158730157,-12.46031746031746,164.52380952380952,117.38095238095238,168.17460317460316,120.55555555555554,163.57142857142856,325.0,164.04761904761904,-9.920634920634921,166.11111111111111,103.73015873015872,165.79365079365078,95.95238095238095,164.36507936507937,118.33333333333333,16.428571428571427,-116.9047619047619,46.269841269841265,3.4126984126984126,-0.7142857142857142,-321.8253968253968
166.74603174603175,-325.0,166.58730158730157,-12.46031746031746,164.52380952380952,117.38095238095238,168.17460317460316,120.55555555555554,163.57142857142856,325.0,164.04761904761904,-9.920634920634921,166.11111111111111,103.73015873015872,165.79365079365078,95.95238095238095,164.36507936507937,118.33333333333333,16.428571428571427,-116.9047619047619,46.269841269841265,3.4126984126984126,-0.7142857142857142,-321.8253968253968
146.74603174603175,-325.0,148.015873015873,-9.920634920634921,145.3174603174603,115.47619047619047,147.06349206349205,118.65079365079364,142.3015873015873,325.0,143.4126984126984,-7.063492063492063,145.15873015873015,211.34920634920633,144.52380952380952,94.36507936507935,142.14285714285714,116.42857142857142,19.126984126984127,-115.0,48.96825396825397,2.46031746031746,-1.984126984126984,-321.8253968253968
146.74603174603175,-325.0,148.015873015873,-9.920634920634921,145.3174603174603,115.47619047619047,147.06349206349205,118.65079365079364,142.3015873015873,325.0,143.4126984126984,-7.063492063492063,145.15873015873015,211.34920634920633,144.52380952380952,94.36507936507935,142.14285714285714,116.42857142857142,19.126984126984127,-115.0,48.96825396825397,2.46031746031746,-1.984126984126984,-321.8253968253968
194.68253968253967,-325.0,192.14285714285714,-16.904761904761905,190.3968253968254,109.76190476190476,195.95238095238093,112.77777777777777,191.66666666666666,325.0,191.66666666666666,-15.317460317460316,195.3174603174603,325.0,192.14285714285714,89.44444444444444,194.36507936507937,110.55555555555554,8.333333333333332,-109.28571428571428,36.11111111111111,-4.0476190476190474,1.1904761904761905,-321.8253968253968
194.68253968253967,-325.0,192.14285714285714,-16.904761904761905,190.3968253968254,109.76190476190476,195.95238095238093,112.77777777777777,191.66666666666666,325.0,191.66666666666666,-15.317460317460316,195.3174603174603,325.0,192.14285714285714,89.44444444444444,194.36507936507937,110.55555555555554,8.333333333333332,-109.28571428571428,36.11111111111111,-4.0476190476190474,1.1904761904761905,-321.8253968253968
231.5079365079365,-302.9365079365079,229.12698412698413,-0.3968253968253968,229.60317460317458,-325.0,238.65079365079364,-325.0,234.68253968253967,292.3015873015873,234.84126984126982,-7.5396825396825395,238.65079365079364,325.0,237.38095238095238,-325.0,232.77777777777777,-325.0,-6.26984126984127,-48.80952380952381,3.253968253968254,-2.619047619047619,1.984126984126984,-321.8253968253968
231.5079365079365,-302.9365079365079,229.12698412698413,-0.3968253968253968,229.60317460317458,-325.0,238.65079365079364,-325.0,234.68253968253967,292.3015873015873,234.84126984126982,-7.5396825396825395,238.65079365079364,325.0,237.38095238095238,-325.0,232.77777777777777,-325.0,-6.26984126984127,-48.80952380952381,3.253968253968254,-2.619047619047619,1.984126984126984,-321.8253968253968
237.69841269841268,-296.90476190476187,234.68253968253967,-1.507936507936508,235.3174603174603,-325.0,244.2063492063492,-325.0,240.2380952380952,286.1111111111111,240.3968253968254,-8.015873015873016,244.36507936507934,325.0,242.46031746031744,-325.0,238.17460317460316,-325.0,-7.222222222222221,-47.857142857142854,1.349206349206349,1.8253968253968254,-0.07936507936507936,-321.8253968253968
237.69841269841268,-296.90476190476187,234.68253968253967,-1.507936507936508,235.3174603174603,-325.0,244.2063492063492,-325.0,240.2380952380952,286.1111111111111,240.3968253968254,-8.015873015873016,244.36507936507934,325.0,242.46031746031744,-325.0,238.17460317460316,-325.0,-7.222222222222221,-47.857142857142854,1.349206349206349,1.8253968253968254,-0.07936507936507936,-321.8253968253968
201.19047619047618,-287.22222222222223,200.07936507936506,2.7777777777777777,201.19047619047618,-325.0,206.26984126984127,-325.0,203.88888888888889,276.4285714285714,205.15873015873015,-3.571428571428571,209.28571428571428,325.0,205.79365079365078,-325.0,201.98412698412696,-325.0,-3.095238095238095,-46.269841269841265,2.3015873015873014,-3.253968253968254,0.07936507936507936,-166.26984126984127
201.19047619047618,-287.22222222222223,200.07936507936506,2.7777777777777777,201.19047619047618,-325.0,206.26984126984127,-325.0,203.88888888888889,276.4285714285714,205.15873015873015,-3.571428571428571,209.28571428571428,325.0,205.79365079365078,-325.0,201.98412698412696,-325.0,-3.095238095238095,-46.269841269841265,2.3015873015873014,-3.253968253968254,0.07936507936507936,-166.26984126984127
207.38095238095238,-283.57142857142856,205.3174603174603,3.888888888888889,206.1111111111111,-325.0,214.84126984126982,-325.0,211.19047619047618,273.0952380952381,211.19047619047618,-3.571428571428571,214.68253968253967,325.0,214.2063492063492,-325.0,208.4920634920635,-325.0,-3.253968253968254,-45.476190476190474,4.523809523809524,-0.07936507936507936,2.142857142857143,-166.26984126984127
207.38095238095238,-283.57142857142856,205.3174603174603,3.888888888888889,206.1111111111111,-325.0,214.84126984126982,-325.0,211.19047619047618,273.0952380952381,211.19047619047618,-3.571428571428571,214.68253968253967,325.0,214.2063492063492,-325.0,208.4920634920635,-325.0,-3.253968253968254,-45.476190476190474,4.523809523809524,-0.07936507936507936,2.142857142857143,-166.26984126984127
211.5079365079365,-276.58730158730157,209.9206349206349,-1.349206349206349,211.19047619047618,-325.0,217.85714285714283,-325.0,215.47619047619045,265.7936507936508,215.79365079365078,-7.857142857142857,220.2380952380952,325.0,217.38095238095238,-325.0,213.09523809523807,-325.0,-8.015873015873016,-44.36507936507936,-3.571428571428571,-5.952380952380952,1.349206349206349,-166.26984126984127
211.5079365079365,-276.58730158730157,209.9206349206349,-1.349206349206349,211.19047619047618,-325.0,217.85714285714283,-325.0,215.47619047619045,265.7936507936508,215.79365079365078,-7.857142857142857,220.2380952380952,325.0,217.38095238095238,-325.0,213.09523809523807,-325.0,-8.015873015873016,-44.36507936507936,-3.571428571428571,-5.952380952380952,1.349206349206349,-166.26984126984127
35.0,-165.95238095238093,28.49206349206349,8.333333333333332,30.87301587301587,-325.0,36.269841269841265,-325.0,38.96825396825397,155.79365079365078,37.857142857142854,4.523809523809524,37.53968253968254,201.34920634920633,36.904761904761905,-281.66666666666663,29.126984126984127,-325.0,-0.23809523809523808,-26.587301587301585,-6.746031746031746,-2.7777777777777777,1.349206349206349,-166.26984126984127
35.0,-165.95238095238093,28.49206349206349,8.333333333333332,30.87301587301587,-325.0,36.269841269841265,-325.0,38.96825396825397,155.79365079365078,37.857142857142854,4.523809523809524,37.53968253968254,201.34920634920633,36.904761904761905,-281.66666666666663,29.126984126984127,-325.0,-0.23809523809523808,-26.587301587301585,-6.746031746031746,-2.7777777777777777,1.349206349206349,-166.26984126984127
38.80952380952381,-163.88888888888889,31.349206349206348,10.238095238095237,34.047619047619044,-325.0,40.079365079365076,-325.0,42.77777777777778,153.88888888888889,40.87301587301587,6.746031746031746,41.03174603174603,198.65079365079364,40.079365079365076,-278.17460317460313,33.25396825396825,-325.0,1.8253968253968254,-26.26984126984127,-5.634920634920634,-0.5555555555555556,0.07936507936507936,-166.26984126984127
38.80952380952381,-163.88888888888889,31.349206349206348,10.238095238095237,34.047619047619044,-325.0,40.079365079365076,-325.0,42.77777777777778,153.88888888888889,40.87301587301587,6.746031746031746,41.03174603174603,198.65079365079364,40.079365079365076,-278.17460317460313,33.25396825396825,-325.0,1.8253968253968254,-26.26984126984127,-5.634920634920634,-0.5555555555555556,0.07936507936507936,-166.26984126984127
38.80952380952381,-163.88888888888889,31.349206349206348,10.238095238095237,34.047619047619044,-325.0,40.079365079365076,-325.0,42.77777777777778,153.88888888888889,40.87301587301587,6.746031746031746,41.03174603174603,198.65079365079364,40.079365079365076,-278.17460317460313,33.25396825396825,-325.0,1.8253968253968254,-26.26984126984127,-5.634920634920634,-0.5555555555555556,0.07936507936507936,-321.8253968253968
38.80952380952381,-163.88888888888889,31.349206349206348,10.238095238095237,34.047619047619044,-325.0,40.079365079365076,-325.0,42.77777777777778,153.88888888888889,40.87301587301587,6.746031746031746,41.03174603174603,198.65079365079364,40.079365079365076,-278.17460317460313,33.25396825396825,-325.0,1.8253968253968254,-26.26984126984127,-5.634920634920634,-0.5555555555555556,0.07936507936507936,-321.8253968253968
-13.888888888888888,-148.4920634920635,-17.698412698412696,10.396825396825395,-15.476190476190474,-309.4444444444444,-12.3015873015873,-309.1269841269841,-7.857142857142857,138.8095238095238,-8.65079365079365,6.746031746031746,-10.079365079365079,125.95238095238095,-10.079365079365079,-251.98412698412696,-18.015873015873016,-308.6507936507936,1.507936507936508,-23.88888888888889,-6.111111111111111,-3.4126984126984126,1.1904761904761905,-321.8253968253968
-13.888888888888888,-148.4920634920635,-17.698412698412696,10.396825396825395,-15.476190476190474,-309.4444444444444,-12.3015873015873,-309.1269841269841,-7.857142857142857,138.8095238095238,-8.65079365079365,6.746031746031746,-10.079365079365079,125.95238095238095,-10.079365079365079,-251.98412698412696,-18.015873015873016,-308.6507936507936,1.507936507936508,-23.88888888888889,-6.111111111111111,-3.4126984126984126,1.1904761904761905,-321.8253968253968
-72.77777777777777,-124.68253968253967,-73.73015873015872,11.349206349206348,-71.98412698412697,-275.7936507936508,-71.5079365079365,-275.6349206349206,-65.0,115.79365079365078,-65.47619047619047,7.698412698412698,-67.53968253968253,71.19047619047619,-67.6984126984127,-211.98412698412696,-75.63492063492063,-274.68253968253964,2.142857142857143,8.333333333333332,-6.111111111111111,-6.111111111111111,2.3015873015873014,-321.8253968253968
-72.77777777777777,-124.68253968253967,-73.73015873015872,11.349206349206348,-71.98412698412697,-275.7936507936508,-71.5079365079365,-275.6349206349206,-65.0,115.79365079365078,-65.47619047619047,7.698412698412698,-67.53968253968253,71.19047619047619,-67.6984126984127,-211.98412698412696,-75.63492063492063,-274.68253968253964,2.142857142857143,8.333333333333332,-6.111111111111111,-6.111111111111111,2.3015873015873014,-321.8253968253968
-56.58730158730158,-170.87301587301587,-143.57142857142856,-131.5079365079365,-126.9047619047619,315.3174603174603,-320.23809523809524,121.82539682539682,-20.396825396825395,283.0952380952381,-147.06349206349205,62.14285714285714,17.857142857142858,163.73015873015873,-246.58730158730157,-55.79365079365079,243.09523809523807,-256.90476190476187,-301.66666666666663,38.17460317460317,-26.11111111111111,-26.428571428571427,-322.77777777777777,-321.8253968253968
-56.58730158730158,-170.87301587301587,-143.57142857142856,-131.5079365079365,-126.9047619047619,315.3174603174603,-320.23809523809524,121.82539682539682,-20.396825396825395,283.0952380952381,-147.06349206349205,62.14285714285714,17.857142857142858,163.73015873015873,-246.58730158730157,-55.79365079365079,243.09523809523807,-256.90476190476187,-301.66666666666663,38.17460317460317,-26.11111111111111,-26.428571428571427,-322.77777777777777,-321.8253968253968
-56.58730158730158,-170.87301587301587,-143.57142857142856,-131.5079365079365,-126.9047619047619,315.3174603174603,-320.23809523809524,121.82539682539682,-20.396825396825395,283.0952380952381,-147.06349206349205,62.14285714285714,17.857142857142858,163.73015873015873,-246.58730158730157,-55.79365079365079,243.09523809523807,-256.90476190476187,-301.66666666666663,38.17460317460317,-26.11111111111111,-26.428571428571427,-322.77777777777777,-321.8253968253968
-56.58730158730158,-170.87301587301587,-143.57142857142856,-131.5079365079365,-126.9047619047619,315.3174603174603,-320.23809523809524,121.82539682539682,-20.396825396825395,283.0952380952381,-147.06349206349205,62.14285714285714,17.857142857142858,163.73015873015873,-246.58730158730157,-55.79365079365079,243.09523809523807,-256.90476190476187,-301.66666666666663,38.17460317460317,-26.11111111111111,-26.428571428571427,-322.77777777777777,-321.8253968253968
-56.58730158730158,-170.87301587301587,-143.57142857142856,-131.5079365079365,-126.9047619047619,315.3174603174603,-320.23809523809524,121.82539682539682,-20.396825396825395,283.0952380952381,-147.06349206349205,62.14285714285714,17.857142857142858,163.73015873015873,-246.58730158730157,-55.79365079365079,243.09523809523807,-256.90476190476187,-301.66666666666663,38.17460317460317,-26.11111111111111,-26.428571428571427,-322.77777777777777,-166.26984126984127
-56.58730158730158,-170.87301587301587,-143.57142857142856,-131.5079365079365,-126.9047619047619,315.3174603174603,-320.23809523809524,121.82539682539682,-20.396825396825395,283.0952380952381,-147.06349206349205,62.14285714285714,17.857142857142858,163.73015873015873,-246.58730158730157,-55.79365079365079,243.09523809523807,-256.90476190476187,-301.66666666666663,38.17460317460317,-26.11111111111111,-26.428571428571427,-322.77777777777777,-166.26984126984127
-56.58730158730158,-170.87301587301587,-143.57142857142856,-131.5079365079365,-126.9047619047619,315.3174603174603,-320.23809523809524,121.82539682539682,-20.396825396825395,283.0952380952381,-147.06349206349205,62.14285714285714,17.857142857142858,163.73015873015873,-246.58730158730157,-55.79365079365079,243.09523809523807,-256.90476190476187,-301.66666666666663,38.17460317460317,-26.11111111111111,-26.428571428571427,-322.77777777777777,-166.26984126984127
-56.58730158730158,-170.87301587301587,-143.57142857142856,-131.5079365079365,-126.9047619047619,315.3174603174603,-320.23809523809524,121.82539682539682,-20.396825396825395,283.0952380952381,-147.06349206349205,62.14285714285714,17.857142857142858,163.73015873015873,-246.58730158730157,-55.79365079365079,243.09523809523807,-256.90476190476187,-301.66666666666663,38.17460317460317,-26.11111111111111,-26.428571428571427,-322.77777777777777,-166.26984126984127
-56.58730158730158,-170.87301587301587,-143.57142857142856,-131.5079365079365,-126.9047619047619,315.3174603174603,-320.23809523809524,121.82539682539682,-20.396825396825395,283.0952380952381,-147.06349206349205,62.14285714285714,17.857142857142858,163.73015873015873,-246.58730158730157,-55.79365079365079,243.09523809523807,-256.90476190476187,-301.66666666666663,38.17460317460317,-26.11111111111111,-26.428571428571427,-322.77777777777777,-166.26984126984127
-56.58730158730158,-170.87301587301587,-143.57142857142856,-131.5079365079365,-126.9047619047619,315.3174603174603,-320.23809523809524,121.82539682539682,-20.396825396825395,283.0952380952381,-147.06349206349205,62.14285714285714,17.857142857142858,163.73015873015873,-246.58730158730157,-55.79365079365079,243.09523809523807,-256.90476190476187,-301.66666666666663,38.17460317460317,-26.11111111111111,-26.428571428571427,-322.77777777777777,-166.26984126984127
-88.4920634920635,-130.07936507936506,-132.3015873015873,-63.888888888888886,-123.73015873015872,58.49206349206349,-220.07936507936506,-38.65079365079365,-67.6984126984127,182.61904761904762,-132.3015873015873,32.14285714285714,-52.460317460317455,154.04761904761904,-183.09523809523807,-103.73015873015872,57.22222222222222,-227.85714285714283,-152.3015873015873,181.5079365079365,-18.96825396825397,-15.158730158730158,-159.76190476190476,-166.26984126984127
-88.4920634920635,-130.07936507936506,-132.3015873015873,-63.888888888888886,-123.73015873015872,58.49206349206349,-220.07936507936506,-38.65079365079365,-67.6984126984127,182.61904761904762,-132.3015873015873,32.14285714285714,-52.460317460317455,154.04761904761904,-183.09523809523807,-103.73015873015872,57.22222222222222,-227.85714285714283,-152.3015873015873,181.5079365079365,-18.96825396825397,-15.158730158730158,-159.76190476190476,-166.26984126984127
-138.33333333333331,-88.4920634920635,-138.33333333333331,5.317460317460317,-137.22222222222223,-196.74603174603175,-138.8095238095238,-197.53968253968253,-132.77777777777777,81.5079365079365,-135.0,4.0476190476190474,-138.33333333333331,143.09523809523807,-137.53968253968253,-150.3968253968254,-143.4126984126984,-197.06349206349205,-1.0317460317460316,325.0,-10.873015873015872,0.07936507936507936,-0.7142857142857142,-166.26984126984127
-138.33333333333331,-88.4920634920635,-138.33333333333331,5.317460317460317,-137.22222222222223,-196.74603174603175,-138.8095238095238,-197.53968253968253,-132.77777777777777,81.5079365079365,-135.0,4.0476190476190474,-138.33333333333331,143.09523809523807,-137.53968253968253,-150.3968253968254,-143.4126984126984,-197.06349206349205,-1.0317460317460316,325.0,-10.873015873015872,0.07936507936507936,-0.7142857142857142,-166.26984126984127
-122.46031746031746,-86.58730158730158,-122.93650793650794,5.0,-122.93650793650794,-192.77777777777777,-123.25396825396825,-193.7301587301587,-119.28571428571428,79.28571428571428,-121.98412698412697,3.888888888888889,-125.79365079365078,139.9206349206349,-124.36507936507935,-147.2222222222222,-131.5079365079365,-193.09523809523807,-0.7142857142857142,325.0,-10.714285714285714,-4.0476190476190474,1.984126984126984,-321.8253968253968
-122.46031746031746,-86.58730158730158,-122.93650793650794,5.0,-122.93650793650794,-192.77777777777777,-123.25396825396825,-193.7301587301587,-119.28571428571428,79.28571428571428,-121.98412698412697,3.888888888888889,-125.79365079365078,139.9206349206349,-124.36507936507935,-147.2222222222222,-131.5079365079365,-193.09523809523807,-0.7142857142857142,325.0,-10.714285714285714,-4.0476190476190474,1.984126984126984,-321.8253968253968
-101.19047619047619,-86.26984126984127,-102.77777777777777,1.1904761904761905,-102.46031746031746,-191.8253968253968,-100.55555555555554,-192.77777777777777,-96.9047619047619,78.80952380952381,-100.23809523809523,-0.873015873015873,-103.73015873015872,139.44444444444443,-101.82539682539682,-146.42857142857142,-109.44444444444444,-192.3015873015873,-5.0,325.0,-13.571428571428571,-3.571428571428571,4.2063492063492065,-321.8253968253968
-101.19047619047619,-86.26984126984127,-102.77777777777777,1.1904761904761905,-102.46031746031746,-191.8253968253968,-100.55555555555554,-192.77777777777777,-96.9047619047619,78.80952380952381,-100.23809523809523,-0.873015873015873,-103.73015873015872,139.44444444444443,-101.82539682539682,-146.42857142857142,-109.44444444444444,-192.3015873015873,-5.0,325.0,-13.571428571428571,-3.571428571428571,4.2063492063492065,-321.8253968253968
-115.63492063492063,-83.73015873015872,-115.95238095238095,1.8253968253968254,-115.47619047619047,-186.42857142857142,-115.79365079365078,-187.38095238095238,-111.66666666666666,76.9047619047619,-114.04761904761904,0.873015873015873,-118.49206349206348,134.68253968253967,-116.9047619047619,-142.3015873015873,-123.4126984126984,-186.9047619047619,-3.73015873015873,325.0,-13.571428571428571,-4.365079365079365,2.7777777777777777,-321.8253968253968
-115.63492063492063,-83.73015873015872,-115.95238095238095,1.8253968253968254,-115.47619047619047,-186.42857142857142,-115.79365079365078,-187.38095238095238,-111.66666666666666,76.9047619047619,-114.04761904761904,0.873015873015873,-118.49206349206348,134.68253968253967,-116.9047619047619,-142.3015873015873,-123.4126984126984,-186.9047619047619,-3.73015873015873,325.0,-13.571428571428571,-4.365079365079365,2.7777777777777777,-321.8253968253968
-146.26984126984127,-81.34920634920634,-145.79365079365078,5.952380952380952,-144.04761904761904,-181.34920634920633,-146.74603174603175,-182.46031746031744,-139.6031746031746,74.52380952380952,-141.19047619047618,4.0476190476190474,-142.77777777777777,130.7142857142857,-143.4126984126984,-138.33333333333331,-145.79365079365078,-181.984126984127,-1.1904761904761905,325.0,-9.761904761904761,4.682539682539682,-0.873015873015873,-321.8253968253968
-146.26984126984127,-81.34920634920634,-145.79365079365078,5.952380952380952,-144.04761904761904,-181.34920634920633,-146.74603174603175,-182.46031746031744,-139.6031746031746,74.52380952380952,-141.19047619047618,4.0476190476190474,-142.77777777777777,130.7142857142857,-143.4126984126984,-138.33333333333331,-145.79365079365078,-181.984126984127,-1.1904761904761905,325.0,-9.761904761904761,4.682539682539682,-0.873015873015873,-321.8253968253968
-139.28571428571428,-79.28571428571428,-138.015873015873,5.634920634920634,-138.33333333333331,-177.2222222222222,-141.66666666666666,-178.015873015873,-137.38095238095238,72.61904761904762,-138.96825396825395,5.7936507936507935,-142.61904761904762,127.22222222222221,-142.93650793650792,-134.84126984126982,-146.9047619047619,-177.53968253968253,0.873015873015873,325.0,-10.873015873015872,1.984126984126984,-3.73015873015873,-321.8253968253968
-139.28571428571428,-79.28571428571428,-138.015873015873,5.634920634920634,-138.33333333333331,-177.2222222222222,-141.66666666666666,-178.015873015873,-137.38095238095238,72.61904761904762,-138.96825396825395,5.7936507936507935,-142.61904761904762,127.22222222222221,-142.93650793650792,-134.84126984126982,-146.9047619047619,-177.53968253968253,0.873015873015873,325.0,-10.873015873015872,1.984126984126984,-3.73015873015873,-321.8253968253968
-135.47619047619048,-77.53968253968253,-134.68253968253967,4.365079365079365,-133.4126984126984,-173.4126984126984,-135.47619047619048,-174.36507936507937,-129.44444444444443,71.03174603174602,-130.87301587301587,3.095238095238095,-133.0952380952381,124.36507936507935,-133.25396825396825,-132.14285714285714,-135.79365079365078,-173.88888888888889,-2.142857142857143,325.0,-10.555555555555555,0.23809523809523808,-0.07936507936507936,-166.26984126984127
-135.47619047619048,-77.53968253968253,-134.68253968253967,4.365079365079365,-133.4126984126984,-173.4126984126984,-135.47619047619048,-174.36507936507937,-129.44444444444443,71.03174603174602,-130.87301587301587,3.095238095238095,-133.0952380952381,124.36507936507935,-133.25396825396825,-132.14285714285714,-135.79365079365078,-173.88888888888889,-2.142857142857143,325.0,-10.555555555555555,0.23809523809523808,-0.07936507936507936,-166.26984126984127
-127.53968253968253,-76.58730158730158,-126.9047619047619,2.7777777777777777,-126.1111111111111,-171.19047619047618,-128.4920634920635,-172.3015873015873,-123.25396825396825,70.07936507936508,-125.0,2.46031746031746,-128.015873015873,122.6190476190476,-128.015873015873,-130.55555555555554,-130.7142857142857,-171.8253968253968,-2.619047619047619,325.0,-12.46031746031746,-0.7142857142857142,-0.7142857142857142,-166.26984126984127
-127.53968253968253,-76.58730158730158,-126.9047619047619,2.7777777777777777,-126.1111111111111,-171.19047619047618,-128.4920634920635,-172.3015873015873,-123.25396825396825,70.07936507936508,-125.0,2.46031746031746,-128.015873015873,122.6190476190476,-128.015873015873,-130.55555555555554,-130.7142857142857,-171.8253968253968,-2.619047619047619,325.0,-12.46031746031746,-0.7142857142857142,-0.7142857142857142,-166.26984126984127
-154.52380952380952,-75.31746031746032,-153.09523809523807,9.603174603174603,-152.14285714285714,-167.53968253968253,-155.47619047619048,-168.96825396825395,-149.44444444444443,68.65079365079364,-151.03174603174602,8.333333333333332,-153.73015873015873,119.92063492063491,-153.57142857142856,-127.6984126984127,-156.42857142857142,-168.4920634920635,3.571428571428571,325.0,-5.0,0.7142857142857142,0.07936507936507936,-166.26984126984127
-154.52380952380952,-75.31746031746032,-153.09523809523807,9.603174603174603,-152.14285714285714,-167.53968253968253,-155.47619047619048,-168.96825396825395,-149.44444444444443,68.65079365079364,-151.03174603174602,8.333333333333332,-153.73015873015873,119.92063492063491,-153.57142857142856,-127.6984126984127,-156.42857142857142,-168.4920634920635,3.571428571428571,325.0,-5.0,0.7142857142857142,0.07936507936507936,-166.26984126984127
-127.22222222222221,-74.04761904761904,-126.9047619047619,5.952380952380952,-126.74603174603173,-165.63492063492063,-129.12698412698413,-166.74603174603175,-125.47619047619047,67.6984126984127,-127.85714285714285,6.904761904761904,-131.984126984127,118.49206349206348,-131.03174603174602,-126.1111111111111,-134.36507936507937,-166.42857142857142,2.3015873015873014,325.0,-9.285714285714285,4.2063492063492065,-3.4126984126984126,-166.26984126984127
-127.22222222222221,-74.04761904761904,-126.9047619047619,5.952380952380952,-126.74603174603173,-165.63492063492063,-129.12698412698413,-166.74603174603175,-125.47619047619047,67.6984126984127,-127.85714285714285,6.904761904761904,-131.984126984127,118.49206349206348,-131.03174603174602,-126.1111111111111,-134.36507936507937,-166.42857142857142,2.3015873015873014,325.0,-9.285714285714285,4.2063492063492065,-3.4126984126984126,-166.26984126984127
-131.34920634920636,-72.93650793650794,-129.76190476190476,4.2063492063492065,-128.33333333333331,-162.77777777777777,-130.3968253968254,-164.04761904761904,-123.4126984126984,-14.365079365079364,-124.52380952380952,1.984126984126984,-125.79365079365078,116.26984126984127,-125.79365079365078,-124.04761904761904,-125.95238095238095,-163.57142857142856,-3.095238095238095,325.0,-11.349206349206348,-3.73015873015873,3.253968253968254,-166.26984126984127
-131.34920634920636,-72.93650793650794,-129.76190476190476,4.2063492063492065,-128.33333333333331,-162.77777777777777,-130.3968253968254,-164.04761904761904,-123.4126984126984,-14.365079365079364,-124.52380952380952,1.984126984126984,-125.79365079365078,116.26984126984127,-125.79365079365078,-124.04761904761904,-125.95238095238095,-163.57142857142856,-3.095238095238095,325.0,-11.349206349206348,-3.73015873015873,3.253968253968254,-166.26984126984127
-107.53968253968253,-71.5079365079365,-107.06349206349206,0.3968253968253968,-105.79365079365078,-159.6031746031746,-107.85714285714285,-160.7142857142857,-102.93650793650794,50.079365079365076,-105.15873015873015,0.7142857142857142,-108.33333333333333,113.73015873015872,-107.6984126984127,-121.66666666666666,-109.12698412698413,-160.23809523809524,-3.571428571428571,325.0,-15.0,-0.23809523809523808,-1.349206349206349,-321.8253968253968
-107.53968253968253,-71.5079365079365,-107.06349206349206,0.3968253968253968,-105.79365079365078,-159.6031746031746,-107.85714285714285,-160.7142857142857,-102.93650793650794,50.079365079365076,-105.15873015873015,0.7142857142857142,-108.33333333333333,113.73015873015872,-107.6984126984127,-121.66666666666666,-109.12698412698413,-160.23809523809524,-3.571428571428571,325.0,-15.0,-0.23809523809523808,-1.349206349206349,-321.8253968253968
-151.984126984127,-70.39682539682539,-150.23809523809524,10.079365079365079,-150.23809523809524,-156.9047619047619,-153.4126984126984,-158.17460317460316,-148.8095238095238,69.6031746031746,-150.55555555555554,9.444444444444445,-154.04761904761904,111.66666666666666,-153.4126984126984,-119.76190476190476,-156.58730158730157,-157.85714285714286,5.158730158730158,325.0,-3.4126984126984126,0.07936507936507936,-0.873015873015873,-321.8253968253968
-151.984126984127,-70.39682539682539,-150.23809523809524,10.079365079365079,-150.23809523809524,-156.9047619047619,-153.4126984126984,-158.17460317460316,-148.8095238095238,69.6031746031746,-150.55555555555554,9.444444444444445,-154.04761904761904,111.66666666666666,-153.4126984126984,-119.76190476190476,-156.58730158730157,-157.85714285714286,5.158730158730158,325.0,-3.4126984126984126,0.07936507936507936,-0.873015873015873,-321.8253968253968
-109.12698412698413,-69.12698412698413,-108.96825396825396,4.682539682539682,-107.38095238095238,-154.36507936507937,-108.80952380952381,-155.63492063492063,-103.73015873015872,66.11111111111111,-105.79365079365078,5.158730158730158,-107.85714285714285,109.6031746031746,-107.85714285714285,-117.53968253968253,-106.74603174603175,-155.3174603174603,0.5555555555555556,325.0,-10.714285714285714,-1.1904761904761905,-0.07936507936507936,-321.8253968253968
-109.12698412698413,-69.12698412698413,-108.96825396825396,4.682539682539682,-107.38095238095238,-154.36507936507937,-108.80952380952381,-155.63492063492063,-103.73015873015872,66.11111111111111,-105.79365079365078,5.158730158730158,-107.85714285714285,109.6031746031746,-107.85714285714285,-117.53968253968253,-106.74603174603175,-155.3174603174603,0.5555555555555556,325.0,-10.714285714285714,-1.1904761904761905,-0.07936507936507936,-321.8253968253968
-125.47619047619047,-68.01587301587301,-123.88888888888889,8.333333333333332,-124.2063492063492,-151.8253968253968,-126.74603174603173,-153.09523809523807,-123.09523809523809,65.0,-125.0,7.698412698412698,-128.8095238095238,107.6984126984127,-127.85714285714285,-115.63492063492063,-131.34920634920636,-152.77777777777777,3.888888888888889,325.0,-4.523809523809524,0.5555555555555556,0.07936507936507936,-321.8253968253968
-125.47619047619047,-68.01587301587301,-123.88888888888889,8.333333333333332,-124.2063492063492,-151.8253968253968,-126.74603174603173,-153.09523809523807,-123.09523809523809,65.0,-125.0,7.698412698412698,-128.8095238095238,107.6984126984127,-127.85714285714285,-115.63492063492063,-131.34920634920636,-152.77777777777777,3.888888888888889,325.0,-4.523809523809524,0.5555555555555556,0.07936507936507936,-321.8253968253968
-106.9047619047619,-67.38095238095238,-106.42857142857142,6.26984126984127,-106.74603174603175,-151.19047619047618,-107.53968253968253,-152.46031746031744,-104.52380952380952,64.84126984126983,-107.06349206349206,5.952380952380952,-111.34920634920634,107.22222222222221,-109.6031746031746,-115.0,-113.4126984126984,-152.14285714285714,2.142857142857143,325.0,-6.746031746031746,6.111111111111111,-1.984126984126984,-321.8253968253968
-106.9047619047619,-67.38095238095238,-106.42857142857142,6.26984126984127,-106.74603174603175,-151.19047619047618,-107.53968253968253,-152.46031746031744,-104.52380952380952,64.84126984126983,-107.06349206349206,5.952380952380952,-111.34920634920634,107.22222222222221,-109.6031746031746,-115.0,-113.4126984126984,-152.14285714285714,2.142857142857143,325.0,-6.746031746031746,6.111111111111111,-1.984126984126984,-321.8253968253968
-128.015873015873,-58.33333333333333,-125.63492063492063,10.079365079365079,-126.26984126984127,-130.23809523809524,-129.44444444444443,-131.8253968253968,-127.06349206349206,11.031746031746032,-128.33333333333331,10.873015873015872,-132.46031746031744,91.34920634920634,-130.87301587301587,-98.96825396825396,-131.34920634920636,-131.5079365079365,7.698412698412698,325.0,-2.619047619047619,-7.3809523809523805,3.095238095238095,-166.26984126984127
-128.015873015873,-58.33333333333333,-125.63492063492063,10.079365079365079,-126.26984126984127,-130.23809523809524,-129.44444444444443,-131.8253968253968,-127.06349206349206,11.031746031746032,-128.33333333333331,10.873015873015872,-132.46031746031744,91.34920634920634,-130.87301587301587,-98.96825396825396,-131.34920634920636,-131.5079365079365,7.698412698412698,325.0,-2.619047619047619,-7.3809523809523805,3.095238095238095,-166.26984126984127
-106.58730158730158,-57.22222222222222,-105.0,7.857142857142857,-104.52380952380952,-127.53968253968253,-105.95238095238095,-129.28571428571428,-102.77777777777777,-157.06349206349205,-104.36507936507935,7.5396825396825395,-107.85714285714285,89.28571428571428,-105.31746031746032,-97.06349206349206,-105.47619047619047,-128.8095238095238,4.2063492063492065,325.0,-5.0,-4.365079365079365,3.73015873015873,-166.26984126984127
-106.58730158730158,-57.22222222222222,-105.0,7.857142857142857,-104.52380952380952,-127.53968253968253,-105.95238095238095,-129.28571428571428,-102.77777777777777,-157.06349206349205,-104.36507936507935,7.5396825396825395,-107.85714285714285,89.28571428571428,-105.31746031746032,-97.06349206349206,-105.47619047619047,-128.8095238095238,4.2063492063492065,325.0,-5.0,-4.365079365079365,3.73015873015873,-166.26984126984127
-68.4920634920635,-55.15873015873016,-67.22222222222221,0.07936507936507936,-66.42857142857143,-123.57142857142857,-70.23809523809524,-125.0,-66.74603174603175,-325.0,-67.53968253968253,1.6666666666666665,-68.17460317460318,86.1111111111111,-70.55555555555556,-94.2063492063492,-65.79365079365078,-124.68253968253967,-2.7777777777777777,325.0,-12.46031746031746,3.4126984126984126,-2.619047619047619,-166.26984126984127
-68.4920634920635,-55.15873015873016,-67.22222222222221,0.07936507936507936,-66.42857142857143,-123.57142857142857,-70.23809523809524,-125.0,-66.74603174603175,-325.0,-67.53968253968253,1.6666666666666665,-68.17460317460318,86.1111111111111,-70.55555555555556,-94.2063492063492,-65.79365079365078,-124.68253968253967,-2.7777777777777777,325.0,-12.46031746031746,3.4126984126984126,-2.619047619047619,-166.26984126984127
-44.68253968253968,-54.36507936507936,-41.82539682539682,2.46031746031746,-41.34920634920635,-121.5079365079365,-43.25396825396825,-123.09523809523809,-40.079365079365076,-325.0,-40.714285714285715,2.9365079365079363,-44.047619047619044,84.36507936507937,-42.3015873015873,-92.30158730158729,-41.34920634920635,-122.6190476190476,-0.873015873015873,325.0,-9.920634920634921,-5.0,2.619047619047619,-166.26984126984127
-44.68253968253968,-54.36507936507936,-41.82539682539682,2.46031746031746,-41.34920634920635,-121.5079365079365,-43.25396825396825,-123.09523809523809,-40.079365079365076,-325.0,-40.714285714285715,2.9365079365079363,-44.047619047619044,84.36507936507937,-42.3015873015873,-92.30158730158729,-41.34920634920635,-122.6190476190476,-0.873015873015873,325.0,-9.920634920634921,-5.0,2.619047619047619,-166.26984126984127
-43.57142857142857,-53.41269841269841,-42.93650793650794,1.1904761904761905,-41.507936507936506,-119.44444444444444,-44.84126984126984,-121.19047619047619,-41.507936507936506,-198.33333333333331,-43.25396825396825,2.3015873015873014,-44.68253968253968,82.93650793650794,-46.269841269841265,-90.71428571428571,-42.61904761904761,-120.55555555555554,-1.0317460317460316,325.0,-10.555555555555555,3.4126984126984126,-1.984126984126984,-166.26984126984127
-43.57142857142857,-53.41269841269841,-42.93650793650794,1.1904761904761905,-41.507936507936506,-119.44444444444444,-44.84126984126984,-121.19047619047619,-41.507936507936506,-198.33333333333331,-43.25396825396825,2.3015873015873014,-44.68253968253968,82.93650793650794,-46.269841269841265,-90.71428571428571,-42.61904761904761,-120.55555555555554,-1.0317460317460316,325.0,-10.555555555555555,3.4126984126984126,-1.984126984126984,-166.26984126984127
-127.53968253968253,-52.61904761904761,-124.04761904761904,11.507936507936508,-124.04761904761904,-117.6984126984127,-128.96825396825395,-119.28571428571428,-125.95238095238095,77.6984126984127,-126.9047619047619,12.46031746031746,-130.23809523809524,81.66666666666666,-128.96825396825395,-89.28571428571428,-128.96825396825395,-118.96825396825396,8.968253968253968,325.0,0.07936507936507936,-5.317460317460317,1.6666666666666665,-321.8253968253968
-127.53968253968253,-52.61904761904761,-124.04761904761904,11.507936507936508,-124.04761904761904,-117.6984126984127,-128.96825396825395,-119.28571428571428,-125.95238095238095,77.6984126984127,-126.9047619047619,12.46031746031746,-130.23809523809524,81.66666666666666,-128.96825396825395,-89.28571428571428,-128.96825396825395,-118.96825396825396,8.968253968253968,325.0,0.07936507936507936,-5.317460317460317,1.6666666666666665,-321.8253968253968
-77.22222222222221,-51.666666666666664,-78.17460317460316,3.095238095238095,-76.58730158730158,-116.1111111111111,-77.06349206349206,-117.53968253968253,-74.52380952380952,80.55555555555556,-77.22222222222221,4.2063492063492065,-78.01587301587301,80.39682539682539,-78.01587301587301,-88.01587301587301,-74.68253968253968,-117.06349206349206,0.7142857142857142,325.0,-7.5396825396825395,7.063492063492063,-1.507936507936508,-321.8253968253968
-77.22222222222221,-51.666666666666664,-78.17460317460316,3.095238095238095,-76.58730158730158,-116.1111111111111,-77.06349206349206,-117.53968253968253,-74.52380952380952,80.55555555555556,-77.22222222222221,4.2063492063492065,-78.01587301587301,80.39682539682539,-78.01587301587301,-88.01587301587301,-74.68253968253968,-117.06349206349206,0.7142857142857142,325.0,-7.5396825396825395,7.063492063492063,-1.507936507936508,-321.8253968253968
-72.93650793650794,-51.19047619047619,-72.14285714285714,2.3015873015873014,-71.66666666666666,-114.68253968253967,-73.25396825396825,-116.26984126984127,-70.87301587301587,-122.30158730158729,-72.61904761904762,3.253968253968254,-74.68253968253968,79.28571428571428,-74.04761904761904,-87.06349206349206,-72.3015873015873,-115.79365079365078,-0.3968253968253968,325.0,-8.015873015873016,1.507936507936508,0.5555555555555556,-321.8253968253968
-72.93650793650794,-51.19047619047619,-72.14285714285714,2.3015873015873014,-71.66666666666666,-114.68253968253967,-73.25396825396825,-116.26984126984127,-70.87301587301587,-122.30158730158729,-72.61904761904762,3.253968253968254,-74.68253968253968,79.28571428571428,-74.04761904761904,-87.06349206349206,-72.3015873015873,-115.79365079365078,-0.3968253968253968,325.0,-8.015873015873016,1.507936507936508,0.5555555555555556,-321.8253968253968
-92.93650793650794,-50.238095238095234,-90.87301587301587,6.746031746031746,-89.28571428571428,-111.82539682539682,-93.4126984126984,-113.57142857142857,-89.92063492063491,-199.28571428571428,-90.87301587301587,8.333333333333332,-92.77777777777777,77.22222222222221,-92.93650793650794,-84.68253968253968,-89.28571428571428,-113.4126984126984,5.0,325.0,-4.523809523809524,4.2063492063492065,-1.507936507936508,-321.8253968253968
-92.93650793650794,-50.238095238095234,-90.87301587301587,6.746031746031746,-89.28571428571428,-111.82539682539682,-93.4126984126984,-113.57142857142857,-89.92063492063491,-199.28571428571428,-90.87301587301587,8.333333333333332,-92.77777777777777,77.22222222222221,-92.93650793650794,-84.68253968253968,-89.28571428571428,-113.4126984126984,5.0,325.0,-4.523809523809524,4.2063492063492065,-1.507936507936508,-321.8253968253968
-100.87301587301587,-49.285714285714285,-99.28571428571428,8.492063492063492,-98.49206349206348,-109.92063492063491,-101.19047619047619,-111.82539682539682,-98.65079365079364,-13.888888888888888,-100.55555555555554,9.444444444444445,-102.14285714285714,75.95238095238095,-101.82539682539682,-83.57142857142857,-99.12698412698413,-111.5079365079365,6.111111111111111,325.0,-2.46031746031746,-4.523809523809524,2.619047619047619,-321.8253968253968
-100.87301587301587,-49.285714285714285,-99.28571428571428,8.492063492063492,-98.49206349206348,-109.92063492063491,-101.19047619047619,-111.82539682539682,-98.65079365079364,-13.888888888888888,-100.55555555555554,9.444444444444445,-102.14285714285714,75.95238095238095,-101.82539682539682,-83.57142857142857,-99.12698412698413,-111.5079365079365,6.111111111111111,325.0,-2.46031746031746,-4.523809523809524,2.619047619047619,-321.8253968253968
-83.25396825396825,-47.857142857142854,-80.23809523809523,4.2063492063492065,-79.6031746031746,-106.9047619047619,-83.25396825396825,-108.80952380952381,-79.92063492063491,-254.2063492063492,-80.39682539682539,5.476190476190476,-81.82539682539682,73.57142857142857,-81.5079365079365,-81.34920634920634,-77.6984126984127,-108.33333333333333,1.8253968253968254,325.0,-6.428571428571428,5.634920634920634,-2.142857142857143,-166.26984126984127
-83.25396825396825,-47.857142857142854,-80.23809523809523,4.2063492063492065,-79.6031746031746,-106.9047619047619,-83.25396825396825,-108.80952380952381,-79.92063492063491,-254.2063492063492,-80.39682539682539,5.476190476190476,-81.82539682539682,73.57142857142857,-81.5079365079365,-81.34920634920634,-77.6984126984127,-108.33333333333333,1.8253968253968254,325.0,-6.428571428571428,5.634920634920634,-2.142857142857143,-166.26984126984127
-4.523809523809524,-46.58730158730158,-3.095238095238095,-7.857142857142857,-1.6666666666666665,-103.57142857142857,-4.2063492063492065,-105.47619047619047,-1.8253968253968254,-325.0,-2.46031746031746,-5.634920634920634,-4.0476190476190474,71.19047619047619,-4.365079365079365,-78.65079365079364,0.5555555555555556,-105.15873015873015,-8.968253968253968,325.0,-19.126984126984127,-1.507936507936508,0.23809523809523808,-166.26984126984127
-4.523809523809524,-46.58730158730158,-3.095238095238095,-7.857142857142857,-1.6666666666666665,-103.57142857142857,-4.2063492063492065,-105.47619047619047,-1.8253968253968254,-325.0,-2.46031746031746,-5.634920634920634,-4.0476190476190474,71.19047619047619,-4.365079365079365,-78.65079365079364,0.5555555555555556,-105.15873015873015,-8.968253968253968,325.0,-19.126984126984127,-1.507936507936508,0.23809523809523808,-166.26984126984127
-50.079365079365076,-45.79365079365079,-47.38095238095238,-2.9365079365079363,-47.698412698412696,-102.14285714285714,-51.03174603174603,-104.04761904761904,-49.6031746031746,-325.0,-50.39682539682539,-1.349206349206349,-52.61904761904761,70.07936507936508,-52.3015873015873,-77.53968253968253,-50.87301587301587,-103.4126984126984,-4.365079365079365,325.0,-11.825396825396824,1.349206349206349,-1.349206349206349,-166.26984126984127
-50.079365079365076,-45.79365079365079,-47.38095238095238,-2.9365079365079363,-47.698412698412696,-102.14285714285714,-51.03174603174603,-104.04761904761904,-49.6031746031746,-325.0,-50.39682539682539,-1.349206349206349,-52.61904761904761,70.07936507936508,-52.3015873015873,-77.53968253968253,-50.87301587301587,-103.4126984126984,-4.365079365079365,325.0,-11.825396825396824,1.349206349206349,-1.349206349206349,-166.26984126984127
-48.96825396825397,-45.15873015873016,-46.74603174603175,-1.8253968253968254,-46.42857142857142,-100.87301587301587,-49.92063492063492,-102.61904761904762,-48.17460317460317,-325.0,-48.80952380952381,-0.07936507936507936,-50.079365079365076,69.12698412698413,-50.55555555555555,-76.42857142857143,-46.904761904761905,-102.14285714285714,-3.095238095238095,325.0,-11.507936507936508,-1.507936507936508,-0.873015873015873,-166.26984126984127
-48.96825396825397,-45.15873015873016,-46.74603174603175,-1.8253968253968254,-46.42857142857142,-100.87301587301587,-49.92063492063492,-102.61904761904762,-48.17460317460317,-325.0,-48.80952380952381,-0.07936507936507936,-50.079365079365076,69.12698412698413,-50.55555555555555,-76.42857142857143,-46.904761904761905,-102.14285714285714,-3.095238095238095,325.0,-11.507936507936508,-1.507936507936508,-0.873015873015873,-166.26984126984127
-43.888888888888886,-43.888888888888886,-42.14285714285714,-4.841269841269841,-40.39682539682539,-97.85714285714285,-42.61904761904761,-99.76190476190476,-39.92063492063492,-325.0,-40.714285714285715,-3.095238095238095,-42.14285714285714,66.9047619047619,-41.19047619047619,-74.2063492063492,-36.74603174603175,-99.44444444444444,-6.26984126984127,325.0,-15.317460317460316,3.73015873015873,-2.142857142857143,-166.26984126984127
-43.888888888888886,-43.888888888888886,-42.14285714285714,-4.841269841269841,-40.39682539682539,-97.85714285714285,-42.61904761904761,-99.76190476190476,-39.92063492063492,-325.0,-40.714285714285715,-3.095238095238095,-42.14285714285714,66.9047619047619,-41.19047619047619,-74.2063492063492,-36.74603174603175,-99.44444444444444,-6.26984126984127,325.0,-15.317460317460316,3.73015873015873,-2.142857142857143,-166.26984126984127
-63.57142857142857,-43.888888888888886,-61.19047619047619,-4.682539682539682,-58.650793650793645,-97.38095238095238,-62.77777777777777,-99.28571428571428,-58.33333333333333,-325.0,-58.49206349206349,-2.46031746031746,-59.285714285714285,66.74603174603175,-59.285714285714285,-74.04761904761904,-52.14285714285714,-98.80952380952381,-5.952380952380952,325.0,-16.11111111111111,0.873015873015873,-1.8253968253968254,-321.8253968253968
-63.57142857142857,-43.888888888888886,-61.19047619047619,-4.682539682539682,-58.650793650793645,-97.38095238095238,-62.77777777777777,-99.28571428571428,-58.33333333333333,-325.0,-58.49206349206349,-2.46031746031746,-59.285714285714285,66.74603174603175,-59.285714285714285,-74.04761904761904,-52.14285714285714,-98.80952380952381,-5.952380952380952,325.0,-16.11111111111111,0.873015873015873,-1.8253968253968254,-321.8253968253968
-66.9047619047619,-43.095238095238095,-64.68253968253968,-5.0,-62.61904761904761,-95.95238095238095,-67.53968253968253,-97.6984126984127,-63.73015873015873,-325.0,-63.888888888888886,-1.984126984126984,-64.68253968253968,65.47619047619047,-65.15873015873015,-72.93650793650794,-58.650793650793645,-97.38095238095238,-5.476190476190476,325.0,-15.793650793650793,0.5555555555555556,-2.46031746031746,-321.8253968253968
-66.9047619047619,-43.095238095238095,-64.68253968253968,-5.0,-62.61904761904761,-95.95238095238095,-67.53968253968253,-97.6984126984127,-63.73015873015873,-325.0,-63.888888888888886,-1.984126984126984,-64.68253968253968,65.47619047619047,-65.15873015873015,-72.93650793650794,-58.650793650793645,-97.38095238095238,-5.476190476190476,325.0,-15.793650793650793,0.5555555555555556,-2.46031746031746,-321.8253968253968
-42.460317460317455,-41.98412698412698,-41.666666666666664,-3.888888888888889,-40.714285714285715,-93.57142857142857,-43.095238095238095,-95.31746031746032,-41.507936507936506,-325.0,-42.77777777777778,-1.1904761904761905,-43.41269841269841,63.73015873015873,-43.57142857142857,-71.03174603174602,-39.12698412698413,-95.0,-4.365079365079365,325.0,-12.619047619047619,-0.3968253968253968,-0.7142857142857142,-321.8253968253968
-42.460317460317455,-41.98412698412698,-41.666666666666664,-3.888888888888889,-40.714285714285715,-93.57142857142857,-43.095238095238095,-95.31746031746032,-41.507936507936506,-325.0,-42.77777777777778,-1.1904761904761905,-43.41269841269841,63.73015873015873,-43.57142857142857,-71.03174603174602,-39.12698412698413,-95.0,-4.365079365079365,325.0,-12.619047619047619,-0.3968253968253968,-0.7142857142857142,-321.8253968253968
-56.74603174603174,-41.03174603174603,-54.52380952380952,7.063492063492063,-52.77777777777777,-92.14285714285714,-55.95238095238095,-93.73015873015872,-52.3015873015873,-325.0,-52.460317460317455,8.492063492063492,-51.34920634920635,62.61904761904761,-52.3015873015873,-70.07936507936508,-45.317460317460316,-93.4126984126984,4.682539682539682,325.0,-3.571428571428571,6.428571428571428,-2.7777777777777777,-321.8253968253968
-56.74603174603174,-41.03174603174603,-54.52380952380952,7.063492063492063,-52.77777777777777,-92.14285714285714,-55.95238095238095,-93.73015873015872,-52.3015873015873,-325.0,-52.460317460317455,8.492063492063492,-51.34920634920635,62.61904761904761,-52.3015873015873,-70.07936507936508,-45.317460317460316,-93.4126984126984,4.682539682539682,325.0,-3.571428571428571,6.428571428571428,-2.7777777777777777,-321.8253968253968
-27.857142857142854,-40.39682539682539,-26.9047619047619,5.317460317460317,-27.063492063492063,-90.55555555555556,-28.174603174603174,-92.14285714285714,-28.49206349206349,-325.0,-29.920634920634917,8.333333333333332,-31.825396825396822,61.34920634920635,-30.87301587301587,-68.80952380952381,-28.49206349206349,-91.98412698412697,5.317460317460317,325.0,-3.095238095238095,-6.26984126984127,1.8253968253968254,-321.8253968253968
-27.857142857142854,-40.39682539682539,-26.9047619047619,5.317460317460317,-27.063492063492063,-90.55555555555556,-28.174603174603174,-92.14285714285714,-28.49206349206349,-325.0,-29.920634920634917,8.333333333333332,-31.825396825396822,61.34920634920635,-30.87301587301587,-68.80952380952381,-28.49206349206349,-91.98412698412697,5.317460317460317,325.0,-3.095238095238095,-6.26984126984127,1.8253968253968254,-321.8253968253968
-75.79365079365078,-38.80952380952381,-73.57142857142857,9.126984126984127,-72.77777777777777,-86.74603174603175,-76.42857142857143,-88.33333333333333,-74.68253968253968,-325.0,-75.0,11.031746031746032,-74.36507936507937,58.49206349206349,-74.68253968253968,-65.63492063492063,-69.76190476190476,-88.01587301587301,8.015873015873016,319.2857142857143,0.873015873015873,1.507936507936508,-0.5555555555555556,-166.26984126984127
-75.79365079365078,-38.80952380952381,-73.57142857142857,9.126984126984127,-72.77777777777777,-86.74603174603175,-76.42857142857143,-88.33333333333333,-74.68253968253968,-325.0,-75.0,11.031746031746032,-74.36507936507937,58.49206349206349,-74.68253968253968,-65.63492063492063,-69.76190476190476,-88.01587301587301,8.015873015873016,319.2857142857143,0.873015873015873,1.507936507936508,-0.5555555555555556,-166.26984126984127
-17.698412698412696,-38.17460317460317,-17.539682539682538,-0.3968253968253968,-16.587301587301585,-85.0,-17.063492063492063,-86.9047619047619,-16.746031746031743,-325.0,-18.333333333333332,2.7777777777777777,-18.015873015873016,57.53968253968254,-18.333333333333332,-64.36507936507937,-12.46031746031746,-86.42857142857143,0.3968253968253968,313.73015873015873,-86.42857142857143,-1.349206349206349,0.7142857142857142,-166.26984126984127
-17.698412698412696,-38.17460317460317,-17.539682539682538,-0.3968253968253968,-16.587301587301585,-85.0,-17.063492063492063,-86.9047619047619,-16.746031746031743,-325.0,-18.333333333333332,2.7777777777777777,-18.015873015873016,57.53968253968254,-18.333333333333332,-64.36507936507937,-12.46031746031746,-86.42857142857143,0.3968253968253968,313.73015873015873,-86.42857142857143,-1.349206349206349,0.7142857142857142,-166.26984126984127
14.523809523809524,-37.698412698412696,13.888888888888888,-3.4126984126984126,15.0,-84.04761904761904,15.476190476190474,-85.79365079365078,15.158730158730158,-325.0,13.571428571428571,-0.873015873015873,14.523809523809524,56.74603174603174,13.73015873015873,-63.57142857142857,19.6031746031746,-85.31746031746032,-3.253968253968254,310.07936507936506,-133.88888888888889,1.6666666666666665,-0.07936507936507936,-166.26984126984127
14.523809523809524,-37.698412698412696,13.888888888888888,-3.4126984126984126,15.0,-84.04761904761904,15.476190476190474,-85.79365079365078,15.158730158730158,-325.0,13.571428571428571,-0.873015873015873,14.523809523809524,56.74603174603174,13.73015873015873,-63.57142857142857,19.6031746031746,-85.31746031746032,-3.253968253968254,310.07936507936506,-133.88888888888889,1.6666666666666665,-0.07936507936507936,-166.26984126984127
-34.84126984126984,-36.904761904761905,-31.98412698412698,-3.73015873015873,-29.76190476190476,-82.77777777777777,-33.41269841269841,-84.36507936507937,-30.555555555555554,-325.0,-30.07936507936508,-0.7142857142857142,-30.396825396825395,55.63492063492063,-30.396825396825395,-62.61904761904761,-23.41269841269841,-84.04761904761904,-4.2063492063492065,305.1587301587301,-34.84126984126984,0.3968253968253968,-1.349206349206349,-166.26984126984127
-34.84126984126984,-36.904761904761905,-31.98412698412698,-3.73015873015873,-29.76190476190476,-82.77777777777777,-33.41269841269841,-84.36507936507937,-30.555555555555554,-325.0,-30.07936507936508,-0.7142857142857142,-30.396825396825395,55.63492063492063,-30.396825396825395,-62.61904761904761,-23.41269841269841,-84.04761904761904,-4.2063492063492065,305.1587301587301,-34.84126984126984,0.3968253968253968,-1.349206349206349,-166.26984126984127
98.49206349206348,-36.42857142857142,95.95238095238095,-24.84126984126984,95.0,-80.71428571428571,98.65079365079364,-82.93650793650794,95.47619047619047,-325.0,93.25396825396825,-23.253968253968253,93.57142857142857,54.68253968253968,94.2063492063492,-61.34920634920635,97.38095238095238,-82.46031746031746,-24.523809523809522,299.76190476190476,-176.11111111111111,0.7142857142857142,1.507936507936508,-166.26984126984127
98.49206349206348,-36.42857142857142,95.95238095238095,-24.84126984126984,95.0,-80.71428571428571,98.65079365079364,-82.93650793650794,95.47619047619047,-325.0,93.25396825396825,-23.253968253968253,93.57142857142857,54.68253968253968,94.2063492063492,-61.34920634920635,97.38095238095238,-82.46031746031746,-24.523809523809522,299.76190476190476,-176.11111111111111,0.7142857142857142,1.507936507936508,-166.26984126984127
29.920634920634917,-35.63492063492063,32.3015873015873,-18.174603174603174,32.93650793650794,-79.6031746031746,30.396825396825395,-81.5079365079365,30.238095238095237,85.0,30.396825396825395,-15.0,29.285714285714285,53.57142857142857,29.444444444444443,-60.238095238095234,33.095238095238095,-81.03174603174602,-16.904761904761905,293.73015873015873,-203.4126984126984,-3.571428571428571,-0.5555555555555556,-321.8253968253968
29.920634920634917,-35.63492063492063,32.3015873015873,-18.174603174603174,32.93650793650794,-79.6031746031746,30.396825396825395,-81.5079365079365,30.238095238095237,85.0,30.396825396825395,-15.0,29.285714285714285,53.57142857142857,29.444444444444443,-60.238095238095234,33.095238095238095,-81.03174603174602,-16.904761904761905,293.73015873015873,-203.4126984126984,-3.571428571428571,-0.5555555555555556,-321.8253968253968
10.238095238095237,-35.15873015873016,10.873015873015872,-14.047619047619047,12.46031746031746,-78.65079365079364,10.873015873015872,-80.39682539682539,10.714285714285714,-96.58730158730158,10.238095238095237,-11.349206349206348,10.714285714285714,52.77777777777777,10.396825396825395,-59.44444444444444,15.158730158730158,-80.07936507936508,-13.253968253968253,290.07936507936506,-319.6031746031746,0.23809523809523808,-0.5555555555555556,-321.8253968253968
10.238095238095237,-35.15873015873016,10.873015873015872,-14.047619047619047,12.46031746031746,-78.65079365079364,10.873015873015872,-80.39682539682539,10.714285714285714,-96.58730158730158,10.238095238095237,-11.349206349206348,10.714285714285714,52.77777777777777,10.396825396825395,-59.44444444444444,15.158730158730158,-80.07936507936508,-13.253968253968253,290.07936507936506,-319.6031746031746,0.23809523809523808,-0.5555555555555556,-321.8253968253968
-29.285714285714285,-34.52380952380952,-27.063492063492063,-5.476190476190476,-25.952380952380953,-77.22222222222221,-29.126984126984127,-78.96825396825396,-28.174603174603174,-268.015873015873,-28.015873015873016,-2.142857142857143,-27.063492063492063,51.666666666666664,-27.857142857142854,-58.49206349206349,-21.984126984126984,-78.4920634920635,-4.841269841269841,284.2063492063492,-229.44444444444443,-3.4126984126984126,0.23809523809523808,-321.8253968253968
-29.285714285714285,-34.52380952380952,-27.063492063492063,-5.476190476190476,-25.952380952380953,-77.22222222222221,-29.126984126984127,-78.96825396825396,-28.174603174603174,-268.015873015873,-28.015873015873016,-2.142857142857143,-27.063492063492063,51.666666666666664,-27.857142857142854,-58.49206349206349,-21.984126984126984,-78.4920634920635,-4.841269841269841,284.2063492063492,-229.44444444444443,-3.4126984126984126,0.23809523809523808,-321.8253968253968
-14.84126984126984,-34.047619047619044,-14.047619047619047,-2.619047619047619,-13.095238095238095,-76.26984126984127,-15.634920634920634,-77.85714285714285,-15.476190476190474,-240.55555555555554,-16.11111111111111,0.7142857142857142,-14.682539682539682,51.03174603174603,-15.634920634920634,-57.698412698412696,-10.396825396825395,-77.38095238095238,-1.984126984126984,280.7142857142857,-325.0,-0.23809523809523808,-0.3968253968253968,-321.8253968253968
-14.84126984126984,-34.047619047619044,-14.047619047619047,-2.619047619047619,-13.095238095238095,-76.26984126984127,-15.634920634920634,-77.85714285714285,-15.476190476190474,-240.55555555555554,-16.11111111111111,0.7142857142857142,-14.682539682539682,51.03174603174603,-15.634920634920634,-57.698412698412696,-10.396825396825395,-77.38095238095238,-1.984126984126984,280.7142857142857,-325.0,-0.23809523809523808,-0.3968253968253968,-321.8253968253968
-33.41269841269841,-33.73015873015873,-32.61904761904762,0.5555555555555556,-31.507936507936506,-74.84126984126983,-34.36507936507936,-76.58730158730158,-34.52380952380952,-14.523809523809524,-35.15873015873016,3.888888888888889,-34.2063492063492,50.238095238095234,-34.682539682539684,-56.74603174603174,-30.238095238095237,-76.26984126984127,1.1904761904761905,275.7936507936508,-325.0,-0.3968253968253968,-0.3968253968253968,-321.8253968253968
-33.41269841269841,-33.73015873015873,-32.61904761904762,0.5555555555555556,-31.507936507936506,-74.84126984126983,-34.36507936507936,-76.58730158730158,-34.52380952380952,-14.523809523809524,-35.15873015873016,3.888888888888889,-34.2063492063492,50.238095238095234,-34.682539682539684,-56.74603174603174,-30.238095238095237,-76.26984126984127,1.1904761904761905,275.7936507936508,-325.0,-0.3968253968253968,-0.3968253968253968,-321.8253968253968
-78.4920634920635,-32.3015873015873,-75.95238095238095,7.5396825396825395,-76.42857142857143,-71.66666666666666,-78.65079365079364,-73.4126984126984,-80.55555555555556,185.95238095238093,-81.03174603174602,11.031746031746032,-82.14285714285714,47.698412698412696,-78.96825396825396,-54.2063492063492,-79.12698412698413,-73.09523809523809,8.65079365079365,263.57142857142856,-325.0,-2.7777777777777777,1.507936507936508,-166.26984126984127
-78.4920634920635,-32.3015873015873,-75.95238095238095,7.5396825396825395,-76.42857142857143,-71.66666666666666,-78.65079365079364,-73.4126984126984,-80.55555555555556,185.95238095238093,-81.03174603174602,11.031746031746032,-82.14285714285714,47.698412698412696,-78.96825396825396,-54.2063492063492,-79.12698412698413,-73.09523809523809,8.65079365079365,263.57142857142856,-325.0,-2.7777777777777777,1.507936507936508,-166.26984126984127
-68.01587301587301,-31.825396825396822,-70.23809523809524,4.2063492063492065,-66.58730158730158,-70.55555555555556,-68.96825396825396,-72.46031746031746,-67.85714285714285,228.8095238095238,-69.76190476190476,7.698412698412698,-67.22222222222221,47.06349206349206,-67.85714285714285,-53.41269841269841,-60.079365079365076,-71.98412698412697,5.0,260.23809523809524,-325.0,8.492063492063492,-2.3015873015873014,-166.26984126984127
-68.01587301587301,-31.825396825396822,-70.23809523809524,4.2063492063492065,-66.58730158730158,-70.55555555555556,-68.96825396825396,-72.46031746031746,-67.85714285714285,228.8095238095238,-69.76190476190476,7.698412698412698,-67.22222222222221,47.06349206349206,-67.85714285714285,-53.41269841269841,-60.079365079365076,-71.98412698412697,5.0,260.23809523809524,-325.0,8.492063492063492,-2.3015873015873014,-166.26984126984127
-56.904761904761905,-31.19047619047619,-54.68253968253968,6.428571428571428,-54.68253968253968,-69.12698412698413,-55.63492063492063,-71.03174603174602,-57.06349206349206,-198.4920634920635,-57.38095238095238,9.285714285714285,-57.06349206349206,45.95238095238095,-54.2063492063492,-52.460317460317455,-52.14285714285714,-70.71428571428571,6.904761904761904,254.84126984126982,-325.0,-1.984126984126984,2.142857142857143,-166.26984126984127
-56.904761904761905,-31.19047619047619,-54.68253968253968,6.428571428571428,-54.68253968253968,-69.12698412698413,-55.63492063492063,-71.03174603174602,-57.06349206349206,-198.4920634920635,-57.38095238095238,9.285714285714285,-57.06349206349206,45.95238095238095,-54.2063492063492,-52.460317460317455,-52.14285714285714,-70.71428571428571,6.904761904761904,254.84126984126982,-325.0,-1.984126984126984,2.142857142857143,-166.26984126984127
-71.98412698412697,-30.87301587301587,-72.14285714285714,8.492063492063492,-70.23809523809524,-68.33333333333333,-75.47619047619047,-69.92063492063491,-75.31746031746032,-277.85714285714283,-75.31746031746032,12.619047619047619,-73.57142857142857,45.317460317460316,-75.0,-51.666666666666664,-68.17460317460318,-69.76190476190476,9.603174603174603,251.98412698412696,-325.0,5.317460317460317,-3.253968253968254,-166.26984126984127
-71.98412698412697,-30.87301587301587,-72.14285714285714,8.492063492063492,-70.23809523809524,-68.33333333333333,-75.47619047619047,-69.92063492063491,-75.31746031746032,-277.85714285714283,-75.31746031746032,12.619047619047619,-73.57142857142857,45.317460317460316,-75.0,-51.666666666666664,-68.17460317460318,-69.76190476190476,9.603174603174603,251.98412698412696,-325.0,5.317460317460317,-3.253968253968254,-166.26984126984127
-12.777777777777777,-30.07936507936508,-9.126984126984127,-5.476190476190476,-8.809523809523808,-66.9047619047619,-13.253968253968253,-68.65079365079364,-15.0,-20.71428571428571,-13.571428571428571,-2.142857142857143,-13.253968253968253,43.888888888888886,-12.936507936507935,-50.71428571428571,-10.079365079365079,-68.4920634920635,-4.682539682539682,246.58730158730157,-325.0,-4.365079365079365,0.873015873015873,-166.26984126984127
-12.777777777777777,-30.07936507936508,-9.126984126984127,-5.476190476190476,-8.809523809523808,-66.9047619047619,-13.253968253968253,-68.65079365079364,-15.0,-20.71428571428571,-13.571428571428571,-2.142857142857143,-13.253968253968253,43.888888888888886,-12.936507936507935,-50.71428571428571,-10.079365079365079,-68.4920634920635,-4.682539682539682,246.58730158730157,-325.0,-4.365079365079365,0.873015873015873,-166.26984126984127
-44.84126984126984,-29.76190476190476,-43.73015873015873,3.095238095238095,-42.3015873015873,-66.11111111111111,-46.11111111111111,-67.85714285714285,-47.22222222222222,200.3968253968254,-47.38095238095238,7.3809523809523805,-46.74603174603175,43.25396825396825,-46.904761904761905,-49.92063492063492,-42.61904761904761,-67.53968253968253,5.158730158730158,243.57142857142856,-325.0,-0.7142857142857142,-0.7142857142857142,-321.8253968253968
-44.84126984126984,-29.76190476190476,-43.73015873015873,3.095238095238095,-42.3015873015873,-66.11111111111111,-46.11111111111111,-67.85714285714285,-47.22222222222222,200.3968253968254,-47.38095238095238,7.3809523809523805,-46.74603174603175,43.25396825396825,-46.904761904761905,-49.92063492063492,-42.61904761904761,-67.53968253968253,5.158730158730158,243.57142857142856,-325.0,-0.7142857142857142,-0.7142857142857142,-321.8253968253968
-63.73015873015873,-29.444444444444443,-62.3015873015873,9.920634920634921,-61.507936507936506,-64.84126984126983,-65.15873015873015,-66.58730158730158,-66.74603174603175,231.8253968253968,-66.74603174603175,13.253968253968253,-64.04761904761905,26.9047619047619,-65.0,-49.12698412698413,-59.92063492063492,-66.26984126984127,10.555555555555555,238.33333333333331,-325.0,-4.0476190476190474,1.6666666666666665,-321.8253968253968
-63.73015873015873,-29.444444444444443,-62.3015873015873,9.920634920634921,-61.507936507936506,-64.84126984126983,-65.15873015873015,-66.58730158730158,-66.74603174603175,231.8253968253968,-66.74603174603175,13.253968253968253,-64.04761904761905,26.9047619047619,-65.0,-49.12698412698413,-59.92063492063492,-66.26984126984127,10.555555555555555,238.33333333333331,-325.0,-4.0476190476190474,1.6666666666666665,-321.8253968253968
-25.158730158730158,-28.809523809523807,-25.79365079365079,3.73015873015873,-24.206349206349206,-63.73015873015873,-25.952380952380953,-65.47619047619047,-27.38095238095238,274.8412698412698,-28.65079365079365,8.492063492063492,-27.857142857142854,-97.22222222222221,-27.539682539682538,-48.33333333333333,-22.142857142857142,-65.0,6.587301587301587,234.36507936507934,-325.0,3.571428571428571,-2.3015873015873014,-321.8253968253968
-25.158730158730158,-28.809523809523807,-25.79365079365079,3.73015873015873,-24.206349206349206,-63.73015873015873,-25.952380952380953,-65.47619047619047,-27.38095238095238,274.8412698412698,-28.65079365079365,8.492063492063492,-27.857142857142854,-97.22222222222221,-27.539682539682538,-48.33333333333333,-22.142857142857142,-65.0,6.587301587301587,234.36507936507934,-325.0,3.571428571428571,-2.3015873015873014,-321.8253968253968
-34.2063492063492,-28.49206349206349,-32.460317460317455,2.9365079365079363,-31.03174603174603,-62.460317460317455,-34.682539682539684,-64.52380952380952,-36.11111111111111,-51.03174603174603,-35.79365079365079,5.634920634920634,-32.61904761904762,30.07936507936508,-34.047619047619044,-47.38095238095238,-28.333333333333332,-64.36507936507937,3.4126984126984126,230.7142857142857,-325.0,-3.571428571428571,1.349206349206349,-321.8253968253968
-34.2063492063492,-28.49206349206349,-32.460317460317455,2.9365079365079363,-31.03174603174603,-62.460317460317455,-34.682539682539684,-64.52380952380952,-36.11111111111111,-51.03174603174603,-35.79365079365079,5.634920634920634,-32.61904761904762,30.07936507936508,-34.047619047619044,-47.38095238095238,-28.333333333333332,-64.36507936507937,3.4126984126984126,230.7142857142857,-325.0,-3.571428571428571,1.349206349206349,-321.8253968253968
7.3809523809523805,-27.539682539682538,9.126984126984127,-2.9365079365079363,11.031746031746032,-61.03174603174603,6.587301587301587,-62.93650793650793,6.428571428571428,-166.74603174603175,6.904761904761904,1.1904761904761905,10.079365079365079,44.047619047619044,7.5396825396825395,-46.269841269841265,15.634920634920634,-62.460317460317455,-1.349206349206349,224.84126984126982,-325.0,-5.0,0.07936507936507936,-321.8253968253968
7.3809523809523805,-27.539682539682538,9.126984126984127,-2.9365079365079363,11.031746031746032,-61.03174603174603,6.587301587301587,-62.93650793650793,6.428571428571428,-166.74603174603175,6.904761904761904,1.1904761904761905,10.079365079365079,44.047619047619044,7.5396825396825395,-46.269841269841265,15.634920634920634,-62.460317460317455,-1.349206349206349,224.84126984126982,-325.0,-5.0,0.07936507936507936,-321.8253968253968
-56.11111111111111,-27.22222222222222,-51.19047619047619,1.984126984126984,-50.238095238095234,-59.92063492063492,-58.49206349206349,-61.666666666666664,-59.12698412698413,117.06349206349206,-57.53968253968254,6.428571428571428,-57.857142857142854,43.095238095238095,-57.698412698412696,-45.317460317460316,-54.68253968253968,-61.34920634920635,4.523809523809524,220.07936507936506,-325.0,4.0476190476190474,-4.2063492063492065,-166.26984126984127
-56.11111111111111,-27.22222222222222,-51.19047619047619,1.984126984126984,-50.238095238095234,-59.92063492063492,-58.49206349206349,-61.666666666666664,-59.12698412698413,117.06349206349206,-57.53968253968254,6.428571428571428,-57.857142857142854,43.095238095238095,-57.698412698412696,-45.317460317460316,-54.68253968253968,-61.34920634920635,4.523809523809524,220.07936507936506,-325.0,4.0476190476190474,-4.2063492063492065,-166.26984126984127
18.174603174603174,-26.11111111111111,17.698412698412696,-2.142857142857143,20.07936507936508,-57.06349206349206,18.65079365079365,-58.96825396825397,16.904761904761905,115.63492063492063,16.428571428571427,1.8253968253968254,18.49206349206349,-215.47619047619045,18.333333333333332,-43.25396825396825,24.365079365079364,-58.650793650793645,-0.07936507936507936,210.2380952380952,-325.0,-3.4126984126984126,2.142857142857143,-166.26984126984127
18.174603174603174,-26.11111111111111,17.698412698412696,-2.142857142857143,20.07936507936508,-57.06349206349206,18.65079365079365,-58.96825396825397,16.904761904761905,115.63492063492063,16.428571428571427,1.8253968253968254,18.49206349206349,-215.47619047619045,18.333333333333332,-43.25396825396825,24.365079365079364,-58.650793650793645,-0.07936507936507936,210.2380952380952,-325.0,-3.4126984126984126,2.142857142857143,-166.26984126984127
-3.73015873015873,-25.79365079365079,-2.7777777777777777,2.3015873015873014,-1.0317460317460316,-56.42857142857142,-4.523809523809524,-58.33333333333333,-6.428571428571428,-13.888888888888888,-6.587301587301587,6.26984126984127,-4.682539682539682,-200.3968253968254,-4.682539682539682,-42.77777777777778,-0.07936507936507936,-58.01587301587301,4.2063492063492065,207.53968253968253,-325.0,-0.3968253968253968,-0.07936507936507936,-166.26984126984127
-3.73015873015873,-25.79365079365079,-2.7777777777777777,2.3015873015873014,-1.0317460317460316,-56.42857142857142,-4.523809523809524,-58.33333333333333,-6.428571428571428,-13.888888888888888,-6.587301587301587,6.26984126984127,-4.682539682539682,-200.3968253968254,-4.682539682539682,-42.77777777777778,-0.07936507936507936,-58.01587301587301,4.2063492063492065,207.53968253968253,-325.0,-0.3968253968253968,-0.07936507936507936,-166.26984126984127
44.52380952380952,-25.158730158730158,42.3015873015873,-7.857142857142857,45.15873015873016,-55.15873015873016,46.74603174603175,-57.22222222222222,45.63492063492063,-93.09523809523809,43.888888888888886,-3.253968253968254,45.63492063492063,-285.95238095238096,47.06349206349206,-41.82539682539682,53.41269841269841,-56.904761904761905,-5.0,204.2063492063492,-325.0,1.507936507936508,0.3968253968253968,-166.26984126984127
44.52380952380952,-25.158730158730158,42.3015873015873,-7.857142857142857,45.15873015873016,-55.15873015873016,46.74603174603175,-57.22222222222222,45.63492063492063,-93.09523809523809,43.888888888888886,-3.253968253968254,45.63492063492063,-285.95238095238096,47.06349206349206,-41.82539682539682,53.41269841269841,-56.904761904761905,-5.0,204.2063492063492,-325.0,1.507936507936508,0.3968253968253968,-166.26984126984127
44.52380952380952,-25.158730158730158,42.3015873015873,-7.857142857142857,45.15873015873016,-55.15873015873016,46.74603174603175,-57.22222222222222,45.63492063492063,-93.09523809523809,43.888888888888886,-3.253968253968254,45.63492063492063,-285.95238095238096,47.06349206349206,-41.82539682539682,53.41269841269841,-56.904761904761905,-5.0,204.2063492063492,-325.0,1.507936507936508,0.3968253968253968,-166.26984126984127
44.52380952380952,-25.158730158730158,42.3015873015873,-7.857142857142857,45.15873015873016,-55.15873015873016,46.74603174603175,-57.22222222222222,45.63492063492063,-93.09523809523809,43.888888888888886,-3.253968253968254,45.63492063492063,-285.95238095238096,47.06349206349206,-41.82539682539682,53.41269841269841,-56.904761904761905,-5.0,204.2063492063492,-325.0,1.507936507936508,0.3968253968253968,-166.26984126984127
44.52380952380952,-25.158730158730158,42.3015873015873,-7.857142857142857,45.15873015873016,-55.15873015873016,46.74603174603175,-57.22222222222222,45.63492063492063,-93.09523809523809,43.888888888888886,-3.253968253968254,45.63492063492063,-285.95238095238096,47.06349206349206,-41.82539682539682,53.41269841269841,-56.904761904761905,-5.0,204.2063492063492,-325.0,1.507936507936508,0.3968253968253968,-321.8253968253968
44.52380952380952,-25.158730158730158,42.3015873015873,-7.857142857142857,45.15873015873016,-55.15873015873016,46.74603174603175,-57.22222222222222,45.63492063492063,-93.09523809523809,43.888888888888886,-3.253968253968254,45.63492063492063,-285.95238095238096,47.06349206349206,-41.82539682539682,53.41269841269841,-56.904761904761905,-5.0,204.2063492063492,-325.0,1.507936507936508,0.3968253968253968,-321.8253968253968
94.04761904761904,-23.88888888888889,95.15873015873015,-14.206349206349206,97.85714285714285,-52.61904761904761,93.4126984126984,-54.36507936507936,91.66666666666666,24.523809523809522,93.09523809523809,-10.079365079365079,98.49206349206348,-325.0,93.57142857142857,-39.92063492063492,101.98412698412697,-53.888888888888886,-12.46031746031746,193.4126984126984,-325.0,1.507936507936508,-2.46031746031746,-321.8253968253968
94.04761904761904,-23.88888888888889,95.15873015873015,-14.206349206349206,97.85714285714285,-52.61904761904761,93.4126984126984,-54.36507936507936,91.66666666666666,24.523809523809522,93.09523809523809,-10.079365079365079,98.49206349206348,-325.0,93.57142857142857,-39.92063492063492,101.98412698412697,-53.888888888888886,-12.46031746031746,193.4126984126984,-325.0,1.507936507936508,-2.46031746031746,-321.8253968253968
98.01587301587301,-23.730158730158728,100.07936507936508,-14.84126984126984,100.23809523809523,-52.61904761904761,95.0,-54.2063492063492,91.03174603174602,288.4920634920635,92.46031746031746,-9.603174603174603,95.63492063492063,-325.0,90.39682539682539,-39.76190476190476,95.79365079365078,-53.73015873015873,-11.349206349206348,192.77777777777777,-325.0,2.46031746031746,-5.0,-321.8253968253968
98.01587301587301,-23.730158730158728,100.07936507936508,-14.84126984126984,100.23809523809523,-52.61904761904761,95.0,-54.2063492063492,91.03174603174602,288.4920634920635,92.46031746031746,-9.603174603174603,95.63492063492063,-325.0,90.39682539682539,-39.76190476190476,95.79365079365078,-53.73015873015873,-11.349206349206348,192.77777777777777,-325.0,2.46031746031746,-5.0,-321.8253968253968
98.01587301587301,-23.730158730158728,100.07936507936508,-14.84126984126984,100.23809523809523,-52.61904761904761,95.0,-54.2063492063492,91.03174603174602,288.4920634920635,92.46031746031746,-9.603174603174603,95.63492063492063,-325.0,90.39682539682539,-39.76190476190476,95.79365079365078,-53.73015873015873,-11.349206349206348,192.77777777777777,-325.0,2.46031746031746,-5.0,-321.8253968253968
98.01587301587301,-23.730158730158728,100.07936507936508,-14.84126984126984,100.23809523809523,-52.61904761904761,95.0,-54.2063492063492,91.03174603174602,288.4920634920635,92.46031746031746,-9.603174603174603,95.63492063492063,-325.0,90.39682539682539,-39.76190476190476,95.79365079365078,-53.73015873015873,-11.349206349206348,192.77777777777777,-325.0,2.46031746031746,-5.0,-321.8253968253968
98.01587301587301,-23.730158730158728,100.07936507936508,-14.84126984126984,100.23809523809523,-52.61904761904761,95.0,-54.2063492063492,91.03174603174602,288.4920634920635,92.46031746031746,-9.603174603174603,95.63492063492063,-325.0,90.39682539682539,-39.76190476190476,95.79365079365078,-53.73015873015873,-11.349206349206348,192.77777777777777,-325.0,2.46031746031746,-5.0,-321.8253968253968
98.01587301587301,-23.730158730158728,100.07936507936508,-14.84126984126984,100.23809523809523,-52.61904761904761,95.0,-54.2063492063492,91.03174603174602,288.4920634920635,92.46031746031746,-9.603174603174603,95.63492063492063,-325.0,90.39682539682539,-39.76190476190476,95.79365079365078,-53.73015873015873,-11.349206349206348,192.77777777777777,-325.0,2.46031746031746,-5.0,-321.8253968253968
3.571428571428571,-22.46031746031746,1.507936507936508,-2.3015873015873014,4.682539682539682,-49.12698412698413,1.1904761904761905,-51.03174603174603,-1.8253968253968254,118.8095238095238,-3.253968253968254,1.984126984126984,2.142857142857143,11.825396825396824,-1.507936507936508,-37.38095238095238,5.317460317460317,-50.71428571428571,0.3968253968253968,180.7142857142857,-325.0,4.0476190476190474,-2.3015873015873014,-166.26984126984127
3.571428571428571,-22.46031746031746,1.507936507936508,-2.3015873015873014,4.682539682539682,-49.12698412698413,1.1904761904761905,-51.03174603174603,-1.8253968253968254,118.8095238095238,-3.253968253968254,1.984126984126984,2.142857142857143,11.825396825396824,-1.507936507936508,-37.38095238095238,5.317460317460317,-50.71428571428571,0.3968253968253968,180.7142857142857,-325.0,4.0476190476190474,-2.3015873015873014,-166.26984126984127
8.015873015873016,-21.984126984126984,7.698412698412698,-5.634920634920634,10.238095238095237,-48.17460317460317,6.26984126984127,-49.76190476190476,4.2063492063492065,308.015873015873,3.73015873015873,-0.3968253968253968,8.809523809523808,47.857142857142854,4.2063492063492065,-36.58730158730159,12.46031746031746,-49.44444444444444,-2.46031746031746,176.11111111111111,-325.0,0.5555555555555556,-2.619047619047619,-166.26984126984127
8.015873015873016,-21.984126984126984,7.698412698412698,-5.634920634920634,10.238095238095237,-48.17460317460317,6.26984126984127,-49.76190476190476,4.2063492063492065,308.015873015873,3.73015873015873,-0.3968253968253968,8.809523809523808,47.857142857142854,4.2063492063492065,-36.58730158730159,12.46031746031746,-49.44444444444444,-2.46031746031746,176.11111111111111,-325.0,0.5555555555555556,-2.619047619047619,-166.26984126984127
-31.03174603174603,-21.507936507936506,-30.396825396825395,-4.0476190476190474,-27.539682539682538,-46.74603174603175,-32.14285714285714,-48.49206349206349,-34.52380952380952,325.0,-34.682539682539684,0.23809523809523808,-31.666666666666664,85.95238095238095,-32.61904761904762,-35.476190476190474,-28.174603174603174,-48.17460317460317,-1.507936507936508,170.87301587301587,-325.0,-0.873015873015873,0.23809523809523808,-166.26984126984127
-31.03174603174603,-21.507936507936506,-30.396825396825395,-4.0476190476190474,-27.539682539682538,-46.74603174603175,-32.14285714285714,-48.49206349206349,-34.52380952380952,325.0,-34.682539682539684,0.23809523809523808,-31.666666666666664,85.95238095238095,-32.61904761904762,-35.476190476190474,-28.174603174603174,-48.17460317460317,-1.507936507936508,170.87301587301587,-325.0,-0.873015873015873,0.23809523809523808,-166.26984126984127
-56.904761904761905,-21.03174603174603,-57.22222222222222,-2.46031746031746,-52.3015873015873,-46.11111111111111,-57.698412698412696,-47.698412698412696,-56.74603174603174,325.0,-56.904761904761905,1.349206349206349,-50.55555555555555,83.4126984126984,-54.52380952380952,-34.84126984126984,-43.73015873015873,-47.38095238095238,-1.0317460317460316,168.17460317460316,-324.36507936507934,5.0,-2.619047619047619,-166.26984126984127
-56.904761904761905,-21.03174603174603,-57.22222222222222,-2.46031746031746,-52.3015873015873,-46.11111111111111,-57.698412698412696,-47.698412698412696,-56.74603174603174,325.0,-56.904761904761905,1.349206349206349,-50.55555555555555,83.4126984126984,-54.52380952380952,-34.84126984126984,-43.73015873015873,-47.38095238095238,-1.0317460317460316,168.17460317460316,-324.36507936507934,5.0,-2.619047619047619,-166.26984126984127
-56.904761904761905,-21.03174603174603,-57.22222222222222,-2.46031746031746,-52.3015873015873,-46.11111111111111,-57.698412698412696,-47.698412698412696,-56.74603174603174,325.0,-56.904761904761905,1.349206349206349,-50.55555555555555,83.4126984126984,-54.52380952380952,-34.84126984126984,-43.73015873015873,-47.38095238095238,-1.0317460317460316,168.17460317460316,-324.36507936507934,5.0,-2.619047619047619,-166.26984126984127
-56.904761904761905,-21.03174603174603,-57.22222222222222,-2.46031746031746,-52.3015873015873,-46.11111111111111,-57.698412698412696,-47.698412698412696,-56.74603174603174,325.0,-56.904761904761905,1.349206349206349,-50.55555555555555,83.4126984126984,-54.52380952380952,-34.84126984126984,-43.73015873015873,-47.38095238095238,-1.0317460317460316,168.17460317460316,-324.36507936507934,5.0,-2.619047619047619,-166.26984126984127
-73.88888888888889,-20.396825396825395,-72.46031746031746,7.3809523809523805,-69.76190476190476,-44.52380952380952,-77.06349206349206,-46.58730158730158,-78.01587301587301,325.0,-78.17460317460316,11.507936507936508,-74.36507936507937,81.66666666666666,-77.38095238095238,-33.73015873015873,-70.55555555555556,-45.95238095238095,10.079365079365079,162.61904761904762,-313.0952380952381,3.571428571428571,-3.73015873015873,-321.8253968253968
-73.88888888888889,-20.396825396825395,-72.46031746031746,7.3809523809523805,-69.76190476190476,-44.52380952380952,-77.06349206349206,-46.58730158730158,-78.01587301587301,325.0,-78.17460317460316,11.507936507936508,-74.36507936507937,81.66666666666666,-77.38095238095238,-33.73015873015873,-70.55555555555556,-45.95238095238095,10.079365079365079,162.61904761904762,-313.0952380952381,3.571428571428571,-3.73015873015873,-321.8253968253968
-16.587301587301585,-19.92063492063492,-16.11111111111111,-5.158730158730158,-12.619047619047619,-44.047619047619044,-15.317460317460316,-45.63492063492063,-16.904761904761905,325.0,-16.587301587301585,-2.3015873015873014,-12.777777777777777,80.07936507936508,-12.46031746031746,-33.25396825396825,-7.063492063492063,-45.15873015873016,-4.365079365079365,159.76190476190476,-307.69841269841265,-5.7936507936507935,3.571428571428571,-321.8253968253968
-16.587301587301585,-19.92063492063492,-16.11111111111111,-5.158730158730158,-12.619047619047619,-44.047619047619044,-15.317460317460316,-45.63492063492063,-16.904761904761905,325.0,-16.587301587301585,-2.3015873015873014,-12.777777777777777,80.07936507936508,-12.46031746031746,-33.25396825396825,-7.063492063492063,-45.15873015873016,-4.365079365079365,159.76190476190476,-307.69841269841265,-5.7936507936507935,3.571428571428571,-321.8253968253968
-16.587301587301585,-19.92063492063492,-16.11111111111111,-5.158730158730158,-12.619047619047619,-44.047619047619044,-15.317460317460316,-45.63492063492063,-16.904761904761905,325.0,-16.587301587301585,-2.3015873015873014,-12.777777777777777,80.07936507936508,-12.46031746031746,-33.25396825396825,-7.063492063492063,-45.15873015873016,-4.365079365079365,159.76190476190476,-307.69841269841265,-5.7936507936507935,3.571428571428571,-321.8253968253968
-16.587301587301585,-19.92063492063492,-16.11111111111111,-5.158730158730158,-12.619047619047619,-44.047619047619044,-15.317460317460316,-45.63492063492063,-16.904761904761905,325.0,-16.587301587301585,-2.3015873015873014,-12.777777777777777,80.07936507936508,-12.46031746031746,-33.25396825396825,-7.063492063492063,-45.15873015873016,-4.365079365079365,159.76190476190476,-307.69841269841265,-5.7936507936507935,3.571428571428571,-321.8253968253968
-29.285714285714285,-19.6031746031746,-28.333333333333332,-0.873015873015873,-26.11111111111111,-42.3015873015873,-31.19047619047619,-43.888888888888886,-34.36507936507936,325.0,-34.2063492063492,2.46031746031746,-30.07936507936508,74.04761904761904,-31.666666666666664,-32.14285714285714,-27.22222222222222,-43.57142857142857,0.873015873015873,153.73015873015873,-295.4761904761905,-2.46031746031746,0.873015873015873,-321.8253968253968
-29.285714285714285,-19.6031746031746,-28.333333333333332,-0.873015873015873,-26.11111111111111,-42.3015873015873,-31.19047619047619,-43.888888888888886,-34.36507936507936,325.0,-34.2063492063492,2.46031746031746,-30.07936507936508,74.04761904761904,-31.666666666666664,-32.14285714285714,-27.22222222222222,-43.57142857142857,0.873015873015873,153.73015873015873,-295.4761904761905,-2.46031746031746,0.873015873015873,-321.8253968253968
-31.03174603174603,-19.126984126984127,-29.920634920634917,-0.7142857142857142,-27.698412698412696,-41.82539682539682,-32.460317460317455,-43.41269841269841,-34.52380952380952,325.0,-34.682539682539684,3.4126984126984126,-31.666666666666664,70.55555555555556,-32.460317460317455,-31.507936507936506,-27.698412698412696,-43.095238095238095,1.8253968253968254,151.8253968253968,-291.5079365079365,-0.23809523809523808,-0.5555555555555556,-321.8253968253968
-31.03174603174603,-19.126984126984127,-29.920634920634917,-0.7142857142857142,-27.698412698412696,-41.82539682539682,-32.460317460317455,-43.41269841269841,-34.52380952380952,325.0,-34.682539682539684,3.4126984126984126,-31.666666666666664,70.55555555555556,-32.460317460317455,-31.507936507936506,-27.698412698412696,-43.095238095238095,1.8253968253968254,151.8253968253968,-291.5079365079365,-0.23809523809523808,-0.5555555555555556,-321.8253968253968
-18.65079365079365,-18.65079365079365,-18.96825396825397,4.0476190476190474,-16.904761904761905,-41.03174603174603,-20.71428571428571,-42.61904761904761,-24.523809523809522,325.0,-25.317460317460316,7.857142857142857,-21.349206349206348,73.73015873015872,-22.619047619047617,-31.03174603174603,-18.65079365079365,-42.3015873015873,6.746031746031746,148.65079365079364,-285.3174603174603,-1.0317460317460316,0.873015873015873,-166.26984126984127
-18.65079365079365,-18.65079365079365,-18.96825396825397,4.0476190476190474,-16.904761904761905,-41.03174603174603,-20.71428571428571,-42.61904761904761,-24.523809523809522,325.0,-25.317460317460316,7.857142857142857,-21.349206349206348,73.73015873015872,-22.619047619047617,-31.03174603174603,-18.65079365079365,-42.3015873015873,6.746031746031746,148.65079365079364,-285.3174603174603,-1.0317460317460316,0.873015873015873,-166.26984126984127
-43.57142857142857,-18.333333333333332,-41.666666666666664,5.317460317460317,-38.96825396825397,-39.76190476190476,-44.047619047619044,-41.507936507936506,-44.2063492063492,325.0,-44.047619047619044,9.761904761904761,-40.238095238095234,71.19047619047619,-41.82539682539682,-30.238095238095237,-34.682539682539684,-41.19047619047619,7.857142857142857,144.2063492063492,-276.58730158730157,5.0,-3.253968253968254,-166.26984126984127
-43.57142857142857,-18.333333333333332,-41.666666666666664,5.317460317460317,-38.96825396825397,-39.76190476190476,-44.047619047619044,-41.507936507936506,-44.2063492063492,325.0,-44.047619047619044,9.761904761904761,-40.238095238095234,71.19047619047619,-41.82539682539682,-30.238095238095237,-34.682539682539684,-41.19047619047619,7.857142857142857,144.2063492063492,-276.58730158730157,5.0,-3.253968253968254,-166.26984126984127
-23.41269841269841,-18.015873015873016,-22.936507936507937,-0.23809523809523808,-20.07936507936508,-38.96825396825397,-23.730158730158728,-40.55555555555555,-25.476190476190474,325.0,-26.11111111111111,3.571428571428571,-22.619047619047617,68.96825396825396,-23.41269841269841,-29.444444444444443,-17.857142857142858,-40.238095238095234,2.142857142857143,140.7142857142857,-269.1269841269841,-0.07936507936507936,-0.07936507936507936,-166.26984126984127
-23.41269841269841,-18.015873015873016,-22.936507936507937,-0.23809523809523808,-20.07936507936508,-38.96825396825397,-23.730158730158728,-40.55555555555555,-25.476190476190474,325.0,-26.11111111111111,3.571428571428571,-22.619047619047617,68.96825396825396,-23.41269841269841,-29.444444444444443,-17.857142857142858,-40.238095238095234,2.142857142857143,140.7142857142857,-269.1269841269841,-0.07936507936507936,-0.07936507936507936,-166.26984126984127
-39.285714285714285,-17.539682539682538,-38.33333333333333,1.8253968253968254,-34.2063492063492,-38.17460317460317,-39.44444444444444,-39.6031746031746,-40.39682539682539,325.0,-40.238095238095234,4.2063492063492065,-34.36507936507936,67.6984126984127,-36.42857142857142,-28.809523809523807,-29.444444444444443,-39.44444444444444,2.9365079365079363,138.33333333333331,-264.36507936507934,3.73015873015873,-0.3968253968253968,-166.26984126984127
-39.285714285714285,-17.539682539682538,-38.33333333333333,1.8253968253968254,-34.2063492063492,-38.17460317460317,-39.44444444444444,-39.6031746031746,-40.39682539682539,325.0,-40.238095238095234,4.2063492063492065,-34.36507936507936,67.6984126984127,-36.42857142857142,-28.809523809523807,-29.444444444444443,-39.44444444444444,2.9365079365079363,138.33333333333331,-264.36507936507934,3.73015873015873,-0.3968253968253968,-166.26984126984127
-39.285714285714285,-17.539682539682538,-38.33333333333333,1.8253968253968254,-34.2063492063492,-38.17460317460317,-39.44444444444444,-39.6031746031746,-40.39682539682539,325.0,-40.238095238095234,4.2063492063492065,-34.36507936507936,67.6984126984127,-36.42857142857142,-28.809523809523807,-29.444444444444443,-39.44444444444444,2.9365079365079363,138.33333333333331,-264.36507936507934,3.73015873015873,-0.3968253968253968,-166.26984126984127
-39.285714285714285,-17.539682539682538,-38.33333333333333,1.8253968253968254,-34.2063492063492,-38.17460317460317,-39.44444444444444,-39.6031746031746,-40.39682539682539,325.0,-40.238095238095234,4.2063492063492065,-34.36507936507936,67.6984126984127,-36.42857142857142,-28.809523809523807,-29.444444444444443,-39.44444444444444,2.9365079365079363,138.33333333333331,-264.36507936507934,3.73015873015873,-0.3968253968253968,-166.26984126984127
-39.285714285714285,-17.539682539682538,-38.33333333333333,1.8253968253968254,-34.2063492063492,-38.17460317460317,-39.44444444444444,-39.6031746031746,-40.39682539682539,325.0,-40.238095238095234,4.2063492063492065,-34.36507936507936,67.6984126984127,-36.42857142857142,-28.809523809523807,-29.444444444444443,-39.44444444444444,2.9365079365079363,138.33333333333331,-264.36507936507934,3.73015873015873,-0.3968253968253968,-321.8253968253968
-39.285714285714285,-17.539682539682538,-38.33333333333333,1.8253968253968254,-34.2063492063492,-38.17460317460317,-39.44444444444444,-39.6031746031746,-40.39682539682539,325.0,-40.238095238095234,4.2063492063492065,-34.36507936507936,67.6984126984127,-36.42857142857142,-28.809523809523807,-29.444444444444443,-39.44444444444444,2.9365079365079363,138.33333333333331,-264.36507936507934,3.73015873015873,-0.3968253968253968,-321.8253968253968
29.76190476190476,-16.746031746031743,30.396825396825395,-3.095238095238095,33.095238095238095,-36.269841269841265,29.6031746031746,-37.857142857142854,28.015873015873016,325.0,28.49206349206349,0.7142857142857142,30.87301587301587,-325.0,30.396825396825395,-27.539682539682538,35.0,-37.53968253968254,-0.3968253968253968,131.03174603174602,-249.44444444444443,-4.841269841269841,1.984126984126984,-321.8253968253968
29.76190476190476,-16.746031746031743,30.396825396825395,-3.095238095238095,33.095238095238095,-36.269841269841265,29.6031746031746,-37.857142857142854,28.015873015873016,325.0,28.49206349206349,0.7142857142857142,30.87301587301587,-325.0,30.396825396825395,-27.539682539682538,35.0,-37.53968253968254,-0.3968253968253968,131.03174603174602,-249.44444444444443,-4.841269841269841,1.984126984126984,-321.8253968253968
62.61904761904761,-16.428571428571427,60.71428571428571,-7.857142857142857,63.41269841269841,-35.63492063492063,61.19047619047619,-37.22222222222222,58.49206349206349,325.0,57.857142857142854,-4.0476190476190474,61.507936507936506,-325.0,59.6031746031746,-27.063492063492063,64.68253968253968,-36.904761904761905,-4.841269841269841,128.65079365079364,-245.0,4.682539682539682,-2.46031746031746,-321.8253968253968
62.61904761904761,-16.428571428571427,60.71428571428571,-7.857142857142857,63.41269841269841,-35.63492063492063,61.19047619047619,-37.22222222222222,58.49206349206349,325.0,57.857142857142854,-4.0476190476190474,61.507936507936506,-325.0,59.6031746031746,-27.063492063492063,64.68253968253968,-36.904761904761905,-4.841269841269841,128.65079365079364,-245.0,4.682539682539682,-2.46031746031746,-321.8253968253968
20.555555555555554,-16.26984126984127,21.507936507936506,-0.07936507936507936,23.253968253968253,-35.15873015873016,18.96825396825397,-36.58730158730159,16.428571428571427,325.0,16.587301587301585,4.2063492063492065,18.333333333333332,-325.0,18.015873015873016,-26.9047619047619,20.873015873015873,-36.42857142857142,3.4126984126984126,126.42857142857142,-240.87301587301587,-5.476190476190476,0.23809523809523808,-321.8253968253968
20.555555555555554,-16.26984126984127,21.507936507936506,-0.07936507936507936,23.253968253968253,-35.15873015873016,18.96825396825397,-36.58730158730159,16.428571428571427,325.0,16.587301587301585,4.2063492063492065,18.333333333333332,-325.0,18.015873015873016,-26.9047619047619,20.873015873015873,-36.42857142857142,3.4126984126984126,126.42857142857142,-240.87301587301587,-5.476190476190476,0.23809523809523808,-321.8253968253968
40.39682539682539,-16.11111111111111,40.55555555555555,-1.349206349206349,41.98412698412698,-34.84126984126984,39.285714285714285,-36.269841269841265,34.84126984126984,325.0,34.36507936507936,1.984126984126984,36.11111111111111,-325.0,36.58730158730159,-26.587301587301585,37.53968253968254,-36.11111111111111,1.984126984126984,125.79365079365078,-239.76190476190476,-5.952380952380952,2.142857142857143,-321.8253968253968
40.39682539682539,-16.11111111111111,40.55555555555555,-1.349206349206349,41.98412698412698,-34.84126984126984,39.285714285714285,-36.269841269841265,34.84126984126984,325.0,34.36507936507936,1.984126984126984,36.11111111111111,-325.0,36.58730158730159,-26.587301587301585,37.53968253968254,-36.11111111111111,1.984126984126984,125.79365079365078,-239.76190476190476,-5.952380952380952,2.142857142857143,-321.8253968253968
65.0,-15.634920634920634,66.26984126984127,-2.9365079365079363,68.17460317460318,-33.888888888888886,66.58730158730158,-35.317460317460316,64.2063492063492,324.2063492063492,64.36507936507937,1.349206349206349,66.58730158730158,-325.0,65.95238095238095,-25.79365079365079,70.23809523809524,-35.15873015873016,0.23809523809523808,122.30158730158729,-232.3015873015873,-4.523809523809524,2.142857142857143,-166.26984126984127
65.0,-15.634920634920634,66.26984126984127,-2.9365079365079363,68.17460317460318,-33.888888888888886,66.58730158730158,-35.317460317460316,64.2063492063492,324.2063492063492,64.36507936507937,1.349206349206349,66.58730158730158,-325.0,65.95238095238095,-25.79365079365079,70.23809523809524,-35.15873015873016,0.23809523809523808,122.30158730158729,-232.3015873015873,-4.523809523809524,2.142857142857143,-166.26984126984127
-5.158730158730158,-15.634920634920634,-3.253968253968254,8.809523809523808,-1.0317460317460316,-33.41269841269841,-5.7936507936507935,-35.0,-8.174603174603174,319.1269841269841,-8.65079365079365,13.095238095238095,-6.746031746031746,-238.65079365079364,-7.698412698412698,-25.634920634920633,-5.0,-34.682539682539684,12.142857142857142,120.07936507936508,-228.33333333333331,4.2063492063492065,-2.7777777777777777,-166.26984126984127
-5.158730158730158,-15.634920634920634,-3.253968253968254,8.809523809523808,-1.0317460317460316,-33.41269841269841,-5.7936507936507935,-35.0,-8.174603174603174,319.1269841269841,-8.65079365079365,13.095238095238095,-6.746031746031746,-238.65079365079364,-7.698412698412698,-25.634920634920633,-5.0,-34.682539682539684,12.142857142857142,120.07936507936508,-228.33333333333331,4.2063492063492065,-2.7777777777777777,-166.26984126984127
-8.492063492063492,-15.476190476190474,-7.698412698412698,5.158730158730158,-4.841269841269841,-32.93650793650794,-7.698412698412698,-34.52380952380952,-9.444444444444445,313.88888888888886,-10.396825396825395,8.65079365079365,-7.222222222222221,-139.12698412698413,-8.492063492063492,-25.158730158730158,-3.73015873015873,-34.36507936507936,7.698412698412698,118.65079365079364,-225.3174603174603,0.3968253968253968,-0.23809523809523808,-166.26984126984127
-8.492063492063492,-15.476190476190474,-7.698412698412698,5.158730158730158,-4.841269841269841,-32.93650793650794,-7.698412698412698,-34.52380952380952,-9.444444444444445,313.88888888888886,-10.396825396825395,8.65079365079365,-7.222222222222221,-139.12698412698413,-8.492063492063492,-25.158730158730158,-3.73015873015873,-34.36507936507936,7.698412698412698,118.65079365079364,-225.3174603174603,0.3968253968253968,-0.23809523809523808,-166.26984126984127
-29.285714285714285,-15.158730158730158,-28.174603174603174,5.158730158730158,-24.365079365079364,-32.77777777777778,-27.698412698412696,-34.36507936507936,-28.65079365079365,310.23809523809524,-29.285714285714285,7.3809523809523805,-23.57142857142857,-86.26984126984127,-26.11111111111111,-24.84126984126984,-19.285714285714285,-34.2063492063492,5.952380952380952,117.85714285714285,-223.25396825396825,-4.365079365079365,2.9365079365079363,-166.26984126984127
-29.285714285714285,-15.158730158730158,-28.174603174603174,5.158730158730158,-24.365079365079364,-32.77777777777778,-27.698412698412696,-34.36507936507936,-28.65079365079365,310.23809523809524,-29.285714285714285,7.3809523809523805,-23.57142857142857,-86.26984126984127,-26.11111111111111,-24.84126984126984,-19.285714285714285,-34.2063492063492,5.952380952380952,117.85714285714285,-223.25396825396825,-4.365079365079365,2.9365079365079363,-166.26984126984127
-10.714285714285714,-14.84126984126984,-11.031746031746032,2.7777777777777777,-7.222222222222221,-31.98412698412698,-9.285714285714285,-33.41269841269841,-9.603174603174603,301.8253968253968,-10.873015873015872,6.111111111111111,-5.7936507936507935,-71.82539682539682,-8.333333333333332,-24.206349206349206,-0.873015873015873,-33.095238095238095,4.841269841269841,114.36507936507935,-216.58730158730157,-3.571428571428571,1.8253968253968254,-166.26984126984127
-10.714285714285714,-14.84126984126984,-11.031746031746032,2.7777777777777777,-7.222222222222221,-31.98412698412698,-9.285714285714285,-33.41269841269841,-9.603174603174603,301.8253968253968,-10.873015873015872,6.111111111111111,-5.7936507936507935,-71.82539682539682,-8.333333333333332,-24.206349206349206,-0.873015873015873,-33.095238095238095,4.841269841269841,114.36507936507935,-216.58730158730157,-3.571428571428571,1.8253968253968254,-166.26984126984127
-34.36507936507936,-14.365079365079364,-31.825396825396822,10.396825396825395,-30.87301587301587,-30.71428571428571,-35.0,-32.14285714285714,-37.53968253968254,288.968253968254,-37.698412698412696,13.888888888888888,-34.84126984126984,164.52380952380952,-35.79365079365079,-23.57142857142857,-33.25396825396825,-31.825396825396822,12.777777777777777,109.28571428571428,-207.2222222222222,-0.7142857142857142,-0.5555555555555556,-321.8253968253968
-34.36507936507936,-14.365079365079364,-31.825396825396822,10.396825396825395,-30.87301587301587,-30.71428571428571,-35.0,-32.14285714285714,-37.53968253968254,288.968253968254,-37.698412698412696,13.888888888888888,-34.84126984126984,164.52380952380952,-35.79365079365079,-23.57142857142857,-33.25396825396825,-31.825396825396822,12.777777777777777,109.28571428571428,-207.2222222222222,-0.7142857142857142,-0.5555555555555556,-321.8253968253968
1.6666666666666665,-14.047619047619047,2.3015873015873014,-2.7777777777777777,4.523809523809524,-30.07936507936508,2.9365079365079363,-31.507936507936506,2.9365079365079363,284.2063492063492,1.984126984126984,1.6666666666666665,4.523809523809524,45.0,3.73015873015873,-22.936507936507937,9.761904761904761,-31.349206349206348,0.3968253968253968,107.6984126984127,-203.4126984126984,1.1904761904761905,-0.7142857142857142,-321.8253968253968
1.6666666666666665,-14.047619047619047,2.3015873015873014,-2.7777777777777777,4.523809523809524,-30.07936507936508,2.9365079365079363,-31.507936507936506,2.9365079365079363,284.2063492063492,1.984126984126984,1.6666666666666665,4.523809523809524,45.0,3.73015873015873,-22.936507936507937,9.761904761904761,-31.349206349206348,0.3968253968253968,107.6984126984127,-203.4126984126984,1.1904761904761905,-0.7142857142857142,-321.8253968253968
11.507936507936508,-14.206349206349206,12.777777777777777,-2.9365079365079363,13.571428571428571,-29.6031746031746,10.238095238095237,-31.19047619047619,7.063492063492063,280.39682539682536,6.428571428571428,0.23809523809523808,9.920634920634921,-109.28571428571428,6.904761904761904,-22.46031746031746,10.396825396825395,-30.87301587301587,-0.07936507936507936,106.42857142857142,-200.55555555555554,-5.952380952380952,1.507936507936508,-321.8253968253968
11.507936507936508,-14.206349206349206,12.777777777777777,-2.9365079365079363,13.571428571428571,-29.6031746031746,10.238095238095237,-31.19047619047619,7.063492063492063,280.39682539682536,6.428571428571428,0.23809523809523808,9.920634920634921,-109.28571428571428,6.904761904761904,-22.46031746031746,10.396825396825395,-30.87301587301587,-0.07936507936507936,106.42857142857142,-200.55555555555554,-5.952380952380952,1.507936507936508,-321.8253968253968
-53.25396825396825,-13.888888888888888,-48.49206349206349,3.73015873015873,-47.22222222222222,-29.126984126984127,-53.888888888888886,-30.87301587301587,-53.25396825396825,275.3174603174603,-52.14285714285714,8.015873015873016,-51.666666666666664,200.23809523809524,-51.666666666666664,-22.46031746031746,-48.33333333333333,-30.555555555555554,7.063492063492063,104.36507936507935,-196.9047619047619,3.095238095238095,-4.365079365079365,-321.8253968253968
-53.25396825396825,-13.888888888888888,-48.49206349206349,3.73015873015873,-47.22222222222222,-29.126984126984127,-53.888888888888886,-30.87301587301587,-53.25396825396825,275.3174603174603,-52.14285714285714,8.015873015873016,-51.666666666666664,200.23809523809524,-51.666666666666664,-22.46031746031746,-48.33333333333333,-30.555555555555554,7.063492063492063,104.36507936507935,-196.9047619047619,3.095238095238095,-4.365079365079365,-321.8253968253968
-46.904761904761905,-12.936507936507935,-44.52380952380952,0.23809523809523808,-43.888888888888886,-27.22222222222222,-49.285714285714285,-28.809523809523807,-49.92063492063492,254.04761904761904,-49.76190476190476,3.888888888888889,-48.49206349206349,215.63492063492063,-49.12698412698413,95.47619047619047,-46.58730158730158,-28.49206349206349,3.4126984126984126,96.58730158730158,-181.66666666666666,3.888888888888889,-3.888888888888889,-321.8253968253968
-46.904761904761905,-12.936507936507935,-44.52380952380952,0.23809523809523808,-43.888888888888886,-27.22222222222222,-49.285714285714285,-28.809523809523807,-49.92063492063492,254.04761904761904,-49.76190476190476,3.888888888888889,-48.49206349206349,215.63492063492063,-49.12698412698413,95.47619047619047,-46.58730158730158,-28.49206349206349,3.4126984126984126,96.58730158730158,-181.66666666666666,3.888888888888889,-3.888888888888889,-321.8253968253968
-40.55555555555555,-11.825396825396824,-40.55555555555555,-3.095238095238095,-40.39682539682539,-25.158730158730158,-44.52380952380952,-26.746031746031743,-46.42857142857142,232.93650793650792,-47.22222222222222,-0.07936507936507936,-45.317460317460316,231.19047619047618,-46.58730158730158,213.4126984126984,-44.84126984126984,-26.26984126984127,-0.07936507936507936,88.96825396825396,-166.42857142857142,4.841269841269841,-3.253968253968254,-166.26984126984127
-40.55555555555555,-11.825396825396824,-40.55555555555555,-3.095238095238095,-40.39682539682539,-25.158730158730158,-44.52380952380952,-26.746031746031743,-46.42857142857142,232.93650793650792,-47.22222222222222,-0.07936507936507936,-45.317460317460316,231.19047619047618,-46.58730158730158,213.4126984126984,-44.84126984126984,-26.26984126984127,-0.07936507936507936,88.96825396825396,-166.42857142857142,4.841269841269841,-3.253968253968254,-166.26984126984127
-13.095238095238095,-11.666666666666666,-14.047619047619047,-5.952380952380952,-13.412698412698411,-24.84126984126984,-15.158730158730158,-26.26984126984127,-17.063492063492063,220.3968253968254,-18.333333333333332,-2.7777777777777777,-16.11111111111111,243.88888888888889,-16.904761904761905,152.93650793650792,-14.523809523809524,-25.952380952380953,-3.253968253968254,87.38095238095238,-163.57142857142856,5.634920634920634,-2.142857142857143,-166.26984126984127
-13.095238095238095,-11.666666666666666,-14.047619047619047,-5.952380952380952,-13.412698412698411,-24.84126984126984,-15.158730158730158,-26.26984126984127,-17.063492063492063,220.3968253968254,-18.333333333333332,-2.7777777777777777,-16.11111111111111,243.88888888888889,-16.904761904761905,152.93650793650792,-14.523809523809524,-25.952380952380953,-3.253968253968254,87.38095238095238,-163.57142857142856,5.634920634920634,-2.142857142857143,-166.26984126984127
-19.76190476190476,-11.507936507936508,-19.126984126984127,-6.587301587301587,-17.857142857142858,-24.047619047619047,-20.555555555555554,-25.476190476190474,-19.285714285714285,151.5079365079365,-19.285714285714285,-2.619047619047619,-17.698412698412696,16.26984126984127,-18.80952380952381,58.650793650793645,-12.936507936507935,-25.317460317460316,-3.73015873015873,84.84126984126983,-158.4920634920635,-0.3968253968253968,-1.1904761904761905,-166.26984126984127
-19.76190476190476,-11.507936507936508,-19.126984126984127,-6.587301587301587,-17.857142857142858,-24.047619047619047,-20.555555555555554,-25.476190476190474,-19.285714285714285,151.5079365079365,-19.285714285714285,-2.619047619047619,-17.698412698412696,16.26984126984127,-18.80952380952381,58.650793650793645,-12.936507936507935,-25.317460317460316,-3.73015873015873,84.84126984126983,-158.4920634920635,-0.3968253968253968,-1.1904761904761905,-166.26984126984127
84.04761904761904,-11.19047619047619,83.73015873015872,-17.698412698412696,84.2063492063492,-23.57142857142857,84.52380952380952,-25.158730158730158,83.09523809523809,10.873015873015872,82.77777777777777,-14.84126984126984,85.47619047619047,-282.46031746031747,84.52380952380952,19.285714285714285,88.96825396825396,-25.0,-16.11111111111111,83.25396825396825,-155.63492063492063,0.23809523809523808,0.7142857142857142,-166.26984126984127
84.04761904761904,-11.19047619047619,83.73015873015872,-17.698412698412696,84.2063492063492,-23.57142857142857,84.52380952380952,-25.158730158730158,83.09523809523809,10.873015873015872,82.77777777777777,-14.84126984126984,85.47619047619047,-282.46031746031747,84.52380952380952,19.285714285714285,88.96825396825396,-25.0,-16.11111111111111,83.25396825396825,-155.63492063492063,0.23809523809523808,0.7142857142857142,-166.26984126984127
33.888888888888886,-11.19047619047619,36.269841269841265,-8.809523809523808,37.857142857142854,-23.57142857142857,34.52380952380952,-25.0,36.11111111111111,99.6031746031746,37.53968253968254,-5.476190476190476,38.80952380952381,-325.0,38.17460317460317,55.476190476190474,45.63492063492063,-24.68253968253968,-7.222222222222221,82.3015873015873,-153.73015873015873,-0.5555555555555556,-1.0317460317460316,-166.26984126984127
33.888888888888886,-11.19047619047619,36.269841269841265,-8.809523809523808,37.857142857142854,-23.57142857142857,34.52380952380952,-25.0,36.11111111111111,99.6031746031746,37.53968253968254,-5.476190476190476,38.80952380952381,-325.0,38.17460317460317,55.476190476190474,45.63492063492063,-24.68253968253968,-7.222222222222221,82.3015873015873,-153.73015873015873,-0.5555555555555556,-1.0317460317460316,-166.26984126984127
69.76190476190476,-10.714285714285714,68.80952380952381,-16.11111111111111,70.23809523809524,-22.777777777777775,68.80952380952381,-24.047619047619047,68.96825396825396,156.11111111111111,68.96825396825396,-11.984126984126984,71.66666666666666,-325.0,68.17460317460318,96.58730158730158,76.26984126984127,-23.730158730158728,-12.936507936507935,79.76190476190476,-148.96825396825395,4.365079365079365,-1.984126984126984,-321.8253968253968
69.76190476190476,-10.714285714285714,68.80952380952381,-16.11111111111111,70.23809523809524,-22.777777777777775,68.80952380952381,-24.047619047619047,68.96825396825396,156.11111111111111,68.96825396825396,-11.984126984126984,71.66666666666666,-325.0,68.17460317460318,96.58730158730158,76.26984126984127,-23.730158730158728,-12.936507936507935,79.76190476190476,-148.96825396825395,4.365079365079365,-1.984126984126984,-321.8253968253968
45.0,-10.873015873015872,45.63492063492063,-11.031746031746032,44.84126984126984,-22.46031746031746,43.73015873015873,-23.88888888888889,42.3015873015873,206.9047619047619,41.82539682539682,-6.587301587301587,40.55555555555555,-325.0,40.714285714285715,73.09523809523809,187.85714285714283,-23.57142857142857,-6.904761904761904,78.65079365079364,-146.9047619047619,-6.111111111111111,0.7142857142857142,-321.8253968253968
45.0,-10.873015873015872,45.63492063492063,-11.031746031746032,44.84126984126984,-22.46031746031746,43.73015873015873,-23.88888888888889,42.3015873015873,206.9047619047619,41.82539682539682,-6.587301587301587,40.55555555555555,-325.0,40.714285714285715,73.09523809523809,187.85714285714283,-23.57142857142857,-6.904761904761904,78.65079365079364,-146.9047619047619,-6.111111111111111,0.7142857142857142,-321.8253968253968
43.25396825396825,-10.714285714285714,41.507936507936506,-6.428571428571428,43.41269841269841,-21.984126984126984,43.25396825396825,-23.41269841269841,44.047619047619044,-52.14285714285714,43.25396825396825,-2.7777777777777777,46.42857142857142,-325.0,43.888888888888886,63.888888888888886,136.74603174603175,-23.253968253968253,-3.4126984126984126,77.22222222222221,-143.57142857142856,5.476190476190476,-2.142857142857143,-321.8253968253968
43.25396825396825,-10.714285714285714,41.507936507936506,-6.428571428571428,43.41269841269841,-21.984126984126984,43.25396825396825,-23.41269841269841,44.047619047619044,-52.14285714285714,43.25396825396825,-2.7777777777777777,46.42857142857142,-325.0,43.888888888888886,63.888888888888886,136.74603174603175,-23.253968253968253,-3.4126984126984126,77.22222222222221,-143.57142857142856,5.476190476190476,-2.142857142857143,-321.8253968253968
