,Fp1[1],Fp2[2],F3[3],F4[4],C3[5],C4[6],P3[7],P4[8],O1[9],O2[10],F7[11],F8[12],T3[13],T4[14],T5[15],T6[16],Fz[17],Pz[18],Cz[19],Pg1[20],Pg2[21],EOGR[22],EOOGL[23],EMG[24]
0,-213.25396825396825,325.0,-211.34920634920633,-9.444444444444445,-214.04761904761904,325.0,-216.1111111111111,325.0,-217.2222222222222,-325.0,-221.19047619047618,-25.952380952380953,-219.28571428571428,110.71428571428571,-216.1111111111111,325.0,-231.98412698412696,325.0,-171.8253968253968,-325.0,-250.7142857142857,-3.73015873015873,-1.0317460317460316,-166.26984126984127
1,-213.25396825396825,325.0,-211.34920634920633,-9.444444444444445,-214.04761904761904,325.0,-216.1111111111111,325.0,-217.2222222222222,-325.0,-221.19047619047618,-25.952380952380953,-219.28571428571428,110.71428571428571,-216.1111111111111,325.0,-231.98412698412696,325.0,-171.8253968253968,-325.0,-250.7142857142857,-3.73015873015873,-1.0317460317460316,-166.26984126984127
2,-155.95238095238093,325.0,-157.53968253968253,-19.126984126984127,-158.015873015873,325.0,-158.4920634920635,325.0,-158.33333333333331,-325.0,-162.14285714285714,-32.14285714285714,-153.88888888888889,106.74603174603175,-157.38095238095238,325.0,-162.93650793650792,325.0,-158.015873015873,-325.0,-226.42857142857142,2.7777777777777777,-0.07936507936507936,-166.26984126984127
3,-155.95238095238093,325.0,-157.53968253968253,-19.126984126984127,-158.015873015873,325.0,-158.4920634920635,325.0,-158.33333333333331,-325.0,-162.14285714285714,-32.14285714285714,-153.88888888888889,106.74603174603175,-157.38095238095238,325.0,-162.93650793650792,325.0,-158.015873015873,-325.0,-226.42857142857142,2.7777777777777777,-0.07936507936507936,-166.26984126984127
4,-166.11111111111111,325.0,-166.26984126984127,-10.238095238095237,-167.85714285714286,325.0,-168.33333333333331,325.0,-168.65079365079364,-325.0,-171.66666666666666,-18.174603174603174,-167.69841269841268,100.23809523809523,-167.85714285714286,325.0,-172.93650793650792,325.0,-112.6190476190476,-325.0,-163.88888888888889,-0.5555555555555556,-0.07936507936507936,-166.26984126984127
5,-166.11111111111111,325.0,-166.26984126984127,-10.238095238095237,-167.85714285714286,325.0,-168.33333333333331,325.0,-168.65079365079364,-325.0,-171.66666666666666,-18.174603174603174,-167.69841269841268,100.23809523809523,-167.85714285714286,325.0,-172.93650793650792,325.0,-112.6190476190476,-325.0,-163.88888888888889,-0.5555555555555556,-0.07936507936507936,-166.26984126984127
6,-170.7142857142857,325.0,-170.55555555555554,-6.904761904761904,-171.984126984127,325.0,-173.25396825396825,325.0,-173.25396825396825,-325.0,-175.47619047619045,-11.19047619047619,-171.19047619047618,94.52380952380952,-171.8253968253968,325.0,-174.36507936507937,325.0,-78.65079365079364,-325.0,-117.85714285714285,-2.619047619047619,0.23809523809523808,-166.26984126984127
7,-170.7142857142857,325.0,-170.55555555555554,-6.904761904761904,-171.984126984127,325.0,-173.25396825396825,325.0,-173.25396825396825,-325.0,-175.47619047619045,-11.19047619047619,-171.19047619047618,94.52380952380952,-171.8253968253968,325.0,-174.36507936507937,325.0,-78.65079365079364,-325.0,-117.85714285714285,-2.619047619047619,0.23809523809523808,-166.26984126984127
8,-168.4920634920635,325.0,-167.06349206349205,-10.238095238095237,-170.55555555555554,325.0,-171.66666666666666,325.0,-173.25396825396825,-325.0,-175.3174603174603,-12.936507936507935,-172.77777777777777,92.77777777777777,-172.46031746031744,325.0,-177.2222222222222,325.0,-73.57142857142857,-325.0,-110.07936507936508,0.23809523809523808,-1.8253968253968254,-166.26984126984127
9,-168.4920634920635,325.0,-167.06349206349205,-10.238095238095237,-170.55555555555554,325.0,-171.66666666666666,325.0,-173.25396825396825,-325.0,-175.3174603174603,-12.936507936507935,-172.77777777777777,92.77777777777777,-172.46031746031744,325.0,-177.2222222222222,325.0,-73.57142857142857,-325.0,-110.07936507936508,0.23809523809523808,-1.8253968253968254,-166.26984126984127
10,-154.36507936507937,325.0,-154.2063492063492,-8.492063492063492,-156.11111111111111,325.0,-156.58730158730157,325.0,-157.53968253968253,-325.0,-159.9206349206349,-10.238095238095237,-155.15873015873015,91.19047619047619,-155.79365079365078,325.0,-159.44444444444443,325.0,-64.36507936507937,-325.0,-99.76190476190476,-2.9365079365079363,1.0317460317460316,-321.8253968253968
11,-154.36507936507937,325.0,-154.2063492063492,-8.492063492063492,-156.11111111111111,325.0,-156.58730158730157,325.0,-157.53968253968253,-325.0,-159.9206349206349,-10.238095238095237,-155.15873015873015,91.19047619047619,-155.79365079365078,325.0,-159.44444444444443,325.0,-64.36507936507937,-325.0,-99.76190476190476,-2.9365079365079363,1.0317460317460316,-321.8253968253968
12,-160.55555555555554,325.0,-159.76190476190476,-5.0,-162.46031746031744,325.0,-163.57142857142856,325.0,-165.0,-325.0,-167.38095238095238,-5.7936507936507935,-163.4126984126984,89.12698412698413,-163.57142857142856,325.0,-169.12698412698413,325.0,-52.14285714285714,-325.0,-85.47619047619047,-1.0317460317460316,-0.3968253968253968,-321.8253968253968
13,-160.55555555555554,325.0,-159.76190476190476,-5.0,-162.46031746031744,325.0,-163.57142857142856,325.0,-165.0,-325.0,-167.38095238095238,-5.7936507936507935,-163.4126984126984,89.12698412698413,-163.57142857142856,325.0,-169.12698412698413,325.0,-52.14285714285714,-325.0,-85.47619047619047,-1.0317460317460316,-0.3968253968253968,-321.8253968253968
14,-163.73015873015873,325.0,-162.3015873015873,-5.7936507936507935,-165.63492063492063,325.0,-167.38095238095238,325.0,-169.28571428571428,-325.0,-171.5079365079365,-5.158730158730158,-166.11111111111111,87.22222222222221,-167.38095238095238,325.0,-172.93650793650792,325.0,-43.888888888888886,-325.0,-74.84126984126983,4.682539682539682,-0.873015873015873,-321.8253968253968
15,-163.73015873015873,325.0,-162.3015873015873,-5.7936507936507935,-165.63492063492063,325.0,-167.38095238095238,325.0,-169.28571428571428,-325.0,-171.5079365079365,-5.158730158730158,-166.11111111111111,87.22222222222221,-167.38095238095238,325.0,-172.93650793650792,325.0,-43.888888888888886,-325.0,-74.84126984126983,4.682539682539682,-0.873015873015873,-321.8253968253968
16,-147.53968253968253,325.0,-146.74603174603175,0.23809523809523808,-150.3968253968254,325.0,-150.23809523809524,325.0,-153.09523809523807,-325.0,-156.26984126984127,2.142857142857143,-152.46031746031744,84.84126984126983,-151.66666666666666,325.0,-159.28571428571428,325.0,-28.49206349206349,-325.0,-56.74603174603174,1.507936507936508,-1.507936507936508,-321.8253968253968
17,-147.53968253968253,325.0,-146.74603174603175,0.23809523809523808,-150.3968253968254,325.0,-150.23809523809524,325.0,-153.09523809523807,-325.0,-156.26984126984127,2.142857142857143,-152.46031746031744,84.84126984126983,-151.66666666666666,325.0,-159.28571428571428,325.0,-28.49206349206349,-325.0,-56.74603174603174,1.507936507936508,-1.507936507936508,-321.8253968253968
18,-151.5079365079365,325.0,-151.03174603174602,6.587301587301587,-153.57142857142856,325.0,-153.73015873015873,325.0,-155.95238095238093,-325.0,-159.28571428571428,8.809523809523808,-153.57142857142856,82.61904761904762,-153.09523809523807,325.0,-160.3968253968254,325.0,-14.206349206349206,-325.0,-40.079365079365076,-6.587301587301587,0.07936507936507936,-321.8253968253968
19,-151.5079365079365,325.0,-151.03174603174602,6.587301587301587,-153.57142857142856,325.0,-153.73015873015873,325.0,-155.95238095238093,-325.0,-159.28571428571428,8.809523809523808,-153.57142857142856,82.61904761904762,-153.09523809523807,325.0,-160.3968253968254,325.0,-14.206349206349206,-325.0,-40.079365079365076,-6.587301587301587,0.07936507936507936,-321.8253968253968
20,-152.3015873015873,325.0,-151.5079365079365,7.5396825396825395,-154.68253968253967,325.0,-155.3174603174603,325.0,-158.015873015873,-325.0,-161.19047619047618,10.873015873015872,-155.3174603174603,81.5079365079365,-155.15873015873015,325.0,-162.93650793650792,325.0,-8.968253968253968,-325.0,-33.888888888888886,-0.7142857142857142,-0.873015873015873,-166.26984126984127
21,-152.3015873015873,325.0,-151.5079365079365,7.5396825396825395,-154.68253968253967,325.0,-155.3174603174603,325.0,-158.015873015873,-325.0,-161.19047619047618,10.873015873015872,-155.3174603174603,81.5079365079365,-155.15873015873015,325.0,-162.93650793650792,325.0,-8.968253968253968,-325.0,-33.888888888888886,-0.7142857142857142,-0.873015873015873,-166.26984126984127
22,-130.23809523809524,325.0,-130.23809523809524,4.2063492063492065,-133.0952380952381,325.0,-132.3015873015873,325.0,-135.63492063492063,-325.0,-138.96825396825395,7.857142857142857,-133.4126984126984,80.07936507936508,-132.77777777777777,325.0,-140.3968253968254,325.0,-7.222222222222221,-325.0,-30.238095238095237,-5.158730158730158,-0.23809523809523808,-166.26984126984127
23,-130.23809523809524,325.0,-130.23809523809524,4.2063492063492065,-133.0952380952381,325.0,-132.3015873015873,325.0,-135.63492063492063,-325.0,-138.96825396825395,7.857142857142857,-133.4126984126984,80.07936507936508,-132.77777777777777,325.0,-140.3968253968254,325.0,-7.222222222222221,-325.0,-30.238095238095237,-5.158730158730158,-0.23809523809523808,-166.26984126984127
24,-125.95238095238095,325.0,-125.63492063492063,3.73015873015873,-128.4920634920635,318.015873015873,-128.17460317460316,321.66666666666663,-131.5079365079365,-325.0,-134.52380952380952,8.333333333333332,-128.33333333333331,77.22222222222221,-128.015873015873,325.0,-135.47619047619048,318.968253968254,0.873015873015873,-324.5238095238095,-19.285714285714285,-5.317460317460317,-0.3968253968253968,-166.26984126984127
25,-125.95238095238095,325.0,-125.63492063492063,3.73015873015873,-128.4920634920635,318.015873015873,-128.17460317460316,321.66666666666663,-131.5079365079365,-325.0,-134.52380952380952,8.333333333333332,-128.33333333333331,77.22222222222221,-128.015873015873,325.0,-135.47619047619048,318.968253968254,0.873015873015873,-324.5238095238095,-19.285714285714285,-5.317460317460317,-0.3968253968253968,-166.26984126984127
26,88.33333333333333,-0.07936507936507936,86.9047619047619,-3.571428571428571,86.58730158730158,-7.063492063492063,89.44444444444444,-3.253968253968254,89.92063492063491,-0.07936507936507936,89.6031746031746,-4.682539682539682,90.87301587301587,-125.31746031746032,89.44444444444444,-0.07936507936507936,81.03174603174602,-5.952380952380952,-2.142857142857143,-189.44444444444443,-8.968253968253968,1.507936507936508,-1.349206349206349,-166.26984126984127
27,88.33333333333333,-0.07936507936507936,86.9047619047619,-3.571428571428571,86.58730158730158,-7.063492063492063,89.44444444444444,-3.253968253968254,89.92063492063491,-0.07936507936507936,89.6031746031746,-4.682539682539682,90.87301587301587,-125.31746031746032,89.44444444444444,-0.07936507936507936,81.03174603174602,-5.952380952380952,-2.142857142857143,-189.44444444444443,-8.968253968253968,1.507936507936508,-1.349206349206349,-166.26984126984127
28,318.17460317460313,-325.0,314.5238095238095,-11.507936507936508,316.74603174603175,-325.0,321.66666666666663,-325.0,323.4126984126984,325.0,324.68253968253964,-18.174603174603174,323.0952380952381,-325.0,320.87301587301585,-325.0,312.46031746031747,-325.0,-14.206349206349206,-54.2063492063492,-11.507936507936508,-6.428571428571428,-0.7142857142857142,-166.26984126984127
29,318.17460317460313,-325.0,314.5238095238095,-11.507936507936508,316.74603174603175,-325.0,321.66666666666663,-325.0,323.4126984126984,325.0,324.68253968253964,-18.174603174603174,323.0952380952381,-325.0,320.87301587301585,-325.0,312.46031746031747,-325.0,-14.206349206349206,-54.2063492063492,-11.507936507936508,-6.428571428571428,-0.7142857142857142,-166.26984126984127
30,308.8095238095238,-325.0,305.7936507936508,-8.65079365079365,308.015873015873,-325.0,313.57142857142856,-325.0,317.06349206349205,325.0,318.17460317460313,-15.317460317460316,314.8412698412698,-325.0,312.46031746031747,-325.0,300.87301587301585,-325.0,-11.507936507936508,-53.25396825396825,-8.174603174603174,4.682539682539682,-1.507936507936508,-321.8253968253968
31,308.8095238095238,-325.0,305.7936507936508,-8.65079365079365,308.015873015873,-325.0,313.57142857142856,-325.0,317.06349206349205,325.0,318.17460317460313,-15.317460317460316,314.8412698412698,-325.0,312.46031746031747,-325.0,300.87301587301585,-325.0,-11.507936507936508,-53.25396825396825,-8.174603174603174,4.682539682539682,-1.507936507936508,-321.8253968253968
32,280.23809523809524,-325.0,277.22222222222223,-1.1904761904761905,279.9206349206349,-325.0,284.36507936507934,-325.0,288.968253968254,325.0,290.7142857142857,-7.698412698412698,286.90476190476187,-325.0,283.4126984126984,-325.0,273.25396825396825,-325.0,-4.2063492063492065,-52.3015873015873,-2.7777777777777777,-6.904761904761904,-0.5555555555555556,-321.8253968253968
33,280.23809523809524,-325.0,277.22222222222223,-1.1904761904761905,279.9206349206349,-325.0,284.36507936507934,-325.0,288.968253968254,325.0,290.7142857142857,-7.698412698412698,286.90476190476187,-325.0,283.4126984126984,-325.0,273.25396825396825,-325.0,-4.2063492063492065,-52.3015873015873,-2.7777777777777777,-6.904761904761904,-0.5555555555555556,-321.8253968253968
34,269.6031746031746,-325.0,266.26984126984127,-1.984126984126984,268.3333333333333,-325.0,274.36507936507934,-325.0,278.6507936507936,325.0,279.9206349206349,-8.968253968253968,275.4761904761905,-325.0,273.73015873015873,-325.0,260.87301587301585,-325.0,-5.952380952380952,-51.82539682539682,-3.4126984126984126,1.8253968253968254,0.873015873015873,-321.8253968253968
35,269.6031746031746,-325.0,266.26984126984127,-1.984126984126984,268.3333333333333,-325.0,274.36507936507934,-325.0,278.6507936507936,325.0,279.9206349206349,-8.968253968253968,275.4761904761905,-325.0,273.73015873015873,-325.0,260.87301587301585,-325.0,-5.952380952380952,-51.82539682539682,-3.4126984126984126,1.8253968253968254,0.873015873015873,-321.8253968253968
36,252.6190476190476,-325.0,249.12698412698413,-2.7777777777777777,251.8253968253968,-325.0,256.90476190476187,-325.0,261.1904761904762,325.0,262.46031746031747,-8.65079365079365,258.8095238095238,-325.0,255.63492063492063,-325.0,245.0,-325.0,-5.952380952380952,-50.55555555555555,-5.952380952380952,-6.428571428571428,-0.3968253968253968,-321.8253968253968
37,252.6190476190476,-325.0,249.12698412698413,-2.7777777777777777,251.8253968253968,-325.0,256.90476190476187,-325.0,261.1904761904762,325.0,262.46031746031747,-8.65079365079365,258.8095238095238,-325.0,255.63492063492063,-325.0,245.0,-325.0,-5.952380952380952,-50.55555555555555,-5.952380952380952,-6.428571428571428,-0.3968253968253968,-321.8253968253968
38,238.17460317460316,-325.0,234.52380952380952,3.095238095238095,237.2222222222222,-325.0,242.6190476190476,-325.0,247.2222222222222,325.0,247.85714285714283,-3.4126984126984126,244.2063492063492,-325.0,241.66666666666666,-325.0,229.76190476190476,-325.0,-1.0317460317460316,-49.285714285714285,-0.23809523809523808,5.317460317460317,-0.3968253968253968,-321.8253968253968
39,238.17460317460316,-325.0,234.52380952380952,3.095238095238095,237.2222222222222,-325.0,242.6190476190476,-325.0,247.2222222222222,325.0,247.85714285714283,-3.4126984126984126,244.2063492063492,-325.0,241.66666666666666,-325.0,229.76190476190476,-325.0,-1.0317460317460316,-49.285714285714285,-0.23809523809523808,5.317460317460317,-0.3968253968253968,-321.8253968253968
40,245.15873015873015,-325.0,241.19047619047618,-5.158730158730158,244.04761904761904,-325.0,249.12698412698413,-325.0,253.7301587301587,325.0,254.2063492063492,-11.19047619047619,251.19047619047618,-325.0,248.015873015873,-325.0,237.85714285714283,-325.0,-8.492063492063492,-48.96825396825397,-10.873015873015872,-3.888888888888889,-1.507936507936508,-166.26984126984127
41,245.15873015873015,-325.0,241.19047619047618,-5.158730158730158,244.04761904761904,-325.0,249.12698412698413,-325.0,253.7301587301587,325.0,254.2063492063492,-11.19047619047619,251.19047619047618,-325.0,248.015873015873,-325.0,237.85714285714283,-325.0,-8.492063492063492,-48.96825396825397,-10.873015873015872,-3.888888888888889,-1.507936507936508,-166.26984126984127
42,223.88888888888889,-325.0,220.3968253968254,-2.3015873015873014,222.77777777777777,-325.0,228.015873015873,-325.0,232.77777777777777,325.0,233.09523809523807,-8.65079365079365,229.12698412698413,-325.0,226.9047619047619,-325.0,214.04761904761904,-325.0,-6.587301587301587,-48.01587301587301,-5.7936507936507935,2.3015873015873014,-0.07936507936507936,-166.26984126984127
43,223.88888888888889,-325.0,220.3968253968254,-2.3015873015873014,222.77777777777777,-325.0,228.015873015873,-325.0,232.77777777777777,325.0,233.09523809523807,-8.65079365079365,229.12698412698413,-325.0,226.9047619047619,-325.0,214.04761904761904,-325.0,-6.587301587301587,-48.01587301587301,-5.7936507936507935,2.3015873015873014,-0.07936507936507936,-166.26984126984127
44,227.85714285714283,-322.9365079365079,223.4126984126984,-1.349206349206349,226.1111111111111,-325.0,232.3015873015873,-325.0,236.9047619047619,319.2857142857143,236.42857142857142,-7.3809523809523805,232.93650793650792,-325.0,230.87301587301587,-325.0,218.17460317460316,-325.0,-6.111111111111111,-46.58730158730158,-6.746031746031746,-2.9365079365079363,0.3968253968253968,-166.26984126984127
45,227.85714285714283,-322.9365079365079,223.4126984126984,-1.349206349206349,226.1111111111111,-325.0,232.3015873015873,-325.0,236.9047619047619,319.2857142857143,236.42857142857142,-7.3809523809523805,232.93650793650792,-325.0,230.87301587301587,-325.0,218.17460317460316,-325.0,-6.111111111111111,-46.58730158730158,-6.746031746031746,-2.9365079365079363,0.3968253968253968,-166.26984126984127
46,188.65079365079364,-313.0952380952381,185.63492063492063,0.873015873015873,188.015873015873,-325.0,192.14285714285714,-325.0,197.06349206349205,305.4761904761905,197.06349206349205,-4.841269841269841,193.88888888888889,-325.0,191.5079365079365,-325.0,179.28571428571428,-325.0,-3.888888888888889,-44.047619047619044,-7.222222222222221,-0.5555555555555556,-0.5555555555555556,-166.26984126984127
47,188.65079365079364,-313.0952380952381,185.63492063492063,0.873015873015873,188.015873015873,-325.0,192.14285714285714,-325.0,197.06349206349205,305.4761904761905,197.06349206349205,-4.841269841269841,193.88888888888889,-325.0,191.5079365079365,-325.0,179.28571428571428,-325.0,-3.888888888888889,-44.047619047619044,-7.222222222222221,-0.5555555555555556,-0.5555555555555556,-166.26984126984127
48,189.44444444444443,-305.3174603174603,185.79365079365078,3.571428571428571,188.17460317460316,-325.0,192.3015873015873,-325.0,196.58730158730157,297.85714285714283,196.11111111111111,-1.349206349206349,193.25396825396825,-325.0,190.55555555555554,-325.0,178.17460317460316,-325.0,-1.0317460317460316,-42.77777777777778,-4.841269841269841,-1.0317460317460316,-1.1904761904761905,-166.26984126984127
49,189.44444444444443,-305.3174603174603,185.79365079365078,3.571428571428571,188.17460317460316,-325.0,192.3015873015873,-325.0,196.58730158730157,297.85714285714283,196.11111111111111,-1.349206349206349,193.25396825396825,-325.0,190.55555555555554,-325.0,178.17460317460316,-325.0,-1.0317460317460316,-42.77777777777778,-4.841269841269841,-1.0317460317460316,-1.1904761904761905,-166.26984126984127
50,169.28571428571428,-295.4761904761905,165.95238095238093,10.396825396825395,169.60317460317458,-325.0,174.2063492063492,-325.0,180.07936507936506,287.53968253968253,179.28571428571428,5.317460317460317,177.2222222222222,-325.0,175.3174603174603,-325.0,163.88888888888889,-325.0,4.841269841269841,-41.34920634920635,-0.3968253968253968,-0.07936507936507936,-0.3968253968253968,-321.8253968253968
51,169.28571428571428,-295.4761904761905,165.95238095238093,10.396825396825395,169.60317460317458,-325.0,174.2063492063492,-325.0,180.07936507936506,287.53968253968253,179.28571428571428,5.317460317460317,177.2222222222222,-325.0,175.3174603174603,-325.0,163.88888888888889,-325.0,4.841269841269841,-41.34920634920635,-0.3968253968253968,-0.07936507936507936,-0.3968253968253968,-321.8253968253968
52,167.69841269841268,-289.4444444444444,163.88888888888889,8.492063492063492,168.17460317460316,-325.0,172.46031746031744,-325.0,178.33333333333331,281.66666666666663,177.38095238095238,4.0476190476190474,176.74603174603175,-325.0,173.73015873015873,-325.0,164.52380952380952,-325.0,3.253968253968254,-40.55555555555555,-3.571428571428571,1.984126984126984,-1.1904761904761905,-321.8253968253968
53,167.69841269841268,-289.4444444444444,163.88888888888889,8.492063492063492,168.17460317460316,-325.0,172.46031746031744,-325.0,178.33333333333331,281.66666666666663,177.38095238095238,4.0476190476190474,176.74603174603175,-325.0,173.73015873015873,-325.0,164.52380952380952,-325.0,3.253968253968254,-40.55555555555555,-3.571428571428571,1.984126984126984,-1.1904761904761905,-321.8253968253968
54,98.17460317460316,-278.968253968254,96.58730158730158,16.746031746031743,99.28571428571428,-325.0,101.19047619047619,-325.0,107.22222222222221,270.87301587301585,107.06349206349206,10.873015873015872,103.4126984126984,-325.0,103.09523809523809,-325.0,89.28571428571428,-325.0,10.079365079365079,-38.96825396825397,5.317460317460317,2.9365079365079363,-0.7142857142857142,-321.8253968253968
55,98.17460317460316,-278.968253968254,96.58730158730158,16.746031746031743,99.28571428571428,-325.0,101.19047619047619,-325.0,107.22222222222221,270.87301587301585,107.06349206349206,10.873015873015872,103.4126984126984,-325.0,103.09523809523809,-325.0,89.28571428571428,-325.0,10.079365079365079,-38.96825396825397,5.317460317460317,2.9365079365079363,-0.7142857142857142,-321.8253968253968
56,98.17460317460316,-278.968253968254,96.58730158730158,16.746031746031743,99.28571428571428,-325.0,101.19047619047619,-325.0,107.22222222222221,270.87301587301585,107.06349206349206,10.873015873015872,103.4126984126984,-325.0,103.09523809523809,-325.0,89.28571428571428,-325.0,10.079365079365079,-38.96825396825397,5.317460317460317,2.9365079365079363,-0.7142857142857142,-321.8253968253968
57,98.17460317460316,-278.968253968254,96.58730158730158,16.746031746031743,99.28571428571428,-325.0,101.19047619047619,-325.0,107.22222222222221,270.87301587301585,107.06349206349206,10.873015873015872,103.4126984126984,-325.0,103.09523809523809,-325.0,89.28571428571428,-325.0,10.079365079365079,-38.96825396825397,5.317460317460317,2.9365079365079363,-0.7142857142857142,-321.8253968253968
58,98.17460317460316,-278.968253968254,96.58730158730158,16.746031746031743,99.28571428571428,-325.0,101.19047619047619,-325.0,107.22222222222221,270.87301587301585,107.06349206349206,10.873015873015872,103.4126984126984,-325.0,103.09523809523809,-325.0,89.28571428571428,-325.0,10.079365079365079,-38.96825396825397,5.317460317460317,2.9365079365079363,-0.7142857142857142,-321.8253968253968
59,98.17460317460316,-278.968253968254,96.58730158730158,16.746031746031743,99.28571428571428,-325.0,101.19047619047619,-325.0,107.22222222222221,270.87301587301585,107.06349206349206,10.873015873015872,103.4126984126984,-325.0,103.09523809523809,-325.0,89.28571428571428,-325.0,10.079365079365079,-38.96825396825397,5.317460317460317,2.9365079365079363,-0.7142857142857142,-321.8253968253968
60,98.17460317460316,-278.968253968254,96.58730158730158,16.746031746031743,99.28571428571428,-325.0,101.19047619047619,-325.0,107.22222222222221,270.87301587301585,107.06349206349206,10.873015873015872,103.4126984126984,-325.0,103.09523809523809,-325.0,89.28571428571428,-325.0,10.079365079365079,-38.96825396825397,5.317460317460317,2.9365079365079363,-0.7142857142857142,-166.26984126984127
61,98.17460317460316,-278.968253968254,96.58730158730158,16.746031746031743,99.28571428571428,-325.0,101.19047619047619,-325.0,107.22222222222221,270.87301587301585,107.06349206349206,10.873015873015872,103.4126984126984,-325.0,103.09523809523809,-325.0,89.28571428571428,-325.0,10.079365079365079,-38.96825396825397,5.317460317460317,2.9365079365079363,-0.7142857142857142,-166.26984126984127
62,98.17460317460316,-278.968253968254,96.58730158730158,16.746031746031743,99.28571428571428,-325.0,101.19047619047619,-325.0,107.22222222222221,270.87301587301585,107.06349206349206,10.873015873015872,103.4126984126984,-325.0,103.09523809523809,-325.0,89.28571428571428,-325.0,10.079365079365079,-38.96825396825397,5.317460317460317,2.9365079365079363,-0.7142857142857142,-166.26984126984127
63,98.17460317460316,-278.968253968254,96.58730158730158,16.746031746031743,99.28571428571428,-325.0,101.19047619047619,-325.0,107.22222222222221,270.87301587301585,107.06349206349206,10.873015873015872,103.4126984126984,-325.0,103.09523809523809,-325.0,89.28571428571428,-325.0,10.079365079365079,-38.96825396825397,5.317460317460317,2.9365079365079363,-0.7142857142857142,-166.26984126984127
64,98.17460317460316,-278.968253968254,96.58730158730158,16.746031746031743,99.28571428571428,-325.0,101.19047619047619,-325.0,107.22222222222221,270.87301587301585,107.06349206349206,10.873015873015872,103.4126984126984,-325.0,103.09523809523809,-325.0,89.28571428571428,-325.0,10.079365079365079,-38.96825396825397,5.317460317460317,2.9365079365079363,-0.7142857142857142,-166.26984126984127
65,98.17460317460316,-278.968253968254,96.58730158730158,16.746031746031743,99.28571428571428,-325.0,101.19047619047619,-325.0,107.22222222222221,270.87301587301585,107.06349206349206,10.873015873015872,103.4126984126984,-325.0,103.09523809523809,-325.0,89.28571428571428,-325.0,10.079365079365079,-38.96825396825397,5.317460317460317,2.9365079365079363,-0.7142857142857142,-166.26984126984127
66,-77.53968253968253,-146.74603174603175,-77.22222222222221,2.3015873015873014,-74.68253968253968,-319.4444444444444,-78.17460317460316,-315.95238095238096,-75.63492063492063,138.17460317460316,-77.38095238095238,4.2063492063492065,-76.42857142857143,-271.3492063492063,-77.22222222222221,-236.26984126984127,-78.01587301587301,-312.6190476190476,-0.3968253968253968,325.0,-214.52380952380952,-3.095238095238095,-1.8253968253968254,-166.26984126984127
67,-77.53968253968253,-146.74603174603175,-77.22222222222221,2.3015873015873014,-74.68253968253968,-319.4444444444444,-78.17460317460316,-315.95238095238096,-75.63492063492063,138.17460317460316,-77.38095238095238,4.2063492063492065,-76.42857142857143,-271.3492063492063,-77.22222222222221,-236.26984126984127,-78.01587301587301,-312.6190476190476,-0.3968253968253968,325.0,-214.52380952380952,-3.095238095238095,-1.8253968253968254,-166.26984126984127
68,-82.77777777777777,-145.0,-83.09523809523809,1.984126984126984,-79.6031746031746,-315.6349206349206,-83.09523809523809,-312.1428571428571,-80.07936507936508,136.42857142857142,-81.98412698412697,3.253968253968254,-80.55555555555556,-267.85714285714283,-80.71428571428571,-233.25396825396825,-81.5079365079365,-308.968253968254,-1.6666666666666665,325.0,-288.6507936507936,-1.0317460317460316,-0.873015873015873,-166.26984126984127
69,-82.77777777777777,-145.0,-83.09523809523809,1.984126984126984,-79.6031746031746,-315.6349206349206,-83.09523809523809,-312.1428571428571,-80.07936507936508,136.42857142857142,-81.98412698412697,3.253968253968254,-80.55555555555556,-267.85714285714283,-80.71428571428571,-233.25396825396825,-81.5079365079365,-308.968253968254,-1.6666666666666665,325.0,-288.6507936507936,-1.0317460317460316,-0.873015873015873,-166.26984126984127
70,-13.095238095238095,-141.984126984127,-15.476190476190474,-8.492063492063492,-12.46031746031746,-309.1269841269841,-12.936507936507935,-306.1111111111111,-11.666666666666666,133.57142857142856,-14.523809523809524,-6.26984126984127,-12.777777777777777,-262.1428571428571,-14.365079365079364,-228.49206349206347,-14.047619047619047,-303.0952380952381,-10.396825396825395,325.0,-286.90476190476187,-1.507936507936508,-0.7142857142857142,-321.8253968253968
71,-13.095238095238095,-141.984126984127,-15.476190476190474,-8.492063492063492,-12.46031746031746,-309.1269841269841,-12.936507936507935,-306.1111111111111,-11.666666666666666,133.57142857142856,-14.523809523809524,-6.26984126984127,-12.777777777777777,-262.1428571428571,-14.365079365079364,-228.49206349206347,-14.047619047619047,-303.0952380952381,-10.396825396825395,325.0,-286.90476190476187,-1.507936507936508,-0.7142857142857142,-321.8253968253968
72,-107.22222222222221,-139.6031746031746,-107.22222222222221,4.2063492063492065,-103.73015873015872,-304.36507936507934,-106.58730158730158,-301.3492063492063,-103.57142857142857,131.19047619047618,-106.1111111111111,4.841269841269841,-105.15873015873015,-257.53968253968253,-103.09523809523809,-224.84126984126982,-105.63492063492063,-298.17460317460313,-0.07936507936507936,325.0,-325.0,1.8253968253968254,0.5555555555555556,-321.8253968253968
73,-107.22222222222221,-139.6031746031746,-107.22222222222221,4.2063492063492065,-103.73015873015872,-304.36507936507934,-106.58730158730158,-301.3492063492063,-103.57142857142857,131.19047619047618,-106.1111111111111,4.841269841269841,-105.15873015873015,-257.53968253968253,-103.09523809523809,-224.84126984126982,-105.63492063492063,-298.17460317460313,-0.07936507936507936,325.0,-325.0,1.8253968253968254,0.5555555555555556,-321.8253968253968
74,-33.095238095238095,-137.22222222222223,-36.11111111111111,-2.9365079365079363,-32.460317460317455,-299.2857142857143,-32.14285714285714,-296.26984126984127,-30.396825396825395,128.8095238095238,-33.41269841269841,-0.7142857142857142,-30.07936507936508,-252.93650793650792,-31.349206349206348,-221.19047619047618,-28.96825396825397,-293.25396825396825,-5.158730158730158,325.0,-310.07936507936506,-0.7142857142857142,-0.873015873015873,-321.8253968253968
75,-33.095238095238095,-137.22222222222223,-36.11111111111111,-2.9365079365079363,-32.460317460317455,-299.2857142857143,-32.14285714285714,-296.26984126984127,-30.396825396825395,128.8095238095238,-33.41269841269841,-0.7142857142857142,-30.07936507936508,-252.93650793650792,-31.349206349206348,-221.19047619047618,-28.96825396825397,-293.25396825396825,-5.158730158730158,325.0,-310.07936507936506,-0.7142857142857142,-0.873015873015873,-321.8253968253968
76,-93.73015873015872,-135.63492063492063,-92.61904761904762,8.809523809523808,-91.03174603174602,-295.6349206349206,-94.52380952380952,-292.9365079365079,-93.73015873015872,127.22222222222221,-95.31746031746032,9.920634920634921,-95.0,-249.76190476190476,-93.73015873015872,-218.65079365079364,-97.38095238095238,-290.07936507936506,5.158730158730158,325.0,-325.0,-5.952380952380952,0.07936507936507936,-321.8253968253968
77,-93.73015873015872,-135.63492063492063,-92.61904761904762,8.809523809523808,-91.03174603174602,-295.6349206349206,-94.52380952380952,-292.9365079365079,-93.73015873015872,127.22222222222221,-95.31746031746032,9.920634920634921,-95.0,-249.76190476190476,-93.73015873015872,-218.65079365079364,-97.38095238095238,-290.07936507936506,5.158730158730158,325.0,-325.0,-5.952380952380952,0.07936507936507936,-321.8253968253968
78,-93.73015873015872,-135.63492063492063,-92.61904761904762,8.809523809523808,-91.03174603174602,-295.6349206349206,-94.52380952380952,-292.9365079365079,-93.73015873015872,127.22222222222221,-95.31746031746032,9.920634920634921,-95.0,-249.76190476190476,-93.73015873015872,-218.65079365079364,-97.38095238095238,-290.07936507936506,5.158730158730158,325.0,-325.0,-5.952380952380952,0.07936507936507936,-321.8253968253968
79,-93.73015873015872,-135.63492063492063,-92.61904761904762,8.809523809523808,-91.03174603174602,-295.6349206349206,-94.52380952380952,-292.9365079365079,-93.73015873015872,127.22222222222221,-95.31746031746032,9.920634920634921,-95.0,-249.76190476190476,-93.73015873015872,-218.65079365079364,-97.38095238095238,-290.07936507936506,5.158730158730158,325.0,-325.0,-5.952380952380952,0.07936507936507936,-321.8253968253968
80,-25.952380952380953,-130.3968253968254,-27.698412698412696,-0.23809523809523808,-25.476190476190474,-285.1587301587301,-25.79365079365079,-282.6190476190476,-26.11111111111111,122.30158730158729,-29.444444444444443,1.6666666666666665,-27.38095238095238,-240.2380952380952,-27.063492063492063,-210.2380952380952,-28.65079365079365,-279.6031746031746,-2.46031746031746,325.0,-325.0,1.349206349206349,0.5555555555555556,-166.26984126984127
81,-25.952380952380953,-130.3968253968254,-27.698412698412696,-0.23809523809523808,-25.476190476190474,-285.1587301587301,-25.79365079365079,-282.6190476190476,-26.11111111111111,122.30158730158729,-29.444444444444443,1.6666666666666665,-27.38095238095238,-240.2380952380952,-27.063492063492063,-210.2380952380952,-28.65079365079365,-279.6031746031746,-2.46031746031746,325.0,-325.0,1.349206349206349,0.5555555555555556,-166.26984126984127
82,-101.98412698412697,-128.96825396825395,-101.98412698412697,4.523809523809524,-97.38095238095238,-281.5079365079365,-100.39682539682539,-279.1269841269841,-96.74603174603175,121.03174603174602,-98.49206349206348,7.063492063492063,-96.9047619047619,-237.06349206349205,-95.95238095238095,-207.69841269841268,-93.88888888888889,-276.26984126984127,2.46031746031746,325.0,-325.0,5.476190476190476,-0.07936507936507936,-166.26984126984127
83,-101.98412698412697,-128.96825396825395,-101.98412698412697,4.523809523809524,-97.38095238095238,-281.5079365079365,-100.39682539682539,-279.1269841269841,-96.74603174603175,121.03174603174602,-98.49206349206348,7.063492063492063,-96.9047619047619,-237.06349206349205,-95.95238095238095,-207.69841269841268,-93.88888888888889,-276.26984126984127,2.46031746031746,325.0,-325.0,5.476190476190476,-0.07936507936507936,-166.26984126984127
84,-44.84126984126984,-126.74603174603173,-48.01587301587301,4.2063492063492065,-46.269841269841265,-276.90476190476187,-46.269841269841265,-274.68253968253964,-48.49206349206349,118.65079365079364,-52.14285714285714,6.26984126984127,-48.96825396825397,-134.36507936507937,-49.76190476190476,-204.2063492063492,-50.87301587301587,-272.1428571428571,2.142857142857143,325.0,-325.0,-4.523809523809524,1.0317460317460316,-166.26984126984127
85,-44.84126984126984,-126.74603174603173,-48.01587301587301,4.2063492063492065,-46.269841269841265,-276.90476190476187,-46.269841269841265,-274.68253968253964,-48.49206349206349,118.65079365079364,-52.14285714285714,6.26984126984127,-48.96825396825397,-134.36507936507937,-49.76190476190476,-204.2063492063492,-50.87301587301587,-272.1428571428571,2.142857142857143,325.0,-325.0,-4.523809523809524,1.0317460317460316,-166.26984126984127
86,-94.36507936507935,-124.2063492063492,-94.04761904761904,3.4126984126984126,-91.5079365079365,-271.3492063492063,-95.31746031746032,-269.2857142857143,-94.68253968253968,116.1111111111111,-96.9047619047619,6.587301587301587,-96.1111111111111,-101.98412698412697,-95.15873015873015,-200.23809523809524,-95.31746031746032,-266.58730158730157,2.3015873015873014,325.0,-325.0,-2.46031746031746,-1.507936507936508,-166.26984126984127
87,-94.36507936507935,-124.2063492063492,-94.04761904761904,3.4126984126984126,-91.5079365079365,-271.3492063492063,-95.31746031746032,-269.2857142857143,-94.68253968253968,116.1111111111111,-96.9047619047619,6.587301587301587,-96.1111111111111,-101.98412698412697,-95.15873015873015,-200.23809523809524,-95.31746031746032,-266.58730158730157,2.3015873015873014,325.0,-325.0,-2.46031746031746,-1.507936507936508,-166.26984126984127
88,-83.73015873015872,-121.98412698412697,-85.31746031746032,1.507936507936508,-81.34920634920634,-267.06349206349205,-83.88888888888889,-265.0,-82.93650793650794,114.04761904761904,-85.63492063492063,3.73015873015873,-80.87301587301587,-9.603174603174603,-81.82539682539682,-197.06349206349205,-79.6031746031746,-262.3015873015873,-1.349206349206349,325.0,-325.0,1.984126984126984,-0.23809523809523808,-166.26984126984127
89,-83.73015873015872,-121.98412698412697,-85.31746031746032,1.507936507936508,-81.34920634920634,-267.06349206349205,-83.88888888888889,-265.0,-82.93650793650794,114.04761904761904,-85.63492063492063,3.73015873015873,-80.87301587301587,-9.603174603174603,-81.82539682539682,-197.06349206349205,-79.6031746031746,-262.3015873015873,-1.349206349206349,325.0,-325.0,1.984126984126984,-0.23809523809523808,-166.26984126984127
90,-120.23809523809523,-121.34920634920634,-119.6031746031746,6.904761904761904,-115.95238095238095,-266.1111111111111,-121.34920634920634,-263.88888888888886,-119.6031746031746,113.57142857142857,-121.03174603174602,9.444444444444445,-116.42857142857142,11.031746031746032,-118.01587301587301,-196.26984126984127,-115.47619047619047,-261.5079365079365,4.2063492063492065,325.0,-325.0,6.746031746031746,-1.8253968253968254,-321.8253968253968
91,-120.23809523809523,-121.34920634920634,-119.6031746031746,6.904761904761904,-115.95238095238095,-266.1111111111111,-121.34920634920634,-263.88888888888886,-119.6031746031746,113.57142857142857,-121.03174603174602,9.444444444444445,-116.42857142857142,11.031746031746032,-118.01587301587301,-196.26984126984127,-115.47619047619047,-261.5079365079365,4.2063492063492065,325.0,-325.0,6.746031746031746,-1.8253968253968254,-321.8253968253968
92,-98.80952380952381,-118.17460317460316,-99.12698412698413,3.888888888888889,-95.79365079365078,-258.4920634920635,-100.07936507936508,-256.74603174603175,-99.28571428571428,110.07936507936508,-101.34920634920634,5.952380952380952,-96.26984126984127,-128.4920634920635,-97.85714285714285,-190.55555555555554,-95.31746031746032,-254.04761904761904,1.1904761904761905,325.0,-325.0,1.984126984126984,-0.3968253968253968,-321.8253968253968
93,-98.80952380952381,-118.17460317460316,-99.12698412698413,3.888888888888889,-95.79365079365078,-258.4920634920635,-100.07936507936508,-256.74603174603175,-99.28571428571428,110.07936507936508,-101.34920634920634,5.952380952380952,-96.26984126984127,-128.4920634920635,-97.85714285714285,-190.55555555555554,-95.31746031746032,-254.04761904761904,1.1904761904761905,325.0,-325.0,1.984126984126984,-0.3968253968253968,-321.8253968253968
94,-77.53968253968253,-116.1111111111111,-78.96825396825396,6.428571428571428,-75.63492063492063,-254.36507936507934,-76.74603174603175,-252.46031746031744,-76.58730158730158,108.33333333333333,-79.76190476190476,10.396825396825395,-78.65079365079364,-209.28571428571428,-76.58730158730158,-187.53968253968253,-75.31746031746032,-249.9206349206349,6.111111111111111,325.0,-325.0,-1.349206349206349,-0.07936507936507936,-321.8253968253968
95,-77.53968253968253,-116.1111111111111,-78.96825396825396,6.428571428571428,-75.63492063492063,-254.36507936507934,-76.74603174603175,-252.46031746031744,-76.58730158730158,108.33333333333333,-79.76190476190476,10.396825396825395,-78.65079365079364,-209.28571428571428,-76.58730158730158,-187.53968253968253,-75.31746031746032,-249.9206349206349,6.111111111111111,325.0,-325.0,-1.349206349206349,-0.07936507936507936,-321.8253968253968
96,-95.63492063492063,-114.2063492063492,-96.42857142857142,6.428571428571428,-93.09523809523809,-250.2380952380952,-97.6984126984127,-248.49206349206347,-98.33333333333333,106.42857142857142,-100.39682539682539,9.126984126984127,-95.15873015873015,-134.2063492063492,-97.22222222222221,-184.36507936507937,-94.52380952380952,-246.1111111111111,4.2063492063492065,325.0,-325.0,0.3968253968253968,-0.5555555555555556,-321.8253968253968
97,-95.63492063492063,-114.2063492063492,-96.42857142857142,6.428571428571428,-93.09523809523809,-250.2380952380952,-97.6984126984127,-248.49206349206347,-98.33333333333333,106.42857142857142,-100.39682539682539,9.126984126984127,-95.15873015873015,-134.2063492063492,-97.22222222222221,-184.36507936507937,-94.52380952380952,-246.1111111111111,4.2063492063492065,325.0,-325.0,0.3968253968253968,-0.5555555555555556,-321.8253968253968
98,-89.6031746031746,-112.46031746031746,-89.76190476190476,1.984126984126984,-85.79365079365078,-246.1111111111111,-88.33333333333333,-244.52380952380952,-87.6984126984127,104.68253968253968,-90.07936507936508,5.476190476190476,-88.33333333333333,-117.22222222222221,-85.95238095238095,-181.19047619047618,-83.88888888888889,-242.14285714285714,1.0317460317460316,325.0,-325.0,-1.8253968253968254,-1.0317460317460316,-321.8253968253968
99,-89.6031746031746,-112.46031746031746,-89.76190476190476,1.984126984126984,-85.79365079365078,-246.1111111111111,-88.33333333333333,-244.52380952380952,-87.6984126984127,104.68253968253968,-90.07936507936508,5.476190476190476,-88.33333333333333,-117.22222222222221,-85.95238095238095,-181.19047619047618,-83.88888888888889,-242.14285714285714,1.0317460317460316,325.0,-325.0,-1.8253968253968254,-1.0317460317460316,-321.8253968253968
100,-78.17460317460316,-110.87301587301587,-79.76190476190476,6.428571428571428,-77.06349206349206,-243.09523809523807,-81.82539682539682,-241.5079365079365,-84.36507936507937,102.93650793650794,-86.74603174603175,8.968253968253968,-81.98412698412697,-89.28571428571428,-83.88888888888889,-178.96825396825395,-82.61904761904762,-239.12698412698413,5.158730158730158,325.0,-325.0,-5.158730158730158,0.07936507936507936,-166.26984126984127
101,-78.17460317460316,-110.87301587301587,-79.76190476190476,6.428571428571428,-77.06349206349206,-243.09523809523807,-81.82539682539682,-241.5079365079365,-84.36507936507937,102.93650793650794,-86.74603174603175,8.968253968253968,-81.98412698412697,-89.28571428571428,-83.88888888888889,-178.96825396825395,-82.61904761904762,-239.12698412698413,5.158730158730158,325.0,-325.0,-5.158730158730158,0.07936507936507936,-166.26984126984127
102,-140.87301587301587,-108.80952380952381,-139.44444444444443,9.603174603174603,-135.79365079365078,-238.17460317460316,-141.5079365079365,-236.9047619047619,-141.03174603174602,101.03174603174602,-142.46031746031744,13.888888888888888,-141.5079365079365,175.0,-139.44444444444443,-175.63492063492063,-138.015873015873,-234.52380952380952,9.444444444444445,325.0,-325.0,-2.619047619047619,-0.5555555555555556,-166.26984126984127
103,-140.87301587301587,-108.80952380952381,-139.44444444444443,9.603174603174603,-135.79365079365078,-238.17460317460316,-141.5079365079365,-236.9047619047619,-141.03174603174602,101.03174603174602,-142.46031746031744,13.888888888888888,-141.5079365079365,175.0,-139.44444444444443,-175.63492063492063,-138.015873015873,-234.52380952380952,9.444444444444445,325.0,-325.0,-2.619047619047619,-0.5555555555555556,-166.26984126984127
104,-77.53968253968253,-107.06349206349206,-81.82539682539682,3.571428571428571,-77.53968253968253,-235.3174603174603,-79.12698412698413,-233.88888888888889,-81.66666666666666,99.92063492063491,-85.79365079365078,6.26984126984127,-80.39682539682539,325.0,-81.34920634920634,-173.09523809523807,-78.96825396825396,-231.5079365079365,2.3015873015873014,325.0,-325.0,-2.3015873015873014,1.6666666666666665,-166.26984126984127
105,-77.53968253968253,-107.06349206349206,-81.82539682539682,3.571428571428571,-77.53968253968253,-235.3174603174603,-79.12698412698413,-233.88888888888889,-81.66666666666666,99.92063492063491,-85.79365079365078,6.26984126984127,-80.39682539682539,325.0,-81.34920634920634,-173.09523809523807,-78.96825396825396,-231.5079365079365,2.3015873015873014,325.0,-325.0,-2.3015873015873014,1.6666666666666665,-166.26984126984127
106,-131.5079365079365,-105.0,-131.19047619047618,12.619047619047619,-128.65079365079364,-230.7142857142857,-133.0952380952381,-229.44444444444443,-134.2063492063492,97.53968253968253,-136.26984126984127,17.38095238095238,-135.0,258.17460317460313,-133.25396825396825,-169.76190476190476,-131.984126984127,-227.06349206349205,12.936507936507935,325.0,-325.0,-2.9365079365079363,-2.142857142857143,-166.26984126984127
107,-131.5079365079365,-105.0,-131.19047619047618,12.619047619047619,-128.65079365079364,-230.7142857142857,-133.0952380952381,-229.44444444444443,-134.2063492063492,97.53968253968253,-136.26984126984127,17.38095238095238,-135.0,258.17460317460313,-133.25396825396825,-169.76190476190476,-131.984126984127,-227.06349206349205,12.936507936507935,325.0,-325.0,-2.9365079365079363,-2.142857142857143,-166.26984126984127
108,-99.12698412698413,-103.4126984126984,-101.19047619047619,7.5396825396825395,-96.1111111111111,-226.74603174603175,-100.07936507936508,-225.63492063492063,-100.71428571428571,95.79365079365078,-103.25396825396825,10.396825396825395,-96.58730158730158,198.8095238095238,-98.17460317460316,-166.74603174603175,-92.93650793650794,-223.4126984126984,5.317460317460317,325.0,-325.0,3.571428571428571,0.23809523809523808,-166.26984126984127
109,-99.12698412698413,-103.4126984126984,-101.19047619047619,7.5396825396825395,-96.1111111111111,-226.74603174603175,-100.07936507936508,-225.63492063492063,-100.71428571428571,95.79365079365078,-103.25396825396825,10.396825396825395,-96.58730158730158,198.8095238095238,-98.17460317460316,-166.74603174603175,-92.93650793650794,-223.4126984126984,5.317460317460317,325.0,-325.0,3.571428571428571,0.23809523809523808,-166.26984126984127
110,-92.30158730158729,-100.87301587301587,-92.77777777777777,8.333333333333332,-89.28571428571428,-221.5079365079365,-93.73015873015872,-220.2380952380952,-95.0,93.4126984126984,-96.9047619047619,12.777777777777777,-92.61904761904762,-35.63492063492063,-93.57142857142857,-162.61904761904762,-89.28571428571428,-218.17460317460316,7.857142857142857,325.0,-325.0,5.0,-1.349206349206349,-321.8253968253968
111,-92.30158730158729,-100.87301587301587,-92.77777777777777,8.333333333333332,-89.28571428571428,-221.5079365079365,-93.73015873015872,-220.2380952380952,-95.0,93.4126984126984,-96.9047619047619,12.777777777777777,-92.61904761904762,-35.63492063492063,-93.57142857142857,-162.61904761904762,-89.28571428571428,-218.17460317460316,7.857142857142857,325.0,-325.0,5.0,-1.349206349206349,-321.8253968253968
112,-60.71428571428571,-98.65079365079364,-61.507936507936506,7.222222222222221,-59.12698412698413,-216.9047619047619,-61.507936507936506,-215.79365079365078,-64.2063492063492,91.5079365079365,-66.74603174603175,12.777777777777777,-65.47619047619047,-240.3968253968254,-64.04761904761905,-159.12698412698413,-61.82539682539682,-213.57142857142856,8.968253968253968,325.0,-325.0,2.3015873015873014,-1.6666666666666665,-321.8253968253968
113,-60.71428571428571,-98.65079365079364,-61.507936507936506,7.222222222222221,-59.12698412698413,-216.9047619047619,-61.507936507936506,-215.79365079365078,-64.2063492063492,91.5079365079365,-66.74603174603175,12.777777777777777,-65.47619047619047,-240.3968253968254,-64.04761904761905,-159.12698412698413,-61.82539682539682,-213.57142857142856,8.968253968253968,325.0,-325.0,2.3015873015873014,-1.6666666666666665,-321.8253968253968
114,-77.53968253968253,-95.95238095238095,-78.17460317460316,-0.07936507936507936,-74.84126984126983,-210.7142857142857,-79.44444444444444,-209.76190476190476,-82.14285714285714,88.4920634920635,-83.73015873015872,5.0,-80.55555555555556,-228.015873015873,-80.87301587301587,-154.68253968253967,-77.85714285714285,-207.85714285714283,0.5555555555555556,325.0,-325.0,5.158730158730158,-1.6666666666666665,-321.8253968253968
115,-77.53968253968253,-95.95238095238095,-78.17460317460316,-0.07936507936507936,-74.84126984126983,-210.7142857142857,-79.44444444444444,-209.76190476190476,-82.14285714285714,88.4920634920635,-83.73015873015872,5.0,-80.55555555555556,-228.015873015873,-80.87301587301587,-154.68253968253967,-77.85714285714285,-207.85714285714283,0.5555555555555556,325.0,-325.0,5.158730158730158,-1.6666666666666665,-321.8253968253968
116,-53.095238095238095,-95.47619047619047,-54.52380952380952,-5.634920634920634,-51.19047619047619,-209.76190476190476,-53.25396825396825,-208.96825396825395,-55.63492063492063,88.17460317460316,-58.01587301587301,-0.07936507936507936,-56.74603174603174,-226.9047619047619,-54.841269841269835,-154.04761904761904,-52.3015873015873,-207.06349206349205,-4.2063492063492065,325.0,-325.0,2.9365079365079363,-1.6666666666666665,-321.8253968253968
117,-53.095238095238095,-95.47619047619047,-54.52380952380952,-5.634920634920634,-51.19047619047619,-209.76190476190476,-53.25396825396825,-208.96825396825395,-55.63492063492063,88.17460317460316,-58.01587301587301,-0.07936507936507936,-56.74603174603174,-226.9047619047619,-54.841269841269835,-154.04761904761904,-52.3015873015873,-207.06349206349205,-4.2063492063492065,325.0,-325.0,2.9365079365079363,-1.6666666666666665,-321.8253968253968
118,-67.38095238095238,-92.61904761904762,-68.33333333333333,0.873015873015873,-64.2063492063492,-203.88888888888889,-68.17460317460318,-203.4126984126984,-70.55555555555556,85.47619047619047,-72.77777777777777,5.634920634920634,-69.76190476190476,-219.9206349206349,-68.96825396825396,-149.6031746031746,-65.63492063492063,-201.19047619047618,2.142857142857143,325.0,-325.0,5.7936507936507935,-1.6666666666666665,-321.8253968253968
119,-67.38095238095238,-92.61904761904762,-68.33333333333333,0.873015873015873,-64.2063492063492,-203.88888888888889,-68.17460317460318,-203.4126984126984,-70.55555555555556,85.47619047619047,-72.77777777777777,5.634920634920634,-69.76190476190476,-219.9206349206349,-68.96825396825396,-149.6031746031746,-65.63492063492063,-201.19047619047618,2.142857142857143,325.0,-325.0,5.7936507936507935,-1.6666666666666665,-321.8253968253968
120,-100.07936507936508,-91.19047619047619,-99.76190476190476,2.3015873015873014,-95.15873015873015,-200.7142857142857,-102.14285714285714,-200.07936507936506,-104.2063492063492,83.88888888888889,-104.84126984126983,6.428571428571428,-100.23809523809523,-215.79365079365078,-100.71428571428571,-147.2222222222222,-96.42857142857142,-198.015873015873,2.142857142857143,325.0,-325.0,-5.7936507936507935,-0.7142857142857142,-166.26984126984127
121,-100.07936507936508,-91.19047619047619,-99.76190476190476,2.3015873015873014,-95.15873015873015,-200.7142857142857,-102.14285714285714,-200.07936507936506,-104.2063492063492,83.88888888888889,-104.84126984126983,6.428571428571428,-100.23809523809523,-215.79365079365078,-100.71428571428571,-147.2222222222222,-96.42857142857142,-198.015873015873,2.142857142857143,325.0,-325.0,-5.7936507936507935,-0.7142857142857142,-166.26984126984127
122,-99.92063492063491,-90.07936507936508,-98.80952380952381,2.9365079365079363,-94.36507936507935,-198.17460317460316,-101.34920634920634,-197.69841269841268,-102.93650793650794,82.77777777777777,-103.25396825396825,7.698412698412698,-99.6031746031746,-212.93650793650792,-99.6031746031746,-145.47619047619048,-95.15873015873015,-195.63492063492063,3.4126984126984126,325.0,-325.0,-0.7142857142857142,-0.7142857142857142,-166.26984126984127
123,-99.92063492063491,-90.07936507936508,-98.80952380952381,2.9365079365079363,-94.36507936507935,-198.17460317460316,-101.34920634920634,-197.69841269841268,-102.93650793650794,82.77777777777777,-103.25396825396825,7.698412698412698,-99.6031746031746,-212.93650793650792,-99.6031746031746,-145.47619047619048,-95.15873015873015,-195.63492063492063,3.4126984126984126,325.0,-325.0,-0.7142857142857142,-0.7142857142857142,-166.26984126984127
124,-71.03174603174602,-88.17460317460316,-71.98412698412697,0.5555555555555556,-67.6984126984127,-194.04761904761904,-72.93650793650794,-193.57142857142856,-76.58730158730158,81.19047619047619,-78.17460317460316,5.158730158730158,-74.52380952380952,-208.4920634920635,-74.68253968253968,-142.14285714285714,-70.87301587301587,-191.66666666666666,1.0317460317460316,325.0,-325.0,-6.587301587301587,1.0317460317460316,-166.26984126984127
125,-71.03174603174602,-88.17460317460316,-71.98412698412697,0.5555555555555556,-67.6984126984127,-194.04761904761904,-72.93650793650794,-193.57142857142856,-76.58730158730158,81.19047619047619,-78.17460317460316,5.158730158730158,-74.52380952380952,-208.4920634920635,-74.68253968253968,-142.14285714285714,-70.87301587301587,-191.66666666666666,1.0317460317460316,325.0,-325.0,-6.587301587301587,1.0317460317460316,-166.26984126984127
126,-95.0,-85.95238095238095,-94.52380952380952,2.46031746031746,-90.87301587301587,-189.44444444444443,-96.9047619047619,-188.96825396825395,-99.44444444444444,79.12698412698413,-100.71428571428571,8.333333333333332,-98.65079365079364,-203.09523809523807,-97.6984126984127,-138.65079365079364,-93.88888888888889,-187.2222222222222,4.523809523809524,325.0,-325.0,-3.73015873015873,-1.6666666666666665,-166.26984126984127
127,-95.0,-85.95238095238095,-94.52380952380952,2.46031746031746,-90.87301587301587,-189.44444444444443,-96.9047619047619,-188.96825396825395,-99.44444444444444,79.12698412698413,-100.71428571428571,8.333333333333332,-98.65079365079364,-203.09523809523807,-97.6984126984127,-138.65079365079364,-93.88888888888889,-187.2222222222222,4.523809523809524,325.0,-325.0,-3.73015873015873,-1.6666666666666665,-166.26984126984127
128,-92.14285714285714,-84.52380952380952,-92.30158730158729,5.317460317460317,-86.58730158730158,-186.42857142857142,-92.93650793650794,-185.95238095238093,-95.0,77.6984126984127,-95.63492063492063,9.444444444444445,-89.6031746031746,-199.44444444444443,-90.87301587301587,-136.42857142857142,-84.36507936507937,-184.2063492063492,5.158730158730158,325.0,-323.73015873015873,2.9365079365079363,0.23809523809523808,-166.26984126984127
129,-92.14285714285714,-84.52380952380952,-92.30158730158729,5.317460317460317,-86.58730158730158,-186.42857142857142,-92.93650793650794,-185.95238095238093,-95.0,77.6984126984127,-95.63492063492063,9.444444444444445,-89.6031746031746,-199.44444444444443,-90.87301587301587,-136.42857142857142,-84.36507936507937,-184.2063492063492,5.158730158730158,325.0,-323.73015873015873,2.9365079365079363,0.23809523809523808,-166.26984126984127
130,-92.93650793650794,-83.09523809523809,-92.77777777777777,5.317460317460317,-88.80952380952381,-183.4126984126984,-93.88888888888889,-183.09523809523807,-96.9047619047619,76.42857142857143,-98.33333333333333,11.031746031746032,-96.9047619047619,-196.11111111111111,-95.15873015873015,-134.2063492063492,-75.95238095238095,-181.19047619047618,7.3809523809523805,325.0,-318.17460317460313,-4.2063492063492065,-0.3968253968253968,-321.8253968253968
131,-92.93650793650794,-83.09523809523809,-92.77777777777777,5.317460317460317,-88.80952380952381,-183.4126984126984,-93.88888888888889,-183.09523809523807,-96.9047619047619,76.42857142857143,-98.33333333333333,11.031746031746032,-96.9047619047619,-196.11111111111111,-95.15873015873015,-134.2063492063492,-75.95238095238095,-181.19047619047618,7.3809523809523805,325.0,-318.17460317460313,-4.2063492063492065,-0.3968253968253968,-321.8253968253968
132,-99.12698412698413,-81.82539682539682,-99.28571428571428,6.587301587301587,-94.04761904761904,-180.3968253968254,-100.71428571428571,-180.07936507936506,-102.93650793650794,75.0,-103.4126984126984,11.349206349206348,-97.22222222222221,-192.77777777777777,-98.80952380952381,-132.14285714285714,-75.31746031746032,-178.4920634920635,6.746031746031746,325.0,-312.46031746031747,3.253968253968254,0.23809523809523808,-321.8253968253968
133,-99.12698412698413,-81.82539682539682,-99.28571428571428,6.587301587301587,-94.04761904761904,-180.3968253968254,-100.71428571428571,-180.07936507936506,-102.93650793650794,75.0,-103.4126984126984,11.349206349206348,-97.22222222222221,-192.77777777777777,-98.80952380952381,-132.14285714285714,-75.31746031746032,-178.4920634920635,6.746031746031746,325.0,-312.46031746031747,3.253968253968254,0.23809523809523808,-321.8253968253968
134,-71.03174603174602,-80.87301587301587,-70.87301587301587,2.3015873015873014,-67.85714285714285,-178.015873015873,-71.66666666666666,-177.85714285714286,-75.15873015873015,74.04761904761904,-76.9047619047619,8.492063492063492,-76.1111111111111,-190.07936507936506,-74.2063492063492,-130.23809523809524,-65.15873015873015,-176.11111111111111,5.158730158730158,325.0,-308.015873015873,2.3015873015873014,-1.984126984126984,-321.8253968253968
135,-71.03174603174602,-80.87301587301587,-70.87301587301587,2.3015873015873014,-67.85714285714285,-178.015873015873,-71.66666666666666,-177.85714285714286,-75.15873015873015,74.04761904761904,-76.9047619047619,8.492063492063492,-76.1111111111111,-190.07936507936506,-74.2063492063492,-130.23809523809524,-65.15873015873015,-176.11111111111111,5.158730158730158,325.0,-308.015873015873,2.3015873015873014,-1.984126984126984,-321.8253968253968
136,-109.6031746031746,-79.12698412698413,-110.39682539682539,11.666666666666666,-105.47619047619047,-174.52380952380952,-112.6190476190476,-174.36507936507937,-115.79365079365078,72.46031746031746,-117.22222222222221,16.428571428571427,-111.5079365079365,-186.11111111111111,-113.4126984126984,-127.53968253968253,163.57142857142856,-172.61904761904762,12.777777777777777,325.0,-301.5079365079365,2.619047619047619,-0.07936507936507936,-321.8253968253968
137,-109.6031746031746,-79.12698412698413,-110.39682539682539,11.666666666666666,-105.47619047619047,-174.52380952380952,-112.6190476190476,-174.36507936507937,-115.79365079365078,72.46031746031746,-117.22222222222221,16.428571428571427,-111.5079365079365,-186.11111111111111,-113.4126984126984,-127.53968253968253,163.57142857142856,-172.61904761904762,12.777777777777777,325.0,-301.5079365079365,2.619047619047619,-0.07936507936507936,-321.8253968253968
138,-132.61904761904762,-78.17460317460316,-132.46031746031744,18.80952380952381,-128.4920634920635,-172.46031746031744,-135.63492063492063,-172.3015873015873,-138.4920634920635,71.5079365079365,-139.6031746031746,24.206349206349206,-136.11111111111111,-183.7301587301587,-135.95238095238093,-126.1111111111111,233.57142857142856,-170.7142857142857,20.555555555555554,325.0,-297.53968253968253,-0.873015873015873,0.07936507936507936,-321.8253968253968
139,-132.61904761904762,-78.17460317460316,-132.46031746031744,18.80952380952381,-128.4920634920635,-172.46031746031744,-135.63492063492063,-172.3015873015873,-138.4920634920635,71.5079365079365,-139.6031746031746,24.206349206349206,-136.11111111111111,-183.7301587301587,-135.95238095238093,-126.1111111111111,233.57142857142856,-170.7142857142857,20.555555555555554,325.0,-297.53968253968253,-0.873015873015873,0.07936507936507936,-321.8253968253968
140,-51.82539682539682,-76.58730158730158,-55.95238095238095,8.492063492063492,-51.34920634920635,-169.44444444444443,-53.888888888888886,-169.28571428571428,-59.285714285714285,70.39682539682539,-61.666666666666664,12.936507936507935,-54.68253968253968,-180.3968253968254,-56.58730158730158,-123.88888888888889,297.38095238095235,-167.85714285714286,9.126984126984127,325.0,-292.1428571428571,-1.349206349206349,0.873015873015873,-166.26984126984127
141,-51.82539682539682,-76.58730158730158,-55.95238095238095,8.492063492063492,-51.34920634920635,-169.44444444444443,-53.888888888888886,-169.28571428571428,-59.285714285714285,70.39682539682539,-61.666666666666664,12.936507936507935,-54.68253968253968,-180.3968253968254,-56.58730158730158,-123.88888888888889,297.38095238095235,-167.85714285714286,9.126984126984127,325.0,-292.1428571428571,-1.349206349206349,0.873015873015873,-166.26984126984127
142,-138.4920634920635,-75.31746031746032,-136.42857142857142,7.063492063492063,-132.93650793650792,-166.11111111111111,-140.23809523809524,-166.26984126984127,-142.61904761904762,68.80952380952381,-142.93650793650792,12.777777777777777,-142.46031746031744,-176.74603174603175,-140.07936507936506,-121.5079365079365,210.87301587301587,-164.52380952380952,9.126984126984127,324.2063492063492,-285.7936507936508,-4.523809523809524,-0.7142857142857142,-166.26984126984127
143,-138.4920634920635,-75.31746031746032,-136.42857142857142,7.063492063492063,-132.93650793650792,-166.11111111111111,-140.23809523809524,-166.26984126984127,-142.61904761904762,68.80952380952381,-142.93650793650792,12.777777777777777,-142.46031746031744,-176.74603174603175,-140.07936507936506,-121.5079365079365,210.87301587301587,-164.52380952380952,9.126984126984127,324.2063492063492,-285.7936507936508,-4.523809523809524,-0.7142857142857142,-166.26984126984127
144,-77.53968253968253,-74.2063492063492,-81.66666666666666,0.5555555555555556,-76.42857142857143,-164.04761904761904,-79.76190476190476,-164.52380952380952,-84.04761904761904,67.85714285714285,-86.9047619047619,4.2063492063492065,-80.23809523809523,-174.04761904761904,-81.66666666666666,-119.76190476190476,325.0,-162.46031746031744,1.1904761904761905,320.55555555555554,-281.8253968253968,1.349206349206349,1.6666666666666665,-166.26984126984127
145,-77.53968253968253,-74.2063492063492,-81.66666666666666,0.5555555555555556,-76.42857142857143,-164.04761904761904,-79.76190476190476,-164.52380952380952,-84.04761904761904,67.85714285714285,-86.9047619047619,4.2063492063492065,-80.23809523809523,-174.04761904761904,-81.66666666666666,-119.76190476190476,325.0,-162.46031746031744,1.1904761904761905,320.55555555555554,-281.8253968253968,1.349206349206349,1.6666666666666665,-166.26984126984127
146,-77.53968253968253,-74.2063492063492,-81.66666666666666,0.5555555555555556,-76.42857142857143,-164.04761904761904,-79.76190476190476,-164.52380952380952,-84.04761904761904,67.85714285714285,-86.9047619047619,4.2063492063492065,-80.23809523809523,-174.04761904761904,-81.66666666666666,-119.76190476190476,325.0,-162.46031746031744,1.1904761904761905,320.55555555555554,-281.8253968253968,1.349206349206349,1.6666666666666665,-166.26984126984127
147,-77.53968253968253,-74.2063492063492,-81.66666666666666,0.5555555555555556,-76.42857142857143,-164.04761904761904,-79.76190476190476,-164.52380952380952,-84.04761904761904,67.85714285714285,-86.9047619047619,4.2063492063492065,-80.23809523809523,-174.04761904761904,-81.66666666666666,-119.76190476190476,325.0,-162.46031746031744,1.1904761904761905,320.55555555555554,-281.8253968253968,1.349206349206349,1.6666666666666665,-166.26984126984127
148,-127.6984126984127,-71.5079365079365,-128.96825396825395,2.9365079365079363,-124.04761904761904,-158.17460317460316,-129.6031746031746,-158.33333333333331,-132.14285714285714,65.31746031746032,-133.4126984126984,7.5396825396825395,-128.17460317460316,-167.69841269841268,-128.96825396825395,-115.47619047619047,325.0,-156.74603174603175,3.73015873015873,308.8095238095238,-270.87301587301585,5.0,0.5555555555555556,-166.26984126984127
149,-127.6984126984127,-71.5079365079365,-128.96825396825395,2.9365079365079363,-124.04761904761904,-158.17460317460316,-129.6031746031746,-158.33333333333331,-132.14285714285714,65.31746031746032,-133.4126984126984,7.5396825396825395,-128.17460317460316,-167.69841269841268,-128.96825396825395,-115.47619047619047,325.0,-156.74603174603175,3.73015873015873,308.8095238095238,-270.87301587301585,5.0,0.5555555555555556,-166.26984126984127
150,-133.0952380952381,-69.92063492063491,-132.46031746031744,-2.46031746031746,-129.44444444444443,-154.2063492063492,-135.63492063492063,-154.52380952380952,-137.85714285714286,63.57142857142857,-138.4920634920635,4.2063492063492065,-135.47619047619048,-163.25396825396825,-135.79365079365078,-112.77777777777777,262.1428571428571,-152.93650793650792,0.5555555555555556,301.19047619047615,-263.73015873015873,4.2063492063492065,-1.984126984126984,-321.8253968253968
151,-133.0952380952381,-69.92063492063491,-132.46031746031744,-2.46031746031746,-129.44444444444443,-154.2063492063492,-135.63492063492063,-154.52380952380952,-137.85714285714286,63.57142857142857,-138.4920634920635,4.2063492063492065,-135.47619047619048,-163.25396825396825,-135.79365079365078,-112.77777777777777,262.1428571428571,-152.93650793650792,0.5555555555555556,301.19047619047615,-263.73015873015873,4.2063492063492065,-1.984126984126984,-321.8253968253968
152,-129.76190476190476,-68.17460317460318,-129.12698412698413,-1.507936507936508,-125.95238095238095,-150.3968253968254,-131.984126984127,-150.87301587301587,-134.04761904761904,61.82539682539682,-134.68253968253967,4.841269841269841,-131.984126984127,-158.96825396825395,-132.3015873015873,-109.92063492063491,317.53968253968253,-149.44444444444443,1.6666666666666665,293.88888888888886,-256.74603174603175,-4.841269841269841,-1.349206349206349,-321.8253968253968
153,-129.76190476190476,-68.17460317460318,-129.12698412698413,-1.507936507936508,-125.95238095238095,-150.3968253968254,-131.984126984127,-150.87301587301587,-134.04761904761904,61.82539682539682,-134.68253968253967,4.841269841269841,-131.984126984127,-158.96825396825395,-132.3015873015873,-109.92063492063491,317.53968253968253,-149.44444444444443,1.6666666666666665,293.88888888888886,-256.74603174603175,-4.841269841269841,-1.349206349206349,-321.8253968253968
154,-178.015873015873,-67.06349206349206,-176.26984126984127,10.396825396825395,-172.93650793650792,-148.17460317460316,-180.07936507936506,-148.4920634920635,-182.14285714285714,60.71428571428571,-182.61904761904762,15.317460317460316,-180.07936507936506,-156.26984126984127,-178.4920634920635,-108.17460317460316,325.0,-146.9047619047619,11.666666666666666,288.968253968254,-252.3015873015873,4.0476190476190474,-0.07936507936507936,-321.8253968253968
155,-178.015873015873,-67.06349206349206,-176.26984126984127,10.396825396825395,-172.93650793650792,-148.17460317460316,-180.07936507936506,-148.4920634920635,-182.14285714285714,60.71428571428571,-182.61904761904762,15.317460317460316,-180.07936507936506,-156.26984126984127,-178.4920634920635,-108.17460317460316,325.0,-146.9047619047619,11.666666666666666,288.968253968254,-252.3015873015873,4.0476190476190474,-0.07936507936507936,-321.8253968253968
156,-123.73015873015872,-65.79365079365078,-124.2063492063492,-2.3015873015873014,-121.5079365079365,-145.63492063492063,-126.74603174603173,-145.95238095238093,-129.28571428571428,59.76190476190476,-130.3968253968254,4.2063492063492065,-127.06349206349206,-153.57142857142856,-128.17460317460316,-106.42857142857142,325.0,-144.52380952380952,0.7142857142857142,284.2063492063492,-248.015873015873,-4.841269841269841,-1.349206349206349,-321.8253968253968
157,-123.73015873015872,-65.79365079365078,-124.2063492063492,-2.3015873015873014,-121.5079365079365,-145.63492063492063,-126.74603174603173,-145.95238095238093,-129.28571428571428,59.76190476190476,-130.3968253968254,4.2063492063492065,-127.06349206349206,-153.57142857142856,-128.17460317460316,-106.42857142857142,325.0,-144.52380952380952,0.7142857142857142,284.2063492063492,-248.015873015873,-4.841269841269841,-1.349206349206349,-321.8253968253968
158,-156.58730158730157,-64.84126984126983,-154.36507936507937,2.3015873015873014,-151.34920634920633,-143.4126984126984,-158.17460317460316,-143.73015873015873,-160.3968253968254,58.8095238095238,-160.3968253968254,7.3809523809523805,-158.015873015873,-151.03174603174602,-156.58730158730157,-104.52380952380952,325.0,-142.3015873015873,3.73015873015873,279.6031746031746,-243.4126984126984,3.888888888888889,-0.07936507936507936,-321.8253968253968
159,-156.58730158730157,-64.84126984126983,-154.36507936507937,2.3015873015873014,-151.34920634920633,-143.4126984126984,-158.17460317460316,-143.73015873015873,-160.3968253968254,58.8095238095238,-160.3968253968254,7.3809523809523805,-158.015873015873,-151.03174603174602,-156.58730158730157,-104.52380952380952,325.0,-142.3015873015873,3.73015873015873,279.6031746031746,-243.4126984126984,3.888888888888889,-0.07936507936507936,-321.8253968253968
160,-146.26984126984127,-63.888888888888886,-145.3174603174603,-1.984126984126984,-142.46031746031744,-141.66666666666666,-148.96825396825395,-141.984126984127,-150.87301587301587,58.17460317460317,-151.5079365079365,3.571428571428571,-149.12698412698413,-149.12698412698413,-148.8095238095238,-103.09523809523809,325.0,-140.3968253968254,0.07936507936507936,276.1111111111111,-240.2380952380952,-0.3968253968253968,-0.23809523809523808,-166.26984126984127
161,-146.26984126984127,-63.888888888888886,-145.3174603174603,-1.984126984126984,-142.46031746031744,-141.66666666666666,-148.96825396825395,-141.984126984127,-150.87301587301587,58.17460317460317,-151.5079365079365,3.571428571428571,-149.12698412698413,-149.12698412698413,-148.8095238095238,-103.09523809523809,325.0,-140.3968253968254,0.07936507936507936,276.1111111111111,-240.2380952380952,-0.3968253968253968,-0.23809523809523808,-166.26984126984127
162,-146.26984126984127,-62.77777777777777,-144.84126984126982,-0.07936507936507936,-141.984126984127,-139.6031746031746,-147.69841269841268,-139.6031746031746,-150.07936507936506,57.06349206349206,-150.23809523809524,4.523809523809524,-146.11111111111111,-146.26984126984127,-145.3174603174603,-101.66666666666666,325.0,-138.33333333333331,1.0317460317460316,271.3492063492063,-236.1111111111111,0.7142857142857142,1.0317460317460316,-166.26984126984127
163,-146.26984126984127,-62.77777777777777,-144.84126984126982,-0.07936507936507936,-141.984126984127,-139.6031746031746,-147.69841269841268,-139.6031746031746,-150.07936507936506,57.06349206349206,-150.23809523809524,4.523809523809524,-146.11111111111111,-146.26984126984127,-145.3174603174603,-101.66666666666666,325.0,-138.33333333333331,1.0317460317460316,271.3492063492063,-236.1111111111111,0.7142857142857142,1.0317460317460316,-166.26984126984127
164,-143.09523809523807,-62.14285714285714,-142.3015873015873,0.5555555555555556,-139.44444444444443,-137.69841269841268,-145.0,-138.015873015873,-147.2222222222222,56.269841269841265,-147.69841269841268,5.634920634920634,-144.2063492063492,-144.36507936507937,-143.73015873015873,-100.39682539682539,325.0,-136.74603174603175,2.142857142857143,268.015873015873,-232.93650793650792,-3.73015873015873,0.23809523809523808,-166.26984126984127
165,-143.09523809523807,-62.14285714285714,-142.3015873015873,0.5555555555555556,-139.44444444444443,-137.69841269841268,-145.0,-138.015873015873,-147.2222222222222,56.269841269841265,-147.69841269841268,5.634920634920634,-144.2063492063492,-144.36507936507937,-143.73015873015873,-100.39682539682539,325.0,-136.74603174603175,2.142857142857143,268.015873015873,-232.93650793650792,-3.73015873015873,0.23809523809523808,-166.26984126984127
166,-154.2063492063492,-60.71428571428571,-152.77777777777777,4.682539682539682,-150.23809523809524,-134.04761904761904,-156.42857142857142,-134.68253968253967,-158.65079365079364,54.841269841269835,-158.8095238095238,10.238095238095237,-155.79365079365078,-140.55555555555554,-155.3174603174603,-97.85714285714285,325.0,-133.4126984126984,6.746031746031746,261.5079365079365,-226.58730158730157,4.841269841269841,-0.7142857142857142,-166.26984126984127
167,-154.2063492063492,-60.71428571428571,-152.77777777777777,4.682539682539682,-150.23809523809524,-134.04761904761904,-156.42857142857142,-134.68253968253967,-158.65079365079364,54.841269841269835,-158.8095238095238,10.238095238095237,-155.79365079365078,-140.55555555555554,-155.3174603174603,-97.85714285714285,325.0,-133.4126984126984,6.746031746031746,261.5079365079365,-226.58730158730157,4.841269841269841,-0.7142857142857142,-166.26984126984127
168,-143.88888888888889,-59.6031746031746,-143.09523809523807,3.571428571428571,-141.34920634920636,-131.8253968253968,-146.74603174603175,-132.61904761904762,-148.8095238095238,53.73015873015873,-149.6031746031746,9.603174603174603,-148.015873015873,-138.17460317460316,-147.38095238095238,-96.26984126984127,325.0,-131.03174603174602,6.428571428571428,257.06349206349205,-222.61904761904762,-4.682539682539682,-0.3968253968253968,-166.26984126984127
169,-143.88888888888889,-59.6031746031746,-143.09523809523807,3.571428571428571,-141.34920634920636,-131.8253968253968,-146.74603174603175,-132.61904761904762,-148.8095238095238,53.73015873015873,-149.6031746031746,9.603174603174603,-148.015873015873,-138.17460317460316,-147.38095238095238,-96.26984126984127,325.0,-131.03174603174602,6.428571428571428,257.06349206349205,-222.61904761904762,-4.682539682539682,-0.3968253968253968,-166.26984126984127
170,-149.12698412698413,-56.42857142857142,-146.9047619047619,4.365079365079365,-145.15873015873015,-125.15873015873015,-151.984126984127,-125.79365079365078,-153.25396825396825,51.19047619047619,-153.09523809523807,10.396825396825395,-150.3968253968254,-130.55555555555554,-151.03174603174602,-91.03174603174602,325.0,-124.52380952380952,7.063492063492063,243.7301587301587,-210.07936507936506,8.492063492063492,-1.349206349206349,-321.8253968253968
171,-149.12698412698413,-56.42857142857142,-146.9047619047619,4.365079365079365,-145.15873015873015,-125.15873015873015,-151.984126984127,-125.79365079365078,-153.25396825396825,51.19047619047619,-153.09523809523807,10.396825396825395,-150.3968253968254,-130.55555555555554,-151.03174603174602,-91.03174603174602,325.0,-124.52380952380952,7.063492063492063,243.7301587301587,-210.07936507936506,8.492063492063492,-1.349206349206349,-321.8253968253968
172,-149.12698412698413,-56.42857142857142,-146.9047619047619,4.365079365079365,-145.15873015873015,-125.15873015873015,-151.984126984127,-125.79365079365078,-153.25396825396825,51.19047619047619,-153.09523809523807,10.396825396825395,-150.3968253968254,-130.55555555555554,-151.03174603174602,-91.03174603174602,325.0,-124.52380952380952,7.063492063492063,243.7301587301587,-210.07936507936506,8.492063492063492,-1.349206349206349,-321.8253968253968
173,-149.12698412698413,-56.42857142857142,-146.9047619047619,4.365079365079365,-145.15873015873015,-125.15873015873015,-151.984126984127,-125.79365079365078,-153.25396825396825,51.19047619047619,-153.09523809523807,10.396825396825395,-150.3968253968254,-130.55555555555554,-151.03174603174602,-91.03174603174602,325.0,-124.52380952380952,7.063492063492063,243.7301587301587,-210.07936507936506,8.492063492063492,-1.349206349206349,-321.8253968253968
174,-71.5079365079365,-35.317460317460316,-71.03174603174602,-7.3809523809523805,-72.14285714285714,-78.17460317460316,-74.2063492063492,-79.28571428571428,-72.93650793650794,31.349206349206348,-73.4126984126984,1.349206349206349,-73.73015873015872,325.0,-74.84126984126983,-56.58730158730158,227.06349206349205,-78.4920634920635,-3.095238095238095,150.7142857142857,-125.95238095238095,-3.4126984126984126,-0.7142857142857142,-321.8253968253968
175,-71.5079365079365,-35.317460317460316,-71.03174603174602,-7.3809523809523805,-72.14285714285714,-78.17460317460316,-74.2063492063492,-79.28571428571428,-72.93650793650794,31.349206349206348,-73.4126984126984,1.349206349206349,-73.73015873015872,325.0,-74.84126984126983,-56.58730158730158,227.06349206349205,-78.4920634920635,-3.095238095238095,150.7142857142857,-125.95238095238095,-3.4126984126984126,-0.7142857142857142,-321.8253968253968
176,-68.80952380952381,-33.095238095238095,-67.22222222222221,-4.365079365079365,-68.96825396825396,-72.77777777777777,-71.66666666666666,-74.04761904761904,-70.87301587301587,15.317460317460316,-70.87301587301587,4.2063492063492065,-70.39682539682539,325.0,-71.82539682539682,-52.77777777777777,210.2380952380952,-73.25396825396825,-0.873015873015873,139.9206349206349,-116.58730158730158,0.5555555555555556,-0.873015873015873,-321.8253968253968
177,-68.80952380952381,-33.095238095238095,-67.22222222222221,-4.365079365079365,-68.96825396825396,-72.77777777777777,-71.66666666666666,-74.04761904761904,-70.87301587301587,15.317460317460316,-70.87301587301587,4.2063492063492065,-70.39682539682539,325.0,-71.82539682539682,-52.77777777777777,210.2380952380952,-73.25396825396825,-0.873015873015873,139.9206349206349,-116.58730158730158,0.5555555555555556,-0.873015873015873,-321.8253968253968
178,0.7142857142857142,-21.825396825396822,1.1904761904761905,-2.3015873015873014,-2.619047619047619,-47.22222222222222,0.07936507936507936,-48.33333333333333,1.349206349206349,-108.01587301587301,0.23809523809523808,3.888888888888889,-2.46031746031746,-0.07936507936507936,-1.0317460317460316,-28.015873015873016,132.3015873015873,-47.857142857142854,0.3968253968253968,89.44444444444444,-73.09523809523809,-3.253968253968254,1.0317460317460316,-321.8253968253968
179,0.7142857142857142,-21.825396825396822,1.1904761904761905,-2.3015873015873014,-2.619047619047619,-47.22222222222222,0.07936507936507936,-48.33333333333333,1.349206349206349,-108.01587301587301,0.23809523809523808,3.888888888888889,-2.46031746031746,-0.07936507936507936,-1.0317460317460316,-28.015873015873016,132.3015873015873,-47.857142857142854,0.3968253968253968,89.44444444444444,-73.09523809523809,-3.253968253968254,1.0317460317460316,-321.8253968253968
180,62.77777777777777,-13.253968253968253,62.14285714285714,-5.634920634920634,56.904761904761905,-28.015873015873016,63.25396825396825,-29.126984126984127,64.04761904761905,-239.12698412698413,62.77777777777777,-2.3015873015873014,59.76190476190476,-325.0,61.666666666666664,-7.857142857142857,74.36507936507937,-28.96825396825397,-4.365079365079365,51.98412698412698,-40.87301587301587,-0.873015873015873,2.142857142857143,-166.26984126984127
181,62.77777777777777,-13.253968253968253,62.14285714285714,-5.634920634920634,56.904761904761905,-28.015873015873016,63.25396825396825,-29.126984126984127,64.04761904761905,-239.12698412698413,62.77777777777777,-2.3015873015873014,59.76190476190476,-325.0,61.666666666666664,-7.857142857142857,74.36507936507937,-28.96825396825397,-4.365079365079365,51.98412698412698,-40.87301587301587,-0.873015873015873,2.142857142857143,-166.26984126984127
182,62.77777777777777,-13.253968253968253,62.14285714285714,-5.634920634920634,56.904761904761905,-28.015873015873016,63.25396825396825,-29.126984126984127,64.04761904761905,-239.12698412698413,62.77777777777777,-2.3015873015873014,59.76190476190476,-325.0,61.666666666666664,-7.857142857142857,74.36507936507937,-28.96825396825397,-4.365079365079365,51.98412698412698,-40.87301587301587,-0.873015873015873,2.142857142857143,-166.26984126984127
183,62.77777777777777,-13.253968253968253,62.14285714285714,-5.634920634920634,56.904761904761905,-28.015873015873016,63.25396825396825,-29.126984126984127,64.04761904761905,-239.12698412698413,62.77777777777777,-2.3015873015873014,59.76190476190476,-325.0,61.666666666666664,-7.857142857142857,74.36507936507937,-28.96825396825397,-4.365079365079365,51.98412698412698,-40.87301587301587,-0.873015873015873,2.142857142857143,-166.26984126984127
184,41.34920634920635,-9.444444444444445,41.507936507936506,-3.73015873015873,37.53968253968254,-24.523809523809522,41.666666666666664,-25.634920634920633,43.73015873015873,-71.98412698412697,43.25396825396825,-0.5555555555555556,41.666666666666664,-325.0,41.34920634920635,-11.984126984126984,63.57142857142857,-25.317460317460316,-0.873015873015873,44.68253968253968,141.984126984127,-1.1904761904761905,0.07936507936507936,-166.26984126984127
185,41.34920634920635,-9.444444444444445,41.507936507936506,-3.73015873015873,37.53968253968254,-24.523809523809522,41.666666666666664,-25.634920634920633,43.73015873015873,-71.98412698412697,43.25396825396825,-0.5555555555555556,41.666666666666664,-325.0,41.34920634920635,-11.984126984126984,63.57142857142857,-25.317460317460316,-0.873015873015873,44.68253968253968,141.984126984127,-1.1904761904761905,0.07936507936507936,-166.26984126984127
186,94.36507936507935,59.6031746031746,93.25396825396825,-8.174603174603174,89.28571428571428,-20.238095238095237,95.15873015873015,-21.349206349206348,95.95238095238095,-313.0952380952381,95.0,-6.111111111111111,94.2063492063492,-325.0,93.4126984126984,-15.317460317460316,51.19047619047619,-21.03174603174603,-3.253968253968254,36.42857142857142,23.41269841269841,-4.682539682539682,0.5555555555555556,-166.26984126984127
187,94.36507936507935,59.6031746031746,93.25396825396825,-8.174603174603174,89.28571428571428,-20.238095238095237,95.15873015873015,-21.349206349206348,95.95238095238095,-313.0952380952381,95.0,-6.111111111111111,94.2063492063492,-325.0,93.4126984126984,-15.317460317460316,51.19047619047619,-21.03174603174603,-3.253968253968254,36.42857142857142,23.41269841269841,-4.682539682539682,0.5555555555555556,-166.26984126984127
188,83.4126984126984,44.36507936507936,82.93650793650794,-8.015873015873016,78.65079365079364,-20.07936507936508,83.4126984126984,-20.873015873015873,83.73015873015872,-325.0,82.93650793650794,-5.317460317460317,80.23809523809523,-325.0,80.07936507936508,-15.0,50.55555555555555,-20.873015873015873,-2.142857142857143,35.95238095238095,102.46031746031746,-9.920634920634921,0.7142857142857142,-166.26984126984127
189,83.4126984126984,44.36507936507936,82.93650793650794,-8.015873015873016,78.65079365079364,-20.07936507936508,83.4126984126984,-20.873015873015873,83.73015873015872,-325.0,82.93650793650794,-5.317460317460317,80.23809523809523,-325.0,80.07936507936508,-15.0,50.55555555555555,-20.873015873015873,-2.142857142857143,35.95238095238095,102.46031746031746,-9.920634920634921,0.7142857142857142,-166.26984126984127
190,81.5079365079365,-2.46031746031746,81.82539682539682,-1.507936507936508,78.65079365079364,-18.49206349206349,79.92063492063491,-19.444444444444443,81.03174603174602,-325.0,81.19047619047619,0.7142857142857142,81.03174603174602,-325.0,77.06349206349206,-13.888888888888888,46.269841269841265,-19.444444444444443,4.523809523809524,21.984126984126984,319.4444444444444,5.952380952380952,-2.3015873015873014,-321.8253968253968
191,81.5079365079365,-2.46031746031746,81.82539682539682,-1.507936507936508,78.65079365079364,-18.49206349206349,79.92063492063491,-19.444444444444443,81.03174603174602,-325.0,81.19047619047619,0.7142857142857142,81.03174603174602,-325.0,77.06349206349206,-13.888888888888888,46.269841269841265,-19.444444444444443,4.523809523809524,21.984126984126984,319.4444444444444,5.952380952380952,-2.3015873015873014,-321.8253968253968
192,81.5079365079365,-2.46031746031746,81.82539682539682,-1.507936507936508,78.65079365079364,-18.49206349206349,79.92063492063491,-19.444444444444443,81.03174603174602,-325.0,81.19047619047619,0.7142857142857142,81.03174603174602,-325.0,77.06349206349206,-13.888888888888888,46.269841269841265,-19.444444444444443,4.523809523809524,21.984126984126984,319.4444444444444,5.952380952380952,-2.3015873015873014,-321.8253968253968
193,81.5079365079365,-2.46031746031746,81.82539682539682,-1.507936507936508,78.65079365079364,-18.49206349206349,79.92063492063491,-19.444444444444443,81.03174603174602,-325.0,81.19047619047619,0.7142857142857142,81.03174603174602,-325.0,77.06349206349206,-13.888888888888888,46.269841269841265,-19.444444444444443,4.523809523809524,21.984126984126984,319.4444444444444,5.952380952380952,-2.3015873015873014,-321.8253968253968
194,81.5079365079365,-2.46031746031746,81.82539682539682,-1.507936507936508,78.65079365079364,-18.49206349206349,79.92063492063491,-19.444444444444443,81.03174603174602,-325.0,81.19047619047619,0.7142857142857142,81.03174603174602,-325.0,77.06349206349206,-13.888888888888888,46.269841269841265,-19.444444444444443,4.523809523809524,21.984126984126984,319.4444444444444,5.952380952380952,-2.3015873015873014,-321.8253968253968
195,81.5079365079365,-2.46031746031746,81.82539682539682,-1.507936507936508,78.65079365079364,-18.49206349206349,79.92063492063491,-19.444444444444443,81.03174603174602,-325.0,81.19047619047619,0.7142857142857142,81.03174603174602,-325.0,77.06349206349206,-13.888888888888888,46.269841269841265,-19.444444444444443,4.523809523809524,21.984126984126984,319.4444444444444,5.952380952380952,-2.3015873015873014,-321.8253968253968
196,53.57142857142857,85.15873015873015,52.61904761904761,0.873015873015873,50.87301587301587,-6.26984126984127,51.19047619047619,13.571428571428571,117.06349206349206,-0.07936507936507936,117.22222222222221,1.984126984126984,51.03174603174603,-272.1428571428571,48.33333333333333,-14.682539682539682,22.936507936507937,-12.3015873015873,3.571428571428571,-151.5079365079365,271.5079365079365,2.142857142857143,-0.7142857142857142,-321.8253968253968
197,53.57142857142857,85.15873015873015,52.61904761904761,0.873015873015873,50.87301587301587,-6.26984126984127,51.19047619047619,13.571428571428571,117.06349206349206,-0.07936507936507936,117.22222222222221,1.984126984126984,51.03174603174603,-272.1428571428571,48.33333333333333,-14.682539682539682,22.936507936507937,-12.3015873015873,3.571428571428571,-151.5079365079365,271.5079365079365,2.142857142857143,-0.7142857142857142,-321.8253968253968
198,-7.3809523809523805,117.85714285714285,-7.063492063492063,5.7936507936507935,-6.428571428571428,-3.095238095238095,-8.65079365079365,5.476190476190476,151.19047619047618,325.0,151.5079365079365,5.7936507936507935,-7.3809523809523805,99.6031746031746,-10.396825396825395,134.2063492063492,-325.0,-5.158730158730158,5.317460317460317,-325.0,295.7936507936508,4.523809523809524,-1.349206349206349,-321.8253968253968
199,-7.3809523809523805,117.85714285714285,-7.063492063492063,5.7936507936507935,-6.428571428571428,-3.095238095238095,-8.65079365079365,5.476190476190476,151.19047619047618,325.0,151.5079365079365,5.7936507936507935,-7.3809523809523805,99.6031746031746,-10.396825396825395,134.2063492063492,-325.0,-5.158730158730158,5.317460317460317,-325.0,295.7936507936508,4.523809523809524,-1.349206349206349,-321.8253968253968
200,-82.3015873015873,150.55555555555554,-81.5079365079365,10.714285714285714,-80.87301587301587,11.825396825396824,-83.88888888888889,42.61904761904761,148.65079365079364,325.0,148.96825396825395,9.920634920634921,-85.63492063492063,325.0,-83.25396825396825,67.06349206349206,-161.984126984127,-4.365079365079365,9.126984126984127,-325.0,233.7301587301587,-5.0,-0.07936507936507936,-166.26984126984127
201,-82.3015873015873,150.55555555555554,-81.5079365079365,10.714285714285714,-80.87301587301587,11.825396825396824,-83.88888888888889,42.61904761904761,148.65079365079364,325.0,148.96825396825395,9.920634920634921,-85.63492063492063,325.0,-83.25396825396825,67.06349206349206,-161.984126984127,-4.365079365079365,9.126984126984127,-325.0,233.7301587301587,-5.0,-0.07936507936507936,-166.26984126984127
202,-29.920634920634917,138.17460317460316,-32.3015873015873,2.619047619047619,-31.666666666666664,4.0476190476190474,-33.73015873015873,30.238095238095237,146.9047619047619,325.0,147.06349206349205,3.253968253968254,-30.07936507936508,325.0,-36.42857142857142,71.34920634920634,-325.0,-4.841269841269841,2.142857142857143,-325.0,266.4285714285714,7.5396825396825395,-1.1904761904761905,-166.26984126984127
203,-29.920634920634917,138.17460317460316,-32.3015873015873,2.619047619047619,-31.666666666666664,4.0476190476190474,-33.73015873015873,30.238095238095237,146.9047619047619,325.0,147.06349206349205,3.253968253968254,-30.07936507936508,325.0,-36.42857142857142,71.34920634920634,-325.0,-4.841269841269841,2.142857142857143,-325.0,266.4285714285714,7.5396825396825395,-1.1904761904761905,-166.26984126984127
204,-94.52380952380952,120.71428571428571,-91.19047619047619,16.11111111111111,-91.19047619047619,0.07936507936507936,-93.4126984126984,20.07936507936508,144.2063492063492,325.0,144.68253968253967,15.158730158730158,-95.47619047619047,325.0,-89.92063492063491,-0.873015873015873,-325.0,-5.158730158730158,14.682539682539682,-325.0,267.53968253968253,-8.333333333333332,0.873015873015873,-166.26984126984127
205,-94.52380952380952,120.71428571428571,-91.19047619047619,16.11111111111111,-91.19047619047619,0.07936507936507936,-93.4126984126984,20.07936507936508,144.2063492063492,325.0,144.68253968253967,15.158730158730158,-95.47619047619047,325.0,-89.92063492063491,-0.873015873015873,-325.0,-5.158730158730158,14.682539682539682,-325.0,267.53968253968253,-8.333333333333332,0.873015873015873,-166.26984126984127
206,-94.52380952380952,120.71428571428571,-91.19047619047619,16.11111111111111,-91.19047619047619,0.07936507936507936,-93.4126984126984,20.07936507936508,144.2063492063492,325.0,144.68253968253967,15.158730158730158,-95.47619047619047,325.0,-89.92063492063491,-0.873015873015873,-325.0,-5.158730158730158,14.682539682539682,-325.0,267.53968253968253,-8.333333333333332,0.873015873015873,-166.26984126984127
207,-94.52380952380952,120.71428571428571,-91.19047619047619,16.11111111111111,-91.19047619047619,0.07936507936507936,-93.4126984126984,20.07936507936508,144.2063492063492,325.0,144.68253968253967,15.158730158730158,-95.47619047619047,325.0,-89.92063492063491,-0.873015873015873,-325.0,-5.158730158730158,14.682539682539682,-325.0,267.53968253968253,-8.333333333333332,0.873015873015873,-166.26984126984127
208,57.38095238095238,150.3968253968254,55.79365079365079,4.0476190476190474,58.17460317460317,100.71428571428571,61.03174603174603,118.49206349206348,82.61904761904762,-325.0,82.93650793650794,3.4126984126984126,61.34920634920635,-325.0,63.25396825396825,-325.0,-149.44444444444443,78.65079365079364,2.619047619047619,-196.42857142857142,119.92063492063491,-6.428571428571428,2.142857142857143,-166.26984126984127
209,57.38095238095238,150.3968253968254,55.79365079365079,4.0476190476190474,58.17460317460317,100.71428571428571,61.03174603174603,118.49206349206348,82.61904761904762,-325.0,82.93650793650794,3.4126984126984126,61.34920634920635,-325.0,63.25396825396825,-325.0,-149.44444444444443,78.65079365079364,2.619047619047619,-196.42857142857142,119.92063492063491,-6.428571428571428,2.142857142857143,-166.26984126984127
210,57.38095238095238,150.3968253968254,55.79365079365079,4.0476190476190474,58.17460317460317,100.71428571428571,61.03174603174603,118.49206349206348,82.61904761904762,-325.0,82.93650793650794,3.4126984126984126,61.34920634920635,-325.0,63.25396825396825,-325.0,-149.44444444444443,78.65079365079364,2.619047619047619,-196.42857142857142,119.92063492063491,-6.428571428571428,2.142857142857143,-321.8253968253968
211,57.38095238095238,150.3968253968254,55.79365079365079,4.0476190476190474,58.17460317460317,100.71428571428571,61.03174603174603,118.49206349206348,82.61904761904762,-325.0,82.93650793650794,3.4126984126984126,61.34920634920635,-325.0,63.25396825396825,-325.0,-149.44444444444443,78.65079365079364,2.619047619047619,-196.42857142857142,119.92063492063491,-6.428571428571428,2.142857142857143,-321.8253968253968
212,57.38095238095238,150.3968253968254,55.79365079365079,4.0476190476190474,58.17460317460317,100.71428571428571,61.03174603174603,118.49206349206348,82.61904761904762,-325.0,82.93650793650794,3.4126984126984126,61.34920634920635,-325.0,63.25396825396825,-325.0,-149.44444444444443,78.65079365079364,2.619047619047619,-196.42857142857142,119.92063492063491,-6.428571428571428,2.142857142857143,-321.8253968253968
213,57.38095238095238,150.3968253968254,55.79365079365079,4.0476190476190474,58.17460317460317,100.71428571428571,61.03174603174603,118.49206349206348,82.61904761904762,-325.0,82.93650793650794,3.4126984126984126,61.34920634920635,-325.0,63.25396825396825,-325.0,-149.44444444444443,78.65079365079364,2.619047619047619,-196.42857142857142,119.92063492063491,-6.428571428571428,2.142857142857143,-321.8253968253968
214,57.38095238095238,150.3968253968254,55.79365079365079,4.0476190476190474,58.17460317460317,100.71428571428571,61.03174603174603,118.49206349206348,82.61904761904762,-325.0,82.93650793650794,3.4126984126984126,61.34920634920635,-325.0,63.25396825396825,-325.0,-149.44444444444443,78.65079365079364,2.619047619047619,-196.42857142857142,119.92063492063491,-6.428571428571428,2.142857142857143,-321.8253968253968
215,57.38095238095238,150.3968253968254,55.79365079365079,4.0476190476190474,58.17460317460317,100.71428571428571,61.03174603174603,118.49206349206348,82.61904761904762,-325.0,82.93650793650794,3.4126984126984126,61.34920634920635,-325.0,63.25396825396825,-325.0,-149.44444444444443,78.65079365079364,2.619047619047619,-196.42857142857142,119.92063492063491,-6.428571428571428,2.142857142857143,-321.8253968253968
216,32.93650793650794,146.42857142857142,30.71428571428571,-4.682539682539682,32.61904761904762,104.04761904761904,33.73015873015873,118.01587301587301,73.25396825396825,-299.2857142857143,73.73015873015872,-5.476190476190476,35.79365079365079,-0.07936507936507936,34.52380952380952,-305.1587301587301,-104.2063492063492,71.5079365079365,-6.111111111111111,-179.60317460317458,100.71428571428571,-0.7142857142857142,0.7142857142857142,-321.8253968253968
217,32.93650793650794,146.42857142857142,30.71428571428571,-4.682539682539682,32.61904761904762,104.04761904761904,33.73015873015873,118.01587301587301,73.25396825396825,-299.2857142857143,73.73015873015872,-5.476190476190476,35.79365079365079,-0.07936507936507936,34.52380952380952,-305.1587301587301,-104.2063492063492,71.5079365079365,-6.111111111111111,-179.60317460317458,100.71428571428571,-0.7142857142857142,0.7142857142857142,-321.8253968253968
218,8.492063492063492,142.61904761904762,5.7936507936507935,-13.253968253968253,7.222222222222221,107.38095238095238,6.587301587301587,117.53968253968253,64.04761904761905,-273.57142857142856,64.68253968253968,-14.206349206349206,10.396825396825395,325.0,5.7936507936507935,-285.1587301587301,-58.96825396825397,64.36507936507937,-14.682539682539682,-162.61904761904762,81.5079365079365,5.0,-0.5555555555555556,-321.8253968253968
219,8.492063492063492,142.61904761904762,5.7936507936507935,-13.253968253968253,7.222222222222221,107.38095238095238,6.587301587301587,117.53968253968253,64.04761904761905,-273.57142857142856,64.68253968253968,-14.206349206349206,10.396825396825395,325.0,5.7936507936507935,-285.1587301587301,-58.96825396825397,64.36507936507937,-14.682539682539682,-162.61904761904762,81.5079365079365,5.0,-0.5555555555555556,-321.8253968253968
220,8.492063492063492,142.61904761904762,5.7936507936507935,-13.253968253968253,7.222222222222221,107.38095238095238,6.587301587301587,117.53968253968253,64.04761904761905,-273.57142857142856,64.68253968253968,-14.206349206349206,10.396825396825395,325.0,5.7936507936507935,-285.1587301587301,-58.96825396825397,64.36507936507937,-14.682539682539682,-162.61904761904762,81.5079365079365,5.0,-0.5555555555555556,-166.26984126984127
221,8.492063492063492,142.61904761904762,5.7936507936507935,-13.253968253968253,7.222222222222221,107.38095238095238,6.587301587301587,117.53968253968253,64.04761904761905,-273.57142857142856,64.68253968253968,-14.206349206349206,10.396825396825395,325.0,5.7936507936507935,-285.1587301587301,-58.96825396825397,64.36507936507937,-14.682539682539682,-162.61904761904762,81.5079365079365,5.0,-0.5555555555555556,-166.26984126984127
222,12.142857142857142,106.1111111111111,10.714285714285714,-8.968253968253968,11.19047619047619,73.4126984126984,11.666666666666666,78.4920634920635,62.460317460317455,-299.2857142857143,62.93650793650793,-8.968253968253968,11.666666666666666,325.0,10.079365079365079,-278.17460317460313,-191.98412698412696,62.14285714285714,-9.603174603174603,-166.11111111111111,117.22222222222221,-0.23809523809523808,-0.5555555555555556,-166.26984126984127
223,12.142857142857142,106.1111111111111,10.714285714285714,-8.968253968253968,11.19047619047619,73.4126984126984,11.666666666666666,78.4920634920635,62.460317460317455,-299.2857142857143,62.93650793650793,-8.968253968253968,11.666666666666666,325.0,10.079365079365079,-278.17460317460313,-191.98412698412696,62.14285714285714,-9.603174603174603,-166.11111111111111,117.22222222222221,-0.23809523809523808,-0.5555555555555556,-166.26984126984127
224,42.61904761904761,124.36507936507935,41.03174603174603,-7.3809523809523805,41.34920634920635,94.36507936507935,44.84126984126984,95.47619047619047,60.55555555555555,-325.0,60.873015873015866,-8.492063492063492,42.61904761904761,325.0,44.84126984126984,-268.6507936507936,-11.825396825396824,70.39682539682539,-8.809523809523808,-139.12698412698413,53.095238095238095,-5.634920634920634,2.46031746031746,-166.26984126984127
225,42.61904761904761,124.36507936507935,41.03174603174603,-7.3809523809523805,41.34920634920635,94.36507936507935,44.84126984126984,95.47619047619047,60.55555555555555,-325.0,60.873015873015866,-8.492063492063492,42.61904761904761,325.0,44.84126984126984,-268.6507936507936,-11.825396825396824,70.39682539682539,-8.809523809523808,-139.12698412698413,53.095238095238095,-5.634920634920634,2.46031746031746,-166.26984126984127
226,42.61904761904761,124.36507936507935,41.03174603174603,-7.3809523809523805,41.34920634920635,94.36507936507935,44.84126984126984,95.47619047619047,60.55555555555555,-325.0,60.873015873015866,-8.492063492063492,42.61904761904761,325.0,44.84126984126984,-268.6507936507936,-11.825396825396824,70.39682539682539,-8.809523809523808,-139.12698412698413,53.095238095238095,-5.634920634920634,2.46031746031746,-166.26984126984127
227,42.61904761904761,124.36507936507935,41.03174603174603,-7.3809523809523805,41.34920634920635,94.36507936507935,44.84126984126984,95.47619047619047,60.55555555555555,-325.0,60.873015873015866,-8.492063492063492,42.61904761904761,325.0,44.84126984126984,-268.6507936507936,-11.825396825396824,70.39682539682539,-8.809523809523808,-139.12698412698413,53.095238095238095,-5.634920634920634,2.46031746031746,-166.26984126984127
228,37.38095238095238,121.19047619047619,35.79365079365079,0.07936507936507936,36.11111111111111,95.79365079365078,37.06349206349206,101.66666666666666,58.01587301587301,-325.0,58.49206349206349,-0.3968253968253968,38.80952380952381,78.65079365079364,36.904761904761905,-258.6507936507936,-13.412698412698411,65.79365079365078,-1.6666666666666665,-131.984126984127,43.095238095238095,-0.3968253968253968,0.5555555555555556,-166.26984126984127
229,37.38095238095238,121.19047619047619,35.79365079365079,0.07936507936507936,36.11111111111111,95.79365079365078,37.06349206349206,101.66666666666666,58.01587301587301,-325.0,58.49206349206349,-0.3968253968253968,38.80952380952381,78.65079365079364,36.904761904761905,-258.6507936507936,-13.412698412698411,65.79365079365078,-1.6666666666666665,-131.984126984127,43.095238095238095,-0.3968253968253968,0.5555555555555556,-166.26984126984127
230,15.634920634920634,73.25396825396825,16.428571428571427,-1.1904761904761905,16.587301587301585,46.42857142857142,15.476190476190474,58.01587301587301,57.22222222222222,-325.0,57.857142857142854,-0.5555555555555556,17.38095238095238,88.80952380952381,14.365079365079364,-255.3174603174603,-313.4126984126984,67.22222222222221,-1.349206349206349,-158.65079365079364,128.8095238095238,7.3809523809523805,-2.7777777777777777,-321.8253968253968
231,15.634920634920634,73.25396825396825,16.428571428571427,-1.1904761904761905,16.587301587301585,46.42857142857142,15.476190476190474,58.01587301587301,57.22222222222222,-325.0,57.857142857142854,-0.5555555555555556,17.38095238095238,88.80952380952381,14.365079365079364,-255.3174603174603,-313.4126984126984,67.22222222222221,-1.349206349206349,-158.65079365079364,128.8095238095238,7.3809523809523805,-2.7777777777777777,-321.8253968253968
232,25.0,75.95238095238095,24.523809523809522,-0.873015873015873,24.365079365079364,72.93650793650794,25.317460317460316,71.34920634920634,54.52380952380952,-325.0,55.0,-0.3968253968253968,23.095238095238095,38.49206349206349,24.523809523809522,-243.4126984126984,-138.65079365079364,59.12698412698413,-0.7142857142857142,-132.3015873015873,80.87301587301587,-5.7936507936507935,0.7142857142857142,-321.8253968253968
233,25.0,75.95238095238095,24.523809523809522,-0.873015873015873,24.365079365079364,72.93650793650794,25.317460317460316,71.34920634920634,54.52380952380952,-325.0,55.0,-0.3968253968253968,23.095238095238095,38.49206349206349,24.523809523809522,-243.4126984126984,-138.65079365079364,59.12698412698413,-0.7142857142857142,-132.3015873015873,80.87301587301587,-5.7936507936507935,0.7142857142857142,-321.8253968253968
234,40.714285714285715,103.73015873015872,38.65079365079365,-3.253968253968254,38.49206349206349,104.04761904761904,40.55555555555555,100.55555555555554,54.2063492063492,-325.0,54.841269841269835,-2.9365079365079363,38.96825396825397,78.65079365079364,39.44444444444444,-242.3015873015873,47.698412698412696,63.41269841269841,-3.4126984126984126,-109.28571428571428,17.539682539682538,-5.7936507936507935,1.984126984126984,-321.8253968253968
235,40.714285714285715,103.73015873015872,38.65079365079365,-3.253968253968254,38.49206349206349,104.04761904761904,40.55555555555555,100.55555555555554,54.2063492063492,-325.0,54.841269841269835,-2.9365079365079363,38.96825396825397,78.65079365079364,39.44444444444444,-242.3015873015873,47.698412698412696,63.41269841269841,-3.4126984126984126,-109.28571428571428,17.539682539682538,-5.7936507936507935,1.984126984126984,-321.8253968253968
236,45.317460317460316,104.68253968253968,42.93650793650794,-24.523809523809522,42.93650793650794,103.73015873015872,45.476190476190474,99.12698412698413,53.25396825396825,-325.0,53.888888888888886,-5.317460317460317,43.41269841269841,135.3174603174603,44.047619047619044,-238.33333333333331,53.41269841269841,67.38095238095238,-5.7936507936507935,-110.23809523809523,16.26984126984127,-5.634920634920634,1.0317460317460316,-321.8253968253968
237,45.317460317460316,104.68253968253968,42.93650793650794,-24.523809523809522,42.93650793650794,103.73015873015872,45.476190476190474,99.12698412698413,53.25396825396825,-325.0,53.888888888888886,-5.317460317460317,43.41269841269841,135.3174603174603,44.047619047619044,-238.33333333333331,53.41269841269841,67.38095238095238,-5.7936507936507935,-110.23809523809523,16.26984126984127,-5.634920634920634,1.0317460317460316,-321.8253968253968
238,50.079365079365076,105.79365079365078,47.38095238095238,-45.79365079365079,47.53968253968254,103.57142857142857,50.55555555555555,97.6984126984127,52.460317460317455,-325.0,52.93650793650794,-7.5396825396825395,47.857142857142854,192.14285714285714,48.650793650793645,-234.2063492063492,59.285714285714285,71.34920634920634,-8.015873015873016,-111.19047619047619,15.158730158730158,-5.317460317460317,0.23809523809523808,-321.8253968253968
239,50.079365079365076,105.79365079365078,47.38095238095238,-45.79365079365079,47.53968253968254,103.57142857142857,50.55555555555555,97.6984126984127,52.460317460317455,-325.0,52.93650793650794,-7.5396825396825395,47.857142857142854,192.14285714285714,48.650793650793645,-234.2063492063492,59.285714285714285,71.34920634920634,-8.015873015873016,-111.19047619047619,15.158730158730158,-5.317460317460317,0.23809523809523808,-321.8253968253968
240,73.4126984126984,99.92063492063491,70.23809523809524,-87.53968253968253,70.23809523809524,101.82539682539682,74.04761904761904,102.61904761904762,51.507936507936506,-325.0,51.98412698412698,-7.857142857142857,71.03174603174602,8.333333333333332,71.82539682539682,-230.07936507936506,55.317460317460316,72.14285714285714,-8.015873015873016,-106.42857142857142,12.936507936507935,-5.634920634920634,1.0317460317460316,-166.26984126984127
241,73.4126984126984,99.92063492063491,70.23809523809524,-87.53968253968253,70.23809523809524,101.82539682539682,74.04761904761904,102.61904761904762,51.507936507936506,-325.0,51.98412698412698,-7.857142857142857,71.03174603174602,8.333333333333332,71.82539682539682,-230.07936507936506,55.317460317460316,72.14285714285714,-8.015873015873016,-106.42857142857142,12.936507936507935,-5.634920634920634,1.0317460317460316,-166.26984126984127
242,68.65079365079364,96.9047619047619,68.01587301587301,-120.87301587301586,68.33333333333333,96.9047619047619,66.58730158730158,111.5079365079365,50.39682539682539,-325.0,50.55555555555555,-3.095238095238095,73.09523809523809,-160.7142857142857,65.95238095238095,-224.36507936507934,-38.01587301587301,66.9047619047619,-4.365079365079365,-118.8095238095238,40.714285714285715,3.571428571428571,-0.07936507936507936,-166.26984126984127
243,68.65079365079364,96.9047619047619,68.01587301587301,-120.87301587301586,68.33333333333333,96.9047619047619,66.58730158730158,111.5079365079365,50.39682539682539,-325.0,50.55555555555555,-3.095238095238095,73.09523809523809,-160.7142857142857,65.95238095238095,-224.36507936507934,-38.01587301587301,66.9047619047619,-4.365079365079365,-118.8095238095238,40.714285714285715,3.571428571428571,-0.07936507936507936,-166.26984126984127
244,69.44444444444444,96.9047619047619,67.38095238095238,-166.58730158730157,68.01587301587301,99.92063492063491,68.80952380952381,110.71428571428571,49.6031746031746,-325.0,49.92063492063492,-5.7936507936507935,70.55555555555556,-67.06349206349206,67.53968253968253,-221.5079365079365,4.841269841269841,72.46031746031746,-6.587301587301587,-112.93650793650794,34.047619047619044,-0.5555555555555556,1.1904761904761905,-166.26984126984127
245,69.44444444444444,96.9047619047619,67.38095238095238,-166.58730158730157,68.01587301587301,99.92063492063491,68.80952380952381,110.71428571428571,49.6031746031746,-325.0,49.92063492063492,-5.7936507936507935,70.55555555555556,-67.06349206349206,67.53968253968253,-221.5079365079365,4.841269841269841,72.46031746031746,-6.587301587301587,-112.93650793650794,34.047619047619044,-0.5555555555555556,1.1904761904761905,-166.26984126984127
246,70.39682539682539,97.06349206349206,66.74603174603175,-212.14285714285714,67.6984126984127,103.09523809523809,71.19047619047619,109.92063492063491,48.96825396825397,-325.0,49.285714285714285,-8.333333333333332,68.01587301587301,26.746031746031743,69.28571428571428,-218.65079365079364,47.857142857142854,78.17460317460316,-8.65079365079365,-106.9047619047619,27.539682539682538,-4.523809523809524,2.46031746031746,-166.26984126984127
247,70.39682539682539,97.06349206349206,66.74603174603175,-212.14285714285714,67.6984126984127,103.09523809523809,71.19047619047619,109.92063492063491,48.96825396825397,-325.0,49.285714285714285,-8.333333333333332,68.01587301587301,26.746031746031743,69.28571428571428,-218.65079365079364,47.857142857142854,78.17460317460316,-8.65079365079365,-106.9047619047619,27.539682539682538,-4.523809523809524,2.46031746031746,-166.26984126984127
248,70.39682539682539,97.06349206349206,66.74603174603175,-212.14285714285714,67.6984126984127,103.09523809523809,71.19047619047619,109.92063492063491,48.96825396825397,-325.0,49.285714285714285,-8.333333333333332,68.01587301587301,26.746031746031743,69.28571428571428,-218.65079365079364,47.857142857142854,78.17460317460316,-8.65079365079365,-106.9047619047619,27.539682539682538,-4.523809523809524,2.46031746031746,-166.26984126984127
249,70.39682539682539,97.06349206349206,66.74603174603175,-212.14285714285714,67.6984126984127,103.09523809523809,71.19047619047619,109.92063492063491,48.96825396825397,-325.0,49.285714285714285,-8.333333333333332,68.01587301587301,26.746031746031743,69.28571428571428,-218.65079365079364,47.857142857142854,78.17460317460316,-8.65079365079365,-106.9047619047619,27.539682539682538,-4.523809523809524,2.46031746031746,-166.26984126984127
250,41.666666666666664,104.04761904761904,41.666666666666664,-306.4285714285714,42.460317460317455,95.31746031746032,38.49206349206349,104.04761904761904,47.06349206349206,-325.0,47.857142857142854,-0.3968253968253968,46.58730158730158,34.52380952380952,38.33333333333333,-209.44444444444443,-42.61904761904761,78.33333333333333,-1.984126984126984,-121.5079365079365,57.38095238095238,5.0,-1.349206349206349,-321.8253968253968
251,41.666666666666664,104.04761904761904,41.666666666666664,-306.4285714285714,42.460317460317455,95.31746031746032,38.49206349206349,104.04761904761904,47.06349206349206,-325.0,47.857142857142854,-0.3968253968253968,46.58730158730158,34.52380952380952,38.33333333333333,-209.44444444444443,-42.61904761904761,78.33333333333333,-1.984126984126984,-121.5079365079365,57.38095238095238,5.0,-1.349206349206349,-321.8253968253968
252,41.666666666666664,104.04761904761904,41.666666666666664,-306.4285714285714,42.460317460317455,95.31746031746032,38.49206349206349,104.04761904761904,47.06349206349206,-325.0,47.857142857142854,-0.3968253968253968,46.58730158730158,34.52380952380952,38.33333333333333,-209.44444444444443,-42.61904761904761,78.33333333333333,-1.984126984126984,-121.5079365079365,57.38095238095238,5.0,-1.349206349206349,-321.8253968253968
253,41.666666666666664,104.04761904761904,41.666666666666664,-306.4285714285714,42.460317460317455,95.31746031746032,38.49206349206349,104.04761904761904,47.06349206349206,-325.0,47.857142857142854,-0.3968253968253968,46.58730158730158,34.52380952380952,38.33333333333333,-209.44444444444443,-42.61904761904761,78.33333333333333,-1.984126984126984,-121.5079365079365,57.38095238095238,5.0,-1.349206349206349,-321.8253968253968
254,41.666666666666664,104.04761904761904,41.666666666666664,-306.4285714285714,42.460317460317455,95.31746031746032,38.49206349206349,104.04761904761904,47.06349206349206,-325.0,47.857142857142854,-0.3968253968253968,46.58730158730158,34.52380952380952,38.33333333333333,-209.44444444444443,-42.61904761904761,78.33333333333333,-1.984126984126984,-121.5079365079365,57.38095238095238,5.0,-1.349206349206349,-321.8253968253968
255,41.666666666666664,104.04761904761904,41.666666666666664,-306.4285714285714,42.460317460317455,95.31746031746032,38.49206349206349,104.04761904761904,47.06349206349206,-325.0,47.857142857142854,-0.3968253968253968,46.58730158730158,34.52380952380952,38.33333333333333,-209.44444444444443,-42.61904761904761,78.33333333333333,-1.984126984126984,-121.5079365079365,57.38095238095238,5.0,-1.349206349206349,-321.8253968253968
256,41.666666666666664,104.04761904761904,41.666666666666664,-306.4285714285714,42.460317460317455,95.31746031746032,38.49206349206349,104.04761904761904,47.06349206349206,-325.0,47.857142857142854,-0.3968253968253968,46.58730158730158,34.52380952380952,38.33333333333333,-209.44444444444443,-42.61904761904761,78.33333333333333,-1.984126984126984,-121.5079365079365,57.38095238095238,5.0,-1.349206349206349,-321.8253968253968
257,41.666666666666664,104.04761904761904,41.666666666666664,-306.4285714285714,42.460317460317455,95.31746031746032,38.49206349206349,104.04761904761904,47.06349206349206,-325.0,47.857142857142854,-0.3968253968253968,46.58730158730158,34.52380952380952,38.33333333333333,-209.44444444444443,-42.61904761904761,78.33333333333333,-1.984126984126984,-121.5079365079365,57.38095238095238,5.0,-1.349206349206349,-321.8253968253968
258,41.666666666666664,104.04761904761904,41.666666666666664,-306.4285714285714,42.460317460317455,95.31746031746032,38.49206349206349,104.04761904761904,47.06349206349206,-325.0,47.857142857142854,-0.3968253968253968,46.58730158730158,34.52380952380952,38.33333333333333,-209.44444444444443,-42.61904761904761,78.33333333333333,-1.984126984126984,-121.5079365079365,57.38095238095238,5.0,-1.349206349206349,-321.8253968253968
259,41.666666666666664,104.04761904761904,41.666666666666664,-306.4285714285714,42.460317460317455,95.31746031746032,38.49206349206349,104.04761904761904,47.06349206349206,-325.0,47.857142857142854,-0.3968253968253968,46.58730158730158,34.52380952380952,38.33333333333333,-209.44444444444443,-42.61904761904761,78.33333333333333,-1.984126984126984,-121.5079365079365,57.38095238095238,5.0,-1.349206349206349,-321.8253968253968
260,41.666666666666664,104.04761904761904,41.666666666666664,-306.4285714285714,42.460317460317455,95.31746031746032,38.49206349206349,104.04761904761904,47.06349206349206,-325.0,47.857142857142854,-0.3968253968253968,46.58730158730158,34.52380952380952,38.33333333333333,-209.44444444444443,-42.61904761904761,78.33333333333333,-1.984126984126984,-121.5079365079365,57.38095238095238,5.0,-1.349206349206349,-166.26984126984127
261,41.666666666666664,104.04761904761904,41.666666666666664,-306.4285714285714,42.460317460317455,95.31746031746032,38.49206349206349,104.04761904761904,47.06349206349206,-325.0,47.857142857142854,-0.3968253968253968,46.58730158730158,34.52380952380952,38.33333333333333,-209.44444444444443,-42.61904761904761,78.33333333333333,-1.984126984126984,-121.5079365079365,57.38095238095238,5.0,-1.349206349206349,-166.26984126984127
262,41.666666666666664,104.04761904761904,41.666666666666664,-306.4285714285714,42.460317460317455,95.31746031746032,38.49206349206349,104.04761904761904,47.06349206349206,-325.0,47.857142857142854,-0.3968253968253968,46.58730158730158,34.52380952380952,38.33333333333333,-209.44444444444443,-42.61904761904761,78.33333333333333,-1.984126984126984,-121.5079365079365,57.38095238095238,5.0,-1.349206349206349,-166.26984126984127
263,41.666666666666664,104.04761904761904,41.666666666666664,-306.4285714285714,42.460317460317455,95.31746031746032,38.49206349206349,104.04761904761904,47.06349206349206,-325.0,47.857142857142854,-0.3968253968253968,46.58730158730158,34.52380952380952,38.33333333333333,-209.44444444444443,-42.61904761904761,78.33333333333333,-1.984126984126984,-121.5079365079365,57.38095238095238,5.0,-1.349206349206349,-166.26984126984127
264,22.619047619047617,79.28571428571428,22.777777777777775,-315.7936507936508,23.095238095238095,84.84126984126983,20.71428571428571,90.87301587301587,32.3015873015873,-325.0,13.73015873015873,2.3015873015873014,23.88888888888889,179.76190476190476,20.396825396825395,-194.36507936507937,-183.88888888888889,86.42857142857143,1.507936507936508,-119.12698412698413,87.38095238095238,-1.507936507936508,-0.3968253968253968,-166.26984126984127
265,22.619047619047617,79.28571428571428,22.777777777777775,-315.7936507936508,23.095238095238095,84.84126984126983,20.71428571428571,90.87301587301587,32.3015873015873,-325.0,13.73015873015873,2.3015873015873014,23.88888888888889,179.76190476190476,20.396825396825395,-194.36507936507937,-183.88888888888889,86.42857142857143,1.507936507936508,-119.12698412698413,87.38095238095238,-1.507936507936508,-0.3968253968253968,-166.26984126984127
266,3.571428571428571,54.52380952380952,3.888888888888889,-325.0,3.888888888888889,74.36507936507937,3.095238095238095,77.6984126984127,17.539682539682538,-325.0,-20.238095238095237,5.158730158730158,1.1904761904761905,325.0,2.619047619047619,-179.12698412698413,-325.0,94.52380952380952,5.0,-116.58730158730158,117.53968253968253,-7.857142857142857,0.5555555555555556,-166.26984126984127
267,3.571428571428571,54.52380952380952,3.888888888888889,-325.0,3.888888888888889,74.36507936507937,3.095238095238095,77.6984126984127,17.539682539682538,-325.0,-20.238095238095237,5.158730158730158,1.1904761904761905,325.0,2.619047619047619,-179.12698412698413,-325.0,94.52380952380952,5.0,-116.58730158730158,117.53968253968253,-7.857142857142857,0.5555555555555556,-166.26984126984127
268,18.65079365079365,51.666666666666664,18.174603174603174,-325.0,18.96825396825397,62.460317460317455,19.126984126984127,64.84126984126983,-9.603174603174603,-325.0,-69.76190476190476,-1.507936507936508,17.857142857142858,251.19047619047618,18.333333333333332,-173.88888888888889,-305.7936507936508,85.79365079365078,-2.3015873015873014,-112.93650793650794,111.98412698412697,-0.5555555555555556,-0.5555555555555556,-166.26984126984127
269,18.65079365079365,51.666666666666664,18.174603174603174,-325.0,18.96825396825397,62.460317460317455,19.126984126984127,64.84126984126983,-9.603174603174603,-325.0,-69.76190476190476,-1.507936507936508,17.857142857142858,251.19047619047618,18.333333333333332,-173.88888888888889,-305.7936507936508,85.79365079365078,-2.3015873015873014,-112.93650793650794,111.98412698412697,-0.5555555555555556,-0.5555555555555556,-166.26984126984127
270,-5.0,58.96825396825397,-4.2063492063492065,-325.0,-3.571428571428571,73.57142857142857,-5.952380952380952,71.34920634920634,10.555555555555555,-325.0,-34.52380952380952,2.9365079365079363,-5.634920634920634,242.93650793650792,-5.7936507936507935,-173.25396825396825,-318.17460317460313,91.66666666666666,2.142857142857143,-112.77777777777777,114.68253968253967,-8.015873015873016,-0.07936507936507936,-321.8253968253968
271,-5.0,58.96825396825397,-4.2063492063492065,-325.0,-3.571428571428571,73.57142857142857,-5.952380952380952,71.34920634920634,10.555555555555555,-325.0,-34.52380952380952,2.9365079365079363,-5.634920634920634,242.93650793650792,-5.7936507936507935,-173.25396825396825,-318.17460317460313,91.66666666666666,2.142857142857143,-112.77777777777777,114.68253968253967,-8.015873015873016,-0.07936507936507936,-321.8253968253968
272,-5.0,58.96825396825397,-4.2063492063492065,-325.0,-3.571428571428571,73.57142857142857,-5.952380952380952,71.34920634920634,10.555555555555555,-325.0,-34.52380952380952,2.9365079365079363,-5.634920634920634,242.93650793650792,-5.7936507936507935,-173.25396825396825,-318.17460317460313,91.66666666666666,2.142857142857143,-112.77777777777777,114.68253968253967,-8.015873015873016,-0.07936507936507936,-321.8253968253968
273,-5.0,58.96825396825397,-4.2063492063492065,-325.0,-3.571428571428571,73.57142857142857,-5.952380952380952,71.34920634920634,10.555555555555555,-325.0,-34.52380952380952,2.9365079365079363,-5.634920634920634,242.93650793650792,-5.7936507936507935,-173.25396825396825,-318.17460317460313,91.66666666666666,2.142857142857143,-112.77777777777777,114.68253968253967,-8.015873015873016,-0.07936507936507936,-321.8253968253968
274,-5.0,58.96825396825397,-4.2063492063492065,-325.0,-3.571428571428571,73.57142857142857,-5.952380952380952,71.34920634920634,10.555555555555555,-325.0,-34.52380952380952,2.9365079365079363,-5.634920634920634,242.93650793650792,-5.7936507936507935,-173.25396825396825,-318.17460317460313,91.66666666666666,2.142857142857143,-112.77777777777777,114.68253968253967,-8.015873015873016,-0.07936507936507936,-321.8253968253968
275,-5.0,58.96825396825397,-4.2063492063492065,-325.0,-3.571428571428571,73.57142857142857,-5.952380952380952,71.34920634920634,10.555555555555555,-325.0,-34.52380952380952,2.9365079365079363,-5.634920634920634,242.93650793650792,-5.7936507936507935,-173.25396825396825,-318.17460317460313,91.66666666666666,2.142857142857143,-112.77777777777777,114.68253968253967,-8.015873015873016,-0.07936507936507936,-321.8253968253968
276,-0.07936507936507936,49.285714285714285,-0.23809523809523808,-325.0,0.23809523809523808,65.31746031746032,0.07936507936507936,68.33333333333333,-34.2063492063492,-118.96825396825396,-101.5079365079365,0.7142857142857142,-1.8253968253968254,283.88888888888886,-0.7142857142857142,-165.3174603174603,-299.1269841269841,88.96825396825396,0.23809523809523808,-108.33333333333333,108.65079365079364,-1.1904761904761905,-1.1904761904761905,-321.8253968253968
277,-0.07936507936507936,49.285714285714285,-0.23809523809523808,-325.0,0.23809523809523808,65.31746031746032,0.07936507936507936,68.33333333333333,-34.2063492063492,-118.96825396825396,-101.5079365079365,0.7142857142857142,-1.8253968253968254,283.88888888888886,-0.7142857142857142,-165.3174603174603,-299.1269841269841,88.96825396825396,0.23809523809523808,-108.33333333333333,108.65079365079364,-1.1904761904761905,-1.1904761904761905,-321.8253968253968
278,4.841269841269841,39.6031746031746,3.73015873015873,-325.0,4.2063492063492065,57.22222222222222,6.111111111111111,65.31746031746032,-78.80952380952381,87.06349206349206,-168.4920634920635,-1.349206349206349,2.142857142857143,325.0,4.365079365079365,-157.38095238095238,-279.9206349206349,86.26984126984127,-1.6666666666666665,-103.73015873015872,102.61904761904762,5.7936507936507935,-2.142857142857143,-321.8253968253968
279,4.841269841269841,39.6031746031746,3.73015873015873,-325.0,4.2063492063492065,57.22222222222222,6.111111111111111,65.31746031746032,-78.80952380952381,87.06349206349206,-168.4920634920635,-1.349206349206349,2.142857142857143,325.0,4.365079365079365,-157.38095238095238,-279.9206349206349,86.26984126984127,-1.6666666666666665,-103.73015873015872,102.61904761904762,5.7936507936507935,-2.142857142857143,-321.8253968253968
280,-24.523809523809522,69.44444444444444,-24.206349206349206,-325.0,-25.158730158730158,94.84126984126983,-25.158730158730158,98.49206349206348,-25.317460317460316,-288.968253968254,-71.66666666666666,3.73015873015873,-26.11111111111111,325.0,-26.11111111111111,-152.61904761904762,-193.09523809523807,101.19047619047619,3.4126984126984126,-94.52380952380952,75.79365079365078,5.7936507936507935,-1.6666666666666665,-166.26984126984127
281,-24.523809523809522,69.44444444444444,-24.206349206349206,-325.0,-25.158730158730158,94.84126984126983,-25.158730158730158,98.49206349206348,-25.317460317460316,-288.968253968254,-71.66666666666666,3.73015873015873,-26.11111111111111,325.0,-26.11111111111111,-152.61904761904762,-193.09523809523807,101.19047619047619,3.4126984126984126,-94.52380952380952,75.79365079365078,5.7936507936507935,-1.6666666666666665,-166.26984126984127
