Fp1[1],Fp2[2],F3[3],F4[4],C3[5],C4[6],P3[7],P4[8],O1[9],O2[10],F7[11],F8[12],T3[13],T4[14],T5[15],T6[16],Fz[17],Pz[18],Cz[19],Pg1[20],Pg2[21],EOGR[22],EOOGL[23],EMG[24]
14.84126984126984,286.90476190476187,-304.8412698412698,-305.4761904761905,-29.285714285714285,288.6507936507936,56.74603174603174,-61.03174603174603,-0.07936507936507936,307.22222222222223,-304.8412698412698,-322.6190476190476,81.19047619047619,-286.90476190476187,304.8412698412698,322.6190476190476,304.8412698412698,303.4126984126984,-123.4126984126984,78.80952380952381,304.8412698412698,305.95238095238096,18.96825396825397,-166.26984126984127
14.84126984126984,286.90476190476187,-304.8412698412698,-305.4761904761905,-29.285714285714285,288.6507936507936,56.74603174603174,-61.03174603174603,-0.07936507936507936,307.22222222222223,-304.8412698412698,-322.6190476190476,81.19047619047619,-286.90476190476187,304.8412698412698,322.6190476190476,304.8412698412698,303.4126984126984,-123.4126984126984,78.80952380952381,304.8412698412698,305.95238095238096,18.96825396825397,-166.26984126984127
14.84126984126984,286.90476190476187,-304.8412698412698,-305.4761904761905,-29.285714285714285,288.6507936507936,56.74603174603174,-61.03174603174603,-0.07936507936507936,307.22222222222223,-304.8412698412698,-322.6190476190476,81.19047619047619,-286.90476190476187,304.8412698412698,322.6190476190476,304.8412698412698,303.4126984126984,-123.4126984126984,78.80952380952381,304.8412698412698,305.95238095238096,18.96825396825397,-166.26984126984127
14.84126984126984,286.90476190476187,-304.8412698412698,-305.4761904761905,-29.285714285714285,288.6507936507936,56.74603174603174,-61.03174603174603,-0.07936507936507936,307.22222222222223,-304.8412698412698,-322.6190476190476,81.19047619047619,-286.90476190476187,304.8412698412698,322.6190476190476,304.8412698412698,303.4126984126984,-123.4126984126984,78.80952380952381,304.8412698412698,305.95238095238096,18.96825396825397,-166.26984126984127
14.84126984126984,286.90476190476187,-304.8412698412698,-305.4761904761905,-29.285714285714285,288.6507936507936,56.74603174603174,-61.03174603174603,-0.07936507936507936,307.22222222222223,-304.8412698412698,-322.6190476190476,81.19047619047619,-286.90476190476187,304.8412698412698,322.6190476190476,304.8412698412698,303.4126984126984,-123.4126984126984,78.80952380952381,304.8412698412698,305.95238095238096,18.96825396825397,-166.26984126984127
14.84126984126984,286.90476190476187,-304.8412698412698,-305.4761904761905,-29.285714285714285,288.6507936507936,56.74603174603174,-61.03174603174603,-0.07936507936507936,307.22222222222223,-304.8412698412698,-322.6190476190476,81.19047619047619,-286.90476190476187,304.8412698412698,322.6190476190476,304.8412698412698,303.4126984126984,-123.4126984126984,78.80952380952381,304.8412698412698,305.95238095238096,18.96825396825397,-166.26984126984127
14.84126984126984,286.90476190476187,-304.8412698412698,-305.4761904761905,-29.285714285714285,288.6507936507936,56.74603174603174,-61.03174603174603,-0.07936507936507936,307.22222222222223,-304.8412698412698,-322.6190476190476,81.19047619047619,-286.90476190476187,304.8412698412698,322.6190476190476,304.8412698412698,303.4126984126984,-123.4126984126984,78.80952380952381,304.8412698412698,305.95238095238096,18.96825396825397,-166.26984126984127
14.84126984126984,286.90476190476187,-304.8412698412698,-305.4761904761905,-29.285714285714285,288.6507936507936,56.74603174603174,-61.03174603174603,-0.07936507936507936,307.22222222222223,-304.8412698412698,-322.6190476190476,81.19047619047619,-286.90476190476187,304.8412698412698,322.6190476190476,304.8412698412698,303.4126984126984,-123.4126984126984,78.80952380952381,304.8412698412698,305.95238095238096,18.96825396825397,-166.26984126984127
14.84126984126984,286.90476190476187,-304.8412698412698,-305.4761904761905,-29.285714285714285,288.6507936507936,56.74603174603174,-61.03174603174603,-0.07936507936507936,307.22222222222223,-304.8412698412698,-322.6190476190476,81.19047619047619,-286.90476190476187,304.8412698412698,322.6190476190476,304.8412698412698,303.4126984126984,-123.4126984126984,78.80952380952381,304.8412698412698,305.95238095238096,18.96825396825397,-166.26984126984127
14.84126984126984,286.90476190476187,-304.8412698412698,-305.4761904761905,-29.285714285714285,288.6507936507936,56.74603174603174,-61.03174603174603,-0.07936507936507936,307.22222222222223,-304.8412698412698,-322.6190476190476,81.19047619047619,-286.90476190476187,304.8412698412698,322.6190476190476,304.8412698412698,303.4126984126984,-123.4126984126984,78.80952380952381,304.8412698412698,305.95238095238096,18.96825396825397,-166.26984126984127
14.84126984126984,286.90476190476187,-304.8412698412698,-305.4761904761905,-29.285714285714285,288.6507936507936,56.74603174603174,-61.03174603174603,-0.07936507936507936,307.22222222222223,-304.8412698412698,-322.6190476190476,81.19047619047619,-286.90476190476187,304.8412698412698,322.6190476190476,304.8412698412698,303.4126984126984,-123.4126984126984,78.80952380952381,304.8412698412698,305.95238095238096,18.96825396825397,-321.8253968253968
14.84126984126984,286.90476190476187,-304.8412698412698,-305.4761904761905,-29.285714285714285,288.6507936507936,56.74603174603174,-61.03174603174603,-0.07936507936507936,307.22222222222223,-304.8412698412698,-322.6190476190476,81.19047619047619,-286.90476190476187,304.8412698412698,322.6190476190476,304.8412698412698,303.4126984126984,-123.4126984126984,78.80952380952381,304.8412698412698,305.95238095238096,18.96825396825397,-321.8253968253968
14.84126984126984,286.90476190476187,-304.8412698412698,-305.4761904761905,-29.285714285714285,288.6507936507936,56.74603174603174,-61.03174603174603,-0.07936507936507936,307.22222222222223,-304.8412698412698,-322.6190476190476,81.19047619047619,-286.90476190476187,304.8412698412698,322.6190476190476,304.8412698412698,303.4126984126984,-123.4126984126984,78.80952380952381,304.8412698412698,305.95238095238096,18.96825396825397,-321.8253968253968
14.84126984126984,286.90476190476187,-304.8412698412698,-305.4761904761905,-29.285714285714285,288.6507936507936,56.74603174603174,-61.03174603174603,-0.07936507936507936,307.22222222222223,-304.8412698412698,-322.6190476190476,81.19047619047619,-286.90476190476187,304.8412698412698,322.6190476190476,304.8412698412698,303.4126984126984,-123.4126984126984,78.80952380952381,304.8412698412698,305.95238095238096,18.96825396825397,-321.8253968253968
-325.0,325.0,325.0,134.52380952380952,90.87301587301587,105.95238095238095,325.0,325.0,-325.0,325.0,53.25396825396825,325.0,325.0,-325.0,325.0,-321.66666666666663,38.17460317460317,14.047619047619047,325.0,-325.0,-325.0,-0.5555555555555556,-1.0317460317460316,-321.8253968253968
-325.0,325.0,325.0,134.52380952380952,90.87301587301587,105.95238095238095,325.0,325.0,-325.0,325.0,53.25396825396825,325.0,325.0,-325.0,325.0,-321.66666666666663,38.17460317460317,14.047619047619047,325.0,-325.0,-325.0,-0.5555555555555556,-1.0317460317460316,-321.8253968253968
-325.0,325.0,325.0,126.58730158730158,92.93650793650794,95.79365079365078,325.0,325.0,-325.0,325.0,64.04761904761905,325.0,325.0,-325.0,325.0,-302.3015873015873,58.8095238095238,20.555555555555554,325.0,-325.0,-325.0,-0.23809523809523808,-0.7142857142857142,-321.8253968253968
-325.0,325.0,325.0,126.58730158730158,92.93650793650794,95.79365079365078,325.0,325.0,-325.0,325.0,64.04761904761905,325.0,325.0,-325.0,325.0,-302.3015873015873,58.8095238095238,20.555555555555554,325.0,-325.0,-325.0,-0.23809523809523808,-0.7142857142857142,-321.8253968253968
-325.0,325.0,325.0,118.01587301587301,95.47619047619047,89.92063492063491,325.0,325.0,-325.0,325.0,78.01587301587301,325.0,325.0,-325.0,325.0,-281.66666666666663,79.76190476190476,29.76190476190476,325.0,-325.0,-325.0,1.6666666666666665,-1.8253968253968254,-321.8253968253968
-325.0,325.0,325.0,118.01587301587301,95.47619047619047,89.92063492063491,325.0,325.0,-325.0,325.0,78.01587301587301,325.0,325.0,-325.0,325.0,-281.66666666666663,79.76190476190476,29.76190476190476,325.0,-325.0,-325.0,1.6666666666666665,-1.8253968253968254,-321.8253968253968
-312.1428571428571,325.0,325.0,104.68253968253968,81.03174603174602,-325.0,325.0,325.0,-325.0,325.0,76.42857142857143,325.0,325.0,-325.0,325.0,-249.12698412698413,85.47619047619047,31.507936507936506,325.0,-325.0,-325.0,-1.349206349206349,-0.7142857142857142,-166.26984126984127
-312.1428571428571,325.0,325.0,104.68253968253968,81.03174603174602,-325.0,325.0,325.0,-325.0,325.0,76.42857142857143,325.0,325.0,-325.0,325.0,-249.12698412698413,85.47619047619047,31.507936507936506,325.0,-325.0,-325.0,-1.349206349206349,-0.7142857142857142,-166.26984126984127
-312.1428571428571,325.0,325.0,104.68253968253968,81.03174603174602,-325.0,325.0,325.0,-325.0,325.0,76.42857142857143,325.0,325.0,-325.0,325.0,-249.12698412698413,85.47619047619047,31.507936507936506,325.0,-325.0,-325.0,-1.349206349206349,-0.7142857142857142,-166.26984126984127
-312.1428571428571,325.0,325.0,104.68253968253968,81.03174603174602,-325.0,325.0,325.0,-325.0,325.0,76.42857142857143,325.0,325.0,-325.0,325.0,-249.12698412698413,85.47619047619047,31.507936507936506,325.0,-325.0,-325.0,-1.349206349206349,-0.7142857142857142,-166.26984126984127
-226.1111111111111,247.69841269841268,60.39682539682539,75.47619047619047,-325.0,-325.0,-325.0,241.5079365079365,-274.04761904761904,325.0,41.666666666666664,290.07936507936506,260.07936507936506,-325.0,267.22222222222223,-181.5079365079365,53.095238095238095,24.047619047619047,273.0952380952381,-253.88888888888889,-246.74603174603172,-0.07936507936507936,-0.3968253968253968,-166.26984126984127
-226.1111111111111,247.69841269841268,60.39682539682539,75.47619047619047,-325.0,-325.0,-325.0,241.5079365079365,-274.04761904761904,325.0,41.666666666666664,290.07936507936506,260.07936507936506,-325.0,267.22222222222223,-181.5079365079365,53.095238095238095,24.047619047619047,273.0952380952381,-253.88888888888889,-246.74603174603172,-0.07936507936507936,-0.3968253968253968,-166.26984126984127
-208.4920634920635,228.8095238095238,-132.3015873015873,69.6031746031746,-325.0,-325.0,-325.0,223.7301587301587,-253.4126984126984,308.4920634920635,23.88888888888889,268.17460317460313,-32.460317460317455,-308.17460317460313,-28.96825396825397,-167.69841269841268,34.682539682539684,14.047619047619047,-25.952380952380953,-234.36507936507934,-227.2222222222222,-0.7142857142857142,-0.07936507936507936,-166.26984126984127
-208.4920634920635,228.8095238095238,-132.3015873015873,69.6031746031746,-325.0,-325.0,-325.0,223.7301587301587,-253.4126984126984,308.4920634920635,23.88888888888889,268.17460317460313,-32.460317460317455,-308.17460317460313,-28.96825396825397,-167.69841269841268,34.682539682539684,14.047619047619047,-25.952380952380953,-234.36507936507934,-227.2222222222222,-0.7142857142857142,-0.07936507936507936,-166.26984126984127
-190.87301587301587,210.07936507936506,-325.0,63.888888888888886,-325.0,-325.0,-325.0,206.1111111111111,-232.6190476190476,292.1428571428571,6.111111111111111,246.26984126984127,-325.0,-291.3492063492063,-325.0,-153.73015873015873,16.428571428571427,4.2063492063492065,-325.0,-214.68253968253967,-207.53968253968253,-1.1904761904761905,0.23809523809523808,-166.26984126984127
-190.87301587301587,210.07936507936506,-325.0,63.888888888888886,-325.0,-325.0,-325.0,206.1111111111111,-232.6190476190476,292.1428571428571,6.111111111111111,246.26984126984127,-325.0,-291.3492063492063,-325.0,-153.73015873015873,16.428571428571427,4.2063492063492065,-325.0,-214.68253968253967,-207.53968253968253,-1.1904761904761905,0.23809523809523808,-166.26984126984127
-168.96825396825395,186.42857142857142,-325.0,56.58730158730158,-325.0,-298.8095238095238,-325.0,183.4126984126984,-206.26984126984127,-311.031746031746,-4.841269841269841,218.65079365079364,-325.0,-258.17460317460313,-325.0,-136.58730158730157,2.7777777777777777,2.142857142857143,-325.0,-190.7142857142857,-183.25396825396825,-1.1904761904761905,-1.0317460317460316,-321.8253968253968
-168.96825396825395,186.42857142857142,-325.0,56.58730158730158,-325.0,-298.8095238095238,-325.0,183.4126984126984,-206.26984126984127,-311.031746031746,-4.841269841269841,218.65079365079364,-325.0,-258.17460317460313,-325.0,-136.58730158730157,2.7777777777777777,2.142857142857143,-325.0,-190.7142857142857,-183.25396825396825,-1.1904761904761905,-1.0317460317460316,-321.8253968253968
-83.25396825396825,-325.0,-325.0,-325.0,-231.34920634920633,-325.0,-258.4920634920635,-325.0,312.6190476190476,-325.0,-325.0,-325.0,-325.0,-127.85714285714285,-325.0,325.0,-314.68253968253964,1.8253968253968254,-325.0,-95.0,-88.33333333333333,-0.07936507936507936,-0.873015873015873,-321.8253968253968
-83.25396825396825,-325.0,-325.0,-325.0,-231.34920634920633,-325.0,-258.4920634920635,-325.0,312.6190476190476,-325.0,-325.0,-325.0,-325.0,-127.85714285714285,-325.0,325.0,-314.68253968253964,1.8253968253968254,-325.0,-95.0,-88.33333333333333,-0.07936507936507936,-0.873015873015873,-321.8253968253968
-74.84126984126983,-325.0,-315.95238095238096,-325.0,-208.8095238095238,-325.0,-233.25396825396825,-325.0,318.8095238095238,-313.73015873015873,-325.0,-325.0,-310.55555555555554,-115.0,-313.25396825396825,325.0,-282.9365079365079,3.253968253968254,-300.23809523809524,-85.31746031746032,-79.12698412698413,-0.23809523809523808,-0.873015873015873,-321.8253968253968
-74.84126984126983,-325.0,-315.95238095238096,-325.0,-208.8095238095238,-325.0,-233.25396825396825,-325.0,318.8095238095238,-313.73015873015873,-325.0,-325.0,-310.55555555555554,-115.0,-313.25396825396825,325.0,-282.9365079365079,3.253968253968254,-300.23809523809524,-85.31746031746032,-79.12698412698413,-0.23809523809523808,-0.873015873015873,-321.8253968253968
-66.42857142857143,-325.0,-306.74603174603175,-325.0,-186.26984126984127,-325.0,-207.85714285714283,-325.0,325.0,-302.46031746031747,-325.0,-325.0,-295.95238095238096,-101.98412698412697,-301.3492063492063,325.0,-251.19047619047618,4.682539682539682,-275.3174603174603,-75.47619047619047,-69.92063492063491,-0.23809523809523808,-0.7142857142857142,-321.8253968253968
-66.42857142857143,-325.0,-306.74603174603175,-325.0,-186.26984126984127,-325.0,-207.85714285714283,-325.0,325.0,-302.46031746031747,-325.0,-325.0,-295.95238095238096,-101.98412698412697,-301.3492063492063,325.0,-251.19047619047618,4.682539682539682,-275.3174603174603,-75.47619047619047,-69.92063492063491,-0.23809523809523808,-0.7142857142857142,-321.8253968253968
-66.42857142857143,-325.0,-306.74603174603175,-325.0,-186.26984126984127,-325.0,-207.85714285714283,-325.0,325.0,-302.46031746031747,-325.0,-325.0,-295.95238095238096,-101.98412698412697,-301.3492063492063,325.0,-251.19047619047618,4.682539682539682,-275.3174603174603,-75.47619047619047,-69.92063492063491,-0.23809523809523808,-0.7142857142857142,-321.8253968253968
-66.42857142857143,-325.0,-306.74603174603175,-325.0,-186.26984126984127,-325.0,-207.85714285714283,-325.0,325.0,-302.46031746031747,-325.0,-325.0,-295.95238095238096,-101.98412698412697,-301.3492063492063,325.0,-251.19047619047618,4.682539682539682,-275.3174603174603,-75.47619047619047,-69.92063492063491,-0.23809523809523808,-0.7142857142857142,-321.8253968253968
-66.42857142857143,-325.0,-306.74603174603175,-325.0,-186.26984126984127,-325.0,-207.85714285714283,-325.0,325.0,-302.46031746031747,-325.0,-325.0,-295.95238095238096,-101.98412698412697,-301.3492063492063,325.0,-251.19047619047618,4.682539682539682,-275.3174603174603,-75.47619047619047,-69.92063492063491,-0.23809523809523808,-0.7142857142857142,-166.26984126984127
-66.42857142857143,-325.0,-306.74603174603175,-325.0,-186.26984126984127,-325.0,-207.85714285714283,-325.0,325.0,-302.46031746031747,-325.0,-325.0,-295.95238095238096,-101.98412698412697,-301.3492063492063,325.0,-251.19047619047618,4.682539682539682,-275.3174603174603,-75.47619047619047,-69.92063492063491,-0.23809523809523808,-0.7142857142857142,-166.26984126984127
-66.42857142857143,-325.0,-306.74603174603175,-325.0,-186.26984126984127,-325.0,-207.85714285714283,-325.0,325.0,-302.46031746031747,-325.0,-325.0,-295.95238095238096,-101.98412698412697,-301.3492063492063,325.0,-251.19047619047618,4.682539682539682,-275.3174603174603,-75.47619047619047,-69.92063492063491,-0.23809523809523808,-0.7142857142857142,-166.26984126984127
-66.42857142857143,-325.0,-306.74603174603175,-325.0,-186.26984126984127,-325.0,-207.85714285714283,-325.0,325.0,-302.46031746031747,-325.0,-325.0,-295.95238095238096,-101.98412698412697,-301.3492063492063,325.0,-251.19047619047618,4.682539682539682,-275.3174603174603,-75.47619047619047,-69.92063492063491,-0.23809523809523808,-0.7142857142857142,-166.26984126984127
-66.42857142857143,-325.0,-306.74603174603175,-325.0,-186.26984126984127,-325.0,-207.85714285714283,-325.0,325.0,-302.46031746031747,-325.0,-325.0,-295.95238095238096,-101.98412698412697,-301.3492063492063,325.0,-251.19047619047618,4.682539682539682,-275.3174603174603,-75.47619047619047,-69.92063492063491,-0.23809523809523808,-0.7142857142857142,-166.26984126984127
-66.42857142857143,-325.0,-306.74603174603175,-325.0,-186.26984126984127,-325.0,-207.85714285714283,-325.0,325.0,-302.46031746031747,-325.0,-325.0,-295.95238095238096,-101.98412698412697,-301.3492063492063,325.0,-251.19047619047618,4.682539682539682,-275.3174603174603,-75.47619047619047,-69.92063492063491,-0.23809523809523808,-0.7142857142857142,-166.26984126984127
-36.42857142857142,-233.09523809523807,-169.76190476190476,-316.90476190476187,-104.04761904761904,-221.66666666666666,-115.15873015873015,-232.3015873015873,325.0,-166.42857142857142,-198.33333333333331,-314.68253968253964,-163.4126984126984,325.0,-170.07936507936506,264.5238095238095,-136.26984126984127,-0.3968253968253968,-153.4126984126984,-41.98412698412698,-37.857142857142854,-0.7142857142857142,-0.07936507936507936,-166.26984126984127
-36.42857142857142,-233.09523809523807,-169.76190476190476,-316.90476190476187,-104.04761904761904,-221.66666666666666,-115.15873015873015,-232.3015873015873,325.0,-166.42857142857142,-198.33333333333331,-314.68253968253964,-163.4126984126984,325.0,-170.07936507936506,264.5238095238095,-136.26984126984127,-0.3968253968253968,-153.4126984126984,-41.98412698412698,-37.857142857142854,-0.7142857142857142,-0.07936507936507936,-166.26984126984127
325.0,-160.23809523809524,-88.33333333333333,-216.26984126984127,-71.19047619047619,-151.34920634920633,-53.73015873015873,-161.19047619047618,325.0,-113.09523809523809,-135.79365079365078,-215.47619047619045,-111.19047619047619,325.0,-117.38095238095238,181.19047619047618,-91.66666666666666,-13.571428571428571,-105.15873015873015,-28.65079365079365,325.0,-0.23809523809523808,0.23809523809523808,-166.26984126984127
325.0,-160.23809523809524,-88.33333333333333,-216.26984126984127,-71.19047619047619,-151.34920634920633,-53.73015873015873,-161.19047619047618,325.0,-113.09523809523809,-135.79365079365078,-215.47619047619045,-111.19047619047619,325.0,-117.38095238095238,181.19047619047618,-91.66666666666666,-13.571428571428571,-105.15873015873015,-28.65079365079365,325.0,-0.23809523809523808,0.23809523809523808,-166.26984126984127
325.0,-141.8253968253968,-31.03174603174603,-190.23809523809524,-62.93650793650793,-132.77777777777777,23.88888888888889,-142.77777777777777,288.3333333333333,-99.28571428571428,-119.76190476190476,-189.9206349206349,-97.6984126984127,325.0,-103.57142857142857,159.6031746031746,-80.39682539682539,-18.65079365079365,-92.77777777777777,-25.476190476190474,325.0,-0.873015873015873,-1.1904761904761905,-321.8253968253968
325.0,-141.8253968253968,-31.03174603174603,-190.23809523809524,-62.93650793650793,-132.77777777777777,23.88888888888889,-142.77777777777777,288.3333333333333,-99.28571428571428,-119.76190476190476,-189.9206349206349,-97.6984126984127,325.0,-103.57142857142857,159.6031746031746,-80.39682539682539,-18.65079365079365,-92.77777777777777,-25.476190476190474,325.0,-0.873015873015873,-1.1904761904761905,-321.8253968253968
250.55555555555554,-88.80952380952381,43.25396825396825,-118.01587301587301,131.03174603174602,96.1111111111111,108.17460317460316,-89.92063492063491,179.60317460317458,-61.82539682539682,102.61904761904762,-118.17460317460316,28.809523809523807,213.4126984126984,16.26984126984127,-82.77777777777777,122.30158730158729,-13.571428571428571,37.857142857142854,107.06349206349206,243.57142857142856,-0.3968253968253968,-1.0317460317460316,-321.8253968253968
250.55555555555554,-88.80952380952381,43.25396825396825,-118.01587301587301,131.03174603174602,96.1111111111111,108.17460317460316,-89.92063492063491,179.60317460317458,-61.82539682539682,102.61904761904762,-118.17460317460316,28.809523809523807,213.4126984126984,16.26984126984127,-82.77777777777777,122.30158730158729,-13.571428571428571,37.857142857142854,107.06349206349206,243.57142857142856,-0.3968253968253968,-1.0317460317460316,-321.8253968253968
167.69841269841268,-34.047619047619044,124.52380952380952,-43.57142857142857,325.0,325.0,165.47619047619045,-35.63492063492063,67.53968253968253,-23.095238095238095,325.0,-44.36507936507936,148.33333333333331,97.22222222222221,114.84126984126983,-226.26984126984127,325.0,-9.761904761904761,191.5079365079365,228.8095238095238,154.68253968253967,-1.0317460317460316,-0.7142857142857142,-321.8253968253968
167.69841269841268,-34.047619047619044,124.52380952380952,-43.57142857142857,325.0,325.0,165.47619047619045,-35.63492063492063,67.53968253968253,-23.095238095238095,325.0,-44.36507936507936,148.33333333333331,97.22222222222221,114.84126984126983,-226.26984126984127,325.0,-9.761904761904761,191.5079365079365,228.8095238095238,154.68253968253967,-1.0317460317460316,-0.7142857142857142,-321.8253968253968
160.55555555555554,-32.77777777777778,121.19047619047619,-41.82539682539682,325.0,325.0,171.8253968253968,-34.2063492063492,64.84126984126983,-22.142857142857142,325.0,-42.61904761904761,149.44444444444443,92.93650793650794,129.12698412698413,-179.44444444444443,325.0,-8.968253968253968,208.4920634920635,219.60317460317458,148.17460317460316,-1.6666666666666665,-0.3968253968253968,-321.8253968253968
160.55555555555554,-32.77777777777778,121.19047619047619,-41.82539682539682,325.0,325.0,171.8253968253968,-34.2063492063492,64.84126984126983,-22.142857142857142,325.0,-42.61904761904761,149.44444444444443,92.93650793650794,129.12698412698413,-179.44444444444443,325.0,-8.968253968253968,208.4920634920635,219.60317460317458,148.17460317460316,-1.6666666666666665,-0.3968253968253968,-321.8253968253968
141.984126984127,-29.285714285714285,116.74603174603173,-37.06349206349206,325.0,325.0,152.46031746031744,-21.984126984126984,57.53968253968254,26.746031746031743,325.0,-37.857142857142854,124.2063492063492,81.98412698412697,125.63492063492063,-28.015873015873016,325.0,-6.904761904761904,239.76190476190476,195.15873015873015,130.87301587301587,-1.1904761904761905,-0.873015873015873,-321.8253968253968
141.984126984127,-29.285714285714285,116.74603174603173,-37.06349206349206,325.0,325.0,152.46031746031744,-21.984126984126984,57.53968253968254,26.746031746031743,325.0,-37.857142857142854,124.2063492063492,81.98412698412697,125.63492063492063,-28.015873015873016,325.0,-6.904761904761904,239.76190476190476,195.15873015873015,130.87301587301587,-1.1904761904761905,-0.873015873015873,-321.8253968253968
137.69841269841268,-28.49206349206349,119.6031746031746,-35.95238095238095,325.0,325.0,156.26984126984127,-28.333333333333332,56.11111111111111,55.476190476190474,325.0,-36.58730158730159,121.66666666666666,79.6031746031746,132.46031746031744,208.17460317460316,325.0,-5.317460317460317,255.95238095238093,189.44444444444443,126.9047619047619,-1.1904761904761905,-1.1904761904761905,-166.26984126984127
137.69841269841268,-28.49206349206349,119.6031746031746,-35.95238095238095,325.0,325.0,156.26984126984127,-28.333333333333332,56.11111111111111,55.476190476190474,325.0,-36.58730158730159,121.66666666666666,79.6031746031746,132.46031746031744,208.17460317460316,325.0,-5.317460317460317,255.95238095238093,189.44444444444443,126.9047619047619,-1.1904761904761905,-1.1904761904761905,-166.26984126984127
137.69841269841268,-28.49206349206349,119.6031746031746,-35.95238095238095,325.0,325.0,156.26984126984127,-28.333333333333332,56.11111111111111,55.476190476190474,325.0,-36.58730158730159,121.66666666666666,79.6031746031746,132.46031746031744,208.17460317460316,325.0,-5.317460317460317,255.95238095238093,189.44444444444443,126.9047619047619,-1.1904761904761905,-1.1904761904761905,-166.26984126984127
137.69841269841268,-28.49206349206349,119.6031746031746,-35.95238095238095,325.0,325.0,156.26984126984127,-28.333333333333332,56.11111111111111,55.476190476190474,325.0,-36.58730158730159,121.66666666666666,79.6031746031746,132.46031746031744,208.17460317460316,325.0,-5.317460317460317,255.95238095238093,189.44444444444443,126.9047619047619,-1.1904761904761905,-1.1904761904761905,-166.26984126984127
124.2063492063492,-25.79365079365079,127.53968253968253,-32.77777777777778,325.0,323.57142857142856,150.3968253968254,77.38095238095238,50.71428571428571,45.95238095238095,325.0,-33.25396825396825,120.39682539682539,71.66666666666666,148.65079365079364,-325.0,325.0,-5.7936507936507935,276.58730158730157,171.8253968253968,114.52380952380952,-0.23809523809523808,0.23809523809523808,-166.26984126984127
124.2063492063492,-25.79365079365079,127.53968253968253,-32.77777777777778,325.0,323.57142857142856,150.3968253968254,77.38095238095238,50.71428571428571,45.95238095238095,325.0,-33.25396825396825,120.39682539682539,71.66666666666666,148.65079365079364,-325.0,325.0,-5.7936507936507935,276.58730158730157,171.8253968253968,114.52380952380952,-0.23809523809523808,0.23809523809523808,-166.26984126984127
118.96825396825396,-24.84126984126984,122.30158730158729,-31.349206349206348,325.0,310.39682539682536,151.5079365079365,-29.6031746031746,48.49206349206349,62.3015873015873,325.0,-32.3015873015873,145.95238095238093,68.4920634920635,155.47619047619048,325.0,325.0,0.873015873015873,283.4126984126984,164.84126984126982,109.6031746031746,-0.5555555555555556,-0.23809523809523808,-166.26984126984127
118.96825396825396,-24.84126984126984,122.30158730158729,-31.349206349206348,325.0,310.39682539682536,151.5079365079365,-29.6031746031746,48.49206349206349,62.3015873015873,325.0,-32.3015873015873,145.95238095238093,68.4920634920635,155.47619047619048,325.0,325.0,0.873015873015873,283.4126984126984,164.84126984126982,109.6031746031746,-0.5555555555555556,-0.23809523809523808,-166.26984126984127
109.28571428571428,-23.095238095238095,106.9047619047619,-28.809523809523807,325.0,286.4285714285714,152.46031746031744,18.333333333333332,32.61904761904762,51.82539682539682,325.0,-29.76190476190476,144.84126984126982,62.93650793650793,154.2063492063492,325.0,325.0,-4.682539682539682,269.44444444444446,151.8253968253968,100.71428571428571,-0.07936507936507936,-0.5555555555555556,-166.26984126984127
109.28571428571428,-23.095238095238095,106.9047619047619,-28.809523809523807,325.0,286.4285714285714,152.46031746031744,18.333333333333332,32.61904761904762,51.82539682539682,325.0,-29.76190476190476,144.84126984126982,62.93650793650793,154.2063492063492,325.0,325.0,-4.682539682539682,269.44444444444446,151.8253968253968,100.71428571428571,-0.07936507936507936,-0.5555555555555556,-166.26984126984127
101.19047619047619,-21.507936507936506,95.15873015873015,-26.746031746031743,325.0,266.26984126984127,147.06349206349205,59.44444444444444,17.539682539682538,42.460317460317455,325.0,-27.38095238095238,131.984126984127,58.17460317460317,139.9206349206349,325.0,325.0,-12.936507936507935,256.74603174603175,140.87301587301587,93.09523809523809,-0.07936507936507936,-1.0317460317460316,-321.8253968253968
101.19047619047619,-21.507936507936506,95.15873015873015,-26.746031746031743,325.0,266.26984126984127,147.06349206349205,59.44444444444444,17.539682539682538,42.460317460317455,325.0,-27.38095238095238,131.984126984127,58.17460317460317,139.9206349206349,325.0,325.0,-12.936507936507935,256.74603174603175,140.87301587301587,93.09523809523809,-0.07936507936507936,-1.0317460317460316,-321.8253968253968
101.19047619047619,-21.507936507936506,95.15873015873015,-26.746031746031743,325.0,266.26984126984127,147.06349206349205,59.44444444444444,17.539682539682538,42.460317460317455,325.0,-27.38095238095238,131.984126984127,58.17460317460317,139.9206349206349,325.0,325.0,-12.936507936507935,256.74603174603175,140.87301587301587,93.09523809523809,-0.07936507936507936,-1.0317460317460316,-321.8253968253968
101.19047619047619,-21.507936507936506,95.15873015873015,-26.746031746031743,325.0,266.26984126984127,147.06349206349205,59.44444444444444,17.539682539682538,42.460317460317455,325.0,-27.38095238095238,131.984126984127,58.17460317460317,139.9206349206349,325.0,325.0,-12.936507936507935,256.74603174603175,140.87301587301587,93.09523809523809,-0.07936507936507936,-1.0317460317460316,-321.8253968253968
101.19047619047619,-21.507936507936506,95.15873015873015,-26.746031746031743,325.0,266.26984126984127,147.06349206349205,59.44444444444444,17.539682539682538,42.460317460317455,325.0,-27.38095238095238,131.984126984127,58.17460317460317,139.9206349206349,325.0,325.0,-12.936507936507935,256.74603174603175,140.87301587301587,93.09523809523809,-0.07936507936507936,-1.0317460317460316,-321.8253968253968
101.19047619047619,-21.507936507936506,95.15873015873015,-26.746031746031743,325.0,266.26984126984127,147.06349206349205,59.44444444444444,17.539682539682538,42.460317460317455,325.0,-27.38095238095238,131.984126984127,58.17460317460317,139.9206349206349,325.0,325.0,-12.936507936507935,256.74603174603175,140.87301587301587,93.09523809523809,-0.07936507936507936,-1.0317460317460316,-321.8253968253968
101.19047619047619,-21.507936507936506,95.15873015873015,-26.746031746031743,325.0,266.26984126984127,147.06349206349205,59.44444444444444,17.539682539682538,42.460317460317455,325.0,-27.38095238095238,131.984126984127,58.17460317460317,139.9206349206349,325.0,325.0,-12.936507936507935,256.74603174603175,140.87301587301587,93.09523809523809,-0.07936507936507936,-1.0317460317460316,-321.8253968253968
101.19047619047619,-21.507936507936506,95.15873015873015,-26.746031746031743,325.0,266.26984126984127,147.06349206349205,59.44444444444444,17.539682539682538,42.460317460317455,325.0,-27.38095238095238,131.984126984127,58.17460317460317,139.9206349206349,325.0,325.0,-12.936507936507935,256.74603174603175,140.87301587301587,93.09523809523809,-0.07936507936507936,-1.0317460317460316,-321.8253968253968
101.19047619047619,-21.507936507936506,95.15873015873015,-26.746031746031743,325.0,266.26984126984127,147.06349206349205,59.44444444444444,17.539682539682538,42.460317460317455,325.0,-27.38095238095238,131.984126984127,58.17460317460317,139.9206349206349,325.0,325.0,-12.936507936507935,256.74603174603175,140.87301587301587,93.09523809523809,-0.07936507936507936,-1.0317460317460316,-321.8253968253968
101.19047619047619,-21.507936507936506,95.15873015873015,-26.746031746031743,325.0,266.26984126984127,147.06349206349205,59.44444444444444,17.539682539682538,42.460317460317455,325.0,-27.38095238095238,131.984126984127,58.17460317460317,139.9206349206349,325.0,325.0,-12.936507936507935,256.74603174603175,140.87301587301587,93.09523809523809,-0.07936507936507936,-1.0317460317460316,-321.8253968253968
101.19047619047619,-21.507936507936506,95.15873015873015,-26.746031746031743,325.0,266.26984126984127,147.06349206349205,59.44444444444444,17.539682539682538,42.460317460317455,325.0,-27.38095238095238,131.984126984127,58.17460317460317,139.9206349206349,325.0,325.0,-12.936507936507935,256.74603174603175,140.87301587301587,93.09523809523809,-0.07936507936507936,-1.0317460317460316,-166.26984126984127
101.19047619047619,-21.507936507936506,95.15873015873015,-26.746031746031743,325.0,266.26984126984127,147.06349206349205,59.44444444444444,17.539682539682538,42.460317460317455,325.0,-27.38095238095238,131.984126984127,58.17460317460317,139.9206349206349,325.0,325.0,-12.936507936507935,256.74603174603175,140.87301587301587,93.09523809523809,-0.07936507936507936,-1.0317460317460316,-166.26984126984127
101.19047619047619,-21.507936507936506,95.15873015873015,-26.746031746031743,325.0,266.26984126984127,147.06349206349205,59.44444444444444,17.539682539682538,42.460317460317455,325.0,-27.38095238095238,131.984126984127,58.17460317460317,139.9206349206349,325.0,325.0,-12.936507936507935,256.74603174603175,140.87301587301587,93.09523809523809,-0.07936507936507936,-1.0317460317460316,-166.26984126984127
101.19047619047619,-21.507936507936506,95.15873015873015,-26.746031746031743,325.0,266.26984126984127,147.06349206349205,59.44444444444444,17.539682539682538,42.460317460317455,325.0,-27.38095238095238,131.984126984127,58.17460317460317,139.9206349206349,325.0,325.0,-12.936507936507935,256.74603174603175,140.87301587301587,93.09523809523809,-0.07936507936507936,-1.0317460317460316,-166.26984126984127
101.19047619047619,-21.507936507936506,95.15873015873015,-26.746031746031743,325.0,266.26984126984127,147.06349206349205,59.44444444444444,17.539682539682538,42.460317460317455,325.0,-27.38095238095238,131.984126984127,58.17460317460317,139.9206349206349,325.0,325.0,-12.936507936507935,256.74603174603175,140.87301587301587,93.09523809523809,-0.07936507936507936,-1.0317460317460316,-166.26984126984127
101.19047619047619,-21.507936507936506,95.15873015873015,-26.746031746031743,325.0,266.26984126984127,147.06349206349205,59.44444444444444,17.539682539682538,42.460317460317455,325.0,-27.38095238095238,131.984126984127,58.17460317460317,139.9206349206349,325.0,325.0,-12.936507936507935,256.74603174603175,140.87301587301587,93.09523809523809,-0.07936507936507936,-1.0317460317460316,-166.26984126984127
101.19047619047619,-21.507936507936506,95.15873015873015,-26.746031746031743,325.0,266.26984126984127,147.06349206349205,59.44444444444444,17.539682539682538,42.460317460317455,325.0,-27.38095238095238,131.984126984127,58.17460317460317,139.9206349206349,325.0,325.0,-12.936507936507935,256.74603174603175,140.87301587301587,93.09523809523809,-0.07936507936507936,-1.0317460317460316,-166.26984126984127
101.19047619047619,-21.507936507936506,95.15873015873015,-26.746031746031743,325.0,266.26984126984127,147.06349206349205,59.44444444444444,17.539682539682538,42.460317460317455,325.0,-27.38095238095238,131.984126984127,58.17460317460317,139.9206349206349,325.0,325.0,-12.936507936507935,256.74603174603175,140.87301587301587,93.09523809523809,-0.07936507936507936,-1.0317460317460316,-166.26984126984127
101.19047619047619,-21.507936507936506,95.15873015873015,-26.746031746031743,325.0,266.26984126984127,147.06349206349205,59.44444444444444,17.539682539682538,42.460317460317455,325.0,-27.38095238095238,131.984126984127,58.17460317460317,139.9206349206349,325.0,325.0,-12.936507936507935,256.74603174603175,140.87301587301587,93.09523809523809,-0.07936507936507936,-1.0317460317460316,-166.26984126984127
101.19047619047619,-21.507936507936506,95.15873015873015,-26.746031746031743,325.0,266.26984126984127,147.06349206349205,59.44444444444444,17.539682539682538,42.460317460317455,325.0,-27.38095238095238,131.984126984127,58.17460317460317,139.9206349206349,325.0,325.0,-12.936507936507935,256.74603174603175,140.87301587301587,93.09523809523809,-0.07936507936507936,-1.0317460317460316,-166.26984126984127
101.19047619047619,-21.507936507936506,95.15873015873015,-26.746031746031743,325.0,266.26984126984127,147.06349206349205,59.44444444444444,17.539682539682538,42.460317460317455,325.0,-27.38095238095238,131.984126984127,58.17460317460317,139.9206349206349,325.0,325.0,-12.936507936507935,256.74603174603175,140.87301587301587,93.09523809523809,-0.07936507936507936,-1.0317460317460316,-321.8253968253968
101.19047619047619,-21.507936507936506,95.15873015873015,-26.746031746031743,325.0,266.26984126984127,147.06349206349205,59.44444444444444,17.539682539682538,42.460317460317455,325.0,-27.38095238095238,131.984126984127,58.17460317460317,139.9206349206349,325.0,325.0,-12.936507936507935,256.74603174603175,140.87301587301587,93.09523809523809,-0.07936507936507936,-1.0317460317460316,-321.8253968253968
59.92063492063492,65.15873015873015,79.28571428571428,57.857142857142854,209.28571428571428,295.6349206349206,96.58730158730158,24.84126984126984,-40.55555555555555,63.57142857142857,195.47619047619045,37.698412698412696,94.68253968253968,33.41269841269841,119.92063492063491,-0.07936507936507936,197.2222222222222,-98.80952380952381,195.0,81.66666666666666,53.57142857142857,-0.07936507936507936,-0.5555555555555556,-321.8253968253968
59.92063492063492,65.15873015873015,79.28571428571428,57.857142857142854,209.28571428571428,295.6349206349206,96.58730158730158,24.84126984126984,-40.55555555555555,63.57142857142857,195.47619047619045,37.698412698412696,94.68253968253968,33.41269841269841,119.92063492063491,-0.07936507936507936,197.2222222222222,-98.80952380952381,195.0,81.66666666666666,53.57142857142857,-0.07936507936507936,-0.5555555555555556,-321.8253968253968
18.80952380952381,151.8253968253968,63.57142857142857,142.46031746031744,93.73015873015872,325.0,46.269841269841265,-9.761904761904761,-98.49206349206348,84.68253968253968,66.11111111111111,102.77777777777777,57.38095238095238,8.809523809523808,99.92063492063491,-325.0,69.6031746031746,-184.68253968253967,133.25396825396825,22.46031746031746,14.047619047619047,-0.07936507936507936,-0.07936507936507936,-321.8253968253968
18.80952380952381,151.8253968253968,63.57142857142857,142.46031746031744,93.73015873015872,325.0,46.269841269841265,-9.761904761904761,-98.49206349206348,84.68253968253968,66.11111111111111,102.77777777777777,57.38095238095238,8.809523809523808,99.92063492063491,-325.0,69.6031746031746,-184.68253968253967,133.25396825396825,22.46031746031746,14.047619047619047,-0.07936507936507936,-0.07936507936507936,-321.8253968253968
18.80952380952381,151.8253968253968,63.57142857142857,142.46031746031744,93.73015873015872,325.0,46.269841269841265,-9.761904761904761,-98.49206349206348,84.68253968253968,66.11111111111111,102.77777777777777,57.38095238095238,8.809523809523808,99.92063492063491,-325.0,69.6031746031746,-184.68253968253967,133.25396825396825,22.46031746031746,14.047619047619047,-0.07936507936507936,-0.07936507936507936,-321.8253968253968
18.80952380952381,151.8253968253968,63.57142857142857,142.46031746031744,93.73015873015872,325.0,46.269841269841265,-9.761904761904761,-98.49206349206348,84.68253968253968,66.11111111111111,102.77777777777777,57.38095238095238,8.809523809523808,99.92063492063491,-325.0,69.6031746031746,-184.68253968253967,133.25396825396825,22.46031746031746,14.047619047619047,-0.07936507936507936,-0.07936507936507936,-321.8253968253968
18.80952380952381,151.8253968253968,63.57142857142857,142.46031746031744,93.73015873015872,325.0,46.269841269841265,-9.761904761904761,-98.49206349206348,84.68253968253968,66.11111111111111,102.77777777777777,57.38095238095238,8.809523809523808,99.92063492063491,-325.0,69.6031746031746,-184.68253968253967,133.25396825396825,22.46031746031746,14.047619047619047,-0.07936507936507936,-0.07936507936507936,-321.8253968253968
18.80952380952381,151.8253968253968,63.57142857142857,142.46031746031744,93.73015873015872,325.0,46.269841269841265,-9.761904761904761,-98.49206349206348,84.68253968253968,66.11111111111111,102.77777777777777,57.38095238095238,8.809523809523808,99.92063492063491,-325.0,69.6031746031746,-184.68253968253967,133.25396825396825,22.46031746031746,14.047619047619047,-0.07936507936507936,-0.07936507936507936,-321.8253968253968
18.80952380952381,151.8253968253968,63.57142857142857,142.46031746031744,93.73015873015872,325.0,46.269841269841265,-9.761904761904761,-98.49206349206348,84.68253968253968,66.11111111111111,102.77777777777777,57.38095238095238,8.809523809523808,99.92063492063491,-325.0,69.6031746031746,-184.68253968253967,133.25396825396825,22.46031746031746,14.047619047619047,-0.07936507936507936,-0.07936507936507936,-166.26984126984127
18.80952380952381,151.8253968253968,63.57142857142857,142.46031746031744,93.73015873015872,325.0,46.269841269841265,-9.761904761904761,-98.49206349206348,84.68253968253968,66.11111111111111,102.77777777777777,57.38095238095238,8.809523809523808,99.92063492063491,-325.0,69.6031746031746,-184.68253968253967,133.25396825396825,22.46031746031746,14.047619047619047,-0.07936507936507936,-0.07936507936507936,-166.26984126984127
18.80952380952381,151.8253968253968,63.57142857142857,142.46031746031744,93.73015873015872,325.0,46.269841269841265,-9.761904761904761,-98.49206349206348,84.68253968253968,66.11111111111111,102.77777777777777,57.38095238095238,8.809523809523808,99.92063492063491,-325.0,69.6031746031746,-184.68253968253967,133.25396825396825,22.46031746031746,14.047619047619047,-0.07936507936507936,-0.07936507936507936,-166.26984126984127
18.80952380952381,151.8253968253968,63.57142857142857,142.46031746031744,93.73015873015872,325.0,46.269841269841265,-9.761904761904761,-98.49206349206348,84.68253968253968,66.11111111111111,102.77777777777777,57.38095238095238,8.809523809523808,99.92063492063491,-325.0,69.6031746031746,-184.68253968253967,133.25396825396825,22.46031746031746,14.047619047619047,-0.07936507936507936,-0.07936507936507936,-166.26984126984127
18.80952380952381,151.8253968253968,63.57142857142857,142.46031746031744,93.73015873015872,325.0,46.269841269841265,-9.761904761904761,-98.49206349206348,84.68253968253968,66.11111111111111,102.77777777777777,57.38095238095238,8.809523809523808,99.92063492063491,-325.0,69.6031746031746,-184.68253968253967,133.25396825396825,22.46031746031746,14.047619047619047,-0.07936507936507936,-0.07936507936507936,-166.26984126984127
18.80952380952381,151.8253968253968,63.57142857142857,142.46031746031744,93.73015873015872,325.0,46.269841269841265,-9.761904761904761,-98.49206349206348,84.68253968253968,66.11111111111111,102.77777777777777,57.38095238095238,8.809523809523808,99.92063492063491,-325.0,69.6031746031746,-184.68253968253967,133.25396825396825,22.46031746031746,14.047619047619047,-0.07936507936507936,-0.07936507936507936,-166.26984126984127
18.80952380952381,151.8253968253968,63.57142857142857,142.46031746031744,93.73015873015872,325.0,46.269841269841265,-9.761904761904761,-98.49206349206348,84.68253968253968,66.11111111111111,102.77777777777777,57.38095238095238,8.809523809523808,99.92063492063491,-325.0,69.6031746031746,-184.68253968253967,133.25396825396825,22.46031746031746,14.047619047619047,-0.07936507936507936,-0.07936507936507936,-166.26984126984127
18.80952380952381,151.8253968253968,63.57142857142857,142.46031746031744,93.73015873015872,325.0,46.269841269841265,-9.761904761904761,-98.49206349206348,84.68253968253968,66.11111111111111,102.77777777777777,57.38095238095238,8.809523809523808,99.92063492063491,-325.0,69.6031746031746,-184.68253968253967,133.25396825396825,22.46031746031746,14.047619047619047,-0.07936507936507936,-0.07936507936507936,-166.26984126984127
18.80952380952381,151.8253968253968,63.57142857142857,142.46031746031744,93.73015873015872,325.0,46.269841269841265,-9.761904761904761,-98.49206349206348,84.68253968253968,66.11111111111111,102.77777777777777,57.38095238095238,8.809523809523808,99.92063492063491,-325.0,69.6031746031746,-184.68253968253967,133.25396825396825,22.46031746031746,14.047619047619047,-0.07936507936507936,-0.07936507936507936,-166.26984126984127
18.80952380952381,151.8253968253968,63.57142857142857,142.46031746031744,93.73015873015872,325.0,46.269841269841265,-9.761904761904761,-98.49206349206348,84.68253968253968,66.11111111111111,102.77777777777777,57.38095238095238,8.809523809523808,99.92063492063491,-325.0,69.6031746031746,-184.68253968253967,133.25396825396825,22.46031746031746,14.047619047619047,-0.07936507936507936,-0.07936507936507936,-166.26984126984127
-325.0,83.57142857142857,-2.46031746031746,85.79365079365078,13.571428571428571,72.46031746031746,-33.095238095238095,325.0,-61.98412698412698,91.66666666666666,9.920634920634921,101.34920634920634,4.0476190476190474,-143.25396825396825,22.3015873015873,50.55555555555555,10.079365079365079,312.77777777777777,-11.507936507936508,-157.69841269841268,-182.61904761904762,0.3968253968253968,-0.5555555555555556,-321.8253968253968
-325.0,83.57142857142857,-2.46031746031746,85.79365079365078,13.571428571428571,72.46031746031746,-33.095238095238095,325.0,-61.98412698412698,91.66666666666666,9.920634920634921,101.34920634920634,4.0476190476190474,-143.25396825396825,22.3015873015873,50.55555555555555,10.079365079365079,312.77777777777777,-11.507936507936508,-157.69841269841268,-182.61904761904762,0.3968253968253968,-0.5555555555555556,-321.8253968253968
-325.0,83.57142857142857,-2.46031746031746,85.79365079365078,13.571428571428571,72.46031746031746,-33.095238095238095,325.0,-61.98412698412698,91.66666666666666,9.920634920634921,101.34920634920634,4.0476190476190474,-143.25396825396825,22.3015873015873,50.55555555555555,10.079365079365079,312.77777777777777,-11.507936507936508,-157.69841269841268,-182.61904761904762,0.3968253968253968,-0.5555555555555556,-321.8253968253968
-325.0,83.57142857142857,-2.46031746031746,85.79365079365078,13.571428571428571,72.46031746031746,-33.095238095238095,325.0,-61.98412698412698,91.66666666666666,9.920634920634921,101.34920634920634,4.0476190476190474,-143.25396825396825,22.3015873015873,50.55555555555555,10.079365079365079,312.77777777777777,-11.507936507936508,-157.69841269841268,-182.61904761904762,0.3968253968253968,-0.5555555555555556,-321.8253968253968
-325.0,83.57142857142857,-2.46031746031746,85.79365079365078,13.571428571428571,72.46031746031746,-33.095238095238095,325.0,-61.98412698412698,91.66666666666666,9.920634920634921,101.34920634920634,4.0476190476190474,-143.25396825396825,22.3015873015873,50.55555555555555,10.079365079365079,312.77777777777777,-11.507936507936508,-157.69841269841268,-182.61904761904762,0.3968253968253968,-0.5555555555555556,-321.8253968253968
-325.0,83.57142857142857,-2.46031746031746,85.79365079365078,13.571428571428571,72.46031746031746,-33.095238095238095,325.0,-61.98412698412698,91.66666666666666,9.920634920634921,101.34920634920634,4.0476190476190474,-143.25396825396825,22.3015873015873,50.55555555555555,10.079365079365079,312.77777777777777,-11.507936507936508,-157.69841269841268,-182.61904761904762,0.3968253968253968,-0.5555555555555556,-321.8253968253968
-325.0,83.57142857142857,-2.46031746031746,85.79365079365078,13.571428571428571,72.46031746031746,-33.095238095238095,325.0,-61.98412698412698,91.66666666666666,9.920634920634921,101.34920634920634,4.0476190476190474,-143.25396825396825,22.3015873015873,50.55555555555555,10.079365079365079,312.77777777777777,-11.507936507936508,-157.69841269841268,-182.61904761904762,0.3968253968253968,-0.5555555555555556,-321.8253968253968
-325.0,83.57142857142857,-2.46031746031746,85.79365079365078,13.571428571428571,72.46031746031746,-33.095238095238095,325.0,-61.98412698412698,91.66666666666666,9.920634920634921,101.34920634920634,4.0476190476190474,-143.25396825396825,22.3015873015873,50.55555555555555,10.079365079365079,312.77777777777777,-11.507936507936508,-157.69841269841268,-182.61904761904762,0.3968253968253968,-0.5555555555555556,-321.8253968253968
-325.0,83.57142857142857,-2.46031746031746,85.79365079365078,13.571428571428571,72.46031746031746,-33.095238095238095,325.0,-61.98412698412698,91.66666666666666,9.920634920634921,101.34920634920634,4.0476190476190474,-143.25396825396825,22.3015873015873,50.55555555555555,10.079365079365079,312.77777777777777,-11.507936507936508,-157.69841269841268,-182.61904761904762,0.3968253968253968,-0.5555555555555556,-321.8253968253968
-325.0,83.57142857142857,-2.46031746031746,85.79365079365078,13.571428571428571,72.46031746031746,-33.095238095238095,325.0,-61.98412698412698,91.66666666666666,9.920634920634921,101.34920634920634,4.0476190476190474,-143.25396825396825,22.3015873015873,50.55555555555555,10.079365079365079,312.77777777777777,-11.507936507936508,-157.69841269841268,-182.61904761904762,0.3968253968253968,-0.5555555555555556,-321.8253968253968
-325.0,83.57142857142857,-2.46031746031746,85.79365079365078,13.571428571428571,72.46031746031746,-33.095238095238095,325.0,-61.98412698412698,91.66666666666666,9.920634920634921,101.34920634920634,4.0476190476190474,-143.25396825396825,22.3015873015873,50.55555555555555,10.079365079365079,312.77777777777777,-11.507936507936508,-157.69841269841268,-182.61904761904762,0.3968253968253968,-0.5555555555555556,-166.26984126984127
-325.0,83.57142857142857,-2.46031746031746,85.79365079365078,13.571428571428571,72.46031746031746,-33.095238095238095,325.0,-61.98412698412698,91.66666666666666,9.920634920634921,101.34920634920634,4.0476190476190474,-143.25396825396825,22.3015873015873,50.55555555555555,10.079365079365079,312.77777777777777,-11.507936507936508,-157.69841269841268,-182.61904761904762,0.3968253968253968,-0.5555555555555556,-166.26984126984127
-0.07936507936507936,49.12698412698413,-0.873015873015873,98.96825396825396,7.857142857142857,-126.26984126984127,-18.015873015873016,149.28571428571428,-39.6031746031746,69.92063492063491,5.634920634920634,66.74603174603175,8.015873015873016,-84.84126984126983,15.95238095238095,-89.76190476190476,6.111111111111111,238.33333333333331,-10.396825396825395,-136.74603174603175,-133.25396825396825,-0.5555555555555556,-0.7142857142857142,-166.26984126984127
-0.07936507936507936,49.12698412698413,-0.873015873015873,98.96825396825396,7.857142857142857,-126.26984126984127,-18.015873015873016,149.28571428571428,-39.6031746031746,69.92063492063491,5.634920634920634,66.74603174603175,8.015873015873016,-84.84126984126983,15.95238095238095,-89.76190476190476,6.111111111111111,238.33333333333331,-10.396825396825395,-136.74603174603175,-133.25396825396825,-0.5555555555555556,-0.7142857142857142,-166.26984126984127
-325.0,39.285714285714285,16.746031746031743,56.269841269841265,-15.793650793650793,105.47619047619047,-7.3809523809523805,-29.6031746031746,-26.746031746031743,16.746031746031743,-325.0,65.79365079365078,-2.7777777777777777,-138.65079365079364,16.11111111111111,-325.0,-325.0,325.0,-5.317460317460317,-150.87301587301587,-66.11111111111111,-0.7142857142857142,-0.3968253968253968,-166.26984126984127
-325.0,39.285714285714285,16.746031746031743,56.269841269841265,-15.793650793650793,105.47619047619047,-7.3809523809523805,-29.6031746031746,-26.746031746031743,16.746031746031743,-325.0,65.79365079365078,-2.7777777777777777,-138.65079365079364,16.11111111111111,-325.0,-325.0,325.0,-5.317460317460317,-150.87301587301587,-66.11111111111111,-0.7142857142857142,-0.3968253968253968,-166.26984126984127
325.0,12.142857142857142,22.936507936507937,-30.238095238095237,3.571428571428571,325.0,-16.26984126984127,115.0,-1.984126984126984,-22.46031746031746,325.0,-2.3015873015873014,24.047619047619047,-28.809523809523807,-5.317460317460317,290.07936507936506,325.0,-102.14285714285714,-52.14285714285714,184.68253968253967,173.57142857142856,-1.0317460317460316,0.23809523809523808,-166.26984126984127
325.0,12.142857142857142,22.936507936507937,-30.238095238095237,3.571428571428571,325.0,-16.26984126984127,115.0,-1.984126984126984,-22.46031746031746,325.0,-2.3015873015873014,24.047619047619047,-28.809523809523807,-5.317460317460317,290.07936507936506,325.0,-102.14285714285714,-52.14285714285714,184.68253968253967,173.57142857142856,-1.0317460317460316,0.23809523809523808,-166.26984126984127
325.0,12.142857142857142,22.936507936507937,-30.238095238095237,3.571428571428571,325.0,-16.26984126984127,115.0,-1.984126984126984,-22.46031746031746,325.0,-2.3015873015873014,24.047619047619047,-28.809523809523807,-5.317460317460317,290.07936507936506,325.0,-102.14285714285714,-52.14285714285714,184.68253968253967,173.57142857142856,-1.0317460317460316,0.23809523809523808,-166.26984126984127
325.0,12.142857142857142,22.936507936507937,-30.238095238095237,3.571428571428571,325.0,-16.26984126984127,115.0,-1.984126984126984,-22.46031746031746,325.0,-2.3015873015873014,24.047619047619047,-28.809523809523807,-5.317460317460317,290.07936507936506,325.0,-102.14285714285714,-52.14285714285714,184.68253968253967,173.57142857142856,-1.0317460317460316,0.23809523809523808,-166.26984126984127
325.0,12.142857142857142,22.936507936507937,-30.238095238095237,3.571428571428571,325.0,-16.26984126984127,115.0,-1.984126984126984,-22.46031746031746,325.0,-2.3015873015873014,24.047619047619047,-28.809523809523807,-5.317460317460317,290.07936507936506,325.0,-102.14285714285714,-52.14285714285714,184.68253968253967,173.57142857142856,-1.0317460317460316,0.23809523809523808,-321.8253968253968
325.0,12.142857142857142,22.936507936507937,-30.238095238095237,3.571428571428571,325.0,-16.26984126984127,115.0,-1.984126984126984,-22.46031746031746,325.0,-2.3015873015873014,24.047619047619047,-28.809523809523807,-5.317460317460317,290.07936507936506,325.0,-102.14285714285714,-52.14285714285714,184.68253968253967,173.57142857142856,-1.0317460317460316,0.23809523809523808,-321.8253968253968
325.0,12.142857142857142,22.936507936507937,-30.238095238095237,3.571428571428571,325.0,-16.26984126984127,115.0,-1.984126984126984,-22.46031746031746,325.0,-2.3015873015873014,24.047619047619047,-28.809523809523807,-5.317460317460317,290.07936507936506,325.0,-102.14285714285714,-52.14285714285714,184.68253968253967,173.57142857142856,-1.0317460317460316,0.23809523809523808,-321.8253968253968
325.0,12.142857142857142,22.936507936507937,-30.238095238095237,3.571428571428571,325.0,-16.26984126984127,115.0,-1.984126984126984,-22.46031746031746,325.0,-2.3015873015873014,24.047619047619047,-28.809523809523807,-5.317460317460317,290.07936507936506,325.0,-102.14285714285714,-52.14285714285714,184.68253968253967,173.57142857142856,-1.0317460317460316,0.23809523809523808,-321.8253968253968
325.0,12.142857142857142,22.936507936507937,-30.238095238095237,3.571428571428571,325.0,-16.26984126984127,115.0,-1.984126984126984,-22.46031746031746,325.0,-2.3015873015873014,24.047619047619047,-28.809523809523807,-5.317460317460317,290.07936507936506,325.0,-102.14285714285714,-52.14285714285714,184.68253968253967,173.57142857142856,-1.0317460317460316,0.23809523809523808,-321.8253968253968
325.0,12.142857142857142,22.936507936507937,-30.238095238095237,3.571428571428571,325.0,-16.26984126984127,115.0,-1.984126984126984,-22.46031746031746,325.0,-2.3015873015873014,24.047619047619047,-28.809523809523807,-5.317460317460317,290.07936507936506,325.0,-102.14285714285714,-52.14285714285714,184.68253968253967,173.57142857142856,-1.0317460317460316,0.23809523809523808,-321.8253968253968
325.0,12.142857142857142,22.936507936507937,-30.238095238095237,3.571428571428571,325.0,-16.26984126984127,115.0,-1.984126984126984,-22.46031746031746,325.0,-2.3015873015873014,24.047619047619047,-28.809523809523807,-5.317460317460317,290.07936507936506,325.0,-102.14285714285714,-52.14285714285714,184.68253968253967,173.57142857142856,-1.0317460317460316,0.23809523809523808,-321.8253968253968
325.0,12.142857142857142,22.936507936507937,-30.238095238095237,3.571428571428571,325.0,-16.26984126984127,115.0,-1.984126984126984,-22.46031746031746,325.0,-2.3015873015873014,24.047619047619047,-28.809523809523807,-5.317460317460317,290.07936507936506,325.0,-102.14285714285714,-52.14285714285714,184.68253968253967,173.57142857142856,-1.0317460317460316,0.23809523809523808,-321.8253968253968
306.1111111111111,-0.07936507936507936,5.952380952380952,-3.73015873015873,-11.984126984126984,296.74603174603175,-12.3015873015873,112.14285714285714,-1.349206349206349,-8.65079365079365,315.0,-11.984126984126984,5.317460317460317,-17.857142857142858,-7.222222222222221,291.031746031746,300.87301587301585,-106.42857142857142,-48.80952380952381,126.74603174603173,114.52380952380952,-0.873015873015873,-0.873015873015873,-321.8253968253968
306.1111111111111,-0.07936507936507936,5.952380952380952,-3.73015873015873,-11.984126984126984,296.74603174603175,-12.3015873015873,112.14285714285714,-1.349206349206349,-8.65079365079365,315.0,-11.984126984126984,5.317460317460317,-17.857142857142858,-7.222222222222221,291.031746031746,300.87301587301585,-106.42857142857142,-48.80952380952381,126.74603174603173,114.52380952380952,-0.873015873015873,-0.873015873015873,-321.8253968253968
282.3015873015873,-11.507936507936508,-8.809523809523808,0.23809523809523808,-26.11111111111111,264.2063492063492,-9.444444444444445,125.15873015873015,-2.619047619047619,10.555555555555555,290.87301587301585,-21.03174603174603,-13.571428571428571,-17.857142857142858,-10.873015873015872,308.4920634920635,263.25396825396825,-107.53968253968253,-45.0,57.22222222222222,51.82539682539682,-0.23809523809523808,-0.873015873015873,-166.26984126984127
282.3015873015873,-11.507936507936508,-8.809523809523808,0.23809523809523808,-26.11111111111111,264.2063492063492,-9.444444444444445,125.15873015873015,-2.619047619047619,10.555555555555555,290.87301587301585,-21.03174603174603,-13.571428571428571,-17.857142857142858,-10.873015873015872,308.4920634920635,263.25396825396825,-107.53968253968253,-45.0,57.22222222222222,51.82539682539682,-0.23809523809523808,-0.873015873015873,-166.26984126984127
277.38095238095235,-10.555555555555555,-6.587301587301587,-22.3015873015873,-24.68253968253968,259.76190476190476,-10.396825396825395,141.19047619047618,-4.523809523809524,15.793650793650793,276.74603174603175,-20.555555555555554,-13.73015873015873,-28.809523809523807,-12.46031746031746,325.0,249.9206349206349,-104.36507936507935,-44.68253968253968,45.79365079365079,48.17460317460317,0.3968253968253968,0.23809523809523808,-166.26984126984127
277.38095238095235,-10.555555555555555,-6.587301587301587,-22.3015873015873,-24.68253968253968,259.76190476190476,-10.396825396825395,141.19047619047618,-4.523809523809524,15.793650793650793,276.74603174603175,-20.555555555555554,-13.73015873015873,-28.809523809523807,-12.46031746031746,325.0,249.9206349206349,-104.36507936507935,-44.68253968253968,45.79365079365079,48.17460317460317,0.3968253968253968,0.23809523809523808,-166.26984126984127
277.38095238095235,-10.555555555555555,-6.587301587301587,-22.3015873015873,-24.68253968253968,259.76190476190476,-10.396825396825395,141.19047619047618,-4.523809523809524,15.793650793650793,276.74603174603175,-20.555555555555554,-13.73015873015873,-28.809523809523807,-12.46031746031746,325.0,249.9206349206349,-104.36507936507935,-44.68253968253968,45.79365079365079,48.17460317460317,0.3968253968253968,0.23809523809523808,-166.26984126984127
277.38095238095235,-10.555555555555555,-6.587301587301587,-22.3015873015873,-24.68253968253968,259.76190476190476,-10.396825396825395,141.19047619047618,-4.523809523809524,15.793650793650793,276.74603174603175,-20.555555555555554,-13.73015873015873,-28.809523809523807,-12.46031746031746,325.0,249.9206349206349,-104.36507936507935,-44.68253968253968,45.79365079365079,48.17460317460317,0.3968253968253968,0.23809523809523808,-166.26984126984127
51.19047619047619,15.158730158730158,7.3809523809523805,-2.142857142857143,-21.19047619047619,155.47619047619048,7.5396825396825395,-11.031746031746032,-12.46031746031746,-3.4126984126984126,245.79365079365078,4.523809523809524,-6.428571428571428,-5.634920634920634,2.46031746031746,-325.0,197.2222222222222,11.031746031746032,-26.428571428571427,104.84126984126983,89.92063492063491,-0.7142857142857142,-0.23809523809523808,-166.26984126984127
51.19047619047619,15.158730158730158,7.3809523809523805,-2.142857142857143,-21.19047619047619,155.47619047619048,7.5396825396825395,-11.031746031746032,-12.46031746031746,-3.4126984126984126,245.79365079365078,4.523809523809524,-6.428571428571428,-5.634920634920634,2.46031746031746,-325.0,197.2222222222222,11.031746031746032,-26.428571428571427,104.84126984126983,89.92063492063491,-0.7142857142857142,-0.23809523809523808,-166.26984126984127
-92.46031746031746,20.238095238095237,4.2063492063492065,-15.158730158730158,-41.19047619047619,126.42857142857142,-8.174603174603174,8.809523809523808,-10.238095238095237,-25.634920634920633,200.55555555555554,11.031746031746032,-20.396825396825395,-11.19047619047619,-12.777777777777777,-325.0,159.12698412698413,8.174603174603174,-19.444444444444443,60.39682539682539,45.15873015873016,-0.3968253968253968,0.3968253968253968,-166.26984126984127
-92.46031746031746,20.238095238095237,4.2063492063492065,-15.158730158730158,-41.19047619047619,126.42857142857142,-8.174603174603174,8.809523809523808,-10.238095238095237,-25.634920634920633,200.55555555555554,11.031746031746032,-20.396825396825395,-11.19047619047619,-12.777777777777777,-325.0,159.12698412698413,8.174603174603174,-19.444444444444443,60.39682539682539,45.15873015873016,-0.3968253968253968,0.3968253968253968,-166.26984126984127
-92.46031746031746,20.238095238095237,4.2063492063492065,-15.158730158730158,-41.19047619047619,126.42857142857142,-8.174603174603174,8.809523809523808,-10.238095238095237,-25.634920634920633,200.55555555555554,11.031746031746032,-20.396825396825395,-11.19047619047619,-12.777777777777777,-325.0,159.12698412698413,8.174603174603174,-19.444444444444443,60.39682539682539,45.15873015873016,-0.3968253968253968,0.3968253968253968,-321.8253968253968
-92.46031746031746,20.238095238095237,4.2063492063492065,-15.158730158730158,-41.19047619047619,126.42857142857142,-8.174603174603174,8.809523809523808,-10.238095238095237,-25.634920634920633,200.55555555555554,11.031746031746032,-20.396825396825395,-11.19047619047619,-12.777777777777777,-325.0,159.12698412698413,8.174603174603174,-19.444444444444443,60.39682539682539,45.15873015873016,-0.3968253968253968,0.3968253968253968,-321.8253968253968
14.047619047619047,-2.46031746031746,-28.333333333333332,17.539682539682538,-73.88888888888889,-99.28571428571428,-12.936507936507935,140.3968253968254,-15.95238095238095,24.365079365079364,105.79365079365078,36.11111111111111,-29.285714285714285,81.19047619047619,-16.904761904761905,-308.17460317460313,28.333333333333332,38.49206349206349,13.412698412698411,-86.9047619047619,-56.269841269841265,0.5555555555555556,0.7142857142857142,-321.8253968253968
14.047619047619047,-2.46031746031746,-28.333333333333332,17.539682539682538,-73.88888888888889,-99.28571428571428,-12.936507936507935,140.3968253968254,-15.95238095238095,24.365079365079364,105.79365079365078,36.11111111111111,-29.285714285714285,81.19047619047619,-16.904761904761905,-308.17460317460313,28.333333333333332,38.49206349206349,13.412698412698411,-86.9047619047619,-56.269841269841265,0.5555555555555556,0.7142857142857142,-321.8253968253968
95.0,-21.03174603174603,-57.53968253968254,56.58730158730158,-136.74603174603175,-325.0,-15.317460317460316,282.6190476190476,-22.46031746031746,80.39682539682539,-16.746031746031743,64.2063492063492,-25.0,163.57142857142856,-11.507936507936508,-308.17460317460313,-123.25396825396825,71.19047619047619,54.841269841269835,-234.52380952380952,-149.28571428571428,0.5555555555555556,-0.3968253968253968,-321.8253968253968
95.0,-21.03174603174603,-57.53968253968254,56.58730158730158,-136.74603174603175,-325.0,-15.317460317460316,282.6190476190476,-22.46031746031746,80.39682539682539,-16.746031746031743,64.2063492063492,-25.0,163.57142857142856,-11.507936507936508,-308.17460317460313,-123.25396825396825,71.19047619047619,54.841269841269835,-234.52380952380952,-149.28571428571428,0.5555555555555556,-0.3968253968253968,-321.8253968253968
105.0,-21.984126984126984,-41.19047619047619,46.904761904761905,-127.6984126984127,-325.0,-2.9365079365079363,299.76190476190476,-10.873015873015872,69.28571428571428,-58.650793650793645,46.269841269841265,-11.349206349206348,200.7142857142857,4.2063492063492065,-325.0,-152.3015873015873,45.317460317460316,50.87301587301587,-227.53968253968253,-149.76190476190476,-1.0317460317460316,-0.7142857142857142,-321.8253968253968
105.0,-21.984126984126984,-41.19047619047619,46.904761904761905,-127.6984126984127,-325.0,-2.9365079365079363,299.76190476190476,-10.873015873015872,69.28571428571428,-58.650793650793645,46.269841269841265,-11.349206349206348,200.7142857142857,4.2063492063492065,-325.0,-152.3015873015873,45.317460317460316,50.87301587301587,-227.53968253968253,-149.76190476190476,-1.0317460317460316,-0.7142857142857142,-321.8253968253968
-113.88888888888889,-40.39682539682539,-30.396825396825395,35.63492063492063,-66.58730158730158,-324.68253968253964,3.253968253968254,287.85714285714283,-4.0476190476190474,24.365079365079364,-123.4126984126984,18.49206349206349,-7.063492063492063,34.36507936507936,12.936507936507935,-325.0,-196.11111111111111,-5.476190476190476,21.349206349206348,-221.5079365079365,-194.2063492063492,0.5555555555555556,-0.3968253968253968,-321.8253968253968
-113.88888888888889,-40.39682539682539,-30.396825396825395,35.63492063492063,-66.58730158730158,-324.68253968253964,3.253968253968254,287.85714285714283,-4.0476190476190474,24.365079365079364,-123.4126984126984,18.49206349206349,-7.063492063492063,34.36507936507936,12.936507936507935,-325.0,-196.11111111111111,-5.476190476190476,21.349206349206348,-221.5079365079365,-194.2063492063492,0.5555555555555556,-0.3968253968253968,-321.8253968253968
-325.0,-47.698412698412696,-23.88888888888889,36.11111111111111,-30.396825396825395,-324.2063492063492,6.904761904761904,250.87301587301585,-2.46031746031746,2.142857142857143,-148.015873015873,3.095238095238095,6.904761904761904,-85.0,21.984126984126984,-325.0,-215.0,-38.65079365079365,2.46031746031746,-192.93650793650792,-199.9206349206349,0.5555555555555556,-0.3968253968253968,-166.26984126984127
-325.0,-47.698412698412696,-23.88888888888889,36.11111111111111,-30.396825396825395,-324.2063492063492,6.904761904761904,250.87301587301585,-2.46031746031746,2.142857142857143,-148.015873015873,3.095238095238095,6.904761904761904,-85.0,21.984126984126984,-325.0,-215.0,-38.65079365079365,2.46031746031746,-192.93650793650792,-199.9206349206349,0.5555555555555556,-0.3968253968253968,-166.26984126984127
-325.0,-47.698412698412696,-23.88888888888889,36.11111111111111,-30.396825396825395,-324.2063492063492,6.904761904761904,250.87301587301585,-2.46031746031746,2.142857142857143,-148.015873015873,3.095238095238095,6.904761904761904,-85.0,21.984126984126984,-325.0,-215.0,-38.65079365079365,2.46031746031746,-192.93650793650792,-199.9206349206349,0.5555555555555556,-0.3968253968253968,-166.26984126984127
-325.0,-47.698412698412696,-23.88888888888889,36.11111111111111,-30.396825396825395,-324.2063492063492,6.904761904761904,250.87301587301585,-2.46031746031746,2.142857142857143,-148.015873015873,3.095238095238095,6.904761904761904,-85.0,21.984126984126984,-325.0,-215.0,-38.65079365079365,2.46031746031746,-192.93650793650792,-199.9206349206349,0.5555555555555556,-0.3968253968253968,-166.26984126984127
-325.0,-47.698412698412696,-23.88888888888889,36.11111111111111,-30.396825396825395,-324.2063492063492,6.904761904761904,250.87301587301585,-2.46031746031746,2.142857142857143,-148.015873015873,3.095238095238095,6.904761904761904,-85.0,21.984126984126984,-325.0,-215.0,-38.65079365079365,2.46031746031746,-192.93650793650792,-199.9206349206349,0.5555555555555556,-0.3968253968253968,-166.26984126984127
-325.0,-47.698412698412696,-23.88888888888889,36.11111111111111,-30.396825396825395,-324.2063492063492,6.904761904761904,250.87301587301585,-2.46031746031746,2.142857142857143,-148.015873015873,3.095238095238095,6.904761904761904,-85.0,21.984126984126984,-325.0,-215.0,-38.65079365079365,2.46031746031746,-192.93650793650792,-199.9206349206349,0.5555555555555556,-0.3968253968253968,-166.26984126984127
-325.0,-36.269841269841265,4.2063492063492065,27.38095238095238,-15.95238095238095,-291.5079365079365,-11.507936507936508,145.3174603174603,-7.5396825396825395,-2.46031746031746,-176.26984126984127,-10.396825396825395,-16.587301587301585,-219.76190476190476,-0.07936507936507936,-188.4920634920635,-226.42857142857142,-81.34920634920634,-11.19047619047619,-184.36507936507937,-188.17460317460316,-0.873015873015873,0.07936507936507936,-166.26984126984127
-325.0,-36.269841269841265,4.2063492063492065,27.38095238095238,-15.95238095238095,-291.5079365079365,-11.507936507936508,145.3174603174603,-7.5396825396825395,-2.46031746031746,-176.26984126984127,-10.396825396825395,-16.587301587301585,-219.76190476190476,-0.07936507936507936,-188.4920634920635,-226.42857142857142,-81.34920634920634,-11.19047619047619,-184.36507936507937,-188.17460317460316,-0.873015873015873,0.07936507936507936,-166.26984126984127
-325.0,-41.03174603174603,-9.285714285714285,28.65079365079365,-48.17460317460317,-255.15873015873015,-17.22222222222222,81.03174603174602,-15.158730158730158,18.174603174603174,-181.03174603174602,3.73015873015873,-15.158730158730158,-165.63492063492063,-3.253968253968254,-26.746031746031743,-218.17460317460316,-80.87301587301587,4.2063492063492065,-148.96825396825395,-143.09523809523807,0.873015873015873,-0.07936507936507936,-166.26984126984127
-325.0,-41.03174603174603,-9.285714285714285,28.65079365079365,-48.17460317460317,-255.15873015873015,-17.22222222222222,81.03174603174602,-15.158730158730158,18.174603174603174,-181.03174603174602,3.73015873015873,-15.158730158730158,-165.63492063492063,-3.253968253968254,-26.746031746031743,-218.17460317460316,-80.87301587301587,4.2063492063492065,-148.96825396825395,-143.09523809523807,0.873015873015873,-0.07936507936507936,-166.26984126984127
-325.0,-26.9047619047619,-16.746031746031743,11.349206349206348,-69.12698412698413,53.095238095238095,-7.063492063492063,19.6031746031746,-12.3015873015873,28.809523809523807,-122.93650793650794,18.49206349206349,2.7777777777777777,-77.6984126984127,4.2063492063492065,-95.0,-136.9047619047619,-71.19047619047619,11.507936507936508,-57.53968253968254,-39.76190476190476,1.0317460317460316,-0.7142857142857142,-321.8253968253968
-325.0,-26.9047619047619,-16.746031746031743,11.349206349206348,-69.12698412698413,53.095238095238095,-7.063492063492063,19.6031746031746,-12.3015873015873,28.809523809523807,-122.93650793650794,18.49206349206349,2.7777777777777777,-77.6984126984127,4.2063492063492065,-95.0,-136.9047619047619,-71.19047619047619,11.507936507936508,-57.53968253968254,-39.76190476190476,1.0317460317460316,-0.7142857142857142,-321.8253968253968
-325.0,-7.857142857142857,-10.555555555555555,-7.222222222222221,-57.857142857142854,325.0,8.968253968253968,22.46031746031746,-1.6666666666666665,18.80952380952381,-60.079365079365076,19.126984126984127,19.444444444444443,-43.888888888888886,15.0,-325.0,-63.888888888888886,-61.98412698412698,3.4126984126984126,-1.6666666666666665,18.49206349206349,-0.5555555555555556,-1.0317460317460316,-321.8253968253968
-325.0,-7.857142857142857,-10.555555555555555,-7.222222222222221,-57.857142857142854,325.0,8.968253968253968,22.46031746031746,-1.6666666666666665,18.80952380952381,-60.079365079365076,19.126984126984127,19.444444444444443,-43.888888888888886,15.0,-325.0,-63.888888888888886,-61.98412698412698,3.4126984126984126,-1.6666666666666665,18.49206349206349,-0.5555555555555556,-1.0317460317460316,-321.8253968253968
-325.0,-7.857142857142857,-10.555555555555555,-7.222222222222221,-57.857142857142854,325.0,8.968253968253968,22.46031746031746,-1.6666666666666665,18.80952380952381,-60.079365079365076,19.126984126984127,19.444444444444443,-43.888888888888886,15.0,-325.0,-63.888888888888886,-61.98412698412698,3.4126984126984126,-1.6666666666666665,18.49206349206349,-0.5555555555555556,-1.0317460317460316,-321.8253968253968
-325.0,-7.857142857142857,-10.555555555555555,-7.222222222222221,-57.857142857142854,325.0,8.968253968253968,22.46031746031746,-1.6666666666666665,18.80952380952381,-60.079365079365076,19.126984126984127,19.444444444444443,-43.888888888888886,15.0,-325.0,-63.888888888888886,-61.98412698412698,3.4126984126984126,-1.6666666666666665,18.49206349206349,-0.5555555555555556,-1.0317460317460316,-321.8253968253968
-95.0,3.888888888888889,-6.587301587301587,-3.571428571428571,-60.873015873015866,325.0,4.2063492063492065,-43.25396825396825,-9.444444444444445,7.698412698412698,-84.36507936507937,17.38095238095238,16.26984126984127,-34.047619047619044,9.126984126984127,-136.26984126984127,-78.33333333333333,-52.61904761904761,2.142857142857143,-17.063492063492063,-1.1904761904761905,-0.7142857142857142,-1.1904761904761905,-321.8253968253968
-95.0,3.888888888888889,-6.587301587301587,-3.571428571428571,-60.873015873015866,325.0,4.2063492063492065,-43.25396825396825,-9.444444444444445,7.698412698412698,-84.36507936507937,17.38095238095238,16.26984126984127,-34.047619047619044,9.126984126984127,-136.26984126984127,-78.33333333333333,-52.61904761904761,2.142857142857143,-17.063492063492063,-1.1904761904761905,-0.7142857142857142,-1.1904761904761905,-321.8253968253968
-162.14285714285714,8.65079365079365,0.873015873015873,4.682539682539682,-70.39682539682539,168.4920634920635,14.047619047619047,109.44444444444444,5.158730158730158,9.603174603174603,-33.57142857142857,16.11111111111111,22.777777777777775,10.714285714285714,8.015873015873016,-12.777777777777777,-19.285714285714285,-135.47619047619048,-15.158730158730158,14.365079365079364,8.809523809523808,-0.5555555555555556,-0.3968253968253968,-321.8253968253968
-162.14285714285714,8.65079365079365,0.873015873015873,4.682539682539682,-70.39682539682539,168.4920634920635,14.047619047619047,109.44444444444444,5.158730158730158,9.603174603174603,-33.57142857142857,16.11111111111111,22.777777777777775,10.714285714285714,8.015873015873016,-12.777777777777777,-19.285714285714285,-135.47619047619048,-15.158730158730158,14.365079365079364,8.809523809523808,-0.5555555555555556,-0.3968253968253968,-321.8253968253968
-325.0,18.96825396825397,-7.3809523809523805,3.571428571428571,-94.36507936507935,12.142857142857142,19.444444444444443,-22.46031746031746,11.031746031746032,22.46031746031746,-13.571428571428571,15.158730158730158,13.73015873015873,24.68253968253968,14.682539682539682,299.4444444444444,-9.285714285714285,-46.58730158730158,-20.07936507936508,23.730158730158728,21.666666666666664,-0.3968253968253968,-1.0317460317460316,-166.26984126984127
-325.0,18.96825396825397,-7.3809523809523805,3.571428571428571,-94.36507936507935,12.142857142857142,19.444444444444443,-22.46031746031746,11.031746031746032,22.46031746031746,-13.571428571428571,15.158730158730158,13.73015873015873,24.68253968253968,14.682539682539682,299.4444444444444,-9.285714285714285,-46.58730158730158,-20.07936507936508,23.730158730158728,21.666666666666664,-0.3968253968253968,-1.0317460317460316,-166.26984126984127
-325.0,18.96825396825397,-7.3809523809523805,3.571428571428571,-94.36507936507935,12.142857142857142,19.444444444444443,-22.46031746031746,11.031746031746032,22.46031746031746,-13.571428571428571,15.158730158730158,13.73015873015873,24.68253968253968,14.682539682539682,299.4444444444444,-9.285714285714285,-46.58730158730158,-20.07936507936508,23.730158730158728,21.666666666666664,-0.3968253968253968,-1.0317460317460316,-166.26984126984127
-325.0,18.96825396825397,-7.3809523809523805,3.571428571428571,-94.36507936507935,12.142857142857142,19.444444444444443,-22.46031746031746,11.031746031746032,22.46031746031746,-13.571428571428571,15.158730158730158,13.73015873015873,24.68253968253968,14.682539682539682,299.4444444444444,-9.285714285714285,-46.58730158730158,-20.07936507936508,23.730158730158728,21.666666666666664,-0.3968253968253968,-1.0317460317460316,-166.26984126984127
-325.0,18.96825396825397,-7.3809523809523805,3.571428571428571,-94.36507936507935,12.142857142857142,19.444444444444443,-22.46031746031746,11.031746031746032,22.46031746031746,-13.571428571428571,15.158730158730158,13.73015873015873,24.68253968253968,14.682539682539682,299.4444444444444,-9.285714285714285,-46.58730158730158,-20.07936507936508,23.730158730158728,21.666666666666664,-0.3968253968253968,-1.0317460317460316,-166.26984126984127
-325.0,18.96825396825397,-7.3809523809523805,3.571428571428571,-94.36507936507935,12.142857142857142,19.444444444444443,-22.46031746031746,11.031746031746032,22.46031746031746,-13.571428571428571,15.158730158730158,13.73015873015873,24.68253968253968,14.682539682539682,299.4444444444444,-9.285714285714285,-46.58730158730158,-20.07936507936508,23.730158730158728,21.666666666666664,-0.3968253968253968,-1.0317460317460316,-166.26984126984127
-325.0,18.96825396825397,-7.3809523809523805,3.571428571428571,-94.36507936507935,12.142857142857142,19.444444444444443,-22.46031746031746,11.031746031746032,22.46031746031746,-13.571428571428571,15.158730158730158,13.73015873015873,24.68253968253968,14.682539682539682,299.4444444444444,-9.285714285714285,-46.58730158730158,-20.07936507936508,23.730158730158728,21.666666666666664,-0.3968253968253968,-1.0317460317460316,-166.26984126984127
-325.0,18.96825396825397,-7.3809523809523805,3.571428571428571,-94.36507936507935,12.142857142857142,19.444444444444443,-22.46031746031746,11.031746031746032,22.46031746031746,-13.571428571428571,15.158730158730158,13.73015873015873,24.68253968253968,14.682539682539682,299.4444444444444,-9.285714285714285,-46.58730158730158,-20.07936507936508,23.730158730158728,21.666666666666664,-0.3968253968253968,-1.0317460317460316,-166.26984126984127
-325.0,18.96825396825397,-7.3809523809523805,3.571428571428571,-94.36507936507935,12.142857142857142,19.444444444444443,-22.46031746031746,11.031746031746032,22.46031746031746,-13.571428571428571,15.158730158730158,13.73015873015873,24.68253968253968,14.682539682539682,299.4444444444444,-9.285714285714285,-46.58730158730158,-20.07936507936508,23.730158730158728,21.666666666666664,-0.3968253968253968,-1.0317460317460316,-166.26984126984127
-325.0,18.96825396825397,-7.3809523809523805,3.571428571428571,-94.36507936507935,12.142857142857142,19.444444444444443,-22.46031746031746,11.031746031746032,22.46031746031746,-13.571428571428571,15.158730158730158,13.73015873015873,24.68253968253968,14.682539682539682,299.4444444444444,-9.285714285714285,-46.58730158730158,-20.07936507936508,23.730158730158728,21.666666666666664,-0.3968253968253968,-1.0317460317460316,-166.26984126984127
-238.8095238095238,7.857142857142857,15.317460317460316,-25.158730158730158,0.7142857142857142,-122.77777777777777,-17.063492063492063,275.0,5.0,-4.841269841269841,96.42857142857142,-1.0317460317460316,-20.555555555555554,-15.158730158730158,-0.5555555555555556,-151.34920634920633,72.14285714285714,39.12698412698413,-25.476190476190474,69.12698412698413,51.82539682539682,1.0317460317460316,0.23809523809523808,-321.8253968253968
-238.8095238095238,7.857142857142857,15.317460317460316,-25.158730158730158,0.7142857142857142,-122.77777777777777,-17.063492063492063,275.0,5.0,-4.841269841269841,96.42857142857142,-1.0317460317460316,-20.555555555555554,-15.158730158730158,-0.5555555555555556,-151.34920634920633,72.14285714285714,39.12698412698413,-25.476190476190474,69.12698412698413,51.82539682539682,1.0317460317460316,0.23809523809523808,-321.8253968253968
-238.8095238095238,7.857142857142857,15.317460317460316,-25.158730158730158,0.7142857142857142,-122.77777777777777,-17.063492063492063,275.0,5.0,-4.841269841269841,96.42857142857142,-1.0317460317460316,-20.555555555555554,-15.158730158730158,-0.5555555555555556,-151.34920634920633,72.14285714285714,39.12698412698413,-25.476190476190474,69.12698412698413,51.82539682539682,1.0317460317460316,0.23809523809523808,-321.8253968253968
-238.8095238095238,7.857142857142857,15.317460317460316,-25.158730158730158,0.7142857142857142,-122.77777777777777,-17.063492063492063,275.0,5.0,-4.841269841269841,96.42857142857142,-1.0317460317460316,-20.555555555555554,-15.158730158730158,-0.5555555555555556,-151.34920634920633,72.14285714285714,39.12698412698413,-25.476190476190474,69.12698412698413,51.82539682539682,1.0317460317460316,0.23809523809523808,-321.8253968253968
-238.8095238095238,7.857142857142857,15.317460317460316,-25.158730158730158,0.7142857142857142,-122.77777777777777,-17.063492063492063,275.0,5.0,-4.841269841269841,96.42857142857142,-1.0317460317460316,-20.555555555555554,-15.158730158730158,-0.5555555555555556,-151.34920634920633,72.14285714285714,39.12698412698413,-25.476190476190474,69.12698412698413,51.82539682539682,1.0317460317460316,0.23809523809523808,-321.8253968253968
-238.8095238095238,7.857142857142857,15.317460317460316,-25.158730158730158,0.7142857142857142,-122.77777777777777,-17.063492063492063,275.0,5.0,-4.841269841269841,96.42857142857142,-1.0317460317460316,-20.555555555555554,-15.158730158730158,-0.5555555555555556,-151.34920634920633,72.14285714285714,39.12698412698413,-25.476190476190474,69.12698412698413,51.82539682539682,1.0317460317460316,0.23809523809523808,-321.8253968253968
43.095238095238095,49.92063492063492,25.79365079365079,-6.904761904761904,6.428571428571428,85.31746031746032,-18.49206349206349,138.96825396825395,2.9365079365079363,6.428571428571428,89.28571428571428,8.333333333333332,-17.38095238095238,6.746031746031746,-5.0,61.19047619047619,67.38095238095238,42.93650793650794,-25.158730158730158,36.42857142857142,34.047619047619044,-0.07936507936507936,0.23809523809523808,-321.8253968253968
43.095238095238095,49.92063492063492,25.79365079365079,-6.904761904761904,6.428571428571428,85.31746031746032,-18.49206349206349,138.96825396825395,2.9365079365079363,6.428571428571428,89.28571428571428,8.333333333333332,-17.38095238095238,6.746031746031746,-5.0,61.19047619047619,67.38095238095238,42.93650793650794,-25.158730158730158,36.42857142857142,34.047619047619044,-0.07936507936507936,0.23809523809523808,-321.8253968253968
325.0,91.98412698412697,36.42857142857142,11.349206349206348,12.3015873015873,293.4126984126984,-19.92063492063492,3.095238095238095,0.873015873015873,17.857142857142858,82.14285714285714,17.698412698412696,-14.047619047619047,28.65079365079365,-9.444444444444445,273.73015873015873,62.61904761904761,46.74603174603175,-24.84126984126984,3.73015873015873,16.428571428571427,-1.1904761904761905,0.23809523809523808,-321.8253968253968
325.0,91.98412698412697,36.42857142857142,11.349206349206348,12.3015873015873,293.4126984126984,-19.92063492063492,3.095238095238095,0.873015873015873,17.857142857142858,82.14285714285714,17.698412698412696,-14.047619047619047,28.65079365079365,-9.444444444444445,273.73015873015873,62.61904761904761,46.74603174603175,-24.84126984126984,3.73015873015873,16.428571428571427,-1.1904761904761905,0.23809523809523808,-321.8253968253968
325.0,91.98412698412697,36.42857142857142,11.349206349206348,12.3015873015873,293.4126984126984,-19.92063492063492,3.095238095238095,0.873015873015873,17.857142857142858,82.14285714285714,17.698412698412696,-14.047619047619047,28.65079365079365,-9.444444444444445,273.73015873015873,62.61904761904761,46.74603174603175,-24.84126984126984,3.73015873015873,16.428571428571427,-1.1904761904761905,0.23809523809523808,-166.26984126984127
325.0,91.98412698412697,36.42857142857142,11.349206349206348,12.3015873015873,293.4126984126984,-19.92063492063492,3.095238095238095,0.873015873015873,17.857142857142858,82.14285714285714,17.698412698412696,-14.047619047619047,28.65079365079365,-9.444444444444445,273.73015873015873,62.61904761904761,46.74603174603175,-24.84126984126984,3.73015873015873,16.428571428571427,-1.1904761904761905,0.23809523809523808,-166.26984126984127
325.0,91.98412698412697,36.42857142857142,11.349206349206348,12.3015873015873,293.4126984126984,-19.92063492063492,3.095238095238095,0.873015873015873,17.857142857142858,82.14285714285714,17.698412698412696,-14.047619047619047,28.65079365079365,-9.444444444444445,273.73015873015873,62.61904761904761,46.74603174603175,-24.84126984126984,3.73015873015873,16.428571428571427,-1.1904761904761905,0.23809523809523808,-166.26984126984127
325.0,91.98412698412697,36.42857142857142,11.349206349206348,12.3015873015873,293.4126984126984,-19.92063492063492,3.095238095238095,0.873015873015873,17.857142857142858,82.14285714285714,17.698412698412696,-14.047619047619047,28.65079365079365,-9.444444444444445,273.73015873015873,62.61904761904761,46.74603174603175,-24.84126984126984,3.73015873015873,16.428571428571427,-1.1904761904761905,0.23809523809523808,-166.26984126984127
325.0,91.98412698412697,36.42857142857142,11.349206349206348,12.3015873015873,293.4126984126984,-19.92063492063492,3.095238095238095,0.873015873015873,17.857142857142858,82.14285714285714,17.698412698412696,-14.047619047619047,28.65079365079365,-9.444444444444445,273.73015873015873,62.61904761904761,46.74603174603175,-24.84126984126984,3.73015873015873,16.428571428571427,-1.1904761904761905,0.23809523809523808,-166.26984126984127
325.0,91.98412698412697,36.42857142857142,11.349206349206348,12.3015873015873,293.4126984126984,-19.92063492063492,3.095238095238095,0.873015873015873,17.857142857142858,82.14285714285714,17.698412698412696,-14.047619047619047,28.65079365079365,-9.444444444444445,273.73015873015873,62.61904761904761,46.74603174603175,-24.84126984126984,3.73015873015873,16.428571428571427,-1.1904761904761905,0.23809523809523808,-166.26984126984127
325.0,91.98412698412697,36.42857142857142,11.349206349206348,12.3015873015873,293.4126984126984,-19.92063492063492,3.095238095238095,0.873015873015873,17.857142857142858,82.14285714285714,17.698412698412696,-14.047619047619047,28.65079365079365,-9.444444444444445,273.73015873015873,62.61904761904761,46.74603174603175,-24.84126984126984,3.73015873015873,16.428571428571427,-1.1904761904761905,0.23809523809523808,-166.26984126984127
325.0,91.98412698412697,36.42857142857142,11.349206349206348,12.3015873015873,293.4126984126984,-19.92063492063492,3.095238095238095,0.873015873015873,17.857142857142858,82.14285714285714,17.698412698412696,-14.047619047619047,28.65079365079365,-9.444444444444445,273.73015873015873,62.61904761904761,46.74603174603175,-24.84126984126984,3.73015873015873,16.428571428571427,-1.1904761904761905,0.23809523809523808,-166.26984126984127
325.0,91.98412698412697,36.42857142857142,11.349206349206348,12.3015873015873,293.4126984126984,-19.92063492063492,3.095238095238095,0.873015873015873,17.857142857142858,82.14285714285714,17.698412698412696,-14.047619047619047,28.65079365079365,-9.444444444444445,273.73015873015873,62.61904761904761,46.74603174603175,-24.84126984126984,3.73015873015873,16.428571428571427,-1.1904761904761905,0.23809523809523808,-166.26984126984127
325.0,91.98412698412697,36.42857142857142,11.349206349206348,12.3015873015873,293.4126984126984,-19.92063492063492,3.095238095238095,0.873015873015873,17.857142857142858,82.14285714285714,17.698412698412696,-14.047619047619047,28.65079365079365,-9.444444444444445,273.73015873015873,62.61904761904761,46.74603174603175,-24.84126984126984,3.73015873015873,16.428571428571427,-1.1904761904761905,0.23809523809523808,-166.26984126984127
325.0,91.98412698412697,36.42857142857142,11.349206349206348,12.3015873015873,293.4126984126984,-19.92063492063492,3.095238095238095,0.873015873015873,17.857142857142858,82.14285714285714,17.698412698412696,-14.047619047619047,28.65079365079365,-9.444444444444445,273.73015873015873,62.61904761904761,46.74603174603175,-24.84126984126984,3.73015873015873,16.428571428571427,-1.1904761904761905,0.23809523809523808,-321.8253968253968
325.0,91.98412698412697,36.42857142857142,11.349206349206348,12.3015873015873,293.4126984126984,-19.92063492063492,3.095238095238095,0.873015873015873,17.857142857142858,82.14285714285714,17.698412698412696,-14.047619047619047,28.65079365079365,-9.444444444444445,273.73015873015873,62.61904761904761,46.74603174603175,-24.84126984126984,3.73015873015873,16.428571428571427,-1.1904761904761905,0.23809523809523808,-321.8253968253968
325.0,91.98412698412697,36.42857142857142,11.349206349206348,12.3015873015873,293.4126984126984,-19.92063492063492,3.095238095238095,0.873015873015873,17.857142857142858,82.14285714285714,17.698412698412696,-14.047619047619047,28.65079365079365,-9.444444444444445,273.73015873015873,62.61904761904761,46.74603174603175,-24.84126984126984,3.73015873015873,16.428571428571427,-1.1904761904761905,0.23809523809523808,-321.8253968253968
325.0,91.98412698412697,36.42857142857142,11.349206349206348,12.3015873015873,293.4126984126984,-19.92063492063492,3.095238095238095,0.873015873015873,17.857142857142858,82.14285714285714,17.698412698412696,-14.047619047619047,28.65079365079365,-9.444444444444445,273.73015873015873,62.61904761904761,46.74603174603175,-24.84126984126984,3.73015873015873,16.428571428571427,-1.1904761904761905,0.23809523809523808,-321.8253968253968
325.0,-84.52380952380952,-28.65079365079365,-34.2063492063492,15.0,325.0,-4.2063492063492065,190.07936507936506,-1.0317460317460316,-1.349206349206349,140.07936507936506,-20.555555555555554,-5.476190476190476,-20.07936507936508,-9.444444444444445,-325.0,81.82539682539682,42.14285714285714,-28.333333333333332,53.73015873015873,36.42857142857142,-0.7142857142857142,-1.349206349206349,-321.8253968253968
325.0,-84.52380952380952,-28.65079365079365,-34.2063492063492,15.0,325.0,-4.2063492063492065,190.07936507936506,-1.0317460317460316,-1.349206349206349,140.07936507936506,-20.555555555555554,-5.476190476190476,-20.07936507936508,-9.444444444444445,-325.0,81.82539682539682,42.14285714285714,-28.333333333333332,53.73015873015873,36.42857142857142,-0.7142857142857142,-1.349206349206349,-321.8253968253968
325.0,-88.4920634920635,-17.063492063492063,-46.904761904761905,18.174603174603174,325.0,-2.3015873015873014,176.58730158730157,3.888888888888889,-7.857142857142857,152.77777777777777,-15.95238095238095,-9.920634920634921,-18.174603174603174,-7.063492063492063,-325.0,116.26984126984127,38.01587301587301,-34.2063492063492,115.95238095238095,99.6031746031746,-1.1904761904761905,-0.7142857142857142,-321.8253968253968
325.0,-88.4920634920635,-17.063492063492063,-46.904761904761905,18.174603174603174,325.0,-2.3015873015873014,176.58730158730157,3.888888888888889,-7.857142857142857,152.77777777777777,-15.95238095238095,-9.920634920634921,-18.174603174603174,-7.063492063492063,-325.0,116.26984126984127,38.01587301587301,-34.2063492063492,115.95238095238095,99.6031746031746,-1.1904761904761905,-0.7142857142857142,-321.8253968253968
325.0,-88.4920634920635,-17.063492063492063,-46.904761904761905,18.174603174603174,325.0,-2.3015873015873014,176.58730158730157,3.888888888888889,-7.857142857142857,152.77777777777777,-15.95238095238095,-9.920634920634921,-18.174603174603174,-7.063492063492063,-325.0,116.26984126984127,38.01587301587301,-34.2063492063492,115.95238095238095,99.6031746031746,-1.1904761904761905,-0.7142857142857142,-321.8253968253968
325.0,-88.4920634920635,-17.063492063492063,-46.904761904761905,18.174603174603174,325.0,-2.3015873015873014,176.58730158730157,3.888888888888889,-7.857142857142857,152.77777777777777,-15.95238095238095,-9.920634920634921,-18.174603174603174,-7.063492063492063,-325.0,116.26984126984127,38.01587301587301,-34.2063492063492,115.95238095238095,99.6031746031746,-1.1904761904761905,-0.7142857142857142,-321.8253968253968
325.0,-88.4920634920635,-17.063492063492063,-46.904761904761905,18.174603174603174,325.0,-2.3015873015873014,176.58730158730157,3.888888888888889,-7.857142857142857,152.77777777777777,-15.95238095238095,-9.920634920634921,-18.174603174603174,-7.063492063492063,-325.0,116.26984126984127,38.01587301587301,-34.2063492063492,115.95238095238095,99.6031746031746,-1.1904761904761905,-0.7142857142857142,-166.26984126984127
325.0,-88.4920634920635,-17.063492063492063,-46.904761904761905,18.174603174603174,325.0,-2.3015873015873014,176.58730158730157,3.888888888888889,-7.857142857142857,152.77777777777777,-15.95238095238095,-9.920634920634921,-18.174603174603174,-7.063492063492063,-325.0,116.26984126984127,38.01587301587301,-34.2063492063492,115.95238095238095,99.6031746031746,-1.1904761904761905,-0.7142857142857142,-166.26984126984127
325.0,-88.4920634920635,-17.063492063492063,-46.904761904761905,18.174603174603174,325.0,-2.3015873015873014,176.58730158730157,3.888888888888889,-7.857142857142857,152.77777777777777,-15.95238095238095,-9.920634920634921,-18.174603174603174,-7.063492063492063,-325.0,116.26984126984127,38.01587301587301,-34.2063492063492,115.95238095238095,99.6031746031746,-1.1904761904761905,-0.7142857142857142,-166.26984126984127
325.0,-88.4920634920635,-17.063492063492063,-46.904761904761905,18.174603174603174,325.0,-2.3015873015873014,176.58730158730157,3.888888888888889,-7.857142857142857,152.77777777777777,-15.95238095238095,-9.920634920634921,-18.174603174603174,-7.063492063492063,-325.0,116.26984126984127,38.01587301587301,-34.2063492063492,115.95238095238095,99.6031746031746,-1.1904761904761905,-0.7142857142857142,-166.26984126984127
325.0,-88.4920634920635,-17.063492063492063,-46.904761904761905,18.174603174603174,325.0,-2.3015873015873014,176.58730158730157,3.888888888888889,-7.857142857142857,152.77777777777777,-15.95238095238095,-9.920634920634921,-18.174603174603174,-7.063492063492063,-325.0,116.26984126984127,38.01587301587301,-34.2063492063492,115.95238095238095,99.6031746031746,-1.1904761904761905,-0.7142857142857142,-166.26984126984127
325.0,-88.4920634920635,-17.063492063492063,-46.904761904761905,18.174603174603174,325.0,-2.3015873015873014,176.58730158730157,3.888888888888889,-7.857142857142857,152.77777777777777,-15.95238095238095,-9.920634920634921,-18.174603174603174,-7.063492063492063,-325.0,116.26984126984127,38.01587301587301,-34.2063492063492,115.95238095238095,99.6031746031746,-1.1904761904761905,-0.7142857142857142,-166.26984126984127
119.6031746031746,-73.25396825396825,-12.777777777777777,-41.03174603174603,4.365079365079365,325.0,-3.253968253968254,-51.82539682539682,-4.841269841269841,-1.6666666666666665,102.61904761904762,-17.063492063492063,-3.4126984126984126,-20.873015873015873,-7.063492063492063,-189.44444444444443,66.58730158730158,31.349206349206348,-33.25396825396825,9.444444444444445,-11.984126984126984,-1.0317460317460316,-0.7142857142857142,-166.26984126984127
119.6031746031746,-73.25396825396825,-12.777777777777777,-41.03174603174603,4.365079365079365,325.0,-3.253968253968254,-51.82539682539682,-4.841269841269841,-1.6666666666666665,102.61904761904762,-17.063492063492063,-3.4126984126984126,-20.873015873015873,-7.063492063492063,-189.44444444444443,66.58730158730158,31.349206349206348,-33.25396825396825,9.444444444444445,-11.984126984126984,-1.0317460317460316,-0.7142857142857142,-166.26984126984127
285.7936507936508,-57.698412698412696,-22.142857142857142,-57.22222222222222,4.523809523809524,325.0,-7.063492063492063,-257.53968253968253,-13.253968253968253,-5.476190476190476,32.93650793650794,-11.666666666666666,-9.285714285714285,-29.285714285714285,-6.428571428571428,-66.26984126984127,-2.46031746031746,21.984126984126984,-24.047619047619047,15.634920634920634,11.666666666666666,-1.6666666666666665,-1.507936507936508,-166.26984126984127
285.7936507936508,-57.698412698412696,-22.142857142857142,-57.22222222222222,4.523809523809524,325.0,-7.063492063492063,-257.53968253968253,-13.253968253968253,-5.476190476190476,32.93650793650794,-11.666666666666666,-9.285714285714285,-29.285714285714285,-6.428571428571428,-66.26984126984127,-2.46031746031746,21.984126984126984,-24.047619047619047,15.634920634920634,11.666666666666666,-1.6666666666666665,-1.507936507936508,-166.26984126984127
23.41269841269841,-31.666666666666664,-2.9365079365079363,29.6031746031746,-10.079365079365079,317.38095238095235,-1.507936507936508,-263.0952380952381,-15.158730158730158,-1.6666666666666665,-57.06349206349206,3.73015873015873,-0.7142857142857142,41.507936507936506,-1.507936507936508,-325.0,-74.52380952380952,39.44444444444444,0.7142857142857142,-37.53968253968254,-46.269841269841265,-0.7142857142857142,-0.5555555555555556,-321.8253968253968
23.41269841269841,-31.666666666666664,-2.9365079365079363,29.6031746031746,-10.079365079365079,317.38095238095235,-1.507936507936508,-263.0952380952381,-15.158730158730158,-1.6666666666666665,-57.06349206349206,3.73015873015873,-0.7142857142857142,41.507936507936506,-1.507936507936508,-325.0,-74.52380952380952,39.44444444444444,0.7142857142857142,-37.53968253968254,-46.269841269841265,-0.7142857142857142,-0.5555555555555556,-321.8253968253968
-325.0,-30.555555555555554,-35.317460317460316,9.285714285714285,-50.39682539682539,193.57142857142856,-18.174603174603174,-203.25396825396825,-14.206349206349206,0.873015873015873,-283.88888888888886,5.317460317460317,-28.96825396825397,28.65079365079365,-17.539682539682538,196.9047619047619,-235.79365079365078,18.015873015873016,0.3968253968253968,-204.04761904761904,-197.2222222222222,-0.873015873015873,-0.3968253968253968,-321.8253968253968
-325.0,-30.555555555555554,-35.317460317460316,9.285714285714285,-50.39682539682539,193.57142857142856,-18.174603174603174,-203.25396825396825,-14.206349206349206,0.873015873015873,-283.88888888888886,5.317460317460317,-28.96825396825397,28.65079365079365,-17.539682539682538,196.9047619047619,-235.79365079365078,18.015873015873016,0.3968253968253968,-204.04761904761904,-197.2222222222222,-0.873015873015873,-0.3968253968253968,-321.8253968253968
-313.88888888888886,-23.095238095238095,-21.825396825396822,37.53968253968254,-34.682539682539684,226.42857142857142,-9.920634920634921,-214.52380952380952,-13.095238095238095,-1.984126984126984,-208.33333333333331,8.492063492063492,-15.95238095238095,28.65079365079365,-2.7777777777777777,64.84126984126983,-184.2063492063492,12.3015873015873,1.8253968253968254,-133.25396825396825,-113.88888888888889,-0.23809523809523808,-0.5555555555555556,-321.8253968253968
-313.88888888888886,-23.095238095238095,-21.825396825396822,37.53968253968254,-34.682539682539684,226.42857142857142,-9.920634920634921,-214.52380952380952,-13.095238095238095,-1.984126984126984,-208.33333333333331,8.492063492063492,-15.95238095238095,28.65079365079365,-2.7777777777777777,64.84126984126983,-184.2063492063492,12.3015873015873,1.8253968253968254,-133.25396825396825,-113.88888888888889,-0.23809523809523808,-0.5555555555555556,-321.8253968253968
-308.17460317460313,-15.158730158730158,-28.49206349206349,32.93650793650794,-35.0,252.6190476190476,-9.285714285714285,-247.85714285714283,-12.46031746031746,-5.634920634920634,-199.60317460317458,12.142857142857142,1.507936507936508,38.96825396825397,-10.714285714285714,325.0,-169.12698412698413,8.968253968253968,6.428571428571428,-175.95238095238093,-153.57142857142856,-1.349206349206349,-0.07936507936507936,-321.8253968253968
-308.17460317460313,-15.158730158730158,-28.49206349206349,32.93650793650794,-35.0,252.6190476190476,-9.285714285714285,-247.85714285714283,-12.46031746031746,-5.634920634920634,-199.60317460317458,12.142857142857142,1.507936507936508,38.96825396825397,-10.714285714285714,325.0,-169.12698412698413,8.968253968253968,6.428571428571428,-175.95238095238093,-153.57142857142856,-1.349206349206349,-0.07936507936507936,-321.8253968253968
54.2063492063492,-7.698412698412698,-28.015873015873016,-4.682539682539682,-47.38095238095238,173.88888888888889,-4.0476190476190474,-206.9047619047619,-19.92063492063492,15.793650793650793,-259.9206349206349,20.873015873015873,-5.0,2.7777777777777777,-7.063492063492063,-325.0,-240.07936507936506,8.65079365079365,10.714285714285714,-182.46031746031744,-139.44444444444443,0.873015873015873,-0.3968253968253968,-321.8253968253968
54.2063492063492,-7.698412698412698,-28.015873015873016,-4.682539682539682,-47.38095238095238,173.88888888888889,-4.0476190476190474,-206.9047619047619,-19.92063492063492,15.793650793650793,-259.9206349206349,20.873015873015873,-5.0,2.7777777777777777,-7.063492063492063,-325.0,-240.07936507936506,8.65079365079365,10.714285714285714,-182.46031746031744,-139.44444444444443,0.873015873015873,-0.3968253968253968,-321.8253968253968
95.95238095238095,-19.76190476190476,-35.15873015873016,-0.7142857142857142,-33.41269841269841,160.7142857142857,3.888888888888889,-223.7301587301587,-14.523809523809524,5.634920634920634,-246.9047619047619,7.698412698412698,-3.73015873015873,-58.96825396825397,-5.158730158730158,-325.0,-223.88888888888889,-0.3968253968253968,1.6666666666666665,-111.19047619047619,-73.09523809523809,-0.07936507936507936,-1.1904761904761905,-166.26984126984127
95.95238095238095,-19.76190476190476,-35.15873015873016,-0.7142857142857142,-33.41269841269841,160.7142857142857,3.888888888888889,-223.7301587301587,-14.523809523809524,5.634920634920634,-246.9047619047619,7.698412698412698,-3.73015873015873,-58.96825396825397,-5.158730158730158,-325.0,-223.88888888888889,-0.3968253968253968,1.6666666666666665,-111.19047619047619,-73.09523809523809,-0.07936507936507936,-1.1904761904761905,-166.26984126984127
95.95238095238095,-19.76190476190476,-35.15873015873016,-0.7142857142857142,-33.41269841269841,160.7142857142857,3.888888888888889,-223.7301587301587,-14.523809523809524,5.634920634920634,-246.9047619047619,7.698412698412698,-3.73015873015873,-58.96825396825397,-5.158730158730158,-325.0,-223.88888888888889,-0.3968253968253968,1.6666666666666665,-111.19047619047619,-73.09523809523809,-0.07936507936507936,-1.1904761904761905,-166.26984126984127
95.95238095238095,-19.76190476190476,-35.15873015873016,-0.7142857142857142,-33.41269841269841,160.7142857142857,3.888888888888889,-223.7301587301587,-14.523809523809524,5.634920634920634,-246.9047619047619,7.698412698412698,-3.73015873015873,-58.96825396825397,-5.158730158730158,-325.0,-223.88888888888889,-0.3968253968253968,1.6666666666666665,-111.19047619047619,-73.09523809523809,-0.07936507936507936,-1.1904761904761905,-166.26984126984127
-325.0,-25.79365079365079,-39.285714285714285,-82.61904761904762,-40.39682539682539,132.3015873015873,0.873015873015873,41.34920634920635,-6.746031746031746,9.761904761904761,-265.0,0.5555555555555556,-31.507936507936506,-86.1111111111111,-25.158730158730158,-95.15873015873015,-230.07936507936506,-10.714285714285714,-11.507936507936508,-94.36507936507935,-83.88888888888889,-0.07936507936507936,0.3968253968253968,-166.26984126984127
-325.0,-25.79365079365079,-39.285714285714285,-82.61904761904762,-40.39682539682539,132.3015873015873,0.873015873015873,41.34920634920635,-6.746031746031746,9.761904761904761,-265.0,0.5555555555555556,-31.507936507936506,-86.1111111111111,-25.158730158730158,-95.15873015873015,-230.07936507936506,-10.714285714285714,-11.507936507936508,-94.36507936507935,-83.88888888888889,-0.07936507936507936,0.3968253968253968,-166.26984126984127
-325.0,-25.79365079365079,-39.285714285714285,-82.61904761904762,-40.39682539682539,132.3015873015873,0.873015873015873,41.34920634920635,-6.746031746031746,9.761904761904761,-265.0,0.5555555555555556,-31.507936507936506,-86.1111111111111,-25.158730158730158,-95.15873015873015,-230.07936507936506,-10.714285714285714,-11.507936507936508,-94.36507936507935,-83.88888888888889,-0.07936507936507936,0.3968253968253968,-166.26984126984127
-325.0,-25.79365079365079,-39.285714285714285,-82.61904761904762,-40.39682539682539,132.3015873015873,0.873015873015873,41.34920634920635,-6.746031746031746,9.761904761904761,-265.0,0.5555555555555556,-31.507936507936506,-86.1111111111111,-25.158730158730158,-95.15873015873015,-230.07936507936506,-10.714285714285714,-11.507936507936508,-94.36507936507935,-83.88888888888889,-0.07936507936507936,0.3968253968253968,-166.26984126984127
-325.0,-25.79365079365079,-39.285714285714285,-82.61904761904762,-40.39682539682539,132.3015873015873,0.873015873015873,41.34920634920635,-6.746031746031746,9.761904761904761,-265.0,0.5555555555555556,-31.507936507936506,-86.1111111111111,-25.158730158730158,-95.15873015873015,-230.07936507936506,-10.714285714285714,-11.507936507936508,-94.36507936507935,-83.88888888888889,-0.07936507936507936,0.3968253968253968,-166.26984126984127
-325.0,-25.79365079365079,-39.285714285714285,-82.61904761904762,-40.39682539682539,132.3015873015873,0.873015873015873,41.34920634920635,-6.746031746031746,9.761904761904761,-265.0,0.5555555555555556,-31.507936507936506,-86.1111111111111,-25.158730158730158,-95.15873015873015,-230.07936507936506,-10.714285714285714,-11.507936507936508,-94.36507936507935,-83.88888888888889,-0.07936507936507936,0.3968253968253968,-166.26984126984127
-325.0,-25.79365079365079,-39.285714285714285,-82.61904761904762,-40.39682539682539,132.3015873015873,0.873015873015873,41.34920634920635,-6.746031746031746,9.761904761904761,-265.0,0.5555555555555556,-31.507936507936506,-86.1111111111111,-25.158730158730158,-95.15873015873015,-230.07936507936506,-10.714285714285714,-11.507936507936508,-94.36507936507935,-83.88888888888889,-0.07936507936507936,0.3968253968253968,-321.8253968253968
-325.0,-25.79365079365079,-39.285714285714285,-82.61904761904762,-40.39682539682539,132.3015873015873,0.873015873015873,41.34920634920635,-6.746031746031746,9.761904761904761,-265.0,0.5555555555555556,-31.507936507936506,-86.1111111111111,-25.158730158730158,-95.15873015873015,-230.07936507936506,-10.714285714285714,-11.507936507936508,-94.36507936507935,-83.88888888888889,-0.07936507936507936,0.3968253968253968,-321.8253968253968
-325.0,0.873015873015873,-17.063492063492063,-47.698412698412696,-29.126984126984127,125.79365079365078,2.619047619047619,159.9206349206349,-14.047619047619047,3.73015873015873,-196.11111111111111,13.888888888888888,-20.07936507936508,-72.3015873015873,-4.841269841269841,-63.41269841269841,-174.2063492063492,-18.015873015873016,-10.714285714285714,-13.412698412698411,-6.111111111111111,0.23809523809523808,1.0317460317460316,-321.8253968253968
-325.0,0.873015873015873,-17.063492063492063,-47.698412698412696,-29.126984126984127,125.79365079365078,2.619047619047619,159.9206349206349,-14.047619047619047,3.73015873015873,-196.11111111111111,13.888888888888888,-20.07936507936508,-72.3015873015873,-4.841269841269841,-63.41269841269841,-174.2063492063492,-18.015873015873016,-10.714285714285714,-13.412698412698411,-6.111111111111111,0.23809523809523808,1.0317460317460316,-321.8253968253968
-325.0,3.253968253968254,-11.507936507936508,-47.06349206349206,-35.63492063492063,102.77777777777777,-2.142857142857143,169.60317460317458,-19.6031746031746,50.238095238095234,-230.2380952380952,17.698412698412696,-18.80952380952381,-67.85714285714285,-8.015873015873016,-68.17460317460318,-197.85714285714283,-15.634920634920634,-4.2063492063492065,-45.0,-20.873015873015873,0.5555555555555556,1.0317460317460316,-321.8253968253968
-325.0,3.253968253968254,-11.507936507936508,-47.06349206349206,-35.63492063492063,102.77777777777777,-2.142857142857143,169.60317460317458,-19.6031746031746,50.238095238095234,-230.2380952380952,17.698412698412696,-18.80952380952381,-67.85714285714285,-8.015873015873016,-68.17460317460318,-197.85714285714283,-15.634920634920634,-4.2063492063492065,-45.0,-20.873015873015873,0.5555555555555556,1.0317460317460316,-321.8253968253968
77.22222222222221,-21.03174603174603,173.25396825396825,-59.6031746031746,-310.23809523809524,-285.95238095238096,224.2063492063492,266.58730158730157,40.55555555555555,285.6349206349206,-94.52380952380952,-60.39682539682539,-67.22222222222221,-191.8253968253968,-244.2063492063492,-21.666666666666664,322.3015873015873,-18.96825396825397,-243.57142857142856,108.80952380952381,-94.68253968253968,-20.873015873015873,0.23809523809523808,-321.8253968253968
77.22222222222221,-21.03174603174603,173.25396825396825,-59.6031746031746,-310.23809523809524,-285.95238095238096,224.2063492063492,266.58730158730157,40.55555555555555,285.6349206349206,-94.52380952380952,-60.39682539682539,-67.22222222222221,-191.8253968253968,-244.2063492063492,-21.666666666666664,322.3015873015873,-18.96825396825397,-243.57142857142856,108.80952380952381,-94.68253968253968,-20.873015873015873,0.23809523809523808,-321.8253968253968
77.22222222222221,-21.03174603174603,173.25396825396825,-59.6031746031746,-310.23809523809524,-285.95238095238096,224.2063492063492,266.58730158730157,40.55555555555555,285.6349206349206,-94.52380952380952,-60.39682539682539,-67.22222222222221,-191.8253968253968,-244.2063492063492,-21.666666666666664,322.3015873015873,-18.96825396825397,-243.57142857142856,108.80952380952381,-94.68253968253968,-20.873015873015873,0.23809523809523808,-321.8253968253968
77.22222222222221,-21.03174603174603,173.25396825396825,-59.6031746031746,-310.23809523809524,-285.95238095238096,224.2063492063492,266.58730158730157,40.55555555555555,285.6349206349206,-94.52380952380952,-60.39682539682539,-67.22222222222221,-191.8253968253968,-244.2063492063492,-21.666666666666664,322.3015873015873,-18.96825396825397,-243.57142857142856,108.80952380952381,-94.68253968253968,-20.873015873015873,0.23809523809523808,-321.8253968253968
-31.349206349206348,-4.682539682539682,-13.571428571428571,-75.95238095238095,-42.3015873015873,-20.238095238095237,-5.952380952380952,-78.17460317460316,-12.3015873015873,121.03174603174602,-319.9206349206349,20.555555555555554,-2.142857142857143,-58.96825396825397,-1.6666666666666665,325.0,-260.23809523809524,-28.49206349206349,11.349206349206348,-133.25396825396825,-110.39682539682539,-0.7142857142857142,-0.873015873015873,-166.26984126984127
-31.349206349206348,-4.682539682539682,-13.571428571428571,-75.95238095238095,-42.3015873015873,-20.238095238095237,-5.952380952380952,-78.17460317460316,-12.3015873015873,121.03174603174602,-319.9206349206349,20.555555555555554,-2.142857142857143,-58.96825396825397,-1.6666666666666665,325.0,-260.23809523809524,-28.49206349206349,11.349206349206348,-133.25396825396825,-110.39682539682539,-0.7142857142857142,-0.873015873015873,-166.26984126984127
-9.444444444444445,-5.317460317460317,-19.285714285714285,-102.93650793650794,-46.269841269841265,-13.253968253968253,-13.095238095238095,-8.968253968253968,-14.84126984126984,118.49206349206348,-314.8412698412698,18.96825396825397,3.571428571428571,-55.63492063492063,-12.619047619047619,325.0,-250.7142857142857,-31.03174603174603,9.920634920634921,-121.34920634920634,-104.84126984126983,-0.3968253968253968,-0.23809523809523808,-166.26984126984127
-9.444444444444445,-5.317460317460317,-19.285714285714285,-102.93650793650794,-46.269841269841265,-13.253968253968253,-13.095238095238095,-8.968253968253968,-14.84126984126984,118.49206349206348,-314.8412698412698,18.96825396825397,3.571428571428571,-55.63492063492063,-12.619047619047619,325.0,-250.7142857142857,-31.03174603174603,9.920634920634921,-121.34920634920634,-104.84126984126983,-0.3968253968253968,-0.23809523809523808,-166.26984126984127
-9.444444444444445,-5.317460317460317,-19.285714285714285,-102.93650793650794,-46.269841269841265,-13.253968253968253,-13.095238095238095,-8.968253968253968,-14.84126984126984,118.49206349206348,-314.8412698412698,18.96825396825397,3.571428571428571,-55.63492063492063,-12.619047619047619,325.0,-250.7142857142857,-31.03174603174603,9.920634920634921,-121.34920634920634,-104.84126984126983,-0.3968253968253968,-0.23809523809523808,-166.26984126984127
-9.444444444444445,-5.317460317460317,-19.285714285714285,-102.93650793650794,-46.269841269841265,-13.253968253968253,-13.095238095238095,-8.968253968253968,-14.84126984126984,118.49206349206348,-314.8412698412698,18.96825396825397,3.571428571428571,-55.63492063492063,-12.619047619047619,325.0,-250.7142857142857,-31.03174603174603,9.920634920634921,-121.34920634920634,-104.84126984126983,-0.3968253968253968,-0.23809523809523808,-166.26984126984127
-9.444444444444445,-5.317460317460317,-19.285714285714285,-102.93650793650794,-46.269841269841265,-13.253968253968253,-13.095238095238095,-8.968253968253968,-14.84126984126984,118.49206349206348,-314.8412698412698,18.96825396825397,3.571428571428571,-55.63492063492063,-12.619047619047619,325.0,-250.7142857142857,-31.03174603174603,9.920634920634921,-121.34920634920634,-104.84126984126983,-0.3968253968253968,-0.23809523809523808,-166.26984126984127
-9.444444444444445,-5.317460317460317,-19.285714285714285,-102.93650793650794,-46.269841269841265,-13.253968253968253,-13.095238095238095,-8.968253968253968,-14.84126984126984,118.49206349206348,-314.8412698412698,18.96825396825397,3.571428571428571,-55.63492063492063,-12.619047619047619,325.0,-250.7142857142857,-31.03174603174603,9.920634920634921,-121.34920634920634,-104.84126984126983,-0.3968253968253968,-0.23809523809523808,-166.26984126984127
-9.444444444444445,-5.317460317460317,-19.285714285714285,-102.93650793650794,-46.269841269841265,-13.253968253968253,-13.095238095238095,-8.968253968253968,-14.84126984126984,118.49206349206348,-314.8412698412698,18.96825396825397,3.571428571428571,-55.63492063492063,-12.619047619047619,325.0,-250.7142857142857,-31.03174603174603,9.920634920634921,-121.34920634920634,-104.84126984126983,-0.3968253968253968,-0.23809523809523808,-166.26984126984127
-9.444444444444445,-5.317460317460317,-19.285714285714285,-102.93650793650794,-46.269841269841265,-13.253968253968253,-13.095238095238095,-8.968253968253968,-14.84126984126984,118.49206349206348,-314.8412698412698,18.96825396825397,3.571428571428571,-55.63492063492063,-12.619047619047619,325.0,-250.7142857142857,-31.03174603174603,9.920634920634921,-121.34920634920634,-104.84126984126983,-0.3968253968253968,-0.23809523809523808,-166.26984126984127
-149.9206349206349,14.84126984126984,8.174603174603174,52.61904761904761,-28.809523809523807,-4.841269841269841,-18.333333333333332,-114.84126984126983,-8.492063492063492,-118.8095238095238,27.539682539682538,3.253968253968254,-0.5555555555555556,-17.063492063492063,-7.698412698412698,-325.0,25.952380952380953,-5.0,-6.904761904761904,45.63492063492063,62.3015873015873,-0.5555555555555556,0.3968253968253968,-321.8253968253968
-149.9206349206349,14.84126984126984,8.174603174603174,52.61904761904761,-28.809523809523807,-4.841269841269841,-18.333333333333332,-114.84126984126983,-8.492063492063492,-118.8095238095238,27.539682539682538,3.253968253968254,-0.5555555555555556,-17.063492063492063,-7.698412698412698,-325.0,25.952380952380953,-5.0,-6.904761904761904,45.63492063492063,62.3015873015873,-0.5555555555555556,0.3968253968253968,-321.8253968253968
-91.03174603174602,10.238095238095237,-3.095238095238095,67.6984126984127,-18.96825396825397,7.063492063492063,-9.444444444444445,-114.36507936507935,-7.698412698412698,-133.88888888888889,40.87301587301587,7.3809523809523805,-5.634920634920634,1.0317460317460316,2.46031746031746,208.65079365079364,41.34920634920635,-5.634920634920634,-5.952380952380952,50.55555555555555,65.0,-1.984126984126984,-0.873015873015873,-321.8253968253968
-91.03174603174602,10.238095238095237,-3.095238095238095,67.6984126984127,-18.96825396825397,7.063492063492063,-9.444444444444445,-114.36507936507935,-7.698412698412698,-133.88888888888889,40.87301587301587,7.3809523809523805,-5.634920634920634,1.0317460317460316,2.46031746031746,208.65079365079364,41.34920634920635,-5.634920634920634,-5.952380952380952,50.55555555555555,65.0,-1.984126984126984,-0.873015873015873,-321.8253968253968
-205.63492063492063,5.317460317460317,-2.9365079365079363,50.87301587301587,-17.063492063492063,12.3015873015873,-4.2063492063492065,-233.57142857142856,-1.507936507936508,-127.53968253968253,70.55555555555556,-3.4126984126984126,1.1904761904761905,-2.46031746031746,2.3015873015873014,18.49206349206349,60.39682539682539,-10.396825396825395,-12.46031746031746,63.888888888888886,58.01587301587301,1.0317460317460316,-0.23809523809523808,-321.8253968253968
-205.63492063492063,5.317460317460317,-2.9365079365079363,50.87301587301587,-17.063492063492063,12.3015873015873,-4.2063492063492065,-233.57142857142856,-1.507936507936508,-127.53968253968253,70.55555555555556,-3.4126984126984126,1.1904761904761905,-2.46031746031746,2.3015873015873014,18.49206349206349,60.39682539682539,-10.396825396825395,-12.46031746031746,63.888888888888886,58.01587301587301,1.0317460317460316,-0.23809523809523808,-321.8253968253968
-211.66666666666666,8.809523809523808,9.603174603174603,67.85714285714285,-18.49206349206349,-1.1904761904761905,-4.0476190476190474,-122.77777777777777,-8.333333333333332,-126.74603174603173,65.0,-0.5555555555555556,5.158730158730158,-3.4126984126984126,-5.7936507936507935,-205.95238095238093,52.460317460317455,-15.317460317460316,-5.634920634920634,31.666666666666664,25.952380952380953,-0.3968253968253968,-1.0317460317460316,-321.8253968253968
-211.66666666666666,8.809523809523808,9.603174603174603,67.85714285714285,-18.49206349206349,-1.1904761904761905,-4.0476190476190474,-122.77777777777777,-8.333333333333332,-126.74603174603173,65.0,-0.5555555555555556,5.158730158730158,-3.4126984126984126,-5.7936507936507935,-205.95238095238093,52.460317460317455,-15.317460317460316,-5.634920634920634,31.666666666666664,25.952380952380953,-0.3968253968253968,-1.0317460317460316,-321.8253968253968
-215.63492063492063,1.349206349206349,-2.9365079365079363,62.61904761904761,-40.87301587301587,-22.3015873015873,-10.396825396825395,-70.23809523809524,-9.444444444444445,-126.42857142857142,31.825396825396822,-12.619047619047619,-4.841269841269841,-30.87301587301587,-19.126984126984127,-111.03174603174602,23.095238095238095,-27.063492063492063,-23.41269841269841,41.34920634920635,35.15873015873016,-1.984126984126984,-0.7142857142857142,-321.8253968253968
-215.63492063492063,1.349206349206349,-2.9365079365079363,62.61904761904761,-40.87301587301587,-22.3015873015873,-10.396825396825395,-70.23809523809524,-9.444444444444445,-126.42857142857142,31.825396825396822,-12.619047619047619,-4.841269841269841,-30.87301587301587,-19.126984126984127,-111.03174603174602,23.095238095238095,-27.063492063492063,-23.41269841269841,41.34920634920635,35.15873015873016,-1.984126984126984,-0.7142857142857142,-321.8253968253968
-208.015873015873,-0.3968253968253968,4.0476190476190474,62.3015873015873,-20.396825396825395,32.460317460317455,0.3968253968253968,-11.507936507936508,-3.571428571428571,-121.82539682539682,108.33333333333333,-16.428571428571427,-0.3968253968253968,-18.333333333333332,-8.809523809523808,57.53968253968254,85.79365079365078,-17.063492063492063,-15.0,84.52380952380952,78.65079365079364,-0.7142857142857142,-1.0317460317460316,-166.26984126984127
-208.015873015873,-0.3968253968253968,4.0476190476190474,62.3015873015873,-20.396825396825395,32.460317460317455,0.3968253968253968,-11.507936507936508,-3.571428571428571,-121.82539682539682,108.33333333333333,-16.428571428571427,-0.3968253968253968,-18.333333333333332,-8.809523809523808,57.53968253968254,85.79365079365078,-17.063492063492063,-15.0,84.52380952380952,78.65079365079364,-0.7142857142857142,-1.0317460317460316,-166.26984126984127
325.0,-10.396825396825395,-6.26984126984127,19.76190476190476,-32.93650793650794,-139.6031746031746,-14.365079365079364,75.63492063492063,-6.746031746031746,13.412698412698411,-103.09523809523809,8.492063492063492,1.0317460317460316,-57.857142857142854,-3.253968253968254,-325.0,-89.12698412698413,-15.476190476190474,-2.142857142857143,-52.77777777777777,-31.666666666666664,-0.23809523809523808,0.23809523809523808,-166.26984126984127
325.0,-10.396825396825395,-6.26984126984127,19.76190476190476,-32.93650793650794,-139.6031746031746,-14.365079365079364,75.63492063492063,-6.746031746031746,13.412698412698411,-103.09523809523809,8.492063492063492,1.0317460317460316,-57.857142857142854,-3.253968253968254,-325.0,-89.12698412698413,-15.476190476190474,-2.142857142857143,-52.77777777777777,-31.666666666666664,-0.23809523809523808,0.23809523809523808,-166.26984126984127
325.0,-11.349206349206348,-9.444444444444445,17.22222222222222,-35.63492063492063,-134.04761904761904,-17.539682539682538,62.460317460317455,-7.698412698412698,11.19047619047619,-99.76190476190476,7.222222222222221,-1.8253968253968254,-63.095238095238095,-8.968253968253968,-325.0,-86.42857142857143,-15.95238095238095,-3.888888888888889,-51.03174603174603,-29.6031746031746,0.23809523809523808,0.07936507936507936,-166.26984126984127
