Fp1[1],Fp2[2],F3[3],F4[4],C3[5],C4[6],P3[7],P4[8],O1[9],O2[10],F7[11],F8[12],T3[13],T4[14],T5[15],T6[16],Fz[17],Pz[18],Cz[19],Pg1[20],Pg2[21],EOGR[22],EOOGL[23],EMG[24]
-325.0,140.23809523809524,325.0,325.0,-5.952380952380952,-325.0,325.0,325.0,-164.68253968253967,325.0,-324.36507936507934,325.0,325.0,-325.0,325.0,-325.0,-325.0,151.34920634920633,325.0,-307.85714285714283,-322.3015873015873,0.3968253968253968,-0.07936507936507936,-166.26984126984127
-325.0,140.23809523809524,325.0,325.0,-5.952380952380952,-325.0,325.0,325.0,-164.68253968253967,325.0,-324.36507936507934,325.0,325.0,-325.0,325.0,-325.0,-325.0,151.34920634920633,325.0,-307.85714285714283,-322.3015873015873,0.3968253968253968,-0.07936507936507936,-166.26984126984127
-325.0,129.28571428571428,325.0,325.0,-5.7936507936507935,-325.0,325.0,325.0,-151.66666666666666,325.0,-319.2857142857143,325.0,325.0,-325.0,325.0,-325.0,-325.0,163.25396825396825,325.0,-286.74603174603175,-315.1587301587301,-1.0317460317460316,-0.873015873015873,-166.26984126984127
-325.0,129.28571428571428,325.0,325.0,-5.7936507936507935,-325.0,325.0,325.0,-151.66666666666666,325.0,-319.2857142857143,325.0,325.0,-325.0,325.0,-325.0,-325.0,163.25396825396825,325.0,-286.74603174603175,-315.1587301587301,-1.0317460317460316,-0.873015873015873,-166.26984126984127
-325.0,126.9047619047619,325.0,325.0,-5.7936507936507935,-325.0,325.0,325.0,-149.12698412698413,325.0,-313.73015873015873,325.0,325.0,-325.0,325.0,-325.0,-325.0,168.17460317460316,325.0,-281.5079365079365,-309.2857142857143,-1.507936507936508,-0.5555555555555556,-166.26984126984127
-325.0,126.9047619047619,325.0,325.0,-5.7936507936507935,-325.0,325.0,325.0,-149.12698412698413,325.0,-313.73015873015873,325.0,325.0,-325.0,325.0,-325.0,-325.0,168.17460317460316,325.0,-281.5079365079365,-309.2857142857143,-1.507936507936508,-0.5555555555555556,-166.26984126984127
-325.0,124.2063492063492,325.0,325.0,-5.634920634920634,-322.9365079365079,325.0,325.0,-145.95238095238093,325.0,-307.06349206349205,325.0,325.0,-325.0,325.0,-325.0,-325.0,172.3015873015873,325.0,-275.3174603174603,-302.1428571428571,-1.8253968253968254,-0.7142857142857142,-166.26984126984127
-325.0,124.2063492063492,325.0,325.0,-5.634920634920634,-322.9365079365079,325.0,325.0,-145.95238095238093,325.0,-307.06349206349205,325.0,325.0,-325.0,325.0,-325.0,-325.0,172.3015873015873,325.0,-275.3174603174603,-302.1428571428571,-1.8253968253968254,-0.7142857142857142,-166.26984126984127
-325.0,118.17460317460316,325.0,325.0,-5.634920634920634,-311.19047619047615,325.0,325.0,-138.8095238095238,325.0,-292.46031746031747,325.0,325.0,-325.0,325.0,-325.0,-323.88888888888886,178.96825396825395,325.0,-261.8253968253968,-287.06349206349205,-1.0317460317460316,-0.873015873015873,-166.26984126984127
-325.0,118.17460317460316,325.0,325.0,-5.634920634920634,-311.19047619047615,325.0,325.0,-138.8095238095238,325.0,-292.46031746031747,325.0,325.0,-325.0,325.0,-325.0,-323.88888888888886,178.96825396825395,325.0,-261.8253968253968,-287.06349206349205,-1.0317460317460316,-0.873015873015873,-166.26984126984127
-325.0,111.98412698412697,325.0,325.0,-5.634920634920634,-295.1587301587301,325.0,325.0,-131.984126984127,325.0,-277.22222222222223,325.0,325.0,-325.0,325.0,-325.0,-309.9206349206349,185.15873015873015,325.0,-247.85714285714283,-271.5079365079365,-1.0317460317460316,-0.5555555555555556,-321.8253968253968
-325.0,111.98412698412697,325.0,325.0,-5.634920634920634,-295.1587301587301,325.0,325.0,-131.984126984127,325.0,-277.22222222222223,325.0,325.0,-325.0,325.0,-325.0,-309.9206349206349,185.15873015873015,325.0,-247.85714285714283,-271.5079365079365,-1.0317460317460316,-0.5555555555555556,-321.8253968253968
-325.0,108.17460317460316,325.0,325.0,-5.634920634920634,-285.0,325.0,325.0,-127.22222222222221,325.0,-267.53968253968253,325.0,325.0,-325.0,325.0,-325.0,-298.8095238095238,185.0,325.0,-239.12698412698413,-261.5079365079365,-1.0317460317460316,-0.3968253968253968,-321.8253968253968
-325.0,108.17460317460316,325.0,325.0,-5.634920634920634,-285.0,325.0,325.0,-127.22222222222221,325.0,-267.53968253968253,325.0,325.0,-325.0,325.0,-325.0,-298.8095238095238,185.0,325.0,-239.12698412698413,-261.5079365079365,-1.0317460317460316,-0.3968253968253968,-321.8253968253968
-323.88888888888886,101.98412698412697,325.0,325.0,-5.476190476190476,-269.2857142857143,235.63492063492063,325.0,-120.07936507936508,325.0,-252.77777777777777,325.0,325.0,-325.0,325.0,-325.0,-281.8253968253968,-71.03174603174602,325.0,-225.79365079365078,-246.26984126984127,-1.1904761904761905,0.07936507936507936,-321.8253968253968
-323.88888888888886,101.98412698412697,325.0,325.0,-5.476190476190476,-269.2857142857143,235.63492063492063,325.0,-120.07936507936508,325.0,-252.77777777777777,325.0,325.0,-325.0,325.0,-325.0,-281.8253968253968,-71.03174603174602,325.0,-225.79365079365078,-246.26984126984127,-1.1904761904761905,0.07936507936507936,-321.8253968253968
-318.4920634920635,96.1111111111111,325.0,325.0,-5.317460317460317,-254.04761904761904,40.714285714285715,325.0,-113.09523809523809,325.0,-238.49206349206347,325.0,325.0,-325.0,325.0,-325.0,-265.4761904761905,-325.0,325.0,-212.61904761904762,-231.66666666666666,-1.0317460317460316,0.23809523809523808,-321.8253968253968
-318.4920634920635,96.1111111111111,325.0,325.0,-5.317460317460317,-254.04761904761904,40.714285714285715,325.0,-113.09523809523809,325.0,-238.49206349206347,325.0,325.0,-325.0,325.0,-325.0,-265.4761904761905,-325.0,325.0,-212.61904761904762,-231.66666666666666,-1.0317460317460316,0.23809523809523808,-321.8253968253968
-307.53968253968253,92.77777777777777,325.0,325.0,-5.158730158730158,-245.47619047619045,-224.2063492063492,325.0,-109.28571428571428,325.0,-230.2380952380952,325.0,325.0,-325.0,325.0,-325.0,-256.1111111111111,-325.0,325.0,-204.68253968253967,-223.09523809523807,-1.1904761904761905,0.07936507936507936,-321.8253968253968
-307.53968253968253,92.77777777777777,325.0,325.0,-5.158730158730158,-245.47619047619045,-224.2063492063492,325.0,-109.28571428571428,325.0,-230.2380952380952,325.0,325.0,-325.0,325.0,-325.0,-256.1111111111111,-325.0,325.0,-204.68253968253967,-223.09523809523807,-1.1904761904761905,0.07936507936507936,-321.8253968253968
-301.984126984127,91.19047619047619,325.0,325.0,-5.0,-241.03174603174602,-313.88888888888886,325.0,-107.22222222222221,325.0,-226.1111111111111,325.0,325.0,-325.0,325.0,-325.0,-251.5079365079365,-325.0,325.0,-201.03174603174602,-218.96825396825395,-0.873015873015873,-0.07936507936507936,-166.26984126984127
-301.984126984127,91.19047619047619,325.0,325.0,-5.0,-241.03174603174602,-313.88888888888886,325.0,-107.22222222222221,325.0,-226.1111111111111,325.0,325.0,-325.0,325.0,-325.0,-251.5079365079365,-325.0,325.0,-201.03174603174602,-218.96825396825395,-0.873015873015873,-0.07936507936507936,-166.26984126984127
-298.17460317460313,89.92063492063491,325.0,325.0,-5.0,-237.85714285714283,-325.0,325.0,-105.63492063492063,325.0,-223.09523809523807,325.0,325.0,-325.0,325.0,-325.0,-248.015873015873,-325.0,325.0,-198.17460317460316,-215.79365079365078,-1.6666666666666665,-0.873015873015873,-166.26984126984127
-298.17460317460313,89.92063492063491,325.0,325.0,-5.0,-237.85714285714283,-325.0,325.0,-105.63492063492063,325.0,-223.09523809523807,325.0,325.0,-325.0,325.0,-325.0,-248.015873015873,-325.0,325.0,-198.17460317460316,-215.79365079365078,-1.6666666666666665,-0.873015873015873,-166.26984126984127
-298.17460317460313,89.92063492063491,325.0,325.0,-5.0,-237.85714285714283,-325.0,325.0,-105.63492063492063,325.0,-223.09523809523807,325.0,325.0,-325.0,325.0,-325.0,-248.015873015873,-325.0,325.0,-198.17460317460316,-215.79365079365078,-1.6666666666666665,-0.873015873015873,-166.26984126984127
-298.17460317460313,89.92063492063491,325.0,325.0,-5.0,-237.85714285714283,-325.0,325.0,-105.63492063492063,325.0,-223.09523809523807,325.0,325.0,-325.0,325.0,-325.0,-248.015873015873,-325.0,325.0,-198.17460317460316,-215.79365079365078,-1.6666666666666665,-0.873015873015873,-166.26984126984127
-298.17460317460313,89.92063492063491,325.0,325.0,-5.0,-237.85714285714283,-325.0,325.0,-105.63492063492063,325.0,-223.09523809523807,325.0,325.0,-325.0,325.0,-325.0,-248.015873015873,-325.0,325.0,-198.17460317460316,-215.79365079365078,-1.6666666666666665,-0.873015873015873,-166.26984126984127
-298.17460317460313,89.92063492063491,325.0,325.0,-5.0,-237.85714285714283,-325.0,325.0,-105.63492063492063,325.0,-223.09523809523807,325.0,325.0,-325.0,325.0,-325.0,-248.015873015873,-325.0,325.0,-198.17460317460316,-215.79365079365078,-1.6666666666666665,-0.873015873015873,-166.26984126984127
-298.17460317460313,89.92063492063491,325.0,325.0,-5.0,-237.85714285714283,-325.0,325.0,-105.63492063492063,325.0,-223.09523809523807,325.0,325.0,-325.0,325.0,-325.0,-248.015873015873,-325.0,325.0,-198.17460317460316,-215.79365079365078,-1.6666666666666665,-0.873015873015873,-166.26984126984127
-298.17460317460313,89.92063492063491,325.0,325.0,-5.0,-237.85714285714283,-325.0,325.0,-105.63492063492063,325.0,-223.09523809523807,325.0,325.0,-325.0,325.0,-325.0,-248.015873015873,-325.0,325.0,-198.17460317460316,-215.79365079365078,-1.6666666666666665,-0.873015873015873,-166.26984126984127
-298.17460317460313,89.92063492063491,325.0,325.0,-5.0,-237.85714285714283,-325.0,325.0,-105.63492063492063,325.0,-223.09523809523807,325.0,325.0,-325.0,325.0,-325.0,-248.015873015873,-325.0,325.0,-198.17460317460316,-215.79365079365078,-1.6666666666666665,-0.873015873015873,-321.8253968253968
-298.17460317460313,89.92063492063491,325.0,325.0,-5.0,-237.85714285714283,-325.0,325.0,-105.63492063492063,325.0,-223.09523809523807,325.0,325.0,-325.0,325.0,-325.0,-248.015873015873,-325.0,325.0,-198.17460317460316,-215.79365079365078,-1.6666666666666665,-0.873015873015873,-321.8253968253968
-276.58730158730157,83.25396825396825,200.23809523809524,325.0,-4.841269841269841,-220.55555555555554,-325.0,325.0,-97.85714285714285,321.8253968253968,-206.9047619047619,325.0,315.0,-320.7142857142857,325.0,-325.0,-229.28571428571428,-325.0,325.0,-183.25396825396825,-199.28571428571428,-1.6666666666666665,-1.1904761904761905,-321.8253968253968
-276.58730158730157,83.25396825396825,200.23809523809524,325.0,-4.841269841269841,-220.55555555555554,-325.0,325.0,-97.85714285714285,321.8253968253968,-206.9047619047619,325.0,315.0,-320.7142857142857,325.0,-325.0,-229.28571428571428,-325.0,325.0,-183.25396825396825,-199.28571428571428,-1.6666666666666665,-1.1904761904761905,-321.8253968253968
-166.74603174603175,-124.2063492063492,-69.6031746031746,-0.07936507936507936,-3.888888888888889,-133.0952380952381,-246.42857142857142,-0.07936507936507936,117.38095238095238,27.857142857142854,-124.84126984126983,-0.07936507936507936,7.063492063492063,-177.85714285714286,4.0476190476190474,-225.0,-136.58730158730157,-214.36507936507937,23.730158730158728,-109.44444444444444,-117.6984126984127,-0.873015873015873,-1.0317460317460316,-321.8253968253968
-166.74603174603175,-124.2063492063492,-69.6031746031746,-0.07936507936507936,-3.888888888888889,-133.0952380952381,-246.42857142857142,-0.07936507936507936,117.38095238095238,27.857142857142854,-124.84126984126983,-0.07936507936507936,7.063492063492063,-177.85714285714286,4.0476190476190474,-225.0,-136.58730158730157,-214.36507936507937,23.730158730158728,-109.44444444444444,-117.6984126984127,-0.873015873015873,-1.0317460317460316,-321.8253968253968
-77.85714285714285,-325.0,-230.7142857142857,-325.0,-3.253968253968254,-62.14285714285714,-166.74603174603175,-325.0,325.0,-260.7142857142857,-58.8095238095238,-325.0,-288.4920634920635,36.42857142857142,-314.04761904761904,-123.88888888888889,-62.460317460317455,-102.77777777777777,-275.4761904761905,-50.079365079365076,-52.3015873015873,-0.7142857142857142,-0.23809523809523808,-321.8253968253968
-77.85714285714285,-325.0,-230.7142857142857,-325.0,-3.253968253968254,-62.14285714285714,-166.74603174603175,-325.0,325.0,-260.7142857142857,-58.8095238095238,-325.0,-288.4920634920635,36.42857142857142,-314.04761904761904,-123.88888888888889,-62.460317460317455,-102.77777777777777,-275.4761904761905,-50.079365079365076,-52.3015873015873,-0.7142857142857142,-0.23809523809523808,-321.8253968253968
-53.25396825396825,-325.0,-101.34920634920634,-325.0,-1.984126984126984,-42.460317460317455,-108.01587301587301,-325.0,325.0,-181.5079365079365,-40.238095238095234,-325.0,-201.8253968253968,-325.0,-222.3015873015873,-86.42857142857143,-41.98412698412698,-71.03174603174602,-193.4126984126984,145.47619047619048,-34.84126984126984,0.5555555555555556,-1.0317460317460316,-321.8253968253968
-53.25396825396825,-325.0,-101.34920634920634,-325.0,-1.984126984126984,-42.460317460317455,-108.01587301587301,-325.0,325.0,-181.5079365079365,-40.238095238095234,-325.0,-201.8253968253968,-325.0,-222.3015873015873,-86.42857142857143,-41.98412698412698,-71.03174603174602,-193.4126984126984,145.47619047619048,-34.84126984126984,0.5555555555555556,-1.0317460317460316,-321.8253968253968
-50.55555555555555,-313.25396825396825,-34.682539682539684,-325.0,161.5079365079365,-40.39682539682539,-63.73015873015873,-325.0,325.0,-171.8253968253968,-38.33333333333333,-325.0,-191.34920634920633,-325.0,-210.87301587301587,-81.98412698412697,-39.76190476190476,-67.38095238095238,-183.25396825396825,325.0,-33.095238095238095,-0.07936507936507936,0.23809523809523808,-166.26984126984127
-50.55555555555555,-313.25396825396825,-34.682539682539684,-325.0,161.5079365079365,-40.39682539682539,-63.73015873015873,-325.0,325.0,-171.8253968253968,-38.33333333333333,-325.0,-191.34920634920633,-325.0,-210.87301587301587,-81.98412698412697,-39.76190476190476,-67.38095238095238,-183.25396825396825,325.0,-33.095238095238095,-0.07936507936507936,0.23809523809523808,-166.26984126984127
-48.96825396825397,-304.36507936507934,-30.555555555555554,-325.0,325.0,-39.12698412698413,-13.412698412698411,-325.0,325.0,-166.58730158730157,-37.06349206349206,-325.0,-185.47619047619045,-325.0,-204.84126984126982,-79.44444444444444,-38.49206349206349,-65.31746031746032,-178.015873015873,325.0,-31.98412698412698,-0.07936507936507936,0.23809523809523808,-166.26984126984127
-48.96825396825397,-304.36507936507934,-30.555555555555554,-325.0,325.0,-39.12698412698413,-13.412698412698411,-325.0,325.0,-166.58730158730157,-37.06349206349206,-325.0,-185.47619047619045,-325.0,-204.84126984126982,-79.44444444444444,-38.49206349206349,-65.31746031746032,-178.015873015873,325.0,-31.98412698412698,-0.07936507936507936,0.23809523809523808,-166.26984126984127
-46.58730158730158,-290.07936507936506,-29.126984126984127,-325.0,325.0,-36.904761904761905,78.65079365079364,-322.77777777777777,325.0,-158.33333333333331,-35.15873015873016,-325.0,-168.015873015873,-325.0,-195.3174603174603,-75.63492063492063,-36.904761904761905,-62.14285714285714,-168.96825396825395,325.0,-30.238095238095237,-1.349206349206349,-1.0317460317460316,-166.26984126984127
-46.58730158730158,-290.07936507936506,-29.126984126984127,-325.0,325.0,-36.904761904761905,78.65079365079364,-322.77777777777777,325.0,-158.33333333333331,-35.15873015873016,-325.0,-168.015873015873,-325.0,-195.3174603174603,-75.63492063492063,-36.904761904761905,-62.14285714285714,-168.96825396825395,325.0,-30.238095238095237,-1.349206349206349,-1.0317460317460316,-166.26984126984127
-46.269841269841265,-287.85714285714283,3.4126984126984126,-325.0,325.0,-36.42857142857142,123.57142857142857,-320.39682539682536,325.0,-156.9047619047619,-35.0,-325.0,-158.015873015873,-325.0,-193.57142857142856,-75.0,-36.74603174603175,-61.666666666666664,-167.53968253968253,325.0,-29.76190476190476,-0.873015873015873,-0.5555555555555556,-166.26984126984127
-46.269841269841265,-287.85714285714283,3.4126984126984126,-325.0,325.0,-36.42857142857142,123.57142857142857,-320.39682539682536,325.0,-156.9047619047619,-35.0,-325.0,-158.015873015873,-325.0,-193.57142857142856,-75.0,-36.74603174603175,-61.666666666666664,-167.53968253968253,325.0,-29.76190476190476,-0.873015873015873,-0.5555555555555556,-166.26984126984127
-46.269841269841265,-287.85714285714283,3.4126984126984126,-325.0,325.0,-36.42857142857142,123.57142857142857,-320.39682539682536,325.0,-156.9047619047619,-35.0,-325.0,-158.015873015873,-325.0,-193.57142857142856,-75.0,-36.74603174603175,-61.666666666666664,-167.53968253968253,325.0,-29.76190476190476,-0.873015873015873,-0.5555555555555556,-166.26984126984127
-46.269841269841265,-287.85714285714283,3.4126984126984126,-325.0,325.0,-36.42857142857142,123.57142857142857,-320.39682539682536,325.0,-156.9047619047619,-35.0,-325.0,-158.015873015873,-325.0,-193.57142857142856,-75.0,-36.74603174603175,-61.666666666666664,-167.53968253968253,325.0,-29.76190476190476,-0.873015873015873,-0.5555555555555556,-166.26984126984127
-39.285714285714285,-244.2063492063492,-28.49206349206349,-291.5079365079365,-0.07936507936507936,-31.03174603174603,208.015873015873,-272.3015873015873,323.73015873015873,-131.984126984127,-29.76190476190476,-289.2857142857143,-107.38095238095238,-286.58730158730157,-164.36507936507937,-63.57142857142857,-31.03174603174603,-52.14285714285714,-141.5079365079365,325.0,-25.317460317460316,-0.873015873015873,-0.23809523809523808,-321.8253968253968
-39.285714285714285,-244.2063492063492,-28.49206349206349,-291.5079365079365,-0.07936507936507936,-31.03174603174603,208.015873015873,-272.3015873015873,323.73015873015873,-131.984126984127,-29.76190476190476,-289.2857142857143,-107.38095238095238,-286.58730158730157,-164.36507936507937,-63.57142857142857,-31.03174603174603,-52.14285714285714,-141.5079365079365,325.0,-25.317460317460316,-0.873015873015873,-0.23809523809523808,-321.8253968253968
-32.14285714285714,-200.55555555555554,-60.238095238095234,-257.85714285714283,-325.0,-25.634920634920633,292.6190476190476,-224.2063492063492,322.46031746031747,-107.06349206349206,-24.523809523809522,-253.57142857142856,-56.58730158730158,-248.015873015873,-135.15873015873015,-52.14285714285714,-25.317460317460316,-42.61904761904761,-115.31746031746032,325.0,-20.71428571428571,-0.7142857142857142,0.07936507936507936,-321.8253968253968
-32.14285714285714,-200.55555555555554,-60.238095238095234,-257.85714285714283,-325.0,-25.634920634920633,292.6190476190476,-224.2063492063492,322.46031746031747,-107.06349206349206,-24.523809523809522,-253.57142857142856,-56.58730158730158,-248.015873015873,-135.15873015873015,-52.14285714285714,-25.317460317460316,-42.61904761904761,-115.31746031746032,325.0,-20.71428571428571,-0.7142857142857142,0.07936507936507936,-321.8253968253968
-32.14285714285714,-200.55555555555554,-60.238095238095234,-257.85714285714283,-325.0,-25.634920634920633,292.6190476190476,-224.2063492063492,322.46031746031747,-107.06349206349206,-24.523809523809522,-253.57142857142856,-56.58730158730158,-248.015873015873,-135.15873015873015,-52.14285714285714,-25.317460317460316,-42.61904761904761,-115.31746031746032,325.0,-20.71428571428571,-0.7142857142857142,0.07936507936507936,-321.8253968253968
-32.14285714285714,-200.55555555555554,-60.238095238095234,-257.85714285714283,-325.0,-25.634920634920633,292.6190476190476,-224.2063492063492,322.46031746031747,-107.06349206349206,-24.523809523809522,-253.57142857142856,-56.58730158730158,-248.015873015873,-135.15873015873015,-52.14285714285714,-25.317460317460316,-42.61904761904761,-115.31746031746032,325.0,-20.71428571428571,-0.7142857142857142,0.07936507936507936,-321.8253968253968
146.42857142857142,54.841269841269835,92.93650793650794,12.936507936507935,-0.07936507936507936,-175.3174603174603,291.984126984127,37.698412698412696,199.12698412698413,108.96825396825396,74.04761904761904,15.0,112.6190476190476,38.49206349206349,48.17460317460317,-32.61904761904762,100.87301587301587,141.19047619047618,104.84126984126983,227.2222222222222,137.53968253968253,-0.7142857142857142,-0.3968253968253968,-321.8253968253968
146.42857142857142,54.841269841269835,92.93650793650794,12.936507936507935,-0.07936507936507936,-175.3174603174603,291.984126984127,37.698412698412696,199.12698412698413,108.96825396825396,74.04761904761904,15.0,112.6190476190476,38.49206349206349,48.17460317460317,-32.61904761904762,100.87301587301587,141.19047619047618,104.84126984126983,227.2222222222222,137.53968253968253,-0.7142857142857142,-0.3968253968253968,-321.8253968253968
325.0,306.26984126984127,235.3174603174603,280.23809523809524,325.0,-325.0,249.44444444444443,295.7936507936508,74.84126984126983,325.0,172.14285714285714,280.39682539682536,217.38095238095238,325.0,207.38095238095238,-13.095238095238095,259.9206349206349,325.0,325.0,128.015873015873,291.66666666666663,-0.23809523809523808,-0.5555555555555556,-321.8253968253968
325.0,306.26984126984127,235.3174603174603,280.23809523809524,325.0,-325.0,249.44444444444443,295.7936507936508,74.84126984126983,325.0,172.14285714285714,280.39682539682536,217.38095238095238,325.0,207.38095238095238,-13.095238095238095,259.9206349206349,325.0,325.0,128.015873015873,291.66666666666663,-0.23809523809523808,-0.5555555555555556,-321.8253968253968
325.0,302.46031746031747,268.968253968254,276.58730158730157,325.0,-325.0,221.19047619047618,292.1428571428571,74.04761904761904,325.0,172.46031746031744,276.90476190476187,236.74603174603175,325.0,212.77777777777777,-12.936507936507935,325.0,325.0,325.0,126.1111111111111,287.85714285714283,-0.23809523809523808,-0.7142857142857142,-166.26984126984127
325.0,302.46031746031747,268.968253968254,276.58730158730157,325.0,-325.0,221.19047619047618,292.1428571428571,74.04761904761904,325.0,172.46031746031744,276.90476190476187,236.74603174603175,325.0,212.77777777777777,-12.936507936507935,325.0,325.0,325.0,126.1111111111111,287.85714285714283,-0.23809523809523808,-0.7142857142857142,-166.26984126984127
325.0,290.07936507936506,224.68253968253967,265.1587301587301,325.0,-325.0,239.76190476190476,280.39682539682536,71.03174603174602,325.0,175.0,265.3174603174603,224.36507936507934,325.0,244.52380952380952,106.42857142857142,325.0,325.0,325.0,121.19047619047619,275.7936507936508,-0.07936507936507936,-0.5555555555555556,-166.26984126984127
325.0,290.07936507936506,224.68253968253967,265.1587301587301,325.0,-325.0,239.76190476190476,280.39682539682536,71.03174603174602,325.0,175.0,265.3174603174603,224.36507936507934,325.0,244.52380952380952,106.42857142857142,325.0,325.0,325.0,121.19047619047619,275.7936507936508,-0.07936507936507936,-0.5555555555555556,-166.26984126984127
325.0,278.015873015873,167.85714285714286,254.04761904761904,325.0,-325.0,184.2063492063492,269.1269841269841,67.85714285714285,325.0,177.2222222222222,253.88888888888889,158.015873015873,325.0,187.69841269841268,325.0,325.0,325.0,325.0,116.1111111111111,264.2063492063492,0.23809523809523808,-0.07936507936507936,-166.26984126984127
325.0,278.015873015873,167.85714285714286,254.04761904761904,325.0,-325.0,184.2063492063492,269.1269841269841,67.85714285714285,325.0,177.2222222222222,253.88888888888889,158.015873015873,325.0,187.69841269841268,325.0,325.0,325.0,325.0,116.1111111111111,264.2063492063492,0.23809523809523808,-0.07936507936507936,-166.26984126984127
325.0,260.23809523809524,174.68253968253967,236.74603174603175,325.0,-325.0,173.09523809523807,251.98412698412696,63.57142857142857,304.5238095238095,178.96825396825395,236.9047619047619,174.2063492063492,325.0,230.2380952380952,325.0,325.0,325.0,325.0,108.49206349206348,246.42857142857142,-0.7142857142857142,0.07936507936507936,-166.26984126984127
325.0,260.23809523809524,174.68253968253967,236.74603174603175,325.0,-325.0,173.09523809523807,251.98412698412696,63.57142857142857,304.5238095238095,178.96825396825395,236.9047619047619,174.2063492063492,325.0,230.2380952380952,325.0,325.0,325.0,325.0,108.49206349206348,246.42857142857142,-0.7142857142857142,0.07936507936507936,-166.26984126984127
325.0,239.9206349206349,147.85714285714286,217.85714285714283,325.0,-325.0,135.95238095238093,232.77777777777777,58.650793650793645,280.55555555555554,251.98412698412696,218.17460317460316,127.6984126984127,301.3492063492063,195.95238095238093,325.0,325.0,325.0,311.984126984127,100.07936507936508,226.58730158730157,-0.07936507936507936,-0.3968253968253968,-166.26984126984127
325.0,239.9206349206349,147.85714285714286,217.85714285714283,325.0,-325.0,135.95238095238093,232.77777777777777,58.650793650793645,280.55555555555554,251.98412698412696,218.17460317460316,127.6984126984127,301.3492063492063,195.95238095238093,325.0,325.0,325.0,311.984126984127,100.07936507936508,226.58730158730157,-0.07936507936507936,-0.3968253968253968,-166.26984126984127
325.0,219.76190476190476,121.19047619047619,198.96825396825395,325.0,-325.0,98.80952380952381,213.57142857142856,53.73015873015873,256.74603174603175,325.0,199.44444444444443,81.19047619047619,277.6984126984127,161.8253968253968,325.0,325.0,325.0,298.968253968254,91.66666666666666,206.9047619047619,0.7142857142857142,-0.873015873015873,-321.8253968253968
325.0,219.76190476190476,121.19047619047619,198.96825396825395,325.0,-325.0,98.80952380952381,213.57142857142856,53.73015873015873,256.74603174603175,325.0,199.44444444444443,81.19047619047619,277.6984126984127,161.8253968253968,325.0,325.0,325.0,298.968253968254,91.66666666666666,206.9047619047619,0.7142857142857142,-0.873015873015873,-321.8253968253968
113.4126984126984,-325.0,-56.11111111111111,-325.0,130.07936507936506,34.36507936507936,-76.26984126984127,-325.0,-190.23809523809524,-325.0,207.69841269841268,-325.0,-29.126984126984127,-325.0,-8.015873015873016,233.25396825396825,158.96825396825395,-325.0,-325.0,22.46031746031746,-82.14285714285714,-1.349206349206349,-0.5555555555555556,-321.8253968253968
113.4126984126984,-325.0,-56.11111111111111,-325.0,130.07936507936506,34.36507936507936,-76.26984126984127,-325.0,-190.23809523809524,-325.0,207.69841269841268,-325.0,-29.126984126984127,-325.0,-8.015873015873016,233.25396825396825,158.96825396825395,-325.0,-325.0,22.46031746031746,-82.14285714285714,-1.349206349206349,-0.5555555555555556,-321.8253968253968
107.22222222222221,-325.0,-45.476190476190474,-325.0,122.93650793650794,325.0,-83.25396825396825,-325.0,-177.06349206349205,-325.0,196.74603174603175,-325.0,-33.25396825396825,-325.0,5.317460317460317,220.7142857142857,150.07936507936506,-325.0,-325.0,21.03174603174603,75.63492063492063,-0.7142857142857142,-0.7142857142857142,-321.8253968253968
107.22222222222221,-325.0,-45.476190476190474,-325.0,122.93650793650794,325.0,-83.25396825396825,-325.0,-177.06349206349205,-325.0,196.74603174603175,-325.0,-33.25396825396825,-325.0,5.317460317460317,220.7142857142857,150.07936507936506,-325.0,-325.0,21.03174603174603,75.63492063492063,-0.7142857142857142,-0.7142857142857142,-321.8253968253968
105.79365079365078,-325.0,-23.41269841269841,-325.0,121.5079365079365,325.0,-75.63492063492063,-325.0,-157.53968253968253,-325.0,194.52380952380952,-325.0,-71.03174603174602,-325.0,31.19047619047619,218.015873015873,148.17460317460316,-325.0,-325.0,21.03174603174603,102.61904761904762,-0.23809523809523808,-0.7142857142857142,-321.8253968253968
105.79365079365078,-325.0,-23.41269841269841,-325.0,121.5079365079365,325.0,-75.63492063492063,-325.0,-157.53968253968253,-325.0,194.52380952380952,-325.0,-71.03174603174602,-325.0,31.19047619047619,218.015873015873,148.17460317460316,-325.0,-325.0,21.03174603174603,102.61904761904762,-0.23809523809523808,-0.7142857142857142,-321.8253968253968
103.4126984126984,-325.0,-71.03174603174602,-325.0,118.8095238095238,325.0,-79.92063492063491,-325.0,-178.17460317460316,-325.0,190.3968253968254,-325.0,-75.95238095238095,-325.0,-4.0476190476190474,213.4126984126984,144.84126984126982,-325.0,-325.0,20.396825396825395,189.12698412698413,-0.7142857142857142,0.07936507936507936,-321.8253968253968
103.4126984126984,-325.0,-71.03174603174602,-325.0,118.8095238095238,325.0,-79.92063492063491,-325.0,-178.17460317460316,-325.0,190.3968253968254,-325.0,-75.95238095238095,-325.0,-4.0476190476190474,213.4126984126984,144.84126984126982,-325.0,-325.0,20.396825396825395,189.12698412698413,-0.7142857142857142,0.07936507936507936,-321.8253968253968
101.5079365079365,-325.0,-20.07936507936508,-325.0,116.9047619047619,325.0,-95.47619047619047,-325.0,-146.42857142857142,-325.0,187.2222222222222,-325.0,-168.96825396825395,-325.0,-26.428571428571427,209.76190476190476,142.3015873015873,-325.0,-325.0,20.07936507936508,195.95238095238093,-1.349206349206349,-0.23809523809523808,-166.26984126984127
101.5079365079365,-325.0,-20.07936507936508,-325.0,116.9047619047619,325.0,-95.47619047619047,-325.0,-146.42857142857142,-325.0,187.2222222222222,-325.0,-168.96825396825395,-325.0,-26.428571428571427,209.76190476190476,142.3015873015873,-325.0,-325.0,20.07936507936508,195.95238095238093,-1.349206349206349,-0.23809523809523808,-166.26984126984127
100.23809523809523,-325.0,44.2063492063492,-325.0,115.63492063492063,325.0,-10.396825396825395,-325.0,-146.26984126984127,-325.0,185.0,-325.0,-54.2063492063492,-325.0,134.36507936507937,207.38095238095238,140.7142857142857,-325.0,-325.0,19.92063492063492,-171.8253968253968,-0.7142857142857142,-0.5555555555555556,-166.26984126984127
100.23809523809523,-325.0,44.2063492063492,-325.0,115.63492063492063,325.0,-10.396825396825395,-325.0,-146.26984126984127,-325.0,185.0,-325.0,-54.2063492063492,-325.0,134.36507936507937,207.38095238095238,140.7142857142857,-325.0,-325.0,19.92063492063492,-171.8253968253968,-0.7142857142857142,-0.5555555555555556,-166.26984126984127
93.4126984126984,-325.0,-32.3015873015873,-325.0,108.01587301587301,-24.84126984126984,-91.98412698412697,-325.0,-146.58730158730157,-325.0,173.25396825396825,-325.0,-123.57142857142857,-325.0,3.4126984126984126,-61.507936507936506,131.19047619047618,-325.0,-325.0,18.65079365079365,-120.87301587301586,0.07936507936507936,-0.3968253968253968,-166.26984126984127
93.4126984126984,-325.0,-32.3015873015873,-325.0,108.01587301587301,-24.84126984126984,-91.98412698412697,-325.0,-146.58730158730157,-325.0,173.25396825396825,-325.0,-123.57142857142857,-325.0,3.4126984126984126,-61.507936507936506,131.19047619047618,-325.0,-325.0,18.65079365079365,-120.87301587301586,0.07936507936507936,-0.3968253968253968,-166.26984126984127
89.28571428571428,-325.0,24.523809523809522,-325.0,103.4126984126984,275.4761904761905,-75.31746031746032,-325.0,-109.28571428571428,-325.0,166.11111111111111,-325.0,-135.79365079365078,-325.0,18.174603174603174,-325.0,125.47619047619047,-325.0,-325.0,17.857142857142858,83.4126984126984,-0.5555555555555556,-1.0317460317460316,-166.26984126984127
89.28571428571428,-325.0,24.523809523809522,-325.0,103.4126984126984,275.4761904761905,-75.31746031746032,-325.0,-109.28571428571428,-325.0,166.11111111111111,-325.0,-135.79365079365078,-325.0,18.174603174603174,-325.0,125.47619047619047,-325.0,-325.0,17.857142857142858,83.4126984126984,-0.5555555555555556,-1.0317460317460316,-166.26984126984127
83.25396825396825,-325.0,17.38095238095238,-325.0,96.9047619047619,221.5079365079365,-11.349206349206348,-325.0,-74.68253968253968,-325.0,155.3174603174603,-325.0,-19.444444444444443,-325.0,68.80952380952381,206.74603174603175,117.22222222222221,-325.0,-325.0,16.746031746031743,119.28571428571428,-1.8253968253968254,-1.507936507936508,-166.26984126984127
83.25396825396825,-325.0,17.38095238095238,-325.0,96.9047619047619,221.5079365079365,-11.349206349206348,-325.0,-74.68253968253968,-325.0,155.3174603174603,-325.0,-19.444444444444443,-325.0,68.80952380952381,206.74603174603175,117.22222222222221,-325.0,-325.0,16.746031746031743,119.28571428571428,-1.8253968253968254,-1.507936507936508,-166.26984126984127
83.25396825396825,-325.0,17.38095238095238,-325.0,96.9047619047619,221.5079365079365,-11.349206349206348,-325.0,-74.68253968253968,-325.0,155.3174603174603,-325.0,-19.444444444444443,-325.0,68.80952380952381,206.74603174603175,117.22222222222221,-325.0,-325.0,16.746031746031743,119.28571428571428,-1.8253968253968254,-1.507936507936508,-321.8253968253968
83.25396825396825,-325.0,17.38095238095238,-325.0,96.9047619047619,221.5079365079365,-11.349206349206348,-325.0,-74.68253968253968,-325.0,155.3174603174603,-325.0,-19.444444444444443,-325.0,68.80952380952381,206.74603174603175,117.22222222222221,-325.0,-325.0,16.746031746031743,119.28571428571428,-1.8253968253968254,-1.507936507936508,-321.8253968253968
70.39682539682539,-325.0,22.619047619047617,-325.0,82.46031746031746,325.0,-4.682539682539682,-198.8095238095238,-78.80952380952381,-309.6031746031746,132.61904761904762,-325.0,38.80952380952381,188.4920634920635,91.19047619047619,174.36507936507937,99.28571428571428,325.0,-322.46031746031747,14.365079365079364,262.3015873015873,-1.349206349206349,-1.6666666666666665,-321.8253968253968
70.39682539682539,-325.0,22.619047619047617,-325.0,82.46031746031746,325.0,-4.682539682539682,-198.8095238095238,-78.80952380952381,-309.6031746031746,132.61904761904762,-325.0,38.80952380952381,188.4920634920635,91.19047619047619,174.36507936507937,99.28571428571428,325.0,-322.46031746031747,14.365079365079364,262.3015873015873,-1.349206349206349,-1.6666666666666665,-321.8253968253968
70.39682539682539,-325.0,22.619047619047617,-325.0,82.46031746031746,325.0,-4.682539682539682,-198.8095238095238,-78.80952380952381,-309.6031746031746,132.61904761904762,-325.0,38.80952380952381,188.4920634920635,91.19047619047619,174.36507936507937,99.28571428571428,325.0,-322.46031746031747,14.365079365079364,262.3015873015873,-1.349206349206349,-1.6666666666666665,-321.8253968253968
70.39682539682539,-325.0,22.619047619047617,-325.0,82.46031746031746,325.0,-4.682539682539682,-198.8095238095238,-78.80952380952381,-309.6031746031746,132.61904761904762,-325.0,38.80952380952381,188.4920634920635,91.19047619047619,174.36507936507937,99.28571428571428,325.0,-322.46031746031747,14.365079365079364,262.3015873015873,-1.349206349206349,-1.6666666666666665,-321.8253968253968
57.698412698412696,325.0,-1.349206349206349,325.0,68.65079365079364,318.015873015873,-11.19047619047619,325.0,-171.66666666666666,325.0,110.07936507936508,325.0,17.38095238095238,325.0,49.44444444444444,144.52380952380952,81.98412698412697,325.0,325.0,11.031746031746032,223.7301587301587,-0.07936507936507936,0.7142857142857142,-321.8253968253968
57.698412698412696,325.0,-1.349206349206349,325.0,68.65079365079364,318.015873015873,-11.19047619047619,325.0,-171.66666666666666,325.0,110.07936507936508,325.0,17.38095238095238,325.0,49.44444444444444,144.52380952380952,81.98412698412697,325.0,325.0,11.031746031746032,223.7301587301587,-0.07936507936507936,0.7142857142857142,-321.8253968253968
56.58730158730158,325.0,34.2063492063492,325.0,67.06349206349206,311.5079365079365,12.142857142857142,325.0,-201.66666666666666,325.0,107.85714285714285,325.0,61.82539682539682,325.0,74.52380952380952,141.5079365079365,80.23809523809523,325.0,325.0,11.031746031746032,218.33333333333331,0.5555555555555556,0.873015873015873,-321.8253968253968
56.58730158730158,325.0,34.2063492063492,325.0,67.06349206349206,311.5079365079365,12.142857142857142,325.0,-201.66666666666666,325.0,107.85714285714285,325.0,61.82539682539682,325.0,74.52380952380952,141.5079365079365,80.23809523809523,325.0,325.0,11.031746031746032,218.33333333333331,0.5555555555555556,0.873015873015873,-321.8253968253968
54.52380952380952,325.0,-12.936507936507935,325.0,64.84126984126983,301.3492063492063,-51.98412698412698,325.0,-219.44444444444443,325.0,104.36507936507935,325.0,-24.047619047619047,325.0,10.555555555555555,136.58730158730157,77.38095238095238,325.0,325.0,8.968253968253968,210.3968253968254,0.873015873015873,-0.7142857142857142,-166.26984126984127
54.52380952380952,325.0,-12.936507936507935,325.0,64.84126984126983,301.3492063492063,-51.98412698412698,325.0,-219.44444444444443,325.0,104.36507936507935,325.0,-24.047619047619047,325.0,10.555555555555555,136.58730158730157,77.38095238095238,325.0,325.0,8.968253968253968,210.3968253968254,0.873015873015873,-0.7142857142857142,-166.26984126984127
53.57142857142857,325.0,-8.65079365079365,325.0,63.888888888888886,296.26984126984127,-9.444444444444445,325.0,-208.4920634920635,325.0,102.61904761904762,325.0,29.6031746031746,325.0,71.66666666666666,134.36507936507937,76.1111111111111,325.0,325.0,10.873015873015872,206.26984126984127,0.07936507936507936,-0.5555555555555556,-166.26984126984127
53.57142857142857,325.0,-8.65079365079365,325.0,63.888888888888886,296.26984126984127,-9.444444444444445,325.0,-208.4920634920635,325.0,102.61904761904762,325.0,29.6031746031746,325.0,71.66666666666666,134.36507936507937,76.1111111111111,325.0,325.0,10.873015873015872,206.26984126984127,0.07936507936507936,-0.5555555555555556,-166.26984126984127
52.77777777777777,325.0,-23.41269841269841,325.0,62.61904761904761,291.3492063492063,3.571428571428571,325.0,-226.42857142857142,325.0,100.87301587301587,325.0,78.96825396825396,325.0,63.888888888888886,131.984126984127,74.84126984126983,325.0,325.0,11.349206349206348,202.46031746031744,-0.3968253968253968,-0.3968253968253968,-166.26984126984127
52.77777777777777,325.0,-23.41269841269841,325.0,62.61904761904761,291.3492063492063,3.571428571428571,325.0,-226.42857142857142,325.0,100.87301587301587,325.0,78.96825396825396,325.0,63.888888888888886,131.984126984127,74.84126984126983,325.0,325.0,11.349206349206348,202.46031746031744,-0.3968253968253968,-0.3968253968253968,-166.26984126984127
51.666666666666664,325.0,-16.587301587301585,325.0,61.666666666666664,286.58730158730157,-35.15873015873016,325.0,-218.4920634920635,325.0,99.12698412698413,325.0,-15.476190476190474,325.0,-17.857142857142858,129.6031746031746,73.57142857142857,325.0,325.0,11.19047619047619,198.65079365079364,-0.23809523809523808,-0.23809523809523808,-166.26984126984127
51.666666666666664,325.0,-16.587301587301585,325.0,61.666666666666664,286.58730158730157,-35.15873015873016,325.0,-218.4920634920635,325.0,99.12698412698413,325.0,-15.476190476190474,325.0,-17.857142857142858,129.6031746031746,73.57142857142857,325.0,325.0,11.19047619047619,198.65079365079364,-0.23809523809523808,-0.23809523809523808,-166.26984126984127
51.03174603174603,325.0,5.158730158730158,325.0,60.55555555555555,281.8253968253968,-51.34920634920635,325.0,-226.74603174603175,325.0,97.53968253968253,325.0,-33.888888888888886,325.0,2.9365079365079363,127.53968253968253,72.3015873015873,325.0,325.0,11.19047619047619,194.84126984126982,-0.23809523809523808,0.23809523809523808,-166.26984126984127
51.03174603174603,325.0,5.158730158730158,325.0,60.55555555555555,281.8253968253968,-51.34920634920635,325.0,-226.74603174603175,325.0,97.53968253968253,325.0,-33.888888888888886,325.0,2.9365079365079363,127.53968253968253,72.3015873015873,325.0,325.0,11.19047619047619,194.84126984126982,-0.23809523809523808,0.23809523809523808,-166.26984126984127
49.92063492063492,325.0,10.873015873015872,325.0,59.6031746031746,277.06349206349205,-15.476190476190474,325.0,-260.23809523809524,325.0,95.79365079365078,325.0,67.85714285714285,325.0,80.23809523809523,125.31746031746032,71.03174603174602,325.0,325.0,11.031746031746032,191.19047619047618,-0.07936507936507936,-0.3968253968253968,-321.8253968253968
49.92063492063492,325.0,10.873015873015872,325.0,59.6031746031746,277.06349206349205,-15.476190476190474,325.0,-260.23809523809524,325.0,95.79365079365078,325.0,67.85714285714285,325.0,80.23809523809523,125.31746031746032,71.03174603174602,325.0,325.0,11.031746031746032,191.19047619047618,-0.07936507936507936,-0.3968253968253968,-321.8253968253968
48.96825396825397,82.61904761904762,-3.4126984126984126,161.8253968253968,58.650793650793645,272.6190476190476,-1.8253968253968254,209.76190476190476,-266.26984126984127,208.4920634920635,94.36507936507935,151.19047619047618,69.44444444444444,325.0,40.238095238095234,123.25396825396825,69.76190476190476,325.0,306.90476190476187,10.714285714285714,187.2222222222222,2.46031746031746,0.5555555555555556,-321.8253968253968
48.96825396825397,82.61904761904762,-3.4126984126984126,161.8253968253968,58.650793650793645,272.6190476190476,-1.8253968253968254,209.76190476190476,-266.26984126984127,208.4920634920635,94.36507936507935,151.19047619047618,69.44444444444444,325.0,40.238095238095234,123.25396825396825,69.76190476190476,325.0,306.90476190476187,10.714285714285714,187.2222222222222,2.46031746031746,0.5555555555555556,-321.8253968253968
48.650793650793645,-137.06349206349205,-9.603174603174603,-1.349206349206349,58.650793650793645,271.3492063492063,-2.619047619047619,94.68253968253968,-270.39682539682536,91.98412698412697,93.88888888888889,-22.619047619047617,77.85714285714285,325.0,31.03174603174603,122.6190476190476,69.44444444444444,325.0,288.968253968254,10.873015873015872,185.95238095238093,1.6666666666666665,0.23809523809523808,-321.8253968253968
48.650793650793645,-137.06349206349205,-9.603174603174603,-1.349206349206349,58.650793650793645,271.3492063492063,-2.619047619047619,94.68253968253968,-270.39682539682536,91.98412698412697,93.88888888888889,-22.619047619047617,77.85714285714285,325.0,31.03174603174603,122.6190476190476,69.44444444444444,325.0,288.968253968254,10.873015873015872,185.95238095238093,1.6666666666666665,0.23809523809523808,-321.8253968253968
48.650793650793645,-137.06349206349205,-9.603174603174603,-1.349206349206349,58.650793650793645,271.3492063492063,-2.619047619047619,94.68253968253968,-270.39682539682536,91.98412698412697,93.88888888888889,-22.619047619047617,77.85714285714285,325.0,31.03174603174603,122.6190476190476,69.44444444444444,325.0,288.968253968254,10.873015873015872,185.95238095238093,1.6666666666666665,0.23809523809523808,-321.8253968253968
48.650793650793645,-137.06349206349205,-9.603174603174603,-1.349206349206349,58.650793650793645,271.3492063492063,-2.619047619047619,94.68253968253968,-270.39682539682536,91.98412698412697,93.88888888888889,-22.619047619047617,77.85714285714285,325.0,31.03174603174603,122.6190476190476,69.44444444444444,325.0,288.968253968254,10.873015873015872,185.95238095238093,1.6666666666666665,0.23809523809523808,-321.8253968253968
47.53968253968254,-178.96825396825395,-9.444444444444445,-58.8095238095238,57.06349206349206,264.5238095238095,-6.904761904761904,-19.92063492063492,-249.12698412698413,65.15873015873015,91.5079365079365,-72.14285714285714,70.23809523809524,325.0,44.68253968253968,119.44444444444444,67.6984126984127,325.0,247.06349206349205,10.555555555555555,181.19047619047618,0.873015873015873,0.5555555555555556,-321.8253968253968
47.53968253968254,-178.96825396825395,-9.444444444444445,-58.8095238095238,57.06349206349206,264.5238095238095,-6.904761904761904,-19.92063492063492,-249.12698412698413,65.15873015873015,91.5079365079365,-72.14285714285714,70.23809523809524,325.0,44.68253968253968,119.44444444444444,67.6984126984127,325.0,247.06349206349205,10.555555555555555,181.19047619047618,0.873015873015873,0.5555555555555556,-321.8253968253968
46.42857142857142,-220.7142857142857,-9.126984126984127,-116.1111111111111,55.476190476190474,257.85714285714283,-11.19047619047619,-134.36507936507937,-227.69841269841268,38.49206349206349,89.12698412698413,-121.5079365079365,62.77777777777777,325.0,58.49206349206349,116.42857142857142,65.95238095238095,325.0,205.15873015873015,10.396825396825395,176.42857142857142,0.23809523809523808,0.873015873015873,-166.26984126984127
46.42857142857142,-220.7142857142857,-9.126984126984127,-116.1111111111111,55.476190476190474,257.85714285714283,-11.19047619047619,-134.36507936507937,-227.69841269841268,38.49206349206349,89.12698412698413,-121.5079365079365,62.77777777777777,325.0,58.49206349206349,116.42857142857142,65.95238095238095,325.0,205.15873015873015,10.396825396825395,176.42857142857142,0.23809523809523808,0.873015873015873,-166.26984126984127
45.15873015873016,-325.0,-23.57142857142857,-325.0,54.2063492063492,-325.0,-45.15873015873016,-325.0,-191.19047619047618,-325.0,87.22222222222221,-325.0,-44.84126984126984,-325.0,45.476190476190474,104.84126984126983,64.04761904761905,-325.0,-325.0,10.238095238095237,-325.0,4.2063492063492065,1.984126984126984,-166.26984126984127
45.15873015873016,-325.0,-23.57142857142857,-325.0,54.2063492063492,-325.0,-45.15873015873016,-325.0,-191.19047619047618,-325.0,87.22222222222221,-325.0,-44.84126984126984,-325.0,45.476190476190474,104.84126984126983,64.04761904761905,-325.0,-325.0,10.238095238095237,-325.0,4.2063492063492065,1.984126984126984,-166.26984126984127
45.15873015873016,-325.0,-23.57142857142857,-325.0,54.2063492063492,-325.0,-45.15873015873016,-325.0,-191.19047619047618,-325.0,87.22222222222221,-325.0,-44.84126984126984,-325.0,45.476190476190474,104.84126984126983,64.04761904761905,-325.0,-325.0,10.238095238095237,-325.0,4.2063492063492065,1.984126984126984,-166.26984126984127
45.15873015873016,-325.0,-23.57142857142857,-325.0,54.2063492063492,-325.0,-45.15873015873016,-325.0,-191.19047619047618,-325.0,87.22222222222221,-325.0,-44.84126984126984,-325.0,45.476190476190474,104.84126984126983,64.04761904761905,-325.0,-325.0,10.238095238095237,-325.0,4.2063492063492065,1.984126984126984,-166.26984126984127
43.41269841269841,-325.0,0.3968253968253968,-325.0,52.14285714285714,-325.0,-21.03174603174603,-325.0,-193.09523809523807,-325.0,83.88888888888889,-325.0,101.19047619047619,-325.0,17.698412698412696,64.52380952380952,61.82539682539682,-325.0,-325.0,9.761904761904761,-211.98412698412696,-1.0317460317460316,-0.873015873015873,-166.26984126984127
43.41269841269841,-325.0,0.3968253968253968,-325.0,52.14285714285714,-325.0,-21.03174603174603,-325.0,-193.09523809523807,-325.0,83.88888888888889,-325.0,101.19047619047619,-325.0,17.698412698412696,64.52380952380952,61.82539682539682,-325.0,-325.0,9.761904761904761,-211.98412698412696,-1.0317460317460316,-0.873015873015873,-166.26984126984127
42.61904761904761,-325.0,-1.349206349206349,-325.0,51.19047619047619,-325.0,-44.047619047619044,-325.0,-197.38095238095238,-325.0,82.46031746031746,-325.0,-21.507936507936506,-325.0,39.76190476190476,106.74603174603175,60.71428571428571,-325.0,-325.0,9.603174603174603,-222.14285714285714,-1.0317460317460316,-1.1904761904761905,-166.26984126984127
42.61904761904761,-325.0,-1.349206349206349,-325.0,51.19047619047619,-325.0,-44.047619047619044,-325.0,-197.38095238095238,-325.0,82.46031746031746,-325.0,-21.507936507936506,-325.0,39.76190476190476,106.74603174603175,60.71428571428571,-325.0,-325.0,9.603174603174603,-222.14285714285714,-1.0317460317460316,-1.1904761904761905,-166.26984126984127
42.14285714285714,-325.0,6.26984126984127,-325.0,50.55555555555555,-325.0,-36.74603174603175,-325.0,-199.44444444444443,-325.0,81.34920634920634,-325.0,24.523809523809522,-325.0,55.317460317460316,107.85714285714285,59.92063492063492,-325.0,-325.0,9.444444444444445,-242.93650793650792,-0.5555555555555556,-1.349206349206349,-321.8253968253968
42.14285714285714,-325.0,6.26984126984127,-325.0,50.55555555555555,-325.0,-36.74603174603175,-325.0,-199.44444444444443,-325.0,81.34920634920634,-325.0,24.523809523809522,-325.0,55.317460317460316,107.85714285714285,59.92063492063492,-325.0,-325.0,9.444444444444445,-242.93650793650792,-0.5555555555555556,-1.349206349206349,-321.8253968253968
41.82539682539682,-325.0,16.428571428571427,-325.0,50.079365079365076,-325.0,-30.396825396825395,-325.0,-195.79365079365078,-325.0,80.71428571428571,-325.0,66.58730158730158,-325.0,57.698412698412696,106.58730158730158,59.44444444444444,-325.0,-325.0,9.285714285714285,-258.3333333333333,0.07936507936507936,-1.1904761904761905,-321.8253968253968
41.82539682539682,-325.0,16.428571428571427,-325.0,50.079365079365076,-325.0,-30.396825396825395,-325.0,-195.79365079365078,-325.0,80.71428571428571,-325.0,66.58730158730158,-325.0,57.698412698412696,106.58730158730158,59.44444444444444,-325.0,-325.0,9.285714285714285,-258.3333333333333,0.07936507936507936,-1.1904761904761905,-321.8253968253968
40.55555555555555,-325.0,44.047619047619044,-325.0,48.80952380952381,-227.2222222222222,-12.142857142857142,-325.0,-176.42857142857142,-325.0,78.33333333333333,-325.0,48.96825396825397,-325.0,58.17460317460317,79.28571428571428,57.698412698412696,-325.0,-325.0,9.126984126984127,-225.79365079365078,-1.507936507936508,-0.3968253968253968,-321.8253968253968
40.55555555555555,-325.0,44.047619047619044,-325.0,48.80952380952381,-227.2222222222222,-12.142857142857142,-325.0,-176.42857142857142,-325.0,78.33333333333333,-325.0,48.96825396825397,-325.0,58.17460317460317,79.28571428571428,57.698412698412696,-325.0,-325.0,9.126984126984127,-225.79365079365078,-1.507936507936508,-0.3968253968253968,-321.8253968253968
39.92063492063492,-325.0,69.44444444444444,-325.0,48.33333333333333,-231.5079365079365,-20.71428571428571,-325.0,-176.11111111111111,-325.0,77.38095238095238,-325.0,11.984126984126984,-325.0,53.57142857142857,102.93650793650794,56.904761904761905,-325.0,-325.0,9.126984126984127,-229.60317460317458,-1.8253968253968254,-0.873015873015873,-321.8253968253968
39.92063492063492,-325.0,69.44444444444444,-325.0,48.33333333333333,-231.5079365079365,-20.71428571428571,-325.0,-176.11111111111111,-325.0,77.38095238095238,-325.0,11.984126984126984,-325.0,53.57142857142857,102.93650793650794,56.904761904761905,-325.0,-325.0,9.126984126984127,-229.60317460317458,-1.8253968253968254,-0.873015873015873,-321.8253968253968
39.44444444444444,-325.0,71.98412698412697,-325.0,47.698412698412696,-121.98412698412697,-37.06349206349206,-325.0,-186.11111111111111,-325.0,76.42857142857143,-325.0,-7.857142857142857,-325.0,25.476190476190474,-111.03174603174602,56.11111111111111,-319.4444444444444,-325.0,8.968253968253968,-200.23809523809524,-1.349206349206349,-0.23809523809523808,-321.8253968253968
39.44444444444444,-325.0,71.98412698412697,-325.0,47.698412698412696,-121.98412698412697,-37.06349206349206,-325.0,-186.11111111111111,-325.0,76.42857142857143,-325.0,-7.857142857142857,-325.0,25.476190476190474,-111.03174603174602,56.11111111111111,-319.4444444444444,-325.0,8.968253968253968,-200.23809523809524,-1.349206349206349,-0.23809523809523808,-321.8253968253968
38.49206349206349,-325.0,98.80952380952381,-325.0,46.269841269841265,254.04761904761904,-39.92063492063492,-325.0,-193.57142857142856,-325.0,74.52380952380952,-325.0,21.666666666666664,-229.9206349206349,41.03174603174603,-325.0,54.68253968253968,-84.84126984126983,-325.0,8.809523809523808,-65.15873015873015,-1.984126984126984,-0.873015873015873,-166.26984126984127
38.49206349206349,-325.0,98.80952380952381,-325.0,46.269841269841265,254.04761904761904,-39.92063492063492,-325.0,-193.57142857142856,-325.0,74.52380952380952,-325.0,21.666666666666664,-229.9206349206349,41.03174603174603,-325.0,54.68253968253968,-84.84126984126983,-325.0,8.809523809523808,-65.15873015873015,-1.984126984126984,-0.873015873015873,-166.26984126984127
38.01587301587301,-325.0,137.53968253968253,-325.0,45.79365079365079,310.39682539682536,3.4126984126984126,-325.0,-197.2222222222222,-325.0,73.57142857142857,-325.0,41.03174603174603,-86.74603174603175,115.15873015873015,-325.0,54.047619047619044,106.26984126984127,-307.85714285714283,8.809523809523808,48.01587301587301,-1.0317460317460316,-0.07936507936507936,-166.26984126984127
38.01587301587301,-325.0,137.53968253968253,-325.0,45.79365079365079,310.39682539682536,3.4126984126984126,-325.0,-197.2222222222222,-325.0,73.57142857142857,-325.0,41.03174603174603,-86.74603174603175,115.15873015873015,-325.0,54.047619047619044,106.26984126984127,-307.85714285714283,8.809523809523808,48.01587301587301,-1.0317460317460316,-0.07936507936507936,-166.26984126984127
37.06349206349206,-186.74603174603175,143.4126984126984,-179.60317460317458,45.317460317460316,305.4761904761905,13.253968253968253,-195.15873015873015,-190.23809523809524,-67.22222222222221,72.3015873015873,-182.61904761904762,103.57142857142857,325.0,77.38095238095238,-325.0,53.25396825396825,325.0,94.36507936507935,8.809523809523808,188.33333333333331,-1.984126984126984,-0.3968253968253968,-166.26984126984127
37.06349206349206,-186.74603174603175,143.4126984126984,-179.60317460317458,45.317460317460316,305.4761904761905,13.253968253968253,-195.15873015873015,-190.23809523809524,-67.22222222222221,72.3015873015873,-182.61904761904762,103.57142857142857,325.0,77.38095238095238,-325.0,53.25396825396825,325.0,94.36507936507935,8.809523809523808,188.33333333333331,-1.984126984126984,-0.3968253968253968,-166.26984126984127
36.269841269841265,-313.0952380952381,44.36507936507936,-267.85714285714283,44.047619047619044,298.3333333333333,-12.142857142857142,-201.66666666666666,-182.77777777777777,-142.93650793650792,70.87301587301587,-283.57142857142856,26.587301587301585,217.53968253968253,32.93650793650794,-325.0,51.98412698412698,325.0,-8.174603174603174,8.333333333333332,148.96825396825395,1.507936507936508,1.0317460317460316,-166.26984126984127
36.269841269841265,-313.0952380952381,44.36507936507936,-267.85714285714283,44.047619047619044,298.3333333333333,-12.142857142857142,-201.66666666666666,-182.77777777777777,-142.93650793650792,70.87301587301587,-283.57142857142856,26.587301587301585,217.53968253968253,32.93650793650794,-325.0,51.98412698412698,325.0,-8.174603174603174,8.333333333333332,148.96825396825395,1.507936507936508,1.0317460317460316,-166.26984126984127
35.63492063492063,-325.0,78.65079365079364,-306.58730158730157,43.25396825396825,285.3174603174603,-33.888888888888886,-296.58730158730157,-176.26984126984127,-245.15873015873015,69.6031746031746,-319.76190476190476,10.555555555555555,16.746031746031743,23.730158730158728,-325.0,51.03174603174603,159.76190476190476,-177.85714285714286,8.174603174603174,-4.682539682539682,0.5555555555555556,-1.0317460317460316,-166.26984126984127
35.63492063492063,-325.0,78.65079365079364,-306.58730158730157,43.25396825396825,285.3174603174603,-33.888888888888886,-296.58730158730157,-176.26984126984127,-245.15873015873015,69.6031746031746,-319.76190476190476,10.555555555555555,16.746031746031743,23.730158730158728,-325.0,51.03174603174603,159.76190476190476,-177.85714285714286,8.174603174603174,-4.682539682539682,0.5555555555555556,-1.0317460317460316,-166.26984126984127
35.317460317460316,-325.0,95.79365079365078,-325.0,42.61904761904761,76.1111111111111,-16.11111111111111,-325.0,-172.61904761904762,-322.9365079365079,68.80952380952381,-325.0,38.49206349206349,-217.85714285714283,65.0,-325.0,50.39682539682539,-160.3968253968254,-310.23809523809524,7.857142857142857,-214.36507936507937,2.46031746031746,0.5555555555555556,-321.8253968253968
35.317460317460316,-325.0,95.79365079365078,-325.0,42.61904761904761,76.1111111111111,-16.11111111111111,-325.0,-172.61904761904762,-322.9365079365079,68.80952380952381,-325.0,38.49206349206349,-217.85714285714283,65.0,-325.0,50.39682539682539,-160.3968253968254,-310.23809523809524,7.857142857142857,-214.36507936507937,2.46031746031746,0.5555555555555556,-321.8253968253968
34.52380952380952,-325.0,44.68253968253968,-325.0,41.82539682539682,-99.92063492063491,-7.222222222222221,-325.0,-153.88888888888889,-325.0,67.38095238095238,-325.0,36.58730158730159,-315.0,65.31746031746032,-325.0,49.285714285714285,-293.57142857142856,-325.0,7.857142857142857,-255.95238095238093,-1.1904761904761905,-1.0317460317460316,-321.8253968253968
34.52380952380952,-325.0,44.68253968253968,-325.0,41.82539682539682,-99.92063492063491,-7.222222222222221,-325.0,-153.88888888888889,-325.0,67.38095238095238,-325.0,36.58730158730159,-315.0,65.31746031746032,-325.0,49.285714285714285,-293.57142857142856,-325.0,7.857142857142857,-255.95238095238093,-1.1904761904761905,-1.0317460317460316,-321.8253968253968
33.888888888888886,-325.0,27.857142857142854,-290.07936507936506,41.19047619047619,192.93650793650792,-33.41269841269841,-299.2857142857143,-143.57142857142856,-245.47619047619045,66.11111111111111,-303.73015873015873,74.84126984126983,43.73015873015873,47.53968253968254,-325.0,48.33333333333333,170.3968253968254,-192.93650793650792,8.015873015873016,57.06349206349206,-2.46031746031746,-1.6666666666666665,-321.8253968253968
33.888888888888886,-325.0,27.857142857142854,-290.07936507936506,41.19047619047619,192.93650793650792,-33.41269841269841,-299.2857142857143,-143.57142857142856,-245.47619047619045,66.11111111111111,-303.73015873015873,74.84126984126983,43.73015873015873,47.53968253968254,-325.0,48.33333333333333,170.3968253968254,-192.93650793650792,8.015873015873016,57.06349206349206,-2.46031746031746,-1.6666666666666665,-321.8253968253968
33.57142857142857,-325.0,39.76190476190476,-250.07936507936506,40.714285714285715,222.61904761904762,-1.0317460317460316,-184.84126984126982,-153.09523809523807,-49.6031746031746,65.15873015873015,-237.53968253968253,73.88888888888889,295.7936507936508,60.079365079365076,-325.0,48.01587301587301,325.0,37.38095238095238,8.015873015873016,166.26984126984127,-1.6666666666666665,-0.7142857142857142,-321.8253968253968
33.57142857142857,-325.0,39.76190476190476,-250.07936507936506,40.714285714285715,222.61904761904762,-1.0317460317460316,-184.84126984126982,-153.09523809523807,-49.6031746031746,65.15873015873015,-237.53968253968253,73.88888888888889,295.7936507936508,60.079365079365076,-325.0,48.01587301587301,325.0,37.38095238095238,8.015873015873016,166.26984126984127,-1.6666666666666665,-0.7142857142857142,-321.8253968253968
32.77777777777778,-248.49206349206347,20.555555555555554,56.904761904761905,39.76190476190476,279.1269841269841,-51.03174603174603,116.26984126984127,-133.4126984126984,308.015873015873,64.04761904761905,77.06349206349206,-26.587301587301585,325.0,-15.0,-325.0,46.74603174603175,325.0,325.0,7.698412698412698,217.53968253968253,-1.6666666666666665,-1.0317460317460316,-321.8253968253968
32.77777777777778,-248.49206349206347,20.555555555555554,56.904761904761905,39.76190476190476,279.1269841269841,-51.03174603174603,116.26984126984127,-133.4126984126984,308.015873015873,64.04761904761905,77.06349206349206,-26.587301587301585,325.0,-15.0,-325.0,46.74603174603175,325.0,325.0,7.698412698412698,217.53968253968253,-1.6666666666666665,-1.0317460317460316,-321.8253968253968
32.3015873015873,-220.55555555555554,-3.888888888888889,139.9206349206349,39.12698412698413,277.53968253968253,-33.095238095238095,190.55555555555554,-129.9206349206349,325.0,62.93650793650793,156.58730158730157,43.41269841269841,325.0,53.095238095238095,-325.0,46.11111111111111,325.0,325.0,6.904761904761904,213.88888888888889,-1.0317460317460316,-0.873015873015873,-166.26984126984127
32.3015873015873,-220.55555555555554,-3.888888888888889,139.9206349206349,39.12698412698413,277.53968253968253,-33.095238095238095,190.55555555555554,-129.9206349206349,325.0,62.93650793650793,156.58730158730157,43.41269841269841,325.0,53.095238095238095,-325.0,46.11111111111111,325.0,325.0,6.904761904761904,213.88888888888889,-1.0317460317460316,-0.873015873015873,-166.26984126984127
31.666666666666664,-179.12698412698413,3.4126984126984126,122.14285714285714,38.65079365079365,271.984126984127,-19.126984126984127,190.3968253968254,-132.14285714285714,325.0,61.82539682539682,177.85714285714286,92.14285714285714,325.0,67.22222222222221,-325.0,45.15873015873016,325.0,325.0,6.904761904761904,199.28571428571428,0.7142857142857142,-0.3968253968253968,-166.26984126984127
31.666666666666664,-179.12698412698413,3.4126984126984126,122.14285714285714,38.65079365079365,271.984126984127,-19.126984126984127,190.3968253968254,-132.14285714285714,325.0,61.82539682539682,177.85714285714286,92.14285714285714,325.0,67.22222222222221,-325.0,45.15873015873016,325.0,325.0,6.904761904761904,199.28571428571428,0.7142857142857142,-0.3968253968253968,-166.26984126984127
31.349206349206348,67.22222222222221,28.809523809523807,325.0,38.33333333333333,268.3333333333333,-9.444444444444445,325.0,-131.5079365079365,325.0,61.19047619047619,325.0,75.79365079365078,325.0,75.47619047619047,-325.0,44.52380952380952,325.0,325.0,0.5555555555555556,208.4920634920635,-0.5555555555555556,-1.1904761904761905,-166.26984126984127
31.349206349206348,67.22222222222221,28.809523809523807,325.0,38.33333333333333,268.3333333333333,-9.444444444444445,325.0,-131.5079365079365,325.0,61.19047619047619,325.0,75.79365079365078,325.0,75.47619047619047,-325.0,44.52380952380952,325.0,325.0,0.5555555555555556,208.4920634920635,-0.5555555555555556,-1.1904761904761905,-166.26984126984127
30.71428571428571,156.74603174603175,-56.269841269841265,325.0,-318.17460317460313,262.3015873015873,-49.44444444444444,325.0,-137.38095238095238,325.0,59.92063492063492,325.0,50.238095238095234,325.0,15.0,-325.0,43.57142857142857,325.0,325.0,-6.904761904761904,203.4126984126984,1.0317460317460316,0.3968253968253968,-166.26984126984127
30.71428571428571,156.74603174603175,-56.269841269841265,325.0,-318.17460317460313,262.3015873015873,-49.44444444444444,325.0,-137.38095238095238,325.0,59.92063492063492,325.0,50.238095238095234,325.0,15.0,-325.0,43.57142857142857,325.0,325.0,-6.904761904761904,203.4126984126984,1.0317460317460316,0.3968253968253968,-166.26984126984127
30.238095238095237,153.57142857142856,-16.26984126984127,325.0,-325.0,258.8095238095238,-57.38095238095238,325.0,-131.19047619047618,325.0,59.12698412698413,325.0,32.61904761904762,325.0,11.666666666666666,-325.0,43.095238095238095,325.0,325.0,-6.111111111111111,200.23809523809524,-0.07936507936507936,-0.7142857142857142,-166.26984126984127
30.238095238095237,153.57142857142856,-16.26984126984127,325.0,-325.0,258.8095238095238,-57.38095238095238,325.0,-131.19047619047618,325.0,59.12698412698413,325.0,32.61904761904762,325.0,11.666666666666666,-325.0,43.095238095238095,325.0,325.0,-6.111111111111111,200.23809523809524,-0.07936507936507936,-0.7142857142857142,-166.26984126984127
29.6031746031746,84.2063492063492,-10.873015873015872,325.0,-325.0,253.25396825396825,-57.38095238095238,325.0,-117.85714285714285,325.0,57.857142857142854,325.0,6.587301587301587,325.0,37.53968253968254,-325.0,42.14285714285714,325.0,325.0,-5.0,194.2063492063492,0.07936507936507936,-0.5555555555555556,-321.8253968253968
29.6031746031746,84.2063492063492,-10.873015873015872,325.0,-325.0,253.25396825396825,-57.38095238095238,325.0,-117.85714285714285,325.0,57.857142857142854,325.0,6.587301587301587,325.0,37.53968253968254,-325.0,42.14285714285714,325.0,325.0,-5.0,194.2063492063492,0.07936507936507936,-0.5555555555555556,-321.8253968253968
29.126984126984127,245.47619047619045,-66.11111111111111,325.0,-325.0,248.96825396825395,-32.460317460317455,325.0,-78.17460317460316,325.0,56.904761904761905,325.0,52.460317460317455,325.0,49.6031746031746,-325.0,41.507936507936506,325.0,325.0,-44.36507936507936,191.98412698412696,0.23809523809523808,-0.5555555555555556,-321.8253968253968
29.126984126984127,245.47619047619045,-66.11111111111111,325.0,-325.0,248.96825396825395,-32.460317460317455,325.0,-78.17460317460316,325.0,56.904761904761905,325.0,52.460317460317455,325.0,49.6031746031746,-325.0,41.507936507936506,325.0,325.0,-44.36507936507936,191.98412698412696,0.23809523809523808,-0.5555555555555556,-321.8253968253968
28.65079365079365,204.2063492063492,-35.63492063492063,325.0,-325.0,245.79365079365078,-19.285714285714285,325.0,-72.61904761904762,325.0,56.11111111111111,325.0,47.857142857142854,325.0,20.238095238095237,-325.0,41.03174603174603,325.0,325.0,-21.03174603174603,189.12698412698413,0.7142857142857142,-0.23809523809523808,-321.8253968253968
28.65079365079365,204.2063492063492,-35.63492063492063,325.0,-325.0,245.79365079365078,-19.285714285714285,325.0,-72.61904761904762,325.0,56.11111111111111,325.0,47.857142857142854,325.0,20.238095238095237,-325.0,41.03174603174603,325.0,325.0,-21.03174603174603,189.12698412698413,0.7142857142857142,-0.23809523809523808,-321.8253968253968
28.174603174603174,199.44444444444443,9.761904761904761,325.0,-325.0,240.55555555555554,-76.1111111111111,325.0,-92.14285714285714,325.0,54.841269841269835,325.0,-17.38095238095238,325.0,-35.63492063492063,-325.0,40.238095238095234,325.0,325.0,-17.38095238095238,184.36507936507937,0.07936507936507936,-1.1904761904761905,-321.8253968253968
28.174603174603174,199.44444444444443,9.761904761904761,325.0,-325.0,240.55555555555554,-76.1111111111111,325.0,-92.14285714285714,325.0,54.841269841269835,325.0,-17.38095238095238,325.0,-35.63492063492063,-325.0,40.238095238095234,325.0,325.0,-17.38095238095238,184.36507936507937,0.07936507936507936,-1.1904761904761905,-321.8253968253968
27.38095238095238,129.9206349206349,-37.38095238095238,325.0,-325.0,235.95238095238093,-68.65079365079364,325.0,-97.38095238095238,325.0,53.888888888888886,325.0,-2.46031746031746,325.0,18.65079365079365,192.3015873015873,39.12698412698413,325.0,325.0,-4.2063492063492065,179.9206349206349,-0.07936507936507936,-1.349206349206349,-321.8253968253968
27.38095238095238,129.9206349206349,-37.38095238095238,325.0,-325.0,235.95238095238093,-68.65079365079364,325.0,-97.38095238095238,325.0,53.888888888888886,325.0,-2.46031746031746,325.0,18.65079365079365,192.3015873015873,39.12698412698413,325.0,325.0,-4.2063492063492065,179.9206349206349,-0.07936507936507936,-1.349206349206349,-321.8253968253968
27.063492063492063,180.3968253968254,-44.2063492063492,325.0,-325.0,230.7142857142857,-62.14285714285714,325.0,-88.80952380952381,325.0,52.77777777777777,325.0,-28.015873015873016,325.0,7.063492063492063,325.0,38.49206349206349,325.0,325.0,-17.539682539682538,175.47619047619045,-0.5555555555555556,-0.873015873015873,-166.26984126984127
27.063492063492063,180.3968253968254,-44.2063492063492,325.0,-325.0,230.7142857142857,-62.14285714285714,325.0,-88.80952380952381,325.0,52.77777777777777,325.0,-28.015873015873016,325.0,7.063492063492063,325.0,38.49206349206349,325.0,325.0,-17.539682539682538,175.47619047619045,-0.5555555555555556,-0.873015873015873,-166.26984126984127
26.746031746031743,157.69841269841268,-21.19047619047619,325.0,-325.0,227.69841269841268,-56.11111111111111,325.0,-97.22222222222221,325.0,52.3015873015873,325.0,14.047619047619047,325.0,28.174603174603174,325.0,38.17460317460317,325.0,325.0,-13.253968253968253,172.77777777777777,-0.3968253968253968,0.07936507936507936,-166.26984126984127
26.746031746031743,157.69841269841268,-21.19047619047619,325.0,-325.0,227.69841269841268,-56.11111111111111,325.0,-97.22222222222221,325.0,52.3015873015873,325.0,14.047619047619047,325.0,28.174603174603174,325.0,38.17460317460317,325.0,325.0,-13.253968253968253,172.77777777777777,-0.3968253968253968,0.07936507936507936,-166.26984126984127
26.11111111111111,317.53968253968253,-22.619047619047617,325.0,-325.0,223.09523809523807,-50.87301587301587,325.0,-108.17460317460316,325.0,51.03174603174603,325.0,29.76190476190476,325.0,25.158730158730158,257.85714285714283,37.22222222222222,325.0,325.0,-100.55555555555554,169.12698412698413,0.3968253968253968,-0.7142857142857142,-166.26984126984127
26.11111111111111,317.53968253968253,-22.619047619047617,325.0,-325.0,223.09523809523807,-50.87301587301587,325.0,-108.17460317460316,325.0,51.03174603174603,325.0,29.76190476190476,325.0,25.158730158730158,257.85714285714283,37.22222222222222,325.0,325.0,-100.55555555555554,169.12698412698413,0.3968253968253968,-0.7142857142857142,-166.26984126984127
25.634920634920633,325.0,-60.55555555555555,325.0,-325.0,220.2380952380952,-68.96825396825396,325.0,-104.52380952380952,325.0,50.55555555555555,325.0,-66.58730158730158,325.0,20.555555555555554,-118.96825396825396,36.74603174603175,325.0,325.0,-198.4920634920635,166.74603174603175,1.1904761904761905,-0.07936507936507936,-166.26984126984127
25.634920634920633,325.0,-60.55555555555555,325.0,-325.0,220.2380952380952,-68.96825396825396,325.0,-104.52380952380952,325.0,50.55555555555555,325.0,-66.58730158730158,325.0,20.555555555555554,-118.96825396825396,36.74603174603175,325.0,325.0,-198.4920634920635,166.74603174603175,1.1904761904761905,-0.07936507936507936,-166.26984126984127
25.0,325.0,20.555555555555554,325.0,-325.0,215.63492063492063,-21.666666666666664,325.0,-87.38095238095238,325.0,49.285714285714285,325.0,15.0,325.0,68.33333333333333,-261.1904761904762,35.95238095238095,325.0,325.0,-325.0,162.77777777777777,0.23809523809523808,-0.5555555555555556,-166.26984126984127
25.0,325.0,20.555555555555554,325.0,-325.0,215.63492063492063,-21.666666666666664,325.0,-87.38095238095238,325.0,49.285714285714285,325.0,15.0,325.0,68.33333333333333,-261.1904761904762,35.95238095238095,325.0,325.0,-325.0,162.77777777777777,0.23809523809523808,-0.5555555555555556,-166.26984126984127
24.523809523809522,325.0,15.317460317460316,325.0,-325.0,211.98412698412696,-2.46031746031746,325.0,-92.61904761904762,325.0,48.49206349206349,325.0,85.95238095238095,325.0,56.269841269841265,-118.17460317460316,35.15873015873016,325.0,325.0,-325.0,159.76190476190476,-0.23809523809523808,-0.7142857142857142,-321.8253968253968
24.523809523809522,325.0,15.317460317460316,325.0,-325.0,211.98412698412696,-2.46031746031746,325.0,-92.61904761904762,325.0,48.49206349206349,325.0,85.95238095238095,325.0,56.269841269841265,-118.17460317460316,35.15873015873016,325.0,325.0,-325.0,159.76190476190476,-0.23809523809523808,-0.7142857142857142,-321.8253968253968
24.523809523809522,325.0,19.126984126984127,325.0,-325.0,211.03174603174602,-21.666666666666664,325.0,-103.09523809523809,325.0,48.33333333333333,325.0,41.03174603174603,325.0,17.38095238095238,-82.61904761904762,35.0,325.0,325.0,-325.0,158.96825396825395,-1.0317460317460316,-0.5555555555555556,-321.8253968253968
24.523809523809522,325.0,19.126984126984127,325.0,-325.0,211.03174603174602,-21.666666666666664,325.0,-103.09523809523809,325.0,48.33333333333333,325.0,41.03174603174603,325.0,17.38095238095238,-82.61904761904762,35.0,325.0,325.0,-325.0,158.96825396825395,-1.0317460317460316,-0.5555555555555556,-321.8253968253968
23.57142857142857,325.0,89.76190476190476,325.0,-325.0,204.84126984126982,-43.25396825396825,325.0,-121.19047619047619,325.0,46.904761904761905,325.0,24.68253968253968,325.0,4.365079365079365,-235.79365079365078,34.047619047619044,325.0,325.0,-325.0,153.73015873015873,-1.0317460317460316,-0.873015873015873,-321.8253968253968
23.57142857142857,325.0,89.76190476190476,325.0,-325.0,204.84126984126982,-43.25396825396825,325.0,-121.19047619047619,325.0,46.904761904761905,325.0,24.68253968253968,325.0,4.365079365079365,-235.79365079365078,34.047619047619044,325.0,325.0,-325.0,153.73015873015873,-1.0317460317460316,-0.873015873015873,-321.8253968253968
23.41269841269841,325.0,51.507936507936506,325.0,-325.0,201.5079365079365,-18.49206349206349,325.0,-113.73015873015872,325.0,46.11111111111111,325.0,80.07936507936508,325.0,34.36507936507936,235.3174603174603,33.57142857142857,325.0,325.0,-318.968253968254,150.7142857142857,-1.0317460317460316,-0.3968253968253968,-321.8253968253968
23.41269841269841,325.0,51.507936507936506,325.0,-325.0,201.5079365079365,-18.49206349206349,325.0,-113.73015873015872,325.0,46.11111111111111,325.0,80.07936507936508,325.0,34.36507936507936,235.3174603174603,33.57142857142857,325.0,325.0,-318.968253968254,150.7142857142857,-1.0317460317460316,-0.3968253968253968,-321.8253968253968
23.095238095238095,325.0,114.52380952380952,325.0,-325.0,198.015873015873,-6.746031746031746,325.0,-115.47619047619047,325.0,45.317460317460316,325.0,-12.936507936507935,325.0,60.39682539682539,325.0,32.93650793650794,325.0,325.0,-325.0,148.015873015873,0.23809523809523808,-0.07936507936507936,-321.8253968253968
23.095238095238095,325.0,114.52380952380952,325.0,-325.0,198.015873015873,-6.746031746031746,325.0,-115.47619047619047,325.0,45.317460317460316,325.0,-12.936507936507935,325.0,60.39682539682539,325.0,32.93650793650794,325.0,325.0,-325.0,148.015873015873,0.23809523809523808,-0.07936507936507936,-321.8253968253968
22.46031746031746,325.0,88.4920634920635,325.0,-325.0,194.84126984126982,-31.19047619047619,325.0,-107.22222222222221,325.0,44.68253968253968,325.0,39.76190476190476,325.0,21.19047619047619,325.0,32.3015873015873,325.0,325.0,-325.0,145.0,-0.5555555555555556,-0.873015873015873,-166.26984126984127
22.46031746031746,325.0,88.4920634920635,325.0,-325.0,194.84126984126982,-31.19047619047619,325.0,-107.22222222222221,325.0,44.68253968253968,325.0,39.76190476190476,325.0,21.19047619047619,325.0,32.3015873015873,325.0,325.0,-325.0,145.0,-0.5555555555555556,-0.873015873015873,-166.26984126984127
22.46031746031746,325.0,61.03174603174603,325.0,-325.0,192.46031746031744,-36.42857142857142,325.0,-116.1111111111111,325.0,44.2063492063492,325.0,72.93650793650794,325.0,11.19047619047619,325.0,31.666666666666664,325.0,325.0,-325.0,143.25396825396825,-0.07936507936507936,-0.3968253968253968,-166.26984126984127
22.46031746031746,325.0,61.03174603174603,325.0,-325.0,192.46031746031744,-36.42857142857142,325.0,-116.1111111111111,325.0,44.2063492063492,325.0,72.93650793650794,325.0,11.19047619047619,325.0,31.666666666666664,325.0,325.0,-325.0,143.25396825396825,-0.07936507936507936,-0.3968253968253968,-166.26984126984127
21.984126984126984,325.0,28.96825396825397,325.0,-325.0,188.33333333333331,-42.61904761904761,325.0,-113.4126984126984,325.0,43.25396825396825,325.0,-19.444444444444443,325.0,21.666666666666664,325.0,31.19047619047619,325.0,325.0,-325.0,139.76190476190476,0.23809523809523808,-0.873015873015873,-166.26984126984127
21.984126984126984,325.0,28.96825396825397,325.0,-325.0,188.33333333333331,-42.61904761904761,325.0,-113.4126984126984,325.0,43.25396825396825,325.0,-19.444444444444443,325.0,21.666666666666664,325.0,31.19047619047619,325.0,325.0,-325.0,139.76190476190476,0.23809523809523808,-0.873015873015873,-166.26984126984127
21.507936507936506,325.0,33.41269841269841,325.0,-325.0,185.15873015873015,-40.87301587301587,325.0,-119.76190476190476,325.0,42.460317460317455,325.0,47.06349206349206,325.0,34.2063492063492,325.0,30.71428571428571,325.0,325.0,-325.0,137.06349206349205,0.5555555555555556,-0.5555555555555556,-166.26984126984127
21.507936507936506,325.0,33.41269841269841,325.0,-325.0,185.15873015873015,-40.87301587301587,325.0,-119.76190476190476,325.0,42.460317460317455,325.0,47.06349206349206,325.0,34.2063492063492,325.0,30.71428571428571,325.0,325.0,-325.0,137.06349206349205,0.5555555555555556,-0.5555555555555556,-166.26984126984127
21.19047619047619,325.0,17.698412698412696,325.0,-325.0,181.984126984127,-21.03174603174603,325.0,-118.49206349206348,325.0,41.82539682539682,325.0,57.698412698412696,325.0,64.36507936507937,325.0,30.396825396825395,324.36507936507934,325.0,-325.0,134.36507936507937,-0.873015873015873,-0.873015873015873,-166.26984126984127
21.19047619047619,325.0,17.698412698412696,325.0,-325.0,181.984126984127,-21.03174603174603,325.0,-118.49206349206348,325.0,41.82539682539682,325.0,57.698412698412696,325.0,64.36507936507937,325.0,30.396825396825395,324.36507936507934,325.0,-325.0,134.36507936507937,-0.873015873015873,-0.873015873015873,-166.26984126984127
20.71428571428571,325.0,-55.95238095238095,325.0,-325.0,178.96825396825395,-35.15873015873016,325.0,-114.04761904761904,325.0,41.19047619047619,325.0,14.047619047619047,325.0,38.17460317460317,325.0,29.76190476190476,319.9206349206349,325.0,-325.0,131.8253968253968,0.23809523809523808,-0.873015873015873,-321.8253968253968
20.71428571428571,325.0,-55.95238095238095,325.0,-325.0,178.96825396825395,-35.15873015873016,325.0,-114.04761904761904,325.0,41.19047619047619,325.0,14.047619047619047,325.0,38.17460317460317,325.0,29.76190476190476,319.9206349206349,325.0,-325.0,131.8253968253968,0.23809523809523808,-0.873015873015873,-321.8253968253968
20.238095238095237,325.0,-24.84126984126984,325.0,-325.0,175.95238095238093,-21.984126984126984,325.0,-132.14285714285714,325.0,40.39682539682539,325.0,8.174603174603174,325.0,18.96825396825397,325.0,29.126984126984127,314.5238095238095,325.0,-325.0,129.44444444444443,0.3968253968253968,-0.07936507936507936,-321.8253968253968
20.238095238095237,325.0,-24.84126984126984,325.0,-325.0,175.95238095238093,-21.984126984126984,325.0,-132.14285714285714,325.0,40.39682539682539,325.0,8.174603174603174,325.0,18.96825396825397,325.0,29.126984126984127,314.5238095238095,325.0,-325.0,129.44444444444443,0.3968253968253968,-0.07936507936507936,-321.8253968253968
20.07936507936508,325.0,-15.95238095238095,325.0,-325.0,173.09523809523807,-55.63492063492063,325.0,-101.19047619047619,325.0,39.6031746031746,325.0,-27.063492063492063,323.73015873015873,-44.2063492063492,325.0,28.809523809523807,309.4444444444444,325.0,-325.0,127.06349206349206,-0.07936507936507936,-0.07936507936507936,-321.8253968253968
20.07936507936508,325.0,-15.95238095238095,325.0,-325.0,173.09523809523807,-55.63492063492063,325.0,-101.19047619047619,325.0,39.6031746031746,325.0,-27.063492063492063,323.73015873015873,-44.2063492063492,325.0,28.809523809523807,309.4444444444444,325.0,-325.0,127.06349206349206,-0.07936507936507936,-0.07936507936507936,-321.8253968253968
19.76190476190476,325.0,-77.06349206349206,325.0,-325.0,170.87301587301587,-57.857142857142854,325.0,-94.04761904761904,325.0,39.44444444444444,325.0,-22.777777777777775,319.4444444444444,-12.936507936507935,325.0,28.333333333333332,305.4761904761905,325.0,-325.0,125.31746031746032,-0.3968253968253968,-1.0317460317460316,-321.8253968253968
19.76190476190476,325.0,-77.06349206349206,325.0,-325.0,170.87301587301587,-57.857142857142854,325.0,-94.04761904761904,325.0,39.44444444444444,325.0,-22.777777777777775,319.4444444444444,-12.936507936507935,325.0,28.333333333333332,305.4761904761905,325.0,-325.0,125.31746031746032,-0.3968253968253968,-1.0317460317460316,-321.8253968253968
19.444444444444443,325.0,-46.269841269841265,325.0,-325.0,166.58730158730157,-30.396825396825395,325.0,-104.84126984126983,325.0,38.33333333333333,325.0,42.93650793650794,311.19047619047615,27.22222222222222,325.0,27.698412698412696,298.17460317460313,325.0,-325.0,121.82539682539682,-0.3968253968253968,-0.3968253968253968,-321.8253968253968
19.444444444444443,325.0,-46.269841269841265,325.0,-325.0,166.58730158730157,-30.396825396825395,325.0,-104.84126984126983,325.0,38.33333333333333,325.0,42.93650793650794,311.19047619047615,27.22222222222222,325.0,27.698412698412696,298.17460317460313,325.0,-325.0,121.82539682539682,-0.3968253968253968,-0.3968253968253968,-321.8253968253968
18.80952380952381,28.49206349206349,-50.87301587301587,1.8253968253968254,-325.0,-111.19047619047619,-44.2063492063492,-0.07936507936507936,-117.85714285714285,-2.3015873015873014,37.38095238095238,-0.07936507936507936,-47.857142857142854,-52.14285714285714,10.555555555555555,-0.07936507936507936,27.063492063492063,-55.15873015873016,-13.253968253968253,-116.58730158730158,-160.3968253968254,8.968253968253968,4.365079365079365,-166.26984126984127
18.80952380952381,28.49206349206349,-50.87301587301587,1.8253968253968254,-325.0,-111.19047619047619,-44.2063492063492,-0.07936507936507936,-117.85714285714285,-2.3015873015873014,37.38095238095238,-0.07936507936507936,-47.857142857142854,-52.14285714285714,10.555555555555555,-0.07936507936507936,27.063492063492063,-55.15873015873016,-13.253968253968253,-116.58730158730158,-160.3968253968254,8.968253968253968,4.365079365079365,-166.26984126984127
18.49206349206349,-325.0,-89.28571428571428,-325.0,-325.0,-325.0,-54.52380952380952,-325.0,-123.57142857142857,-325.0,36.74603174603175,-325.0,-16.904761904761905,-325.0,5.952380952380952,-78.65079365079364,26.428571428571427,-325.0,-325.0,170.23809523809524,-325.0,0.3968253968253968,1.1904761904761905,-166.26984126984127
18.49206349206349,-325.0,-89.28571428571428,-325.0,-325.0,-325.0,-54.52380952380952,-325.0,-123.57142857142857,-325.0,36.74603174603175,-325.0,-16.904761904761905,-325.0,5.952380952380952,-78.65079365079364,26.428571428571427,-325.0,-325.0,170.23809523809524,-325.0,0.3968253968253968,1.1904761904761905,-166.26984126984127
18.015873015873016,66.9047619047619,10.238095238095237,75.47619047619047,-325.0,44.36507936507936,-11.666666666666666,46.269841269841265,-111.82539682539682,85.95238095238095,36.11111111111111,74.84126984126983,55.79365079365079,78.33333333333333,56.42857142857142,325.0,26.11111111111111,117.53968253968253,106.74603174603175,-163.25396825396825,-55.317460317460316,-8.809523809523808,-3.888888888888889,-166.26984126984127
18.015873015873016,66.9047619047619,10.238095238095237,75.47619047619047,-325.0,44.36507936507936,-11.666666666666666,46.269841269841265,-111.82539682539682,85.95238095238095,36.11111111111111,74.84126984126983,55.79365079365079,78.33333333333333,56.42857142857142,325.0,26.11111111111111,117.53968253968253,106.74603174603175,-163.25396825396825,-55.317460317460316,-8.809523809523808,-3.888888888888889,-166.26984126984127
18.015873015873016,325.0,12.777777777777777,325.0,-325.0,205.95238095238093,2.46031746031746,325.0,-108.33333333333333,325.0,35.95238095238095,325.0,85.47619047619047,325.0,51.98412698412698,325.0,26.11111111111111,325.0,325.0,-325.0,176.26984126984127,-5.158730158730158,-2.46031746031746,-166.26984126984127
18.015873015873016,325.0,12.777777777777777,325.0,-325.0,205.95238095238093,2.46031746031746,325.0,-108.33333333333333,325.0,35.95238095238095,325.0,85.47619047619047,325.0,51.98412698412698,325.0,26.11111111111111,325.0,325.0,-325.0,176.26984126984127,-5.158730158730158,-2.46031746031746,-166.26984126984127
17.539682539682538,325.0,-4.523809523809524,325.0,-325.0,181.5079365079365,-16.428571428571427,325.0,-96.26984126984127,325.0,35.15873015873016,325.0,3.095238095238095,311.66666666666663,7.5396825396825395,325.0,25.317460317460316,297.22222222222223,325.0,-325.0,150.7142857142857,-0.3968253968253968,-0.07936507936507936,-166.26984126984127
17.539682539682538,325.0,-4.523809523809524,325.0,-325.0,181.5079365079365,-16.428571428571427,325.0,-96.26984126984127,325.0,35.15873015873016,325.0,3.095238095238095,311.66666666666663,7.5396825396825395,325.0,25.317460317460316,297.22222222222223,325.0,-325.0,150.7142857142857,-0.3968253968253968,-0.07936507936507936,-166.26984126984127
17.539682539682538,325.0,50.238095238095234,325.0,-325.0,178.015873015873,-23.730158730158728,325.0,-84.52380952380952,325.0,34.52380952380952,325.0,23.253968253968253,305.0,21.825396825396822,109.6031746031746,25.0,291.66666666666663,325.0,-325.0,147.2222222222222,-0.3968253968253968,-0.3968253968253968,-321.8253968253968
17.539682539682538,325.0,50.238095238095234,325.0,-325.0,178.015873015873,-23.730158730158728,325.0,-84.52380952380952,325.0,34.52380952380952,325.0,23.253968253968253,305.0,21.825396825396822,109.6031746031746,25.0,291.66666666666663,325.0,-325.0,147.2222222222222,-0.3968253968253968,-0.3968253968253968,-321.8253968253968
17.063492063492063,325.0,83.25396825396825,325.0,-325.0,174.52380952380952,-1.6666666666666665,325.0,-83.09523809523809,325.0,33.888888888888886,325.0,58.33333333333333,299.2857142857143,49.6031746031746,-325.0,24.523809523809522,286.58730158730157,325.0,-325.0,144.2063492063492,-0.23809523809523808,-0.23809523809523808,-321.8253968253968
17.063492063492063,325.0,83.25396825396825,325.0,-325.0,174.52380952380952,-1.6666666666666665,325.0,-83.09523809523809,325.0,33.888888888888886,325.0,58.33333333333333,299.2857142857143,49.6031746031746,-325.0,24.523809523809522,286.58730158730157,325.0,-325.0,144.2063492063492,-0.23809523809523808,-0.23809523809523808,-321.8253968253968
16.587301587301585,325.0,43.25396825396825,325.0,-325.0,171.34920634920633,-11.507936507936508,325.0,-83.88888888888889,325.0,33.41269841269841,325.0,31.98412698412698,293.88888888888886,23.730158730158728,-87.53968253968253,24.047619047619047,281.66666666666663,325.0,-325.0,141.34920634920636,-0.23809523809523808,-0.3968253968253968,-321.8253968253968
16.587301587301585,325.0,43.25396825396825,325.0,-325.0,171.34920634920633,-11.507936507936508,325.0,-83.88888888888889,325.0,33.41269841269841,325.0,31.98412698412698,293.88888888888886,23.730158730158728,-87.53968253968253,24.047619047619047,281.66666666666663,325.0,-325.0,141.34920634920636,-0.23809523809523808,-0.3968253968253968,-321.8253968253968
16.587301587301585,325.0,43.25396825396825,325.0,-325.0,168.17460317460316,0.5555555555555556,325.0,-95.47619047619047,325.0,32.77777777777778,325.0,63.73015873015873,288.6507936507936,48.80952380952381,325.0,23.730158730158728,277.06349206349205,325.0,-325.0,138.33333333333331,-0.23809523809523808,0.23809523809523808,-321.8253968253968
16.587301587301585,325.0,43.25396825396825,325.0,-325.0,168.17460317460316,0.5555555555555556,325.0,-95.47619047619047,325.0,32.77777777777778,325.0,63.73015873015873,288.6507936507936,48.80952380952381,325.0,23.730158730158728,277.06349206349205,325.0,-325.0,138.33333333333331,-0.23809523809523808,0.23809523809523808,-321.8253968253968
16.11111111111111,325.0,30.396825396825395,325.0,-325.0,165.15873015873015,-33.095238095238095,325.0,-83.57142857142857,325.0,32.3015873015873,325.0,-21.507936507936506,283.4126984126984,-9.126984126984127,325.0,23.095238095238095,272.46031746031747,325.0,-325.0,135.63492063492063,0.23809523809523808,-0.23809523809523808,-321.8253968253968
16.11111111111111,325.0,30.396825396825395,325.0,-325.0,165.15873015873015,-33.095238095238095,325.0,-83.57142857142857,325.0,32.3015873015873,325.0,-21.507936507936506,283.4126984126984,-9.126984126984127,325.0,23.095238095238095,272.46031746031747,325.0,-325.0,135.63492063492063,0.23809523809523808,-0.23809523809523808,-321.8253968253968
15.793650793650793,325.0,13.571428571428571,325.0,-325.0,162.14285714285714,-30.396825396825395,325.0,-71.98412698412697,325.0,31.666666666666664,325.0,-0.07936507936507936,278.4920634920635,21.507936507936506,325.0,22.936507936507937,268.015873015873,325.0,-325.0,132.77777777777777,0.07936507936507936,-0.07936507936507936,-166.26984126984127
15.793650793650793,325.0,13.571428571428571,325.0,-325.0,162.14285714285714,-30.396825396825395,325.0,-71.98412698412697,325.0,31.666666666666664,325.0,-0.07936507936507936,278.4920634920635,21.507936507936506,325.0,22.936507936507937,268.015873015873,325.0,-325.0,132.77777777777777,0.07936507936507936,-0.07936507936507936,-166.26984126984127
15.634920634920634,325.0,-22.46031746031746,325.0,-325.0,159.44444444444443,-15.158730158730158,325.0,-75.15873015873015,325.0,31.19047619047619,325.0,42.460317460317455,273.57142857142856,38.01587301587301,325.0,22.619047619047617,263.57142857142856,325.0,-325.0,130.23809523809524,0.873015873015873,-0.07936507936507936,-166.26984126984127
15.634920634920634,325.0,-22.46031746031746,325.0,-325.0,159.44444444444443,-15.158730158730158,325.0,-75.15873015873015,325.0,31.19047619047619,325.0,42.460317460317455,273.57142857142856,38.01587301587301,325.0,22.619047619047617,263.57142857142856,325.0,-325.0,130.23809523809524,0.873015873015873,-0.07936507936507936,-166.26984126984127
15.476190476190474,325.0,-39.6031746031746,325.0,-325.0,155.95238095238093,-28.015873015873016,325.0,-83.4126984126984,325.0,30.555555555555554,325.0,6.111111111111111,267.53968253968253,22.777777777777775,236.26984126984127,21.984126984126984,258.17460317460313,325.0,-325.0,127.06349206349206,-0.07936507936507936,-0.07936507936507936,-166.26984126984127
15.476190476190474,325.0,-39.6031746031746,325.0,-325.0,155.95238095238093,-28.015873015873016,325.0,-83.4126984126984,325.0,30.555555555555554,325.0,6.111111111111111,267.53968253968253,22.777777777777775,236.26984126984127,21.984126984126984,258.17460317460313,325.0,-325.0,127.06349206349206,-0.07936507936507936,-0.07936507936507936,-166.26984126984127
11.349206349206348,325.0,-5.476190476190476,325.0,-325.0,152.61904761904762,-23.57142857142857,325.0,-107.22222222222221,325.0,29.920634920634917,325.0,46.58730158730158,261.5079365079365,21.507936507936506,325.0,21.666666666666664,252.77777777777777,325.0,-325.0,124.04761904761904,-0.07936507936507936,-0.07936507936507936,-166.26984126984127
11.349206349206348,325.0,-5.476190476190476,325.0,-325.0,152.61904761904762,-23.57142857142857,325.0,-107.22222222222221,325.0,29.920634920634917,325.0,46.58730158730158,261.5079365079365,21.507936507936506,325.0,21.666666666666664,252.77777777777777,325.0,-325.0,124.04761904761904,-0.07936507936507936,-0.07936507936507936,-166.26984126984127
15.0,325.0,-55.95238095238095,325.0,-325.0,150.07936507936506,-32.77777777777778,325.0,-123.4126984126984,325.0,29.444444444444443,325.0,-71.98412698412697,256.74603174603175,25.476190476190474,325.0,21.19047619047619,248.65079365079364,325.0,-325.0,121.66666666666666,0.7142857142857142,0.23809523809523808,-166.26984126984127
15.0,325.0,-55.95238095238095,325.0,-325.0,150.07936507936506,-32.77777777777778,325.0,-123.4126984126984,325.0,29.444444444444443,325.0,-71.98412698412697,256.74603174603175,25.476190476190474,325.0,21.19047619047619,248.65079365079364,325.0,-325.0,121.66666666666666,0.7142857142857142,0.23809523809523808,-166.26984126984127
4.0476190476190474,325.0,-31.349206349206348,325.0,-325.0,147.53968253968253,-50.238095238095234,325.0,-152.3015873015873,325.0,28.96825396825397,325.0,43.095238095238095,252.3015873015873,19.285714285714285,325.0,20.873015873015873,244.52380952380952,325.0,-325.0,119.28571428571428,-1.0317460317460316,-0.5555555555555556,-321.8253968253968
4.0476190476190474,325.0,-31.349206349206348,325.0,-325.0,147.53968253968253,-50.238095238095234,325.0,-152.3015873015873,325.0,28.96825396825397,325.0,43.095238095238095,252.3015873015873,19.285714285714285,325.0,20.873015873015873,244.52380952380952,325.0,-325.0,119.28571428571428,-1.0317460317460316,-0.5555555555555556,-321.8253968253968
-25.476190476190474,325.0,-64.68253968253968,325.0,-325.0,145.0,-59.6031746031746,325.0,-157.53968253968253,325.0,28.49206349206349,325.0,31.03174603174603,247.85714285714283,4.682539682539682,115.79365079365078,20.396825396825395,240.55555555555554,325.0,-325.0,116.9047619047619,-0.7142857142857142,-0.07936507936507936,-321.8253968253968
-25.476190476190474,325.0,-64.68253968253968,325.0,-325.0,145.0,-59.6031746031746,325.0,-157.53968253968253,325.0,28.49206349206349,325.0,31.03174603174603,247.85714285714283,4.682539682539682,115.79365079365078,20.396825396825395,240.55555555555554,325.0,-325.0,116.9047619047619,-0.7142857142857142,-0.07936507936507936,-321.8253968253968
-29.920634920634917,325.0,-61.19047619047619,325.0,-325.0,136.74603174603175,-52.3015873015873,325.0,-132.14285714285714,311.984126984127,26.746031746031743,325.0,45.476190476190474,232.93650793650792,8.174603174603174,-190.7142857142857,19.285714285714285,227.06349206349205,310.39682539682536,-325.0,109.44444444444444,-0.873015873015873,-0.7142857142857142,-321.8253968253968
-29.920634920634917,325.0,-61.19047619047619,325.0,-325.0,136.74603174603175,-52.3015873015873,325.0,-132.14285714285714,311.984126984127,26.746031746031743,325.0,45.476190476190474,232.93650793650792,8.174603174603174,-190.7142857142857,19.285714285714285,227.06349206349205,310.39682539682536,-325.0,109.44444444444444,-0.873015873015873,-0.7142857142857142,-321.8253968253968
8.333333333333332,325.0,-45.317460317460316,325.0,-325.0,127.53968253968253,-50.238095238095234,325.0,-121.66666666666666,292.46031746031747,25.158730158730158,325.0,-18.015873015873016,216.42857142857142,27.539682539682538,-322.1428571428571,18.174603174603174,212.14285714285714,289.76190476190476,-325.0,101.34920634920634,-0.3968253968253968,-1.0317460317460316,-321.8253968253968
8.333333333333332,325.0,-45.317460317460316,325.0,-325.0,127.53968253968253,-50.238095238095234,325.0,-121.66666666666666,292.46031746031747,25.158730158730158,325.0,-18.015873015873016,216.42857142857142,27.539682539682538,-322.1428571428571,18.174603174603174,212.14285714285714,289.76190476190476,-325.0,101.34920634920634,-0.3968253968253968,-1.0317460317460316,-321.8253968253968
-45.476190476190474,325.0,-21.666666666666664,325.0,-325.0,125.31746031746032,-50.39682539682539,303.25396825396825,-121.03174603174602,287.53968253968253,24.84126984126984,325.0,-11.031746031746032,212.61904761904762,35.476190476190474,2.9365079365079363,18.015873015873016,208.65079365079364,284.8412698412698,-325.0,99.44444444444444,-1.6666666666666665,-1.349206349206349,-321.8253968253968
-45.476190476190474,325.0,-21.666666666666664,325.0,-325.0,125.31746031746032,-50.39682539682539,303.25396825396825,-121.03174603174602,287.53968253968253,24.84126984126984,325.0,-11.031746031746032,212.61904761904762,35.476190476190474,2.9365079365079363,18.015873015873016,208.65079365079364,284.8412698412698,-325.0,99.44444444444444,-1.6666666666666665,-1.349206349206349,-321.8253968253968
-53.888888888888886,325.0,16.746031746031743,323.4126984126984,-325.0,122.6190476190476,-31.349206349206348,298.8095238095238,-99.12698412698413,281.5079365079365,24.206349206349206,324.68253968253964,44.84126984126984,207.85714285714283,51.03174603174603,325.0,17.539682539682538,204.36507936507937,278.8095238095238,-325.0,97.06349206349206,-2.3015873015873014,-1.0317460317460316,-166.26984126984127
-53.888888888888886,325.0,16.746031746031743,323.4126984126984,-325.0,122.6190476190476,-31.349206349206348,298.8095238095238,-99.12698412698413,281.5079365079365,24.206349206349206,324.68253968253964,44.84126984126984,207.85714285714283,51.03174603174603,325.0,17.539682539682538,204.36507936507937,278.8095238095238,-325.0,97.06349206349206,-2.3015873015873014,-1.0317460317460316,-166.26984126984127
18.80952380952381,325.0,53.25396825396825,318.015873015873,-325.0,120.07936507936508,-12.3015873015873,301.8253968253968,-90.07936507936508,275.3174603174603,23.88888888888889,319.76190476190476,24.365079365079364,203.25396825396825,51.82539682539682,325.0,17.22222222222222,200.07936507936506,272.9365079365079,-325.0,94.84126984126983,-0.7142857142857142,-0.7142857142857142,-166.26984126984127
18.80952380952381,325.0,53.25396825396825,318.015873015873,-325.0,120.07936507936508,-12.3015873015873,301.8253968253968,-90.07936507936508,275.3174603174603,23.88888888888889,319.76190476190476,24.365079365079364,203.25396825396825,51.82539682539682,325.0,17.22222222222222,200.07936507936506,272.9365079365079,-325.0,94.84126984126983,-0.7142857142857142,-0.7142857142857142,-166.26984126984127
18.49206349206349,325.0,56.58730158730158,312.3015873015873,-325.0,118.17460317460316,-11.507936507936508,306.74603174603175,-78.01587301587301,270.39682539682536,23.41269841269841,314.36507936507934,25.952380952380953,199.60317460317458,51.82539682539682,298.968253968254,16.904761904761905,196.74603174603175,268.3333333333333,-325.0,92.93650793650794,-0.3968253968253968,-0.5555555555555556,-166.26984126984127
18.49206349206349,325.0,56.58730158730158,312.3015873015873,-325.0,118.17460317460316,-11.507936507936508,306.74603174603175,-78.01587301587301,270.39682539682536,23.41269841269841,314.36507936507934,25.952380952380953,199.60317460317458,51.82539682539682,298.968253968254,16.904761904761905,196.74603174603175,268.3333333333333,-325.0,92.93650793650794,-0.3968253968253968,-0.5555555555555556,-166.26984126984127
17.857142857142858,325.0,80.23809523809523,307.06349206349205,-325.0,116.1111111111111,7.063492063492063,304.04761904761904,-73.09523809523809,265.7936507936508,23.095238095238095,308.968253968254,100.87301587301587,196.11111111111111,63.888888888888886,294.8412698412698,16.587301587301585,193.4126984126984,263.73015873015873,-308.6507936507936,91.34920634920634,0.07936507936507936,-0.3968253968253968,-166.26984126984127
17.857142857142858,325.0,80.23809523809523,307.06349206349205,-325.0,116.1111111111111,7.063492063492063,304.04761904761904,-73.09523809523809,265.7936507936508,23.095238095238095,308.968253968254,100.87301587301587,196.11111111111111,63.888888888888886,294.8412698412698,16.587301587301585,193.4126984126984,263.73015873015873,-308.6507936507936,91.34920634920634,0.07936507936507936,-0.3968253968253968,-166.26984126984127
17.539682539682538,314.5238095238095,88.80952380952381,247.85714285714283,-325.0,114.52380952380952,11.19047619047619,63.41269841269841,-70.55555555555556,250.7142857142857,22.777777777777775,214.84126984126982,99.28571428571428,193.25396825396825,65.47619047619047,223.09523809523807,16.428571428571427,191.03174603174602,260.23809523809524,-187.53968253968253,66.9047619047619,0.7142857142857142,0.07936507936507936,-166.26984126984127
17.539682539682538,314.5238095238095,88.80952380952381,247.85714285714283,-325.0,114.52380952380952,11.19047619047619,63.41269841269841,-70.55555555555556,250.7142857142857,22.777777777777775,214.84126984126982,99.28571428571428,193.25396825396825,65.47619047619047,223.09523809523807,16.428571428571427,191.03174603174602,260.23809523809524,-187.53968253968253,66.9047619047619,0.7142857142857142,0.07936507936507936,-166.26984126984127
17.22222222222222,114.04761904761904,87.38095238095238,28.333333333333332,-322.3015873015873,112.6190476190476,-5.952380952380952,-250.2380952380952,-54.047619047619044,93.4126984126984,22.3015873015873,-76.58730158730158,38.96825396825397,172.46031746031744,29.126984126984127,-98.96825396825396,16.26984126984127,187.85714285714283,145.95238095238093,22.142857142857142,-66.26984126984127,1.6666666666666665,0.7142857142857142,-321.8253968253968
17.22222222222222,114.04761904761904,87.38095238095238,28.333333333333332,-322.3015873015873,112.6190476190476,-5.952380952380952,-250.2380952380952,-54.047619047619044,93.4126984126984,22.3015873015873,-76.58730158730158,38.96825396825397,172.46031746031744,29.126984126984127,-98.96825396825396,16.26984126984127,187.85714285714283,145.95238095238093,22.142857142857142,-66.26984126984127,1.6666666666666665,0.7142857142857142,-321.8253968253968
16.904761904761905,-211.98412698412696,59.285714285714285,-268.4920634920635,-315.4761904761905,110.23809523809523,-6.587301587301587,-325.0,-57.38095238095238,-153.57142857142856,21.984126984126984,-325.0,31.98412698412698,152.77777777777777,37.698412698412696,-325.0,15.634920634920634,183.88888888888889,-39.44444444444444,172.93650793650792,-230.55555555555554,0.5555555555555556,-0.5555555555555556,-321.8253968253968
16.904761904761905,-211.98412698412696,59.285714285714285,-268.4920634920635,-315.4761904761905,110.23809523809523,-6.587301587301587,-325.0,-57.38095238095238,-153.57142857142856,21.984126984126984,-325.0,31.98412698412698,152.77777777777777,37.698412698412696,-325.0,15.634920634920634,183.88888888888889,-39.44444444444444,172.93650793650792,-230.55555555555554,0.5555555555555556,-0.5555555555555556,-321.8253968253968
16.587301587301585,-325.0,12.936507936507935,-325.0,-310.55555555555554,108.33333333333333,-29.126984126984127,-325.0,-72.61904761904762,-318.4920634920635,21.507936507936506,-325.0,61.82539682539682,-7.3809523809523805,17.857142857142858,-325.0,15.476190476190474,180.7142857142857,-241.19047619047618,270.07936507936506,-272.77777777777777,1.8253968253968254,0.3968253968253968,-321.8253968253968
16.587301587301585,-325.0,12.936507936507935,-325.0,-310.55555555555554,108.33333333333333,-29.126984126984127,-325.0,-72.61904761904762,-318.4920634920635,21.507936507936506,-325.0,61.82539682539682,-7.3809523809523805,17.857142857142858,-325.0,15.476190476190474,180.7142857142857,-241.19047619047618,270.07936507936506,-272.77777777777777,1.8253968253968254,0.3968253968253968,-321.8253968253968
16.11111111111111,-325.0,8.809523809523808,-325.0,-305.3174603174603,106.42857142857142,-25.0,-325.0,-86.74603174603175,-296.90476190476187,21.19047619047619,-325.0,49.76190476190476,37.22222222222222,22.46031746031746,-325.0,15.317460317460316,177.69841269841268,-191.66666666666666,249.28571428571428,-200.55555555555554,-2.3015873015873014,-0.873015873015873,-321.8253968253968
16.11111111111111,-325.0,8.809523809523808,-325.0,-305.3174603174603,106.42857142857142,-25.0,-325.0,-86.74603174603175,-296.90476190476187,21.19047619047619,-325.0,49.76190476190476,37.22222222222222,22.46031746031746,-325.0,15.317460317460316,177.69841269841268,-191.66666666666666,249.28571428571428,-200.55555555555554,-2.3015873015873014,-0.873015873015873,-321.8253968253968
15.793650793650793,-323.25396825396825,-42.460317460317455,-300.55555555555554,-300.7142857142857,104.68253968253968,-41.507936507936506,-325.0,-86.1111111111111,-118.33333333333333,20.71428571428571,-291.5079365079365,-27.22222222222222,159.12698412698413,-12.46031746031746,-325.0,15.0,174.84126984126982,-12.936507936507935,138.4920634920635,-79.28571428571428,-1.349206349206349,-1.0317460317460316,-321.8253968253968
15.793650793650793,-323.25396825396825,-42.460317460317455,-300.55555555555554,-300.7142857142857,104.68253968253968,-41.507936507936506,-325.0,-86.1111111111111,-118.33333333333333,20.71428571428571,-291.5079365079365,-27.22222222222222,159.12698412698413,-12.46031746031746,-325.0,15.0,174.84126984126982,-12.936507936507935,138.4920634920635,-79.28571428571428,-1.349206349206349,-1.0317460317460316,-321.8253968253968
15.634920634920634,-190.23809523809524,-35.95238095238095,-117.22222222222221,-295.7936507936508,102.93650793650794,-57.53968253968254,-325.0,-71.98412698412697,79.12698412698413,20.396825396825395,-115.79365079365078,-19.444444444444443,179.60317460317458,-6.746031746031746,-325.0,14.84126984126984,171.8253968253968,133.0952380952381,41.82539682539682,12.619047619047619,-2.3015873015873014,-1.984126984126984,-166.26984126984127
15.634920634920634,-190.23809523809524,-35.95238095238095,-117.22222222222221,-295.7936507936508,102.93650793650794,-57.53968253968254,-325.0,-71.98412698412697,79.12698412698413,20.396825396825395,-115.79365079365078,-19.444444444444443,179.60317460317458,-6.746031746031746,-325.0,14.84126984126984,171.8253968253968,133.0952380952381,41.82539682539682,12.619047619047619,-2.3015873015873014,-1.984126984126984,-166.26984126984127
15.476190476190474,-280.39682539682536,-36.904761904761905,-161.34920634920633,-291.3492063492063,101.19047619047619,-24.68253968253968,-325.0,-57.06349206349206,-37.857142857142854,20.07936507936508,-218.4920634920635,10.396825396825395,159.44444444444443,40.714285714285715,-325.0,14.682539682539682,168.96825396825395,53.25396825396825,94.84126984126983,-53.57142857142857,0.873015873015873,-0.23809523809523808,-166.26984126984127
15.476190476190474,-280.39682539682536,-36.904761904761905,-161.34920634920633,-291.3492063492063,101.19047619047619,-24.68253968253968,-325.0,-57.06349206349206,-37.857142857142854,20.07936507936508,-218.4920634920635,10.396825396825395,159.44444444444443,40.714285714285715,-325.0,14.682539682539682,168.96825396825395,53.25396825396825,94.84126984126983,-53.57142857142857,0.873015873015873,-0.23809523809523808,-166.26984126984127
15.0,-325.0,-42.61904761904761,-304.68253968253964,-286.26984126984127,99.44444444444444,-28.65079365079365,-325.0,-55.15873015873016,-149.44444444444443,19.92063492063492,-311.031746031746,51.34920634920635,138.17460317460316,19.76190476190476,-325.0,14.365079365079364,166.26984126984127,-63.095238095238095,135.95238095238093,-152.14285714285714,0.5555555555555556,-1.0317460317460316,-166.26984126984127
15.0,-325.0,-42.61904761904761,-304.68253968253964,-286.26984126984127,99.44444444444444,-28.65079365079365,-325.0,-55.15873015873016,-149.44444444444443,19.92063492063492,-311.031746031746,51.34920634920635,138.17460317460316,19.76190476190476,-325.0,14.365079365079364,166.26984126984127,-63.095238095238095,135.95238095238093,-152.14285714285714,0.5555555555555556,-1.0317460317460316,-166.26984126984127
14.84126984126984,-325.0,-25.476190476190474,-325.0,-282.77777777777777,98.49206349206348,-10.555555555555555,-325.0,-48.650793650793645,-181.03174603174602,19.6031746031746,-325.0,46.58730158730158,135.0,30.07936507936508,-325.0,13.888888888888888,164.2063492063492,-83.73015873015872,146.74603174603175,-169.76190476190476,-0.3968253968253968,-1.8253968253968254,-166.26984126984127
14.84126984126984,-325.0,-25.476190476190474,-325.0,-282.77777777777777,98.49206349206348,-10.555555555555555,-325.0,-48.650793650793645,-181.03174603174602,19.6031746031746,-325.0,46.58730158730158,135.0,30.07936507936508,-325.0,13.888888888888888,164.2063492063492,-83.73015873015872,146.74603174603175,-169.76190476190476,-0.3968253968253968,-1.8253968253968254,-166.26984126984127
14.84126984126984,-325.0,-25.476190476190474,-325.0,-282.77777777777777,98.49206349206348,-10.555555555555555,-325.0,-48.650793650793645,-181.03174603174602,19.6031746031746,-325.0,46.58730158730158,135.0,30.07936507936508,-325.0,13.888888888888888,164.2063492063492,-83.73015873015872,146.74603174603175,-169.76190476190476,-0.3968253968253968,-1.8253968253968254,-166.26984126984127
14.84126984126984,-325.0,-25.476190476190474,-325.0,-282.77777777777777,98.49206349206348,-10.555555555555555,-325.0,-48.650793650793645,-181.03174603174602,19.6031746031746,-325.0,46.58730158730158,135.0,30.07936507936508,-325.0,13.888888888888888,164.2063492063492,-83.73015873015872,146.74603174603175,-169.76190476190476,-0.3968253968253968,-1.8253968253968254,-166.26984126984127
14.84126984126984,-325.0,-25.476190476190474,-325.0,-282.77777777777777,98.49206349206348,-10.555555555555555,-325.0,-48.650793650793645,-181.03174603174602,19.6031746031746,-325.0,46.58730158730158,135.0,30.07936507936508,-325.0,13.888888888888888,164.2063492063492,-83.73015873015872,146.74603174603175,-169.76190476190476,-0.3968253968253968,-1.8253968253968254,-321.8253968253968
14.84126984126984,-325.0,-25.476190476190474,-325.0,-282.77777777777777,98.49206349206348,-10.555555555555555,-325.0,-48.650793650793645,-181.03174603174602,19.6031746031746,-325.0,46.58730158730158,135.0,30.07936507936508,-325.0,13.888888888888888,164.2063492063492,-83.73015873015872,146.74603174603175,-169.76190476190476,-0.3968253968253968,-1.8253968253968254,-321.8253968253968
14.84126984126984,-325.0,-25.476190476190474,-325.0,-282.77777777777777,98.49206349206348,-10.555555555555555,-325.0,-48.650793650793645,-181.03174603174602,19.6031746031746,-325.0,46.58730158730158,135.0,30.07936507936508,-325.0,13.888888888888888,164.2063492063492,-83.73015873015872,146.74603174603175,-169.76190476190476,-0.3968253968253968,-1.8253968253968254,-321.8253968253968
14.84126984126984,-325.0,-25.476190476190474,-325.0,-282.77777777777777,98.49206349206348,-10.555555555555555,-325.0,-48.650793650793645,-181.03174603174602,19.6031746031746,-325.0,46.58730158730158,135.0,30.07936507936508,-325.0,13.888888888888888,164.2063492063492,-83.73015873015872,146.74603174603175,-169.76190476190476,-0.3968253968253968,-1.8253968253968254,-321.8253968253968
14.84126984126984,-325.0,-25.476190476190474,-325.0,-282.77777777777777,98.49206349206348,-10.555555555555555,-325.0,-48.650793650793645,-181.03174603174602,19.6031746031746,-325.0,46.58730158730158,135.0,30.07936507936508,-325.0,13.888888888888888,164.2063492063492,-83.73015873015872,146.74603174603175,-169.76190476190476,-0.3968253968253968,-1.8253968253968254,-321.8253968253968
14.84126984126984,-325.0,-25.476190476190474,-325.0,-282.77777777777777,98.49206349206348,-10.555555555555555,-325.0,-48.650793650793645,-181.03174603174602,19.6031746031746,-325.0,46.58730158730158,135.0,30.07936507936508,-325.0,13.888888888888888,164.2063492063492,-83.73015873015872,146.74603174603175,-169.76190476190476,-0.3968253968253968,-1.8253968253968254,-321.8253968253968
14.84126984126984,-325.0,-25.476190476190474,-325.0,-282.77777777777777,98.49206349206348,-10.555555555555555,-325.0,-48.650793650793645,-181.03174603174602,19.6031746031746,-325.0,46.58730158730158,135.0,30.07936507936508,-325.0,13.888888888888888,164.2063492063492,-83.73015873015872,146.74603174603175,-169.76190476190476,-0.3968253968253968,-1.8253968253968254,-321.8253968253968
14.84126984126984,-325.0,-25.476190476190474,-325.0,-282.77777777777777,98.49206349206348,-10.555555555555555,-325.0,-48.650793650793645,-181.03174603174602,19.6031746031746,-325.0,46.58730158730158,135.0,30.07936507936508,-325.0,13.888888888888888,164.2063492063492,-83.73015873015872,146.74603174603175,-169.76190476190476,-0.3968253968253968,-1.8253968253968254,-321.8253968253968
-90.87301587301587,-325.0,-1.1904761904761905,-325.0,-254.68253968253967,-325.0,-1.984126984126984,-325.0,-37.698412698412696,-325.0,17.698412698412696,-325.0,44.2063492063492,-325.0,38.17460317460317,-152.77777777777777,12.777777777777777,-325.0,-325.0,325.0,-325.0,-1.6666666666666665,-1.0317460317460316,-321.8253968253968
-90.87301587301587,-325.0,-1.1904761904761905,-325.0,-254.68253968253967,-325.0,-1.984126984126984,-325.0,-37.698412698412696,-325.0,17.698412698412696,-325.0,44.2063492063492,-325.0,38.17460317460317,-152.77777777777777,12.777777777777777,-325.0,-325.0,325.0,-325.0,-1.6666666666666665,-1.0317460317460316,-321.8253968253968
42.14285714285714,-325.0,-16.746031746031743,-317.06349206349205,-249.9206349206349,70.39682539682539,-17.539682539682538,-325.0,-47.53968253968254,-273.0952380952381,17.22222222222222,-309.2857142857143,-2.7777777777777777,-58.01587301587301,15.317460317460316,269.76190476190476,12.46031746031746,105.79365079365078,-178.8095238095238,132.3015873015873,-117.53968253968253,-1.8253968253968254,-1.349206349206349,-166.26984126984127
42.14285714285714,-325.0,-16.746031746031743,-317.06349206349205,-249.9206349206349,70.39682539682539,-17.539682539682538,-325.0,-47.53968253968254,-273.0952380952381,17.22222222222222,-309.2857142857143,-2.7777777777777777,-58.01587301587301,15.317460317460316,269.76190476190476,12.46031746031746,105.79365079365078,-178.8095238095238,132.3015873015873,-117.53968253968253,-1.8253968253968254,-1.349206349206349,-166.26984126984127
29.6031746031746,-325.0,-66.74603174603175,-279.2857142857143,-245.3174603174603,176.11111111111111,-15.95238095238095,-325.0,-50.55555555555555,-220.87301587301587,16.904761904761905,-285.7936507936508,54.68253968253968,51.666666666666664,19.444444444444443,130.23809523809524,12.3015873015873,212.3015873015873,-135.3174603174603,132.46031746031744,-123.09523809523809,1.507936507936508,0.23809523809523808,-166.26984126984127
29.6031746031746,-325.0,-66.74603174603175,-279.2857142857143,-245.3174603174603,176.11111111111111,-15.95238095238095,-325.0,-50.55555555555555,-220.87301587301587,16.904761904761905,-285.7936507936508,54.68253968253968,51.666666666666664,19.444444444444443,130.23809523809524,12.3015873015873,212.3015873015873,-135.3174603174603,132.46031746031744,-123.09523809523809,1.507936507936508,0.23809523809523808,-166.26984126984127
-95.31746031746032,-325.0,12.46031746031746,-261.984126984127,-241.66666666666666,169.28571428571428,-5.476190476190476,-325.0,-33.25396825396825,-113.09523809523809,16.746031746031743,-229.28571428571428,12.142857142857142,222.77777777777777,17.539682539682538,-172.14285714285714,12.142857142857142,205.0,15.317460317460316,46.904761904761905,-68.65079365079364,-1.349206349206349,-1.349206349206349,-166.26984126984127
-95.31746031746032,-325.0,12.46031746031746,-261.984126984127,-241.66666666666666,169.28571428571428,-5.476190476190476,-325.0,-33.25396825396825,-113.09523809523809,16.746031746031743,-229.28571428571428,12.142857142857142,222.77777777777777,17.539682539682538,-172.14285714285714,12.142857142857142,205.0,15.317460317460316,46.904761904761905,-68.65079365079364,-1.349206349206349,-1.349206349206349,-166.26984126984127
-44.047619047619044,-325.0,-3.253968253968254,-298.8095238095238,-237.53968253968253,166.11111111111111,-15.634920634920634,-325.0,-47.698412698412696,-194.68253968253967,16.587301587301585,-307.22222222222223,-18.96825396825397,126.1111111111111,11.031746031746032,-302.6190476190476,11.825396825396824,201.5079365079365,-63.888888888888886,70.71428571428571,-86.58730158730158,0.23809523809523808,-0.07936507936507936,-166.26984126984127
-44.047619047619044,-325.0,-3.253968253968254,-298.8095238095238,-237.53968253968253,166.11111111111111,-15.634920634920634,-325.0,-47.698412698412696,-194.68253968253967,16.587301587301585,-307.22222222222223,-18.96825396825397,126.1111111111111,11.031746031746032,-302.6190476190476,11.825396825396824,201.5079365079365,-63.888888888888886,70.71428571428571,-86.58730158730158,0.23809523809523808,-0.07936507936507936,-166.26984126984127
10.079365079365079,-325.0,-20.396825396825395,-305.4761904761905,-234.52380952380952,-79.92063492063491,-8.492063492063492,-325.0,-54.047619047619044,-262.46031746031747,16.428571428571427,-318.4920634920635,-9.126984126984127,-101.19047619047619,20.238095238095237,-302.6190476190476,11.825396825396824,-62.3015873015873,-194.04761904761904,165.95238095238093,-211.34920634920633,5.476190476190476,1.6666666666666665,-166.26984126984127
10.079365079365079,-325.0,-20.396825396825395,-305.4761904761905,-234.52380952380952,-79.92063492063491,-8.492063492063492,-325.0,-54.047619047619044,-262.46031746031747,16.428571428571427,-318.4920634920635,-9.126984126984127,-101.19047619047619,20.238095238095237,-302.6190476190476,11.825396825396824,-62.3015873015873,-194.04761904761904,165.95238095238093,-211.34920634920633,5.476190476190476,1.6666666666666665,-166.26984126984127
40.079365079365076,-325.0,-31.666666666666664,-325.0,-228.65079365079364,-325.0,16.904761904761905,-325.0,-32.61904761904762,-325.0,15.95238095238095,-325.0,32.14285714285714,-325.0,33.73015873015873,-325.0,11.507936507936508,-325.0,-325.0,325.0,-325.0,3.73015873015873,1.0317460317460316,-321.8253968253968
40.079365079365076,-325.0,-31.666666666666664,-325.0,-228.65079365079364,-325.0,16.904761904761905,-325.0,-32.61904761904762,-325.0,15.95238095238095,-325.0,32.14285714285714,-325.0,33.73015873015873,-325.0,11.507936507936508,-325.0,-325.0,325.0,-325.0,3.73015873015873,1.0317460317460316,-321.8253968253968
38.49206349206349,-325.0,-43.888888888888886,-325.0,-224.68253968253967,-325.0,-20.396825396825395,-325.0,-33.888888888888886,-325.0,15.634920634920634,-325.0,-1.507936507936508,-325.0,-2.9365079365079363,-325.0,11.349206349206348,-325.0,-325.0,317.53968253968253,-325.0,-0.07936507936507936,-1.0317460317460316,-321.8253968253968
38.49206349206349,-325.0,-43.888888888888886,-325.0,-224.68253968253967,-325.0,-20.396825396825395,-325.0,-33.888888888888886,-325.0,15.634920634920634,-325.0,-1.507936507936508,-325.0,-2.9365079365079363,-325.0,11.349206349206348,-325.0,-325.0,317.53968253968253,-325.0,-0.07936507936507936,-1.0317460317460316,-321.8253968253968
37.857142857142854,-325.0,17.698412698412696,-325.0,-185.0,-325.0,-21.507936507936506,-325.0,-45.0,-325.0,15.476190476190474,-325.0,11.19047619047619,-325.0,9.444444444444445,-325.0,11.19047619047619,-325.0,-325.0,311.19047619047615,-325.0,-4.0476190476190474,-2.9365079365079363,-321.8253968253968
37.857142857142854,-325.0,17.698412698412696,-325.0,-185.0,-325.0,-21.507936507936506,-325.0,-45.0,-325.0,15.476190476190474,-325.0,11.19047619047619,-325.0,9.444444444444445,-325.0,11.19047619047619,-325.0,-325.0,311.19047619047615,-325.0,-4.0476190476190474,-2.9365079365079363,-321.8253968253968
37.06349206349206,-65.47619047619047,2.46031746031746,-78.33333333333333,-218.65079365079364,-41.19047619047619,-8.333333333333332,-56.74603174603174,-41.507936507936506,-85.95238095238095,15.158730158730158,-63.888888888888886,7.3809523809523805,-68.33333333333333,18.65079365079365,-325.0,11.031746031746032,-94.84126984126983,-64.68253968253968,-42.77777777777778,-67.6984126984127,-4.841269841269841,-2.619047619047619,-321.8253968253968
37.06349206349206,-65.47619047619047,2.46031746031746,-78.33333333333333,-218.65079365079364,-41.19047619047619,-8.333333333333332,-56.74603174603174,-41.507936507936506,-85.95238095238095,15.158730158730158,-63.888888888888886,7.3809523809523805,-68.33333333333333,18.65079365079365,-325.0,11.031746031746032,-94.84126984126983,-64.68253968253968,-42.77777777777778,-67.6984126984127,-4.841269841269841,-2.619047619047619,-321.8253968253968
36.904761904761905,194.2063492063492,-15.95238095238095,168.4920634920635,-219.60317460317458,207.06349206349205,-17.698412698412696,211.5079365079365,-40.39682539682539,153.09523809523807,15.158730158730158,197.2222222222222,-2.142857142857143,188.4920634920635,7.063492063492063,-325.0,11.031746031746032,135.47619047619048,195.79365079365078,-325.0,189.76190476190476,-12.142857142857142,-7.3809523809523805,-321.8253968253968
36.904761904761905,194.2063492063492,-15.95238095238095,168.4920634920635,-219.60317460317458,207.06349206349205,-17.698412698412696,211.5079365079365,-40.39682539682539,153.09523809523807,15.158730158730158,197.2222222222222,-2.142857142857143,188.4920634920635,7.063492063492063,-325.0,11.031746031746032,135.47619047619048,195.79365079365078,-325.0,189.76190476190476,-12.142857142857142,-7.3809523809523805,-321.8253968253968
35.476190476190474,325.0,-11.349206349206348,325.0,-138.65079365079364,307.22222222222223,-14.047619047619047,323.57142857142856,-18.49206349206349,325.0,14.84126984126984,325.0,-19.285714285714285,325.0,-3.4126984126984126,-325.0,10.714285714285714,311.3492063492063,325.0,-325.0,325.0,0.23809523809523808,-0.3968253968253968,-166.26984126984127
35.476190476190474,325.0,-11.349206349206348,325.0,-138.65079365079364,307.22222222222223,-14.047619047619047,323.57142857142856,-18.49206349206349,325.0,14.84126984126984,325.0,-19.285714285714285,325.0,-3.4126984126984126,-325.0,10.714285714285714,311.3492063492063,325.0,-325.0,325.0,0.23809523809523808,-0.3968253968253968,-166.26984126984127
34.84126984126984,325.0,-0.3968253968253968,325.0,71.03174603174602,299.76190476190476,-17.698412698412696,325.0,-12.142857142857142,325.0,14.523809523809524,325.0,-26.746031746031743,325.0,-8.174603174603174,-72.93650793650794,10.555555555555555,320.87301587301585,325.0,-325.0,325.0,-1.1904761904761905,-0.3968253968253968,-166.26984126984127
34.84126984126984,325.0,-0.3968253968253968,325.0,71.03174603174602,299.76190476190476,-17.698412698412696,325.0,-12.142857142857142,325.0,14.523809523809524,325.0,-26.746031746031743,325.0,-8.174603174603174,-72.93650793650794,10.555555555555555,320.87301587301585,325.0,-325.0,325.0,-1.1904761904761905,-0.3968253968253968,-166.26984126984127
34.047619047619044,325.0,2.46031746031746,325.0,230.87301587301587,294.36507936507934,-12.3015873015873,325.0,-27.063492063492063,325.0,14.365079365079364,325.0,-18.015873015873016,325.0,20.07936507936508,325.0,10.238095238095237,314.5238095238095,325.0,-325.0,325.0,-0.3968253968253968,-1.349206349206349,-166.26984126984127
34.047619047619044,325.0,2.46031746031746,325.0,230.87301587301587,294.36507936507934,-12.3015873015873,325.0,-27.063492063492063,325.0,14.365079365079364,325.0,-18.015873015873016,325.0,20.07936507936508,325.0,10.238095238095237,314.5238095238095,325.0,-325.0,325.0,-0.3968253968253968,-1.349206349206349,-166.26984126984127
33.57142857142857,325.0,-26.26984126984127,325.0,324.36507936507934,288.968253968254,8.174603174603174,325.0,-8.015873015873016,325.0,14.047619047619047,325.0,-15.317460317460316,325.0,28.96825396825397,325.0,10.238095238095237,308.8095238095238,325.0,-325.0,324.2063492063492,0.3968253968253968,-0.23809523809523808,-166.26984126984127
33.57142857142857,325.0,-26.26984126984127,325.0,324.36507936507934,288.968253968254,8.174603174603174,325.0,-8.015873015873016,325.0,14.047619047619047,325.0,-15.317460317460316,325.0,28.96825396825397,325.0,10.238095238095237,308.8095238095238,325.0,-325.0,324.2063492063492,0.3968253968253968,-0.23809523809523808,-166.26984126984127
32.77777777777778,325.0,3.571428571428571,325.0,325.0,283.73015873015873,-17.063492063492063,325.0,-16.428571428571427,325.0,13.888888888888888,325.0,-61.507936507936506,325.0,-8.015873015873016,325.0,10.238095238095237,303.4126984126984,325.0,-325.0,318.6507936507936,-0.3968253968253968,-0.7142857142857142,-166.26984126984127
32.77777777777778,325.0,3.571428571428571,325.0,325.0,283.73015873015873,-17.063492063492063,325.0,-16.428571428571427,325.0,13.888888888888888,325.0,-61.507936507936506,325.0,-8.015873015873016,325.0,10.238095238095237,303.4126984126984,325.0,-325.0,318.6507936507936,-0.3968253968253968,-0.7142857142857142,-166.26984126984127
