Fp1[1],Fp2[2],F3[3],F4[4],C3[5],C4[6],P3[7],P4[8],O1[9],O2[10],F7[11],F8[12],T3[13],T4[14],T5[15],T6[16],Fz[17],Pz[18],Cz[19],Pg1[20],Pg2[21],EOGR[22],EOOGL[23],EMG[24]
-136.58730158730157,89.6031746031746,13.73015873015873,84.84126984126983,-8.333333333333332,-30.238095238095237,80.39682539682539,165.0,162.3015873015873,307.22222222222223,11.666666666666666,325.0,156.26984126984127,-285.95238095238096,164.68253968253967,-325.0,-15.793650793650793,3.095238095238095,325.0,-325.0,-325.0,-0.07936507936507936,-0.5555555555555556,-166.26984126984127
-136.58730158730157,89.6031746031746,13.73015873015873,84.84126984126983,-8.333333333333332,-30.238095238095237,80.39682539682539,165.0,162.3015873015873,307.22222222222223,11.666666666666666,325.0,156.26984126984127,-285.95238095238096,164.68253968253967,-325.0,-15.793650793650793,3.095238095238095,325.0,-325.0,-325.0,-0.07936507936507936,-0.5555555555555556,-166.26984126984127
-325.0,325.0,154.68253968253967,325.0,79.28571428571428,88.01587301587301,157.06349206349205,325.0,161.66666666666666,306.1111111111111,8.333333333333332,325.0,155.63492063492063,-284.5238095238095,164.04761904761904,-325.0,-18.015873015873016,-0.23809523809523808,325.0,-325.0,-325.0,-0.07936507936507936,-0.5555555555555556,-166.26984126984127
-325.0,325.0,154.68253968253967,325.0,79.28571428571428,88.01587301587301,157.06349206349205,325.0,161.66666666666666,306.1111111111111,8.333333333333332,325.0,155.63492063492063,-284.5238095238095,164.04761904761904,-325.0,-18.015873015873016,-0.23809523809523808,325.0,-325.0,-325.0,-0.07936507936507936,-0.5555555555555556,-166.26984126984127
-325.0,325.0,154.68253968253967,325.0,79.28571428571428,88.01587301587301,157.06349206349205,325.0,161.66666666666666,306.1111111111111,8.333333333333332,325.0,155.63492063492063,-284.5238095238095,164.04761904761904,-325.0,-18.015873015873016,-0.23809523809523808,325.0,-325.0,-325.0,-0.07936507936507936,-0.5555555555555556,-166.26984126984127
-325.0,325.0,154.68253968253967,325.0,79.28571428571428,88.01587301587301,157.06349206349205,325.0,161.66666666666666,306.1111111111111,8.333333333333332,325.0,155.63492063492063,-284.5238095238095,164.04761904761904,-325.0,-18.015873015873016,-0.23809523809523808,325.0,-325.0,-325.0,-0.07936507936507936,-0.5555555555555556,-166.26984126984127
-325.0,325.0,139.28571428571428,325.0,85.95238095238095,80.39682539682539,141.5079365079365,325.0,-81.66666666666666,276.1111111111111,20.873015873015873,325.0,140.3968253968254,-256.26984126984127,148.17460317460316,-325.0,6.904761904761904,7.063492063492063,325.0,-325.0,-325.0,-0.873015873015873,-0.873015873015873,-166.26984126984127
-325.0,325.0,139.28571428571428,325.0,85.95238095238095,80.39682539682539,141.5079365079365,325.0,-81.66666666666666,276.1111111111111,20.873015873015873,325.0,140.3968253968254,-256.26984126984127,148.17460317460316,-325.0,6.904761904761904,7.063492063492063,325.0,-325.0,-325.0,-0.873015873015873,-0.873015873015873,-166.26984126984127
-325.0,325.0,123.88888888888889,325.0,92.77777777777777,72.93650793650794,126.1111111111111,325.0,-325.0,246.1111111111111,33.57142857142857,325.0,125.15873015873015,-228.015873015873,132.46031746031744,-325.0,31.825396825396822,14.523809523809524,325.0,-325.0,-325.0,-1.507936507936508,-1.0317460317460316,-166.26984126984127
-325.0,325.0,123.88888888888889,325.0,92.77777777777777,72.93650793650794,126.1111111111111,325.0,-325.0,246.1111111111111,33.57142857142857,325.0,125.15873015873015,-228.015873015873,132.46031746031744,-325.0,31.825396825396822,14.523809523809524,325.0,-325.0,-325.0,-1.507936507936508,-1.0317460317460316,-166.26984126984127
-325.0,325.0,123.88888888888889,325.0,92.77777777777777,72.93650793650794,126.1111111111111,325.0,-325.0,246.1111111111111,33.57142857142857,325.0,125.15873015873015,-228.015873015873,132.46031746031744,-325.0,31.825396825396822,14.523809523809524,325.0,-325.0,-325.0,-1.507936507936508,-1.0317460317460316,-321.8253968253968
-325.0,325.0,123.88888888888889,325.0,92.77777777777777,72.93650793650794,126.1111111111111,325.0,-325.0,246.1111111111111,33.57142857142857,325.0,125.15873015873015,-228.015873015873,132.46031746031744,-325.0,31.825396825396822,14.523809523809524,325.0,-325.0,-325.0,-1.507936507936508,-1.0317460317460316,-321.8253968253968
-325.0,325.0,123.88888888888889,325.0,92.77777777777777,72.93650793650794,126.1111111111111,325.0,-325.0,246.1111111111111,33.57142857142857,325.0,125.15873015873015,-228.015873015873,132.46031746031744,-325.0,31.825396825396822,14.523809523809524,325.0,-325.0,-325.0,-1.507936507936508,-1.0317460317460316,-321.8253968253968
-325.0,325.0,123.88888888888889,325.0,92.77777777777777,72.93650793650794,126.1111111111111,325.0,-325.0,246.1111111111111,33.57142857142857,325.0,125.15873015873015,-228.015873015873,132.46031746031744,-325.0,31.825396825396822,14.523809523809524,325.0,-325.0,-325.0,-1.507936507936508,-1.0317460317460316,-321.8253968253968
-325.0,325.0,113.73015873015872,325.0,83.09523809523809,58.650793650793645,115.95238095238095,325.0,-325.0,226.26984126984127,40.238095238095234,325.0,115.0,-209.76190476190476,121.98412698412697,-325.0,47.38095238095238,14.84126984126984,325.0,-325.0,-325.0,0.07936507936507936,-0.7142857142857142,-321.8253968253968
-325.0,325.0,113.73015873015872,325.0,83.09523809523809,58.650793650793645,115.95238095238095,325.0,-325.0,226.26984126984127,40.238095238095234,325.0,115.0,-209.76190476190476,121.98412698412697,-325.0,47.38095238095238,14.84126984126984,325.0,-325.0,-325.0,0.07936507936507936,-0.7142857142857142,-321.8253968253968
-325.0,325.0,112.14285714285714,325.0,81.66666666666666,56.42857142857142,114.52380952380952,325.0,-325.0,223.4126984126984,41.666666666666664,325.0,113.4126984126984,-207.06349206349205,120.39682539682539,-325.0,49.6031746031746,15.476190476190474,325.0,-325.0,-325.0,0.7142857142857142,-0.5555555555555556,-321.8253968253968
-325.0,325.0,112.14285714285714,325.0,81.66666666666666,56.42857142857142,114.52380952380952,325.0,-325.0,223.4126984126984,41.666666666666664,325.0,113.4126984126984,-207.06349206349205,120.39682539682539,-325.0,49.6031746031746,15.476190476190474,325.0,-325.0,-325.0,0.7142857142857142,-0.5555555555555556,-321.8253968253968
-325.0,325.0,109.76190476190476,325.0,80.55555555555556,55.0,111.82539682539682,325.0,-325.0,218.4920634920635,44.68253968253968,325.0,111.03174603174602,-202.61904761904762,117.6984126984127,-325.0,54.047619047619044,17.38095238095238,325.0,-325.0,-325.0,-0.7142857142857142,0.07936507936507936,-321.8253968253968
-325.0,325.0,109.76190476190476,325.0,80.55555555555556,55.0,111.82539682539682,325.0,-325.0,218.4920634920635,44.68253968253968,325.0,111.03174603174602,-202.61904761904762,117.6984126984127,-325.0,54.047619047619044,17.38095238095238,325.0,-325.0,-325.0,-0.7142857142857142,0.07936507936507936,-321.8253968253968
-325.0,325.0,107.85714285714285,325.0,76.9047619047619,50.71428571428571,109.92063492063491,325.0,-325.0,214.68253968253967,44.68253968253968,325.0,109.12698412698413,-199.12698412698413,115.79365079365078,-325.0,54.52380952380952,16.26984126984127,325.0,-325.0,-325.0,-0.873015873015873,-1.8253968253968254,-166.26984126984127
-325.0,325.0,107.85714285714285,325.0,76.9047619047619,50.71428571428571,109.92063492063491,325.0,-325.0,214.68253968253967,44.68253968253968,325.0,109.12698412698413,-199.12698412698413,115.79365079365078,-325.0,54.52380952380952,16.26984126984127,325.0,-325.0,-325.0,-0.873015873015873,-1.8253968253968254,-166.26984126984127
-325.0,325.0,106.26984126984127,325.0,78.80952380952381,51.98412698412698,108.65079365079364,325.0,-325.0,211.98412698412696,48.96825396825397,325.0,107.85714285714285,-196.42857142857142,114.36507936507935,-325.0,59.76190476190476,19.76190476190476,325.0,-325.0,-325.0,-0.23809523809523808,-1.349206349206349,-166.26984126984127
-325.0,325.0,106.26984126984127,325.0,78.80952380952381,51.98412698412698,108.65079365079364,325.0,-325.0,211.98412698412696,48.96825396825397,325.0,107.85714285714285,-196.42857142857142,114.36507936507935,-325.0,59.76190476190476,19.76190476190476,325.0,-325.0,-325.0,-0.23809523809523808,-1.349206349206349,-166.26984126984127
-325.0,325.0,104.04761904761904,321.5079365079365,76.42857142857143,49.44444444444444,106.26984126984127,325.0,-325.0,207.38095238095238,50.71428571428571,321.66666666666663,105.47619047619047,-192.3015873015873,111.82539682539682,-318.3333333333333,61.666666666666664,21.03174603174603,318.8095238095238,-325.0,-325.0,-0.23809523809523808,-1.0317460317460316,-166.26984126984127
-325.0,325.0,104.04761904761904,321.5079365079365,76.42857142857143,49.44444444444444,106.26984126984127,325.0,-325.0,207.38095238095238,50.71428571428571,321.66666666666663,105.47619047619047,-192.3015873015873,111.82539682539682,-318.3333333333333,61.666666666666664,21.03174603174603,318.8095238095238,-325.0,-325.0,-0.23809523809523808,-1.0317460317460316,-166.26984126984127
-325.0,299.9206349206349,-114.36507936507935,278.015873015873,44.047619047619044,-144.52380952380952,-113.4126984126984,325.0,-325.0,176.9047619047619,40.39682539682539,278.6507936507936,90.07936507936508,-163.88888888888889,95.63492063492063,-273.4126984126984,52.14285714285714,11.507936507936508,274.36507936507934,-298.3333333333333,-290.87301587301585,-1.0317460317460316,-1.0317460317460316,-166.26984126984127
-325.0,299.9206349206349,-114.36507936507935,278.015873015873,44.047619047619044,-144.52380952380952,-113.4126984126984,325.0,-325.0,176.9047619047619,40.39682539682539,278.6507936507936,90.07936507936508,-163.88888888888889,95.63492063492063,-273.4126984126984,52.14285714285714,11.507936507936508,274.36507936507934,-298.3333333333333,-290.87301587301585,-1.0317460317460316,-1.0317460317460316,-166.26984126984127
-308.4920634920635,224.36507936507934,-325.0,206.42857142857142,-13.095238095238095,-325.0,-325.0,282.3015873015873,-325.0,130.3968253968254,4.682539682539682,207.2222222222222,-325.0,-120.55555555555554,-325.0,-204.36507936507937,14.84126984126984,-10.079365079365079,-325.0,-221.34920634920633,-213.88888888888889,0.23809523809523808,-0.23809523809523808,-166.26984126984127
-308.4920634920635,224.36507936507934,-325.0,206.42857142857142,-13.095238095238095,-325.0,-325.0,282.3015873015873,-325.0,130.3968253968254,4.682539682539682,207.2222222222222,-325.0,-120.55555555555554,-325.0,-204.36507936507937,14.84126984126984,-10.079365079365079,-325.0,-221.34920634920633,-213.88888888888889,0.23809523809523808,-0.23809523809523808,-166.26984126984127
-241.03174603174602,-51.34920634920635,-325.0,161.19047619047618,-169.44444444444443,-292.46031746031747,-325.0,-22.619047619047617,-277.85714285714283,-97.85714285714285,-9.603174603174603,162.14285714285714,-325.0,-93.88888888888889,-325.0,-160.55555555555554,-3.888888888888889,-8.65079365079365,-325.0,-173.4126984126984,-166.11111111111111,0.5555555555555556,-0.7142857142857142,-321.8253968253968
-241.03174603174602,-51.34920634920635,-325.0,161.19047619047618,-169.44444444444443,-292.46031746031747,-325.0,-22.619047619047617,-277.85714285714283,-97.85714285714285,-9.603174603174603,162.14285714285714,-325.0,-93.88888888888889,-325.0,-160.55555555555554,-3.888888888888889,-8.65079365079365,-325.0,-173.4126984126984,-166.11111111111111,0.5555555555555556,-0.7142857142857142,-321.8253968253968
325.0,-260.87301587301585,-152.77777777777777,-325.0,-159.9206349206349,325.0,-150.87301587301587,-253.09523809523807,-93.4126984126984,-251.8253968253968,-325.0,-325.0,-172.93650793650792,325.0,-191.34920634920633,325.0,-239.44444444444443,-8.809523809523808,-183.88888888888889,-50.55555555555555,-46.269841269841265,-0.873015873015873,0.3968253968253968,-321.8253968253968
325.0,-260.87301587301585,-152.77777777777777,-325.0,-159.9206349206349,325.0,-150.87301587301587,-253.09523809523807,-93.4126984126984,-251.8253968253968,-325.0,-325.0,-172.93650793650792,325.0,-191.34920634920633,325.0,-239.44444444444443,-8.809523809523808,-183.88888888888889,-50.55555555555555,-46.269841269841265,-0.873015873015873,0.3968253968253968,-321.8253968253968
325.0,-256.74603174603175,-150.23809523809524,-325.0,-157.38095238095238,280.55555555555554,-148.33333333333331,-249.12698412698413,-91.82539682539682,-247.53968253968253,-325.0,-325.0,-170.07936507936506,325.0,-188.17460317460316,325.0,-235.3174603174603,-9.285714285714285,-180.87301587301587,-49.76190476190476,-45.476190476190474,0.3968253968253968,0.7142857142857142,-321.8253968253968
325.0,-256.74603174603175,-150.23809523809524,-325.0,-157.38095238095238,280.55555555555554,-148.33333333333331,-249.12698412698413,-91.82539682539682,-247.53968253968253,-325.0,-325.0,-170.07936507936506,325.0,-188.17460317460316,325.0,-235.3174603174603,-9.285714285714285,-180.87301587301587,-49.76190476190476,-45.476190476190474,0.3968253968253968,0.7142857142857142,-321.8253968253968
325.0,-249.28571428571428,-145.63492063492063,-325.0,-152.61904761904762,-314.2063492063492,-144.04761904761904,-242.14285714285714,-89.28571428571428,-240.3968253968254,-325.0,-325.0,-164.84126984126982,325.0,-182.93650793650792,325.0,-228.17460317460316,-5.158730158730158,-175.15873015873015,-48.33333333333333,-43.888888888888886,-0.07936507936507936,0.3968253968253968,-321.8253968253968
325.0,-249.28571428571428,-145.63492063492063,-325.0,-152.61904761904762,-314.2063492063492,-144.04761904761904,-242.14285714285714,-89.28571428571428,-240.3968253968254,-325.0,-325.0,-164.84126984126982,325.0,-182.93650793650792,325.0,-228.17460317460316,-5.158730158730158,-175.15873015873015,-48.33333333333333,-43.888888888888886,-0.07936507936507936,0.3968253968253968,-321.8253968253968
325.0,-245.15873015873015,-143.09523809523807,-325.0,-150.23809523809524,-325.0,-141.66666666666666,-238.17460317460316,-87.6984126984127,-236.26984126984127,-325.0,-325.0,-161.984126984127,325.0,-179.9206349206349,325.0,-224.2063492063492,0.5555555555555556,-172.3015873015873,-47.53968253968254,-43.095238095238095,-0.5555555555555556,-0.23809523809523808,-321.8253968253968
325.0,-245.15873015873015,-143.09523809523807,-325.0,-150.23809523809524,-325.0,-141.66666666666666,-238.17460317460316,-87.6984126984127,-236.26984126984127,-325.0,-325.0,-161.984126984127,325.0,-179.9206349206349,325.0,-224.2063492063492,0.5555555555555556,-172.3015873015873,-47.53968253968254,-43.095238095238095,-0.5555555555555556,-0.23809523809523808,-321.8253968253968
325.0,-241.19047619047618,-140.87301587301587,-325.0,-147.69841269841268,325.0,-139.28571428571428,-234.52380952380952,-86.42857142857143,-232.3015873015873,-325.0,-325.0,-159.28571428571428,325.0,-177.06349206349205,325.0,-220.2380952380952,-5.317460317460317,-169.44444444444443,-46.58730158730158,-42.460317460317455,-1.349206349206349,-0.3968253968253968,-166.26984126984127
325.0,-241.19047619047618,-140.87301587301587,-325.0,-147.69841269841268,325.0,-139.28571428571428,-234.52380952380952,-86.42857142857143,-232.3015873015873,-325.0,-325.0,-159.28571428571428,325.0,-177.06349206349205,325.0,-220.2380952380952,-5.317460317460317,-169.44444444444443,-46.58730158730158,-42.460317460317455,-1.349206349206349,-0.3968253968253968,-166.26984126984127
325.0,-238.33333333333331,-139.12698412698413,-325.0,-145.95238095238093,325.0,-137.53968253968253,-231.5079365079365,-85.47619047619047,-229.28571428571428,-325.0,-325.0,-157.38095238095238,325.0,-174.84126984126982,325.0,-217.53968253968253,-4.2063492063492065,-167.53968253968253,-46.11111111111111,-41.98412698412698,-0.7142857142857142,-0.3968253968253968,-166.26984126984127
325.0,-238.33333333333331,-139.12698412698413,-325.0,-145.95238095238093,325.0,-137.53968253968253,-231.5079365079365,-85.47619047619047,-229.28571428571428,-325.0,-325.0,-157.38095238095238,325.0,-174.84126984126982,325.0,-217.53968253968253,-4.2063492063492065,-167.53968253968253,-46.11111111111111,-41.98412698412698,-0.7142857142857142,-0.3968253968253968,-166.26984126984127
325.0,-230.55555555555554,-134.68253968253967,-325.0,-141.19047619047618,325.0,-133.0952380952381,-224.2063492063492,-82.77777777777777,-221.66666666666666,-325.0,-322.9365079365079,-152.14285714285714,325.0,-169.28571428571428,325.0,-210.2380952380952,-2.142857142857143,-162.14285714285714,-44.68253968253968,-40.714285714285715,-0.07936507936507936,-0.5555555555555556,-166.26984126984127
325.0,-230.55555555555554,-134.68253968253967,-325.0,-141.19047619047618,325.0,-133.0952380952381,-224.2063492063492,-82.77777777777777,-221.66666666666666,-325.0,-322.9365079365079,-152.14285714285714,325.0,-169.28571428571428,325.0,-210.2380952380952,-2.142857142857143,-162.14285714285714,-44.68253968253968,-40.714285714285715,-0.07936507936507936,-0.5555555555555556,-166.26984126984127
325.0,-184.52380952380952,-107.38095238095238,-266.74603174603175,-112.93650793650794,29.920634920634917,-106.26984126984127,-180.23809523809524,-66.26984126984127,-176.74603174603175,-292.3015873015873,-262.9365079365079,-121.19047619047619,325.0,-135.95238095238093,304.04761904761904,-166.74603174603175,-3.253968253968254,-129.6031746031746,-35.79365079365079,142.61904761904762,-0.3968253968253968,-0.873015873015873,-166.26984126984127
325.0,-184.52380952380952,-107.38095238095238,-266.74603174603175,-112.93650793650794,29.920634920634917,-106.26984126984127,-180.23809523809524,-66.26984126984127,-176.74603174603175,-292.3015873015873,-262.9365079365079,-121.19047619047619,325.0,-135.95238095238093,304.04761904761904,-166.74603174603175,-3.253968253968254,-129.6031746031746,-35.79365079365079,142.61904761904762,-0.3968253968253968,-0.873015873015873,-166.26984126984127
319.1269841269841,-123.73015873015872,-71.5079365079365,-177.53968253968253,-76.1111111111111,-231.19047619047618,-71.19047619047619,-122.14285714285714,-44.52380952380952,-117.53968253968253,-222.77777777777777,-175.3174603174603,-80.71428571428571,325.0,-91.98412698412697,242.3015873015873,-109.76190476190476,-2.142857142857143,-86.42857142857143,148.4920634920635,325.0,-0.23809523809523808,-1.507936507936508,-166.26984126984127
319.1269841269841,-123.73015873015872,-71.5079365079365,-177.53968253968253,-76.1111111111111,-231.19047619047618,-71.19047619047619,-122.14285714285714,-44.52380952380952,-117.53968253968253,-222.77777777777777,-175.3174603174603,-80.71428571428571,325.0,-91.98412698412697,242.3015873015873,-109.76190476190476,-2.142857142857143,-86.42857142857143,148.4920634920635,325.0,-0.23809523809523808,-1.507936507936508,-166.26984126984127
313.25396825396825,-104.04761904761904,-60.238095238095234,-148.96825396825395,-64.36507936507937,-325.0,-59.92063492063492,-103.4126984126984,-37.698412698412696,-98.49206349206348,-188.17460317460316,-147.38095238095238,-67.53968253968253,325.0,-77.85714285714285,204.04761904761904,-91.66666666666666,-3.73015873015873,-72.61904761904762,325.0,325.0,0.7142857142857142,-0.873015873015873,-321.8253968253968
313.25396825396825,-104.04761904761904,-60.238095238095234,-148.96825396825395,-64.36507936507937,-325.0,-59.92063492063492,-103.4126984126984,-37.698412698412696,-98.49206349206348,-188.17460317460316,-147.38095238095238,-67.53968253968253,325.0,-77.85714285714285,204.04761904761904,-91.66666666666666,-3.73015873015873,-72.61904761904762,325.0,325.0,0.7142857142857142,-0.873015873015873,-321.8253968253968
305.0,-101.5079365079365,-58.650793650793645,-145.15873015873015,-62.3015873015873,-325.0,-58.33333333333333,-100.87301587301587,-36.904761904761905,-95.95238095238095,-183.7301587301587,-143.4126984126984,-65.95238095238095,325.0,-75.63492063492063,198.8095238095238,-89.28571428571428,0.873015873015873,-70.87301587301587,325.0,325.0,-0.23809523809523808,-0.07936507936507936,-321.8253968253968
305.0,-101.5079365079365,-58.650793650793645,-145.15873015873015,-62.3015873015873,-325.0,-58.33333333333333,-100.87301587301587,-36.904761904761905,-95.95238095238095,-183.7301587301587,-143.4126984126984,-65.95238095238095,325.0,-75.63492063492063,198.8095238095238,-89.28571428571428,0.873015873015873,-70.87301587301587,325.0,325.0,-0.23809523809523808,-0.07936507936507936,-321.8253968253968
257.06349206349205,-86.1111111111111,-49.92063492063492,-122.77777777777777,-53.25396825396825,-309.2857142857143,-49.76190476190476,-85.95238095238095,24.68253968253968,-81.19047619047619,-155.95238095238093,-121.5079365079365,-55.79365079365079,277.06349206349205,-64.68253968253968,168.65079365079364,-75.47619047619047,-1.984126984126984,-60.238095238095234,325.0,325.0,-0.23809523809523808,0.07936507936507936,-321.8253968253968
257.06349206349205,-86.1111111111111,-49.92063492063492,-122.77777777777777,-53.25396825396825,-309.2857142857143,-49.76190476190476,-85.95238095238095,24.68253968253968,-81.19047619047619,-155.95238095238093,-121.5079365079365,-55.79365079365079,277.06349206349205,-64.68253968253968,168.65079365079364,-75.47619047619047,-1.984126984126984,-60.238095238095234,325.0,325.0,-0.23809523809523808,0.07936507936507936,-321.8253968253968
216.9047619047619,-73.09523809523809,-42.460317460317455,-103.88888888888889,-45.317460317460316,-293.4126984126984,-42.460317460317455,-73.25396825396825,85.31746031746032,-68.80952380952381,-132.77777777777777,-102.93650793650794,-47.38095238095238,233.88888888888889,-55.317460317460316,143.25396825396825,-63.888888888888886,-2.46031746031746,-51.19047619047619,325.0,325.0,0.3968253968253968,0.07936507936507936,-321.8253968253968
216.9047619047619,-73.09523809523809,-42.460317460317455,-103.88888888888889,-45.317460317460316,-293.4126984126984,-42.460317460317455,-73.25396825396825,85.31746031746032,-68.80952380952381,-132.77777777777777,-102.93650793650794,-47.38095238095238,233.88888888888889,-55.317460317460316,143.25396825396825,-63.888888888888886,-2.46031746031746,-51.19047619047619,325.0,325.0,0.3968253968253968,0.07936507936507936,-321.8253968253968
196.9047619047619,-66.58730158730158,-38.96825396825397,-94.68253968253968,-41.507936507936506,-267.53968253968253,-38.80952380952381,-67.06349206349206,149.44444444444443,-62.77777777777777,-121.34920634920634,-93.73015873015872,-43.25396825396825,212.46031746031744,-50.55555555555555,130.3968253968254,-58.01587301587301,-3.888888888888889,-46.74603174603175,325.0,310.23809523809524,-0.07936507936507936,-0.23809523809523808,-321.8253968253968
196.9047619047619,-66.58730158730158,-38.96825396825397,-94.68253968253968,-41.507936507936506,-267.53968253968253,-38.80952380952381,-67.06349206349206,149.44444444444443,-62.77777777777777,-121.34920634920634,-93.73015873015872,-43.25396825396825,212.46031746031744,-50.55555555555555,130.3968253968254,-58.01587301587301,-3.888888888888889,-46.74603174603175,325.0,310.23809523809524,-0.07936507936507936,-0.23809523809523808,-321.8253968253968
177.06349206349205,-60.079365079365076,-35.317460317460316,-85.31746031746032,-37.698412698412696,-241.66666666666666,-35.15873015873016,-60.71428571428571,213.57142857142856,-56.74603174603174,-109.92063492063491,-84.36507936507937,-38.96825396825397,191.19047619047618,-45.79365079365079,117.53968253968253,-52.14285714285714,-5.317460317460317,-42.14285714285714,325.0,295.4761904761905,-0.5555555555555556,-0.5555555555555556,-166.26984126984127
177.06349206349205,-60.079365079365076,-35.317460317460316,-85.31746031746032,-37.698412698412696,-241.66666666666666,-35.15873015873016,-60.71428571428571,213.57142857142856,-56.74603174603174,-109.92063492063491,-84.36507936507937,-38.96825396825397,191.19047619047618,-45.79365079365079,117.53968253968253,-52.14285714285714,-5.317460317460317,-42.14285714285714,325.0,295.4761904761905,-0.5555555555555556,-0.5555555555555556,-166.26984126984127
177.06349206349205,-60.079365079365076,-35.317460317460316,-85.31746031746032,-37.698412698412696,-241.66666666666666,-35.15873015873016,-60.71428571428571,213.57142857142856,-56.74603174603174,-109.92063492063491,-84.36507936507937,-38.96825396825397,191.19047619047618,-45.79365079365079,117.53968253968253,-52.14285714285714,-5.317460317460317,-42.14285714285714,325.0,295.4761904761905,-0.5555555555555556,-0.5555555555555556,-166.26984126984127
177.06349206349205,-60.079365079365076,-35.317460317460316,-85.31746031746032,-37.698412698412696,-241.66666666666666,-35.15873015873016,-60.71428571428571,213.57142857142856,-56.74603174603174,-109.92063492063491,-84.36507936507937,-38.96825396825397,191.19047619047618,-45.79365079365079,117.53968253968253,-52.14285714285714,-5.317460317460317,-42.14285714285714,325.0,295.4761904761905,-0.5555555555555556,-0.5555555555555556,-166.26984126984127
177.06349206349205,-60.079365079365076,-35.317460317460316,-85.31746031746032,-37.698412698412696,-241.66666666666666,-35.15873015873016,-60.71428571428571,213.57142857142856,-56.74603174603174,-109.92063492063491,-84.36507936507937,-38.96825396825397,191.19047619047618,-45.79365079365079,117.53968253968253,-52.14285714285714,-5.317460317460317,-42.14285714285714,325.0,295.4761904761905,-0.5555555555555556,-0.5555555555555556,-166.26984126984127
177.06349206349205,-60.079365079365076,-35.317460317460316,-85.31746031746032,-37.698412698412696,-241.66666666666666,-35.15873015873016,-60.71428571428571,213.57142857142856,-56.74603174603174,-109.92063492063491,-84.36507936507937,-38.96825396825397,191.19047619047618,-45.79365079365079,117.53968253968253,-52.14285714285714,-5.317460317460317,-42.14285714285714,325.0,295.4761904761905,-0.5555555555555556,-0.5555555555555556,-166.26984126984127
171.03174603174602,-58.33333333333333,-34.2063492063492,-82.46031746031746,-36.58730158730159,-233.88888888888889,-34.2063492063492,-58.96825396825397,232.77777777777777,-54.841269841269835,-106.42857142857142,-81.66666666666666,-37.698412698412696,184.68253968253967,-44.52380952380952,113.73015873015872,-50.55555555555555,-2.9365079365079363,-40.87301587301587,325.0,285.4761904761905,0.07936507936507936,-0.873015873015873,-166.26984126984127
171.03174603174602,-58.33333333333333,-34.2063492063492,-82.46031746031746,-36.58730158730159,-233.88888888888889,-34.2063492063492,-58.96825396825397,232.77777777777777,-54.841269841269835,-106.42857142857142,-81.66666666666666,-37.698412698412696,184.68253968253967,-44.52380952380952,113.73015873015872,-50.55555555555555,-2.9365079365079363,-40.87301587301587,325.0,285.4761904761905,0.07936507936507936,-0.873015873015873,-166.26984126984127
163.57142857142856,-55.95238095238095,-32.77777777777778,-78.96825396825396,-35.15873015873016,-224.04761904761904,-32.77777777777778,-56.74603174603174,255.95238095238093,-52.61904761904761,-102.30158730158729,-78.33333333333333,-36.269841269841265,176.58730158730157,-42.61904761904761,108.96825396825396,-48.33333333333333,-2.619047619047619,-39.12698412698413,325.0,273.25396825396825,0.23809523809523808,-0.7142857142857142,-166.26984126984127
163.57142857142856,-55.95238095238095,-32.77777777777778,-78.96825396825396,-35.15873015873016,-224.04761904761904,-32.77777777777778,-56.74603174603174,255.95238095238093,-52.61904761904761,-102.30158730158729,-78.33333333333333,-36.269841269841265,176.58730158730157,-42.61904761904761,108.96825396825396,-48.33333333333333,-2.619047619047619,-39.12698412698413,325.0,273.25396825396825,0.23809523809523808,-0.7142857142857142,-166.26984126984127
160.55555555555554,-55.317460317460316,-31.98412698412698,-77.6984126984127,-34.682539682539684,-219.76190476190476,-32.3015873015873,-55.79365079365079,258.4920634920635,-51.507936507936506,-100.39682539682539,-77.06349206349206,-35.476190476190474,173.4126984126984,-41.98412698412698,107.22222222222221,-47.698412698412696,-5.476190476190476,-38.65079365079365,325.0,269.1269841269841,0.7142857142857142,-0.3968253968253968,-321.8253968253968
160.55555555555554,-55.317460317460316,-31.98412698412698,-77.6984126984127,-34.682539682539684,-219.76190476190476,-32.3015873015873,-55.79365079365079,258.4920634920635,-51.507936507936506,-100.39682539682539,-77.06349206349206,-35.476190476190474,173.4126984126984,-41.98412698412698,107.22222222222221,-47.698412698412696,-5.476190476190476,-38.65079365079365,325.0,269.1269841269841,0.7142857142857142,-0.3968253968253968,-321.8253968253968
157.06349206349205,-54.047619047619044,-31.507936507936506,-75.95238095238095,-33.888888888888886,-215.47619047619045,-31.666666666666664,-54.68253968253968,265.4761904761905,-50.55555555555555,-98.49206349206348,-75.31746031746032,-34.84126984126984,169.60317460317458,-41.19047619047619,104.84126984126983,-46.74603174603175,-3.4126984126984126,-37.857142857142854,325.0,262.9365079365079,-0.3968253968253968,-0.7142857142857142,-321.8253968253968
157.06349206349205,-54.047619047619044,-31.507936507936506,-75.95238095238095,-33.888888888888886,-215.47619047619045,-31.666666666666664,-54.68253968253968,265.4761904761905,-50.55555555555555,-98.49206349206348,-75.31746031746032,-34.84126984126984,169.60317460317458,-41.19047619047619,104.84126984126983,-46.74603174603175,-3.4126984126984126,-37.857142857142854,325.0,262.9365079365079,-0.3968253968253968,-0.7142857142857142,-321.8253968253968
153.57142857142856,-52.77777777777777,-31.03174603174603,-74.36507936507937,-33.095238095238095,-211.03174603174602,-31.03174603174603,-53.57142857142857,274.04761904761904,-49.44444444444444,-96.74603174603175,-73.73015873015872,-34.047619047619044,165.95238095238093,-40.238095238095234,102.77777777777777,-45.63492063492063,-3.095238095238095,-37.06349206349206,325.0,257.38095238095235,-0.3968253968253968,-0.7142857142857142,-321.8253968253968
153.57142857142856,-52.77777777777777,-31.03174603174603,-74.36507936507937,-33.095238095238095,-211.03174603174602,-31.03174603174603,-53.57142857142857,274.04761904761904,-49.44444444444444,-96.74603174603175,-73.73015873015872,-34.047619047619044,165.95238095238093,-40.238095238095234,102.77777777777777,-45.63492063492063,-3.095238095238095,-37.06349206349206,325.0,257.38095238095235,-0.3968253968253968,-0.7142857142857142,-321.8253968253968
148.96825396825395,-51.34920634920635,-30.07936507936508,-72.14285714285714,-32.460317460317455,-204.68253968253967,-30.238095238095237,-52.14285714285714,281.8253968253968,-48.01587301587301,-93.73015873015872,-71.66666666666666,-33.095238095238095,161.03174603174602,-39.44444444444444,99.6031746031746,-44.36507936507936,-2.9365079365079363,-35.95238095238095,325.0,249.60317460317458,-0.07936507936507936,-1.0317460317460316,-321.8253968253968
148.96825396825395,-51.34920634920635,-30.07936507936508,-72.14285714285714,-32.460317460317455,-204.68253968253967,-30.238095238095237,-52.14285714285714,281.8253968253968,-48.01587301587301,-93.73015873015872,-71.66666666666666,-33.095238095238095,161.03174603174602,-39.44444444444444,99.6031746031746,-44.36507936507936,-2.9365079365079363,-35.95238095238095,325.0,249.60317460317458,-0.07936507936507936,-1.0317460317460316,-321.8253968253968
146.26984126984127,-50.55555555555555,-29.6031746031746,-70.87301587301587,-31.98412698412698,-201.34920634920633,-29.6031746031746,-51.34920634920635,293.4126984126984,-47.22222222222222,-92.14285714285714,-70.23809523809524,-32.61904761904762,158.17460317460316,-38.65079365079365,97.85714285714285,-43.73015873015873,-7.698412698412698,-35.317460317460316,325.0,245.3174603174603,-0.3968253968253968,-0.873015873015873,-321.8253968253968
146.26984126984127,-50.55555555555555,-29.6031746031746,-70.87301587301587,-31.98412698412698,-201.34920634920633,-29.6031746031746,-51.34920634920635,293.4126984126984,-47.22222222222222,-92.14285714285714,-70.23809523809524,-32.61904761904762,158.17460317460316,-38.65079365079365,97.85714285714285,-43.73015873015873,-7.698412698412698,-35.317460317460316,325.0,245.3174603174603,-0.3968253968253968,-0.873015873015873,-321.8253968253968
143.73015873015873,-49.76190476190476,-29.126984126984127,-69.76190476190476,-31.349206349206348,-197.85714285714283,-29.126984126984127,-50.39682539682539,280.23809523809524,-46.42857142857142,-90.55555555555556,-69.12698412698413,-31.98412698412698,155.47619047619048,-38.01587301587301,96.26984126984127,-42.93650793650794,-8.968253968253968,-34.84126984126984,325.0,241.19047619047618,-0.5555555555555556,-1.6666666666666665,-166.26984126984127
143.73015873015873,-49.76190476190476,-29.126984126984127,-69.76190476190476,-31.349206349206348,-197.85714285714283,-29.126984126984127,-50.39682539682539,280.23809523809524,-46.42857142857142,-90.55555555555556,-69.12698412698413,-31.98412698412698,155.47619047619048,-38.01587301587301,96.26984126984127,-42.93650793650794,-8.968253968253968,-34.84126984126984,325.0,241.19047619047618,-0.5555555555555556,-1.6666666666666665,-166.26984126984127
141.19047619047618,-48.96825396825397,-28.809523809523807,-68.4920634920635,-30.87301587301587,-194.52380952380952,-28.809523809523807,-49.6031746031746,289.6031746031746,-45.476190476190474,-89.12698412698413,-68.01587301587301,-31.349206349206348,152.61904761904762,-37.53968253968254,94.68253968253968,-42.14285714285714,-4.0476190476190474,-34.2063492063492,325.0,236.9047619047619,-1.1904761904761905,-0.7142857142857142,-166.26984126984127
141.19047619047618,-48.96825396825397,-28.809523809523807,-68.4920634920635,-30.87301587301587,-194.52380952380952,-28.809523809523807,-49.6031746031746,289.6031746031746,-45.476190476190474,-89.12698412698413,-68.01587301587301,-31.349206349206348,152.61904761904762,-37.53968253968254,94.68253968253968,-42.14285714285714,-4.0476190476190474,-34.2063492063492,325.0,236.9047619047619,-1.1904761904761905,-0.7142857142857142,-166.26984126984127
138.65079365079364,-48.17460317460317,-28.174603174603174,-67.38095238095238,-30.396825396825395,-191.34920634920633,-28.333333333333332,-48.80952380952381,303.73015873015873,-45.0,-87.6984126984127,-66.9047619047619,-31.03174603174603,150.07936507936506,-36.904761904761905,93.09523809523809,-41.507936507936506,2.9365079365079363,-33.57142857142857,325.0,232.77777777777777,-1.0317460317460316,-1.6666666666666665,-166.26984126984127
138.65079365079364,-48.17460317460317,-28.174603174603174,-67.38095238095238,-30.396825396825395,-191.34920634920633,-28.333333333333332,-48.80952380952381,303.73015873015873,-45.0,-87.6984126984127,-66.9047619047619,-31.03174603174603,150.07936507936506,-36.904761904761905,93.09523809523809,-41.507936507936506,2.9365079365079363,-33.57142857142857,325.0,232.77777777777777,-1.0317460317460316,-1.6666666666666665,-166.26984126984127
137.22222222222223,-47.53968253968254,-27.857142857142854,-66.58730158730158,-30.07936507936508,-188.8095238095238,-28.015873015873016,-48.01587301587301,312.3015873015873,-44.52380952380952,-86.58730158730158,-65.95238095238095,-30.71428571428571,148.17460317460316,-36.42857142857142,91.82539682539682,-41.03174603174603,4.2063492063492065,-33.25396825396825,325.0,229.9206349206349,-0.23809523809523808,0.5555555555555556,-166.26984126984127
137.22222222222223,-47.53968253968254,-27.857142857142854,-66.58730158730158,-30.07936507936508,-188.8095238095238,-28.015873015873016,-48.01587301587301,312.3015873015873,-44.52380952380952,-86.58730158730158,-65.95238095238095,-30.71428571428571,148.17460317460316,-36.42857142857142,91.82539682539682,-41.03174603174603,4.2063492063492065,-33.25396825396825,325.0,229.9206349206349,-0.23809523809523808,0.5555555555555556,-166.26984126984127
135.15873015873015,-46.904761904761905,-27.539682539682538,-65.63492063492063,-29.6031746031746,-186.42857142857142,-27.698412698412696,-47.53968253968254,312.9365079365079,-43.73015873015873,-85.63492063492063,-65.31746031746032,-30.238095238095237,146.11111111111111,-36.11111111111111,90.71428571428571,-40.39682539682539,4.0476190476190474,-32.93650793650794,325.0,226.9047619047619,-0.7142857142857142,-0.5555555555555556,-166.26984126984127
135.15873015873015,-46.904761904761905,-27.539682539682538,-65.63492063492063,-29.6031746031746,-186.42857142857142,-27.698412698412696,-47.53968253968254,312.9365079365079,-43.73015873015873,-85.63492063492063,-65.31746031746032,-30.238095238095237,146.11111111111111,-36.11111111111111,90.71428571428571,-40.39682539682539,4.0476190476190474,-32.93650793650794,325.0,226.9047619047619,-0.7142857142857142,-0.5555555555555556,-166.26984126984127
131.5079365079365,-45.95238095238095,-26.9047619047619,-64.04761904761905,-29.126984126984127,-181.8253968253968,-27.063492063492063,-46.58730158730158,316.58730158730157,-42.77777777777778,-83.57142857142857,-63.41269841269841,-29.444444444444443,142.14285714285714,-35.15873015873016,88.33333333333333,-39.44444444444444,1.8253968253968254,-31.98412698412698,324.2063492063492,220.87301587301587,0.07936507936507936,-0.7142857142857142,-321.8253968253968
131.5079365079365,-45.95238095238095,-26.9047619047619,-64.04761904761905,-29.126984126984127,-181.8253968253968,-27.063492063492063,-46.58730158730158,316.58730158730157,-42.77777777777778,-83.57142857142857,-63.41269841269841,-29.444444444444443,142.14285714285714,-35.15873015873016,88.33333333333333,-39.44444444444444,1.8253968253968254,-31.98412698412698,324.2063492063492,220.87301587301587,0.07936507936507936,-0.7142857142857142,-321.8253968253968
129.28571428571428,-45.0,-26.587301587301585,-62.77777777777777,-28.49206349206349,-178.65079365079364,-26.587301587301585,-45.79365079365079,323.73015873015873,-41.98412698412698,-82.14285714285714,-62.61904761904761,-28.809523809523807,139.76190476190476,-34.682539682539684,87.06349206349206,-38.65079365079365,2.619047619047619,-31.507936507936506,319.2857142857143,217.2222222222222,-0.3968253968253968,0.07936507936507936,-321.8253968253968
129.28571428571428,-45.0,-26.587301587301585,-62.77777777777777,-28.49206349206349,-178.65079365079364,-26.587301587301585,-45.79365079365079,323.73015873015873,-41.98412698412698,-82.14285714285714,-62.61904761904761,-28.809523809523807,139.76190476190476,-34.682539682539684,87.06349206349206,-38.65079365079365,2.619047619047619,-31.507936507936506,319.2857142857143,217.2222222222222,-0.3968253968253968,0.07936507936507936,-321.8253968253968
127.06349206349206,-44.36507936507936,-26.11111111111111,-61.98412698412698,-28.174603174603174,-175.63492063492063,-26.26984126984127,-45.0,324.8412698412698,-41.34920634920635,-80.87301587301587,-61.34920634920635,-28.49206349206349,137.38095238095238,-34.047619047619044,85.47619047619047,-38.17460317460317,0.07936507936507936,-31.03174603174603,313.88888888888886,213.4126984126984,0.23809523809523808,-1.0317460317460316,-321.8253968253968
127.06349206349206,-44.36507936507936,-26.11111111111111,-61.98412698412698,-28.174603174603174,-175.63492063492063,-26.26984126984127,-45.0,324.8412698412698,-41.34920634920635,-80.87301587301587,-61.34920634920635,-28.49206349206349,137.38095238095238,-34.047619047619044,85.47619047619047,-38.17460317460317,0.07936507936507936,-31.03174603174603,313.88888888888886,213.4126984126984,0.23809523809523808,-1.0317460317460316,-321.8253968253968
124.68253968253967,-43.57142857142857,-25.634920634920633,-60.873015873015866,-27.698412698412696,-172.77777777777777,-25.79365079365079,-44.36507936507936,320.07936507936506,-40.55555555555555,-79.6031746031746,-60.39682539682539,-27.857142857142854,134.84126984126982,-33.57142857142857,84.04761904761904,-37.53968253968254,-0.3968253968253968,-30.555555555555554,308.8095238095238,209.76190476190476,-0.07936507936507936,-0.5555555555555556,-321.8253968253968
124.68253968253967,-43.57142857142857,-25.634920634920633,-60.873015873015866,-27.698412698412696,-172.77777777777777,-25.79365079365079,-44.36507936507936,320.07936507936506,-40.55555555555555,-79.6031746031746,-60.39682539682539,-27.857142857142854,134.84126984126982,-33.57142857142857,84.04761904761904,-37.53968253968254,-0.3968253968253968,-30.555555555555554,308.8095238095238,209.76190476190476,-0.07936507936507936,-0.5555555555555556,-321.8253968253968
123.25396825396825,-43.095238095238095,-25.158730158730158,-60.079365079365076,-27.539682539682538,-170.23809523809524,-25.476190476190474,-43.73015873015873,325.0,-40.079365079365076,-78.33333333333333,-59.76190476190476,-27.539682539682538,133.0952380952381,-33.41269841269841,83.09523809523809,-37.06349206349206,-2.619047619047619,-30.238095238095237,304.68253968253964,207.38095238095238,-0.5555555555555556,-0.07936507936507936,-321.8253968253968
123.25396825396825,-43.095238095238095,-25.158730158730158,-60.079365079365076,-27.539682539682538,-170.23809523809524,-25.476190476190474,-43.73015873015873,325.0,-40.079365079365076,-78.33333333333333,-59.76190476190476,-27.539682539682538,133.0952380952381,-33.41269841269841,83.09523809523809,-37.06349206349206,-2.619047619047619,-30.238095238095237,304.68253968253964,207.38095238095238,-0.5555555555555556,-0.07936507936507936,-321.8253968253968
123.25396825396825,-43.095238095238095,-25.158730158730158,-60.079365079365076,-27.539682539682538,-170.23809523809524,-25.476190476190474,-43.73015873015873,325.0,-40.079365079365076,-78.33333333333333,-59.76190476190476,-27.539682539682538,133.0952380952381,-33.41269841269841,83.09523809523809,-37.06349206349206,-2.619047619047619,-30.238095238095237,304.68253968253964,207.38095238095238,-0.5555555555555556,-0.07936507936507936,-166.26984126984127
123.25396825396825,-43.095238095238095,-25.158730158730158,-60.079365079365076,-27.539682539682538,-170.23809523809524,-25.476190476190474,-43.73015873015873,325.0,-40.079365079365076,-78.33333333333333,-59.76190476190476,-27.539682539682538,133.0952380952381,-33.41269841269841,83.09523809523809,-37.06349206349206,-2.619047619047619,-30.238095238095237,304.68253968253964,207.38095238095238,-0.5555555555555556,-0.07936507936507936,-166.26984126984127
118.49206349206348,-41.507936507936506,-24.523809523809522,-57.698412698412696,-26.26984126984127,46.11111111111111,-24.523809523809522,-42.3015873015873,323.4126984126984,-38.65079365079365,-75.63492063492063,-57.38095238095238,-26.587301587301585,127.85714285714285,-32.14285714285714,79.92063492063491,-35.63492063492063,-5.158730158730158,-29.126984126984127,293.88888888888886,198.96825396825395,-0.7142857142857142,-0.873015873015873,-166.26984126984127
118.49206349206348,-41.507936507936506,-24.523809523809522,-57.698412698412696,-26.26984126984127,46.11111111111111,-24.523809523809522,-42.3015873015873,323.4126984126984,-38.65079365079365,-75.63492063492063,-57.38095238095238,-26.587301587301585,127.85714285714285,-32.14285714285714,79.92063492063491,-35.63492063492063,-5.158730158730158,-29.126984126984127,293.88888888888886,198.96825396825395,-0.7142857142857142,-0.873015873015873,-166.26984126984127
116.74603174603173,-41.03174603174603,-24.047619047619047,-57.06349206349206,-26.11111111111111,325.0,-24.365079365079364,-41.666666666666664,325.0,-38.17460317460317,-74.52380952380952,-56.58730158730158,-26.26984126984127,126.1111111111111,-31.666666666666664,78.96825396825396,-35.15873015873016,-10.396825396825395,-28.809523809523807,290.07936507936506,196.58730158730157,-1.984126984126984,-1.6666666666666665,-166.26984126984127
116.74603174603173,-41.03174603174603,-24.047619047619047,-57.06349206349206,-26.11111111111111,325.0,-24.365079365079364,-41.666666666666664,325.0,-38.17460317460317,-74.52380952380952,-56.58730158730158,-26.26984126984127,126.1111111111111,-31.666666666666664,78.96825396825396,-35.15873015873016,-10.396825396825395,-28.809523809523807,290.07936507936506,196.58730158730157,-1.984126984126984,-1.6666666666666665,-166.26984126984127
114.2063492063492,-40.238095238095234,-23.88888888888889,-55.95238095238095,-25.634920634920633,325.0,-23.88888888888889,-41.03174603174603,325.0,-37.38095238095238,-73.09523809523809,-55.476190476190474,-25.79365079365079,123.4126984126984,-31.03174603174603,77.06349206349206,-34.52380952380952,-7.222222222222221,-28.174603174603174,284.2063492063492,192.14285714285714,0.23809523809523808,-0.5555555555555556,-166.26984126984127
114.2063492063492,-40.238095238095234,-23.88888888888889,-55.95238095238095,-25.634920634920633,325.0,-23.88888888888889,-41.03174603174603,325.0,-37.38095238095238,-73.09523809523809,-55.476190476190474,-25.79365079365079,123.4126984126984,-31.03174603174603,77.06349206349206,-34.52380952380952,-7.222222222222221,-28.174603174603174,284.2063492063492,192.14285714285714,0.23809523809523808,-0.5555555555555556,-166.26984126984127
112.14285714285714,-39.6031746031746,-23.57142857142857,-54.841269841269835,-25.317460317460316,325.0,-23.41269841269841,-40.39682539682539,324.04761904761904,-36.74603174603175,-71.98412698412697,-54.52380952380952,-25.476190476190474,121.19047619047619,-30.71428571428571,75.79365079365078,-33.888888888888886,-10.714285714285714,-26.587301587301585,279.6031746031746,188.8095238095238,-0.23809523809523808,-0.5555555555555556,-166.26984126984127
112.14285714285714,-39.6031746031746,-23.57142857142857,-54.841269841269835,-25.317460317460316,325.0,-23.41269841269841,-40.39682539682539,324.04761904761904,-36.74603174603175,-71.98412698412697,-54.52380952380952,-25.476190476190474,121.19047619047619,-30.71428571428571,75.79365079365078,-33.888888888888886,-10.714285714285714,-26.587301587301585,279.6031746031746,188.8095238095238,-0.23809523809523808,-0.5555555555555556,-166.26984126984127
109.76190476190476,-38.65079365079365,-22.936507936507937,-53.57142857142857,-8.015873015873016,325.0,-22.936507936507937,-39.6031746031746,325.0,-35.95238095238095,-70.71428571428571,-53.41269841269841,-24.84126984126984,118.65079365079364,-29.920634920634917,74.36507936507937,-33.095238095238095,-9.285714285714285,-18.80952380952381,273.88888888888886,184.52380952380952,0.23809523809523808,0.3968253968253968,-321.8253968253968
109.76190476190476,-38.65079365079365,-22.936507936507937,-53.57142857142857,-8.015873015873016,325.0,-22.936507936507937,-39.6031746031746,325.0,-35.95238095238095,-70.71428571428571,-53.41269841269841,-24.84126984126984,118.65079365079364,-29.920634920634917,74.36507936507937,-33.095238095238095,-9.285714285714285,-18.80952380952381,273.88888888888886,184.52380952380952,0.23809523809523808,0.3968253968253968,-321.8253968253968
109.76190476190476,-38.65079365079365,-22.936507936507937,-53.57142857142857,-8.015873015873016,325.0,-22.936507936507937,-39.6031746031746,325.0,-35.95238095238095,-70.71428571428571,-53.41269841269841,-24.84126984126984,118.65079365079364,-29.920634920634917,74.36507936507937,-33.095238095238095,-9.285714285714285,-18.80952380952381,273.88888888888886,184.52380952380952,0.23809523809523808,0.3968253968253968,-321.8253968253968
109.76190476190476,-38.65079365079365,-22.936507936507937,-53.57142857142857,-8.015873015873016,325.0,-22.936507936507937,-39.6031746031746,325.0,-35.95238095238095,-70.71428571428571,-53.41269841269841,-24.84126984126984,118.65079365079364,-29.920634920634917,74.36507936507937,-33.095238095238095,-9.285714285714285,-18.80952380952381,273.88888888888886,184.52380952380952,0.23809523809523808,0.3968253968253968,-321.8253968253968
105.47619047619047,-37.38095238095238,-22.142857142857142,-51.82539682539682,97.22222222222221,325.0,-22.3015873015873,-38.17460317460317,325.0,-34.682539682539684,-68.01587301587301,-51.507936507936506,-23.88888888888889,113.88888888888889,-28.96825396825397,71.34920634920634,-31.98412698412698,-8.65079365079365,1.8253968253968254,263.73015873015873,177.53968253968253,-0.07936507936507936,-1.1904761904761905,-321.8253968253968
105.47619047619047,-37.38095238095238,-22.142857142857142,-51.82539682539682,97.22222222222221,325.0,-22.3015873015873,-38.17460317460317,325.0,-34.682539682539684,-68.01587301587301,-51.507936507936506,-23.88888888888889,113.88888888888889,-28.96825396825397,71.34920634920634,-31.98412698412698,-8.65079365079365,1.8253968253968254,263.73015873015873,177.53968253968253,-0.07936507936507936,-1.1904761904761905,-321.8253968253968
104.04761904761904,-37.22222222222222,-21.984126984126984,-51.19047619047619,141.03174603174602,325.0,-22.142857142857142,-37.857142857142854,325.0,-34.2063492063492,-67.22222222222221,-50.87301587301587,-23.57142857142857,112.46031746031746,-28.65079365079365,70.55555555555556,-31.825396825396822,-6.904761904761904,2.619047619047619,260.55555555555554,175.47619047619045,0.07936507936507936,-1.1904761904761905,-321.8253968253968
104.04761904761904,-37.22222222222222,-21.984126984126984,-51.19047619047619,141.03174603174602,325.0,-22.142857142857142,-37.857142857142854,325.0,-34.2063492063492,-67.22222222222221,-50.87301587301587,-23.57142857142857,112.46031746031746,-28.65079365079365,70.55555555555556,-31.825396825396822,-6.904761904761904,2.619047619047619,260.55555555555554,175.47619047619045,0.07936507936507936,-1.1904761904761905,-321.8253968253968
101.66666666666666,-36.11111111111111,-21.507936507936506,-50.079365079365076,190.55555555555554,325.0,-21.666666666666664,-37.06349206349206,325.0,-33.57142857142857,-65.95238095238095,-49.76190476190476,-23.253968253968253,109.92063492063491,-28.174603174603174,68.96825396825396,-31.03174603174603,-7.698412698412698,23.88888888888889,255.0,171.34920634920633,-0.3968253968253968,-1.1904761904761905,-321.8253968253968
101.66666666666666,-36.11111111111111,-21.507936507936506,-50.079365079365076,190.55555555555554,325.0,-21.666666666666664,-37.06349206349206,325.0,-33.57142857142857,-65.95238095238095,-49.76190476190476,-23.253968253968253,109.92063492063491,-28.174603174603174,68.96825396825396,-31.03174603174603,-7.698412698412698,23.88888888888889,255.0,171.34920634920633,-0.3968253968253968,-1.1904761904761905,-321.8253968253968
99.92063492063491,-35.63492063492063,-21.19047619047619,-49.285714285714285,251.34920634920633,325.0,-21.349206349206348,-36.42857142857142,325.0,-33.095238095238095,-64.84126984126983,-48.96825396825397,-22.777777777777775,108.17460317460316,-27.857142857142854,68.01587301587301,-30.396825396825395,-5.0,37.22222222222222,250.7142857142857,168.4920634920635,-0.873015873015873,-1.1904761904761905,-166.26984126984127
99.92063492063491,-35.63492063492063,-21.19047619047619,-49.285714285714285,251.34920634920633,325.0,-21.349206349206348,-36.42857142857142,325.0,-33.095238095238095,-64.84126984126983,-48.96825396825397,-22.777777777777775,108.17460317460316,-27.857142857142854,68.01587301587301,-30.396825396825395,-5.0,37.22222222222222,250.7142857142857,168.4920634920635,-0.873015873015873,-1.1904761904761905,-166.26984126984127
98.17460317460316,-35.0,-20.873015873015873,-48.49206349206349,318.015873015873,325.0,-21.03174603174603,-35.95238095238095,325.0,-32.460317460317455,-63.888888888888886,-48.17460317460317,-22.46031746031746,106.1111111111111,-27.38095238095238,66.9047619047619,-29.920634920634917,-9.603174603174603,39.6031746031746,246.58730158730157,165.63492063492063,-0.3968253968253968,-0.23809523809523808,-166.26984126984127
98.17460317460316,-35.0,-20.873015873015873,-48.49206349206349,318.015873015873,325.0,-21.03174603174603,-35.95238095238095,325.0,-32.460317460317455,-63.888888888888886,-48.17460317460317,-22.46031746031746,106.1111111111111,-27.38095238095238,66.9047619047619,-29.920634920634917,-9.603174603174603,39.6031746031746,246.58730158730157,165.63492063492063,-0.3968253968253968,-0.23809523809523808,-166.26984126984127
96.42857142857142,-34.52380952380952,-20.555555555555554,-47.53968253968254,325.0,325.0,-20.71428571428571,-35.317460317460316,325.0,-31.98412698412698,-62.77777777777777,-47.22222222222222,-22.142857142857142,104.2063492063492,-26.9047619047619,65.63492063492063,-29.444444444444443,-10.714285714285714,40.55555555555555,242.6190476190476,162.61904761904762,-0.23809523809523808,-0.7142857142857142,-166.26984126984127
96.42857142857142,-34.52380952380952,-20.555555555555554,-47.53968253968254,325.0,325.0,-20.71428571428571,-35.317460317460316,325.0,-31.98412698412698,-62.77777777777777,-47.22222222222222,-22.142857142857142,104.2063492063492,-26.9047619047619,65.63492063492063,-29.444444444444443,-10.714285714285714,40.55555555555555,242.6190476190476,162.61904761904762,-0.23809523809523808,-0.7142857142857142,-166.26984126984127
94.68253968253968,-33.888888888888886,-20.238095238095237,-46.74603174603175,325.0,325.0,-20.396825396825395,-34.682539682539684,325.0,-31.507936507936506,-61.666666666666664,-46.42857142857142,-21.825396825396822,102.46031746031746,-26.428571428571427,64.52380952380952,10.714285714285714,-12.619047619047619,57.06349206349206,238.49206349206347,159.9206349206349,-0.07936507936507936,-0.3968253968253968,-166.26984126984127
94.68253968253968,-33.888888888888886,-20.238095238095237,-46.74603174603175,325.0,325.0,-20.396825396825395,-34.682539682539684,325.0,-31.507936507936506,-61.666666666666664,-46.42857142857142,-21.825396825396822,102.46031746031746,-26.428571428571427,64.52380952380952,10.714285714285714,-12.619047619047619,57.06349206349206,238.49206349206347,159.9206349206349,-0.07936507936507936,-0.3968253968253968,-166.26984126984127
93.57142857142857,-33.57142857142857,-19.92063492063492,-46.11111111111111,325.0,325.0,-20.07936507936508,-34.36507936507936,325.0,-31.19047619047619,-60.873015873015866,-45.95238095238095,-21.349206349206348,101.19047619047619,-26.26984126984127,63.73015873015873,3.73015873015873,-12.777777777777777,70.07936507936508,235.47619047619045,157.85714285714286,-0.3968253968253968,-0.5555555555555556,-166.26984126984127
93.57142857142857,-33.57142857142857,-19.92063492063492,-46.11111111111111,325.0,325.0,-20.07936507936508,-34.36507936507936,325.0,-31.19047619047619,-60.873015873015866,-45.95238095238095,-21.349206349206348,101.19047619047619,-26.26984126984127,63.73015873015873,3.73015873015873,-12.777777777777777,70.07936507936508,235.47619047619045,157.85714285714286,-0.3968253968253968,-0.5555555555555556,-166.26984126984127
91.34920634920634,-32.77777777777778,-19.6031746031746,-45.317460317460316,325.0,325.0,-19.76190476190476,-33.73015873015873,325.0,-30.396825396825395,-59.76190476190476,-45.0,-21.03174603174603,98.96825396825396,-25.634920634920633,62.460317460317455,-20.873015873015873,-9.603174603174603,89.92063492063491,230.7142857142857,154.36507936507937,-0.23809523809523808,-0.5555555555555556,-321.8253968253968
91.34920634920634,-32.77777777777778,-19.6031746031746,-45.317460317460316,325.0,325.0,-19.76190476190476,-33.73015873015873,325.0,-30.396825396825395,-59.76190476190476,-45.0,-21.03174603174603,98.96825396825396,-25.634920634920633,62.460317460317455,-20.873015873015873,-9.603174603174603,89.92063492063491,230.7142857142857,154.36507936507937,-0.23809523809523808,-0.5555555555555556,-321.8253968253968
89.76190476190476,-32.3015873015873,-19.285714285714285,-44.52380952380952,325.0,325.0,-19.6031746031746,-33.095238095238095,325.0,-29.920634920634917,-58.8095238095238,-44.2063492063492,-20.71428571428571,97.22222222222221,-25.476190476190474,61.34920634920635,58.33333333333333,-12.46031746031746,102.61904761904762,226.74603174603175,151.66666666666666,-1.507936507936508,-1.1904761904761905,-321.8253968253968
89.76190476190476,-32.3015873015873,-19.285714285714285,-44.52380952380952,325.0,325.0,-19.6031746031746,-33.095238095238095,325.0,-29.920634920634917,-58.8095238095238,-44.2063492063492,-20.71428571428571,97.22222222222221,-25.476190476190474,61.34920634920635,58.33333333333333,-12.46031746031746,102.61904761904762,226.74603174603175,151.66666666666666,-1.507936507936508,-1.1904761904761905,-321.8253968253968
88.17460317460316,-31.825396825396822,-18.96825396825397,-43.57142857142857,325.0,325.0,-19.126984126984127,-32.61904761904762,325.0,-29.444444444444443,-57.698412698412696,-43.57142857142857,-20.238095238095237,95.31746031746032,-25.0,60.39682539682539,71.98412698412697,-5.317460317460317,105.47619047619047,223.09523809523807,149.12698412698413,-0.5555555555555556,-0.07936507936507936,-321.8253968253968
88.17460317460316,-31.825396825396822,-18.96825396825397,-43.57142857142857,325.0,325.0,-19.126984126984127,-32.61904761904762,325.0,-29.444444444444443,-57.698412698412696,-43.57142857142857,-20.238095238095237,95.31746031746032,-25.0,60.39682539682539,71.98412698412697,-5.317460317460317,105.47619047619047,223.09523809523807,149.12698412698413,-0.5555555555555556,-0.07936507936507936,-321.8253968253968
86.58730158730158,-31.19047619047619,-18.65079365079365,-43.095238095238095,325.0,325.0,-18.96825396825397,-32.14285714285714,323.25396825396825,-28.96825396825397,-56.904761904761905,-42.61904761904761,-20.07936507936508,93.88888888888889,-24.523809523809522,59.44444444444444,143.4126984126984,-6.428571428571428,123.57142857142857,219.28571428571428,146.42857142857142,-0.7142857142857142,-1.0317460317460316,-321.8253968253968
86.58730158730158,-31.19047619047619,-18.65079365079365,-43.095238095238095,325.0,325.0,-18.96825396825397,-32.14285714285714,323.25396825396825,-28.96825396825397,-56.904761904761905,-42.61904761904761,-20.07936507936508,93.88888888888889,-24.523809523809522,59.44444444444444,143.4126984126984,-6.428571428571428,123.57142857142857,219.28571428571428,146.42857142857142,-0.7142857142857142,-1.0317460317460316,-321.8253968253968
85.47619047619047,-30.87301587301587,-18.49206349206349,-42.460317460317455,325.0,325.0,-18.49206349206349,-31.825396825396822,325.0,-28.49206349206349,-56.11111111111111,-42.14285714285714,-19.92063492063492,92.30158730158729,-24.206349206349206,58.650793650793645,242.3015873015873,-10.238095238095237,136.26984126984127,216.58730158730157,144.52380952380952,-0.7142857142857142,-1.507936507936508,-321.8253968253968
85.47619047619047,-30.87301587301587,-18.49206349206349,-42.460317460317455,325.0,325.0,-18.49206349206349,-31.825396825396822,325.0,-28.49206349206349,-56.11111111111111,-42.14285714285714,-19.92063492063492,92.30158730158729,-24.206349206349206,58.650793650793645,242.3015873015873,-10.238095238095237,136.26984126984127,216.58730158730157,144.52380952380952,-0.7142857142857142,-1.507936507936508,-321.8253968253968
83.73015873015872,-30.238095238095237,-18.333333333333332,-41.507936507936506,325.0,325.0,-18.333333333333332,-31.03174603174603,325.0,-28.174603174603174,-55.0,-41.34920634920635,-19.444444444444443,90.39682539682539,-23.88888888888889,57.22222222222222,325.0,-7.222222222222221,122.30158730158729,211.98412698412696,141.5079365079365,-0.23809523809523808,-1.0317460317460316,-166.26984126984127
83.73015873015872,-30.238095238095237,-18.333333333333332,-41.507936507936506,325.0,325.0,-18.333333333333332,-31.03174603174603,325.0,-28.174603174603174,-55.0,-41.34920634920635,-19.444444444444443,90.39682539682539,-23.88888888888889,57.22222222222222,325.0,-7.222222222222221,122.30158730158729,211.98412698412696,141.5079365079365,-0.23809523809523808,-1.0317460317460316,-166.26984126984127
82.14285714285714,-29.920634920634917,-18.015873015873016,-40.87301587301587,325.0,325.0,-18.015873015873016,-30.71428571428571,325.0,-27.698412698412696,-54.2063492063492,-40.55555555555555,-19.126984126984127,88.80952380952381,-23.41269841269841,56.42857142857142,325.0,-6.904761904761904,128.33333333333331,208.65079365079364,138.96825396825395,-0.5555555555555556,-0.5555555555555556,-166.26984126984127
82.14285714285714,-29.920634920634917,-18.015873015873016,-40.87301587301587,325.0,325.0,-18.015873015873016,-30.71428571428571,325.0,-27.698412698412696,-54.2063492063492,-40.55555555555555,-19.126984126984127,88.80952380952381,-23.41269841269841,56.42857142857142,325.0,-6.904761904761904,128.33333333333331,208.65079365079364,138.96825396825395,-0.5555555555555556,-0.5555555555555556,-166.26984126984127
81.19047619047619,-29.6031746031746,-17.698412698412696,-40.238095238095234,325.0,325.0,-17.698412698412696,-30.555555555555554,325.0,-27.38095238095238,-53.57142857142857,-40.079365079365076,-18.96825396825397,87.85714285714285,-23.253968253968253,55.63492063492063,325.0,-11.507936507936508,144.2063492063492,205.79365079365078,137.06349206349205,-0.5555555555555556,-0.873015873015873,-166.26984126984127
81.19047619047619,-29.6031746031746,-17.698412698412696,-40.238095238095234,325.0,325.0,-17.698412698412696,-30.555555555555554,325.0,-27.38095238095238,-53.57142857142857,-40.079365079365076,-18.96825396825397,87.85714285714285,-23.253968253968253,55.63492063492063,325.0,-11.507936507936508,144.2063492063492,205.79365079365078,137.06349206349205,-0.5555555555555556,-0.873015873015873,-166.26984126984127
79.28571428571428,-28.809523809523807,-17.38095238095238,-39.6031746031746,325.0,325.0,-17.698412698412696,-29.76190476190476,325.0,-26.746031746031743,-52.460317460317455,-39.44444444444444,-18.49206349206349,85.79365079365078,-22.777777777777775,54.52380952380952,325.0,-13.253968253968253,158.65079365079364,201.66666666666666,134.2063492063492,0.23809523809523808,-0.3968253968253968,-166.26984126984127
79.28571428571428,-28.809523809523807,-17.38095238095238,-39.6031746031746,325.0,325.0,-17.698412698412696,-29.76190476190476,325.0,-26.746031746031743,-52.460317460317455,-39.44444444444444,-18.49206349206349,85.79365079365078,-22.777777777777775,54.52380952380952,325.0,-13.253968253968253,158.65079365079364,201.66666666666666,134.2063492063492,0.23809523809523808,-0.3968253968253968,-166.26984126984127
75.95238095238095,-28.49206349206349,-17.38095238095238,-38.96825396825397,325.0,325.0,-17.38095238095238,-29.6031746031746,325.0,-26.428571428571427,-51.82539682539682,-38.96825396825397,-18.333333333333332,84.68253968253968,-22.619047619047617,54.047619047619044,325.0,-11.825396825396824,171.8253968253968,199.28571428571428,132.46031746031744,-0.07936507936507936,-0.7142857142857142,-166.26984126984127
75.95238095238095,-28.49206349206349,-17.38095238095238,-38.96825396825397,325.0,325.0,-17.38095238095238,-29.6031746031746,325.0,-26.428571428571427,-51.82539682539682,-38.96825396825397,-18.333333333333332,84.68253968253968,-22.619047619047617,54.047619047619044,325.0,-11.825396825396824,171.8253968253968,199.28571428571428,132.46031746031744,-0.07936507936507936,-0.7142857142857142,-166.26984126984127
13.412698412698411,-28.015873015873016,-17.063492063492063,-38.33333333333333,325.0,325.0,-17.063492063492063,-28.809523809523807,325.0,-25.952380952380953,-50.71428571428571,-38.01587301587301,-18.015873015873016,82.77777777777777,-22.142857142857142,52.61904761904761,325.0,-11.19047619047619,194.52380952380952,195.0,129.44444444444443,0.3968253968253968,-0.7142857142857142,-321.8253968253968
13.412698412698411,-28.015873015873016,-17.063492063492063,-38.33333333333333,325.0,325.0,-17.063492063492063,-28.809523809523807,325.0,-25.952380952380953,-50.71428571428571,-38.01587301587301,-18.015873015873016,82.77777777777777,-22.142857142857142,52.61904761904761,325.0,-11.19047619047619,194.52380952380952,195.0,129.44444444444443,0.3968253968253968,-0.7142857142857142,-321.8253968253968
-152.77777777777777,-27.539682539682538,-16.746031746031743,-37.38095238095238,325.0,325.0,-16.746031746031743,-28.333333333333332,325.0,-25.317460317460316,-49.92063492063492,-37.38095238095238,-17.539682539682538,81.34920634920634,-21.825396825396822,51.98412698412698,325.0,-9.126984126984127,201.03174603174602,191.8253968253968,127.22222222222221,0.3968253968253968,-0.07936507936507936,-321.8253968253968
-152.77777777777777,-27.539682539682538,-16.746031746031743,-37.38095238095238,325.0,325.0,-16.746031746031743,-28.333333333333332,325.0,-25.317460317460316,-49.92063492063492,-37.38095238095238,-17.539682539682538,81.34920634920634,-21.825396825396822,51.98412698412698,325.0,-9.126984126984127,201.03174603174602,191.8253968253968,127.22222222222221,0.3968253968253968,-0.07936507936507936,-321.8253968253968
-325.0,-26.9047619047619,-16.428571428571427,-36.904761904761905,325.0,325.0,-16.428571428571427,-27.857142857142854,324.68253968253964,-24.84126984126984,-48.96825396825397,-36.74603174603175,-17.063492063492063,79.76190476190476,-21.349206349206348,51.03174603174603,325.0,-12.3015873015873,199.60317460317458,188.65079365079364,125.0,1.0317460317460316,0.3968253968253968,-321.8253968253968
-325.0,-26.9047619047619,-16.428571428571427,-36.904761904761905,325.0,325.0,-16.428571428571427,-27.857142857142854,324.68253968253964,-24.84126984126984,-48.96825396825397,-36.74603174603175,-17.063492063492063,79.76190476190476,-21.349206349206348,51.03174603174603,325.0,-12.3015873015873,199.60317460317458,188.65079365079364,125.0,1.0317460317460316,0.3968253968253968,-321.8253968253968
-289.1269841269841,-26.587301587301585,-16.11111111111111,-36.269841269841265,325.0,325.0,-16.26984126984127,-27.38095238095238,324.68253968253964,-24.523809523809522,-48.33333333333333,-36.11111111111111,-16.904761904761905,78.4920634920635,-21.03174603174603,50.238095238095234,325.0,-11.349206349206348,199.76190476190476,185.47619047619045,122.93650793650794,-0.07936507936507936,-0.7142857142857142,-321.8253968253968
-289.1269841269841,-26.587301587301585,-16.11111111111111,-36.269841269841265,325.0,325.0,-16.26984126984127,-27.38095238095238,324.68253968253964,-24.523809523809522,-48.33333333333333,-36.11111111111111,-16.904761904761905,78.4920634920635,-21.03174603174603,50.238095238095234,325.0,-11.349206349206348,199.76190476190476,185.47619047619045,122.93650793650794,-0.07936507936507936,-0.7142857142857142,-321.8253968253968
-325.0,-25.634920634920633,-15.634920634920634,-35.317460317460316,325.0,325.0,-16.11111111111111,-26.587301587301585,325.0,-23.730158730158728,-46.904761904761905,-35.15873015873016,-16.587301587301585,76.1111111111111,-20.555555555555554,48.96825396825397,325.0,-11.19047619047619,200.23809523809524,180.23809523809524,119.12698412698413,0.07936507936507936,-0.7142857142857142,-321.8253968253968
-325.0,-25.634920634920633,-15.634920634920634,-35.317460317460316,325.0,325.0,-16.11111111111111,-26.587301587301585,325.0,-23.730158730158728,-46.904761904761905,-35.15873015873016,-16.587301587301585,76.1111111111111,-20.555555555555554,48.96825396825397,325.0,-11.19047619047619,200.23809523809524,180.23809523809524,119.12698412698413,0.07936507936507936,-0.7142857142857142,-321.8253968253968
-325.0,-24.68253968253968,-15.0,-33.73015873015873,325.0,325.0,-15.317460317460316,-25.476190476190474,325.0,-22.777777777777775,-44.68253968253968,-33.73015873015873,-15.793650793650793,72.61904761904762,-19.76190476190476,46.904761904761905,325.0,-16.11111111111111,226.42857142857142,172.61904761904762,114.04761904761904,-0.3968253968253968,-0.5555555555555556,-166.26984126984127
-325.0,-24.68253968253968,-15.0,-33.73015873015873,325.0,325.0,-15.317460317460316,-25.476190476190474,325.0,-22.777777777777775,-44.68253968253968,-33.73015873015873,-15.793650793650793,72.61904761904762,-19.76190476190476,46.904761904761905,325.0,-16.11111111111111,226.42857142857142,172.61904761904762,114.04761904761904,-0.3968253968253968,-0.5555555555555556,-166.26984126984127
-325.0,-24.206349206349206,-14.682539682539682,-33.095238095238095,325.0,325.0,-14.84126984126984,-25.0,325.0,-22.3015873015873,-42.77777777777778,-32.93650793650794,-15.317460317460316,71.19047619047619,-19.444444444444443,45.63492063492063,325.0,-17.063492063492063,226.74603174603175,168.8095238095238,111.5079365079365,-0.23809523809523808,-0.873015873015873,-166.26984126984127
-325.0,-24.206349206349206,-14.682539682539682,-33.095238095238095,325.0,325.0,-14.84126984126984,-25.0,325.0,-22.3015873015873,-42.77777777777778,-32.93650793650794,-15.317460317460316,71.19047619047619,-19.444444444444443,45.63492063492063,325.0,-17.063492063492063,226.74603174603175,168.8095238095238,111.5079365079365,-0.23809523809523808,-0.873015873015873,-166.26984126984127
-80.87301587301587,-23.88888888888889,-14.365079365079364,-32.3015873015873,325.0,325.0,-14.682539682539682,-24.523809523809522,325.0,-21.825396825396822,21.03174603174603,-32.14285714285714,-15.158730158730158,69.28571428571428,-18.96825396825397,44.52380952380952,325.0,-14.365079365079364,230.3968253968254,164.84126984126982,108.65079365079364,-0.7142857142857142,-0.873015873015873,-166.26984126984127
-80.87301587301587,-23.88888888888889,-14.365079365079364,-32.3015873015873,325.0,325.0,-14.682539682539682,-24.523809523809522,325.0,-21.825396825396822,21.03174603174603,-32.14285714285714,-15.158730158730158,69.28571428571428,-18.96825396825397,44.52380952380952,325.0,-14.365079365079364,230.3968253968254,164.84126984126982,108.65079365079364,-0.7142857142857142,-0.873015873015873,-166.26984126984127
187.06349206349205,-23.253968253968253,-14.047619047619047,-31.666666666666664,325.0,325.0,-14.523809523809524,-24.047619047619047,325.0,-21.349206349206348,132.14285714285714,-31.19047619047619,-14.84126984126984,67.22222222222221,-18.80952380952381,43.25396825396825,325.0,-7.222222222222221,242.14285714285714,159.76190476190476,105.31746031746032,-1.8253968253968254,-0.07936507936507936,-166.26984126984127
187.06349206349205,-23.253968253968253,-14.047619047619047,-31.666666666666664,325.0,325.0,-14.523809523809524,-24.047619047619047,325.0,-21.349206349206348,132.14285714285714,-31.19047619047619,-14.84126984126984,67.22222222222221,-18.80952380952381,43.25396825396825,325.0,-7.222222222222221,242.14285714285714,159.76190476190476,105.31746031746032,-1.8253968253968254,-0.07936507936507936,-166.26984126984127
151.984126984127,-22.777777777777775,-14.047619047619047,-30.71428571428571,325.0,325.0,-14.047619047619047,-23.57142857142857,325.0,-20.873015873015873,155.95238095238093,-30.71428571428571,-14.523809523809524,65.63492063492063,-18.333333333333332,42.460317460317455,325.0,-7.063492063492063,237.38095238095238,156.58730158730157,103.09523809523809,-1.0317460317460316,0.07936507936507936,-166.26984126984127
151.984126984127,-22.777777777777775,-14.047619047619047,-30.71428571428571,325.0,325.0,-14.047619047619047,-23.57142857142857,325.0,-20.873015873015873,155.95238095238093,-30.71428571428571,-14.523809523809524,65.63492063492063,-18.333333333333332,42.460317460317455,325.0,-7.063492063492063,237.38095238095238,156.58730158730157,103.09523809523809,-1.0317460317460316,0.07936507936507936,-166.26984126984127
-181.8253968253968,-22.3015873015873,-13.73015873015873,-30.07936507936508,325.0,325.0,-13.888888888888888,-7.3809523809523805,325.0,-20.555555555555554,234.04761904761904,-30.238095238095237,-14.206349206349206,64.68253968253968,-18.015873015873016,41.666666666666664,325.0,-1.984126984126984,243.09523809523807,154.04761904761904,101.19047619047619,0.07936507936507936,-0.3968253968253968,-321.8253968253968
-181.8253968253968,-22.3015873015873,-13.73015873015873,-30.07936507936508,325.0,325.0,-13.888888888888888,-7.3809523809523805,325.0,-20.555555555555554,234.04761904761904,-30.238095238095237,-14.206349206349206,64.68253968253968,-18.015873015873016,41.666666666666664,325.0,-1.984126984126984,243.09523809523807,154.04761904761904,101.19047619047619,0.07936507936507936,-0.3968253968253968,-321.8253968253968
-264.04761904761904,-21.984126984126984,-13.571428571428571,-29.6031746031746,325.0,325.0,-13.571428571428571,-5.952380952380952,325.0,-20.238095238095237,264.04761904761904,-29.76190476190476,-13.888888888888888,63.41269841269841,-17.698412698412696,41.03174603174603,325.0,1.0317460317460316,239.12698412698413,151.34920634920633,99.44444444444444,0.5555555555555556,-0.873015873015873,-321.8253968253968
-264.04761904761904,-21.984126984126984,-13.571428571428571,-29.6031746031746,325.0,325.0,-13.571428571428571,-5.952380952380952,325.0,-20.238095238095237,264.04761904761904,-29.76190476190476,-13.888888888888888,63.41269841269841,-17.698412698412696,41.03174603174603,325.0,1.0317460317460316,239.12698412698413,151.34920634920633,99.44444444444444,0.5555555555555556,-0.873015873015873,-321.8253968253968
49.285714285714285,-21.666666666666664,-13.412698412698411,-29.285714285714285,325.0,325.0,-12.142857142857142,53.57142857142857,325.0,-20.07936507936508,308.6507936507936,-29.126984126984127,-13.888888888888888,62.3015873015873,-17.539682539682538,40.39682539682539,325.0,0.07936507936507936,243.88888888888889,148.8095238095238,97.6984126984127,-0.873015873015873,-0.5555555555555556,-321.8253968253968
49.285714285714285,-21.666666666666664,-13.412698412698411,-29.285714285714285,325.0,325.0,-12.142857142857142,53.57142857142857,325.0,-20.07936507936508,308.6507936507936,-29.126984126984127,-13.888888888888888,62.3015873015873,-17.539682539682538,40.39682539682539,325.0,0.07936507936507936,243.88888888888889,148.8095238095238,97.6984126984127,-0.873015873015873,-0.5555555555555556,-321.8253968253968
39.12698412698413,-21.349206349206348,-13.253968253968253,-28.809523809523807,325.0,325.0,-13.095238095238095,55.95238095238095,325.0,-19.76190476190476,322.46031746031747,-28.809523809523807,-13.571428571428571,61.19047619047619,-17.38095238095238,39.6031746031746,325.0,2.9365079365079363,248.33333333333331,146.26984126984127,95.95238095238095,0.07936507936507936,-0.5555555555555556,-321.8253968253968
39.12698412698413,-21.349206349206348,-13.253968253968253,-28.809523809523807,325.0,325.0,-13.095238095238095,55.95238095238095,325.0,-19.76190476190476,322.46031746031747,-28.809523809523807,-13.571428571428571,61.19047619047619,-17.38095238095238,39.6031746031746,325.0,2.9365079365079363,248.33333333333331,146.26984126984127,95.95238095238095,0.07936507936507936,-0.5555555555555556,-321.8253968253968
-325.0,-20.873015873015873,-13.095238095238095,-28.333333333333332,325.0,325.0,-5.317460317460317,-13.571428571428571,324.5238095238095,-19.444444444444443,325.0,-28.174603174603174,-12.46031746031746,60.079365079365076,-17.063492063492063,38.96825396825397,325.0,0.7142857142857142,244.84126984126982,143.88888888888889,94.2063492063492,0.07936507936507936,-0.07936507936507936,-321.8253968253968
-325.0,-20.873015873015873,-13.095238095238095,-28.333333333333332,325.0,325.0,-5.317460317460317,-13.571428571428571,324.5238095238095,-19.444444444444443,325.0,-28.174603174603174,-12.46031746031746,60.079365079365076,-17.063492063492063,38.96825396825397,325.0,0.7142857142857142,244.84126984126982,143.88888888888889,94.2063492063492,0.07936507936507936,-0.07936507936507936,-321.8253968253968
-325.0,-20.396825396825395,-12.777777777777777,-27.857142857142854,325.0,325.0,-5.317460317460317,-25.952380952380953,324.04761904761904,-18.96825396825397,325.0,-27.698412698412696,-11.825396825396824,58.96825396825397,-16.587301587301585,38.33333333333333,325.0,-10.555555555555555,246.74603174603172,141.5079365079365,92.77777777777777,-0.5555555555555556,-0.5555555555555556,-166.26984126984127
-325.0,-20.396825396825395,-12.777777777777777,-27.857142857142854,325.0,325.0,-5.317460317460317,-25.952380952380953,324.04761904761904,-18.96825396825397,325.0,-27.698412698412696,-11.825396825396824,58.96825396825397,-16.587301587301585,38.33333333333333,325.0,-10.555555555555555,246.74603174603172,141.5079365079365,92.77777777777777,-0.5555555555555556,-0.5555555555555556,-166.26984126984127
-123.09523809523809,-20.238095238095237,-12.619047619047619,-27.38095238095238,325.0,325.0,-1.1904761904761905,-25.317460317460316,319.6031746031746,-18.65079365079365,325.0,-27.38095238095238,-12.936507936507935,58.01587301587301,-16.428571428571427,37.857142857142854,325.0,-14.523809523809524,255.63492063492063,139.12698412698413,91.03174603174602,-0.07936507936507936,-0.3968253968253968,-166.26984126984127
-123.09523809523809,-20.238095238095237,-12.619047619047619,-27.38095238095238,325.0,325.0,-1.1904761904761905,-25.317460317460316,319.6031746031746,-18.65079365079365,325.0,-27.38095238095238,-12.936507936507935,58.01587301587301,-16.428571428571427,37.857142857142854,325.0,-14.523809523809524,255.63492063492063,139.12698412698413,91.03174603174602,-0.07936507936507936,-0.3968253968253968,-166.26984126984127
-109.12698412698413,-20.07936507936508,-12.46031746031746,-27.22222222222222,325.0,325.0,10.396825396825395,-24.84126984126984,319.6031746031746,-18.333333333333332,325.0,-27.063492063492063,-8.809523809523808,57.06349206349206,-16.26984126984127,37.22222222222222,325.0,-10.555555555555555,259.76190476190476,137.38095238095238,89.76190476190476,0.3968253968253968,-0.23809523809523808,-166.26984126984127
-109.12698412698413,-20.07936507936508,-12.46031746031746,-27.22222222222222,325.0,325.0,10.396825396825395,-24.84126984126984,319.6031746031746,-18.333333333333332,325.0,-27.063492063492063,-8.809523809523808,57.06349206349206,-16.26984126984127,37.22222222222222,325.0,-10.555555555555555,259.76190476190476,137.38095238095238,89.76190476190476,0.3968253968253968,-0.23809523809523808,-166.26984126984127
-257.6984126984127,-19.76190476190476,-12.3015873015873,-26.9047619047619,325.0,325.0,18.65079365079365,-24.206349206349206,307.85714285714283,-18.015873015873016,325.0,-26.428571428571427,-8.174603174603174,56.11111111111111,-15.95238095238095,36.58730158730159,325.0,-7.222222222222221,266.74603174603175,134.84126984126982,88.33333333333333,-0.07936507936507936,0.07936507936507936,-166.26984126984127
-257.6984126984127,-19.76190476190476,-12.3015873015873,-26.9047619047619,325.0,325.0,18.65079365079365,-24.206349206349206,307.85714285714283,-18.015873015873016,325.0,-26.428571428571427,-8.174603174603174,56.11111111111111,-15.95238095238095,36.58730158730159,325.0,-7.222222222222221,266.74603174603175,134.84126984126982,88.33333333333333,-0.07936507936507936,0.07936507936507936,-166.26984126984127
-325.0,-19.285714285714285,-12.142857142857142,-26.11111111111111,325.0,325.0,19.76190476190476,-24.047619047619047,291.031746031746,-17.698412698412696,325.0,-25.952380952380953,-8.174603174603174,55.0,-15.793650793650793,35.95238095238095,325.0,-5.634920634920634,268.3333333333333,132.14285714285714,86.42857142857143,-0.3968253968253968,-0.07936507936507936,-166.26984126984127
-325.0,-19.285714285714285,-12.142857142857142,-26.11111111111111,325.0,325.0,19.76190476190476,-24.047619047619047,291.031746031746,-17.698412698412696,325.0,-25.952380952380953,-8.174603174603174,55.0,-15.793650793650793,35.95238095238095,325.0,-5.634920634920634,268.3333333333333,132.14285714285714,86.42857142857143,-0.3968253968253968,-0.07936507936507936,-166.26984126984127
-325.0,-18.96825396825397,-11.666666666666666,-25.634920634920633,325.0,325.0,31.349206349206348,-23.57142857142857,293.73015873015873,-5.952380952380952,325.0,-25.476190476190474,-11.349206349206348,54.047619047619044,-15.476190476190474,35.317460317460316,325.0,-6.26984126984127,275.6349206349206,129.9206349206349,84.84126984126983,-1.984126984126984,-0.07936507936507936,-321.8253968253968
-325.0,-18.96825396825397,-11.666666666666666,-25.634920634920633,325.0,325.0,31.349206349206348,-23.57142857142857,293.73015873015873,-5.952380952380952,325.0,-25.476190476190474,-11.349206349206348,54.047619047619044,-15.476190476190474,35.317460317460316,325.0,-6.26984126984127,275.6349206349206,129.9206349206349,84.84126984126983,-1.984126984126984,-0.07936507936507936,-321.8253968253968
-325.0,-18.65079365079365,-11.666666666666666,-25.158730158730158,325.0,325.0,29.6031746031746,-23.41269841269841,295.3174603174603,21.984126984126984,325.0,-25.317460317460316,-12.619047619047619,53.41269841269841,-15.476190476190474,35.0,325.0,-2.619047619047619,263.4126984126984,128.4920634920635,83.73015873015872,-0.23809523809523808,-1.349206349206349,-321.8253968253968
-325.0,-18.65079365079365,-11.666666666666666,-25.158730158730158,325.0,325.0,29.6031746031746,-23.41269841269841,295.3174603174603,21.984126984126984,325.0,-25.317460317460316,-12.619047619047619,53.41269841269841,-15.476190476190474,35.0,325.0,-2.619047619047619,263.4126984126984,128.4920634920635,83.73015873015872,-0.23809523809523808,-1.349206349206349,-321.8253968253968
-325.0,-18.65079365079365,-11.666666666666666,-25.158730158730158,325.0,325.0,29.6031746031746,-23.41269841269841,295.3174603174603,21.984126984126984,325.0,-25.317460317460316,-12.619047619047619,53.41269841269841,-15.476190476190474,35.0,325.0,-2.619047619047619,263.4126984126984,128.4920634920635,83.73015873015872,-0.23809523809523808,-1.349206349206349,-321.8253968253968
-325.0,-18.65079365079365,-11.666666666666666,-25.158730158730158,325.0,325.0,29.6031746031746,-23.41269841269841,295.3174603174603,21.984126984126984,325.0,-25.317460317460316,-12.619047619047619,53.41269841269841,-15.476190476190474,35.0,325.0,-2.619047619047619,263.4126984126984,128.4920634920635,83.73015873015872,-0.23809523809523808,-1.349206349206349,-321.8253968253968
236.1111111111111,-17.539682539682538,-3.73015873015873,-23.730158730158728,325.0,325.0,99.12698412698413,-21.349206349206348,298.015873015873,10.396825396825395,325.0,-23.57142857142857,12.3015873015873,49.285714285714285,-14.523809523809524,32.460317460317455,325.0,2.9365079365079363,280.87301587301585,118.96825396825396,77.38095238095238,-0.873015873015873,-0.5555555555555556,-321.8253968253968
236.1111111111111,-17.539682539682538,-3.73015873015873,-23.730158730158728,325.0,325.0,99.12698412698413,-21.349206349206348,298.015873015873,10.396825396825395,325.0,-23.57142857142857,12.3015873015873,49.285714285714285,-14.523809523809524,32.460317460317455,325.0,2.9365079365079363,280.87301587301585,118.96825396825396,77.38095238095238,-0.873015873015873,-0.5555555555555556,-321.8253968253968
-325.0,-16.587301587301585,2.619047619047619,-22.3015873015873,325.0,323.57142857142856,107.06349206349206,-19.6031746031746,272.77777777777777,55.79365079365079,325.0,-22.3015873015873,9.603174603174603,46.269841269841265,-13.571428571428571,30.71428571428571,325.0,-1.8253968253968254,285.7936507936508,112.14285714285714,72.77777777777777,-0.23809523809523808,-0.07936507936507936,-321.8253968253968
-325.0,-16.587301587301585,2.619047619047619,-22.3015873015873,325.0,323.57142857142856,107.06349206349206,-19.6031746031746,272.77777777777777,55.79365079365079,325.0,-22.3015873015873,9.603174603174603,46.269841269841265,-13.571428571428571,30.71428571428571,325.0,-1.8253968253968254,285.7936507936508,112.14285714285714,72.77777777777777,-0.23809523809523808,-0.07936507936507936,-321.8253968253968
-325.0,-16.11111111111111,4.523809523809524,-21.825396825396822,325.0,319.4444444444444,115.15873015873015,-7.857142857142857,262.6190476190476,53.25396825396825,325.0,-21.666666666666664,35.15873015873016,45.63492063492063,-13.412698412698411,30.07936507936508,325.0,-1.8253968253968254,303.4126984126984,110.23809523809523,71.5079365079365,1.0317460317460316,-1.0317460317460316,-166.26984126984127
-325.0,-16.11111111111111,4.523809523809524,-21.825396825396822,325.0,319.4444444444444,115.15873015873015,-7.857142857142857,262.6190476190476,53.25396825396825,325.0,-21.666666666666664,35.15873015873016,45.63492063492063,-13.412698412698411,30.07936507936508,325.0,-1.8253968253968254,303.4126984126984,110.23809523809523,71.5079365079365,1.0317460317460316,-1.0317460317460316,-166.26984126984127
-325.0,-15.95238095238095,13.412698412698411,-21.349206349206348,325.0,313.0952380952381,119.92063492063491,51.82539682539682,256.58730158730157,14.682539682539682,325.0,-21.349206349206348,33.41269841269841,44.52380952380952,-13.253968253968253,29.444444444444443,325.0,-4.2063492063492065,292.9365079365079,107.85714285714285,69.92063492063491,0.23809523809523808,-0.7142857142857142,-166.26984126984127
-325.0,-15.95238095238095,13.412698412698411,-21.349206349206348,325.0,313.0952380952381,119.92063492063491,51.82539682539682,256.58730158730157,14.682539682539682,325.0,-21.349206349206348,33.41269841269841,44.52380952380952,-13.253968253968253,29.444444444444443,325.0,-4.2063492063492065,292.9365079365079,107.85714285714285,69.92063492063491,0.23809523809523808,-0.7142857142857142,-166.26984126984127
-325.0,-15.634920634920634,19.92063492063492,-20.873015873015873,325.0,301.66666666666663,120.23809523809523,112.14285714285714,248.015873015873,-23.41269841269841,325.0,-20.873015873015873,28.809523809523807,43.095238095238095,-12.936507936507935,28.65079365079365,325.0,-4.682539682539682,280.07936507936506,104.68253968253968,67.85714285714285,0.23809523809523808,-0.7142857142857142,-166.26984126984127
-325.0,-15.634920634920634,19.92063492063492,-20.873015873015873,325.0,301.66666666666663,120.23809523809523,112.14285714285714,248.015873015873,-23.41269841269841,325.0,-20.873015873015873,28.809523809523807,43.095238095238095,-12.936507936507935,28.65079365079365,325.0,-4.682539682539682,280.07936507936506,104.68253968253968,67.85714285714285,0.23809523809523808,-0.7142857142857142,-166.26984126984127
-325.0,-15.158730158730158,10.873015873015872,-20.07936507936508,325.0,28.174603174603174,103.4126984126984,149.12698412698413,222.93650793650792,-14.206349206349206,323.0952380952381,-20.07936507936508,14.206349206349206,41.82539682539682,-12.619047619047619,27.857142857142854,325.0,1.1904761904761905,296.4285714285714,101.66666666666666,65.63492063492063,-0.5555555555555556,0.07936507936507936,-166.26984126984127
-325.0,-15.158730158730158,10.873015873015872,-20.07936507936508,325.0,28.174603174603174,103.4126984126984,149.12698412698413,222.93650793650792,-14.206349206349206,323.0952380952381,-20.07936507936508,14.206349206349206,41.82539682539682,-12.619047619047619,27.857142857142854,325.0,1.1904761904761905,296.4285714285714,101.66666666666666,65.63492063492063,-0.5555555555555556,0.07936507936507936,-166.26984126984127
-325.0,-14.84126984126984,1.507936507936508,-19.76190476190476,325.0,-229.12698412698413,108.80952380952381,104.52380952380952,211.5079365079365,7.5396825396825395,183.7301587301587,-19.6031746031746,35.0,41.34920634920635,-11.666666666666666,27.38095238095238,325.0,1.349206349206349,310.55555555555554,100.23809523809523,64.52380952380952,-0.23809523809523808,0.3968253968253968,-166.26984126984127
-325.0,-14.84126984126984,1.507936507936508,-19.76190476190476,325.0,-229.12698412698413,108.80952380952381,104.52380952380952,211.5079365079365,7.5396825396825395,183.7301587301587,-19.6031746031746,35.0,41.34920634920635,-11.666666666666666,27.38095238095238,325.0,1.349206349206349,310.55555555555554,100.23809523809523,64.52380952380952,-0.23809523809523808,0.3968253968253968,-166.26984126984127
-325.0,-14.523809523809524,1.0317460317460316,-19.285714285714285,325.0,-325.0,108.49206349206348,-27.698412698412696,204.84126984126982,47.22222222222222,126.26984126984127,-19.285714285714285,34.52380952380952,40.39682539682539,-11.666666666666666,26.9047619047619,325.0,2.3015873015873014,318.8095238095238,98.17460317460316,63.41269841269841,-1.0317460317460316,-0.7142857142857142,-321.8253968253968
-325.0,-14.523809523809524,1.0317460317460316,-19.285714285714285,325.0,-325.0,108.49206349206348,-27.698412698412696,204.84126984126982,47.22222222222222,126.26984126984127,-19.285714285714285,34.52380952380952,40.39682539682539,-11.666666666666666,26.9047619047619,325.0,2.3015873015873014,318.8095238095238,98.17460317460316,63.41269841269841,-1.0317460317460316,-0.7142857142857142,-321.8253968253968
-325.0,-14.365079365079364,11.507936507936508,-19.126984126984127,325.0,-325.0,112.6190476190476,-29.444444444444443,209.44444444444443,107.85714285714285,158.96825396825395,-19.126984126984127,30.07936507936508,39.76190476190476,-12.142857142857142,26.428571428571427,325.0,9.603174603174603,313.0952380952381,96.58730158730158,62.3015873015873,0.07936507936507936,-0.873015873015873,-321.8253968253968
-325.0,-14.365079365079364,11.507936507936508,-19.126984126984127,325.0,-325.0,112.6190476190476,-29.444444444444443,209.44444444444443,107.85714285714285,158.96825396825395,-19.126984126984127,30.07936507936508,39.76190476190476,-12.142857142857142,26.428571428571427,325.0,9.603174603174603,313.0952380952381,96.58730158730158,62.3015873015873,0.07936507936507936,-0.873015873015873,-321.8253968253968
-325.0,-14.047619047619047,17.539682539682538,-18.96825396825397,325.0,-325.0,117.22222222222221,-28.174603174603174,200.87301587301587,203.57142857142856,137.38095238095238,-18.80952380952381,31.03174603174603,38.96825396825397,-11.825396825396824,26.11111111111111,325.0,4.682539682539682,325.0,95.0,61.19047619047619,-0.5555555555555556,0.07936507936507936,-321.8253968253968
-325.0,-14.047619047619047,17.539682539682538,-18.96825396825397,325.0,-325.0,117.22222222222221,-28.174603174603174,200.87301587301587,203.57142857142856,137.38095238095238,-18.80952380952381,31.03174603174603,38.96825396825397,-11.825396825396824,26.11111111111111,325.0,4.682539682539682,325.0,95.0,61.19047619047619,-0.5555555555555556,0.07936507936507936,-321.8253968253968
-325.0,-14.047619047619047,16.26984126984127,-18.49206349206349,325.0,-325.0,125.15873015873015,-21.19047619047619,202.93650793650792,262.9365079365079,102.30158730158729,-18.49206349206349,45.0,38.33333333333333,-11.666666666666666,25.634920634920633,325.0,6.587301587301587,325.0,93.4126984126984,60.238095238095234,-0.5555555555555556,-0.5555555555555556,-321.8253968253968
-325.0,-14.047619047619047,16.26984126984127,-18.49206349206349,325.0,-325.0,125.15873015873015,-21.19047619047619,202.93650793650792,262.9365079365079,102.30158730158729,-18.49206349206349,45.0,38.33333333333333,-11.666666666666666,25.634920634920633,325.0,6.587301587301587,325.0,93.4126984126984,60.238095238095234,-0.5555555555555556,-0.5555555555555556,-321.8253968253968
-325.0,-13.73015873015873,46.904761904761905,-18.333333333333332,325.0,-325.0,152.77777777777777,-23.253968253968253,217.2222222222222,274.5238095238095,182.61904761904762,-18.174603174603174,88.96825396825396,37.857142857142854,-4.841269841269841,25.476190476190474,325.0,8.015873015873016,325.0,92.30158730158729,59.6031746031746,0.5555555555555556,0.23809523809523808,-321.8253968253968
-325.0,-13.73015873015873,46.904761904761905,-18.333333333333332,325.0,-325.0,152.77777777777777,-23.253968253968253,217.2222222222222,274.5238095238095,182.61904761904762,-18.174603174603174,88.96825396825396,37.857142857142854,-4.841269841269841,25.476190476190474,325.0,8.015873015873016,325.0,92.30158730158729,59.6031746031746,0.5555555555555556,0.23809523809523808,-321.8253968253968
325.0,-13.73015873015873,46.74603174603175,-18.174603174603174,325.0,-325.0,148.65079365079364,-16.11111111111111,201.8253968253968,275.3174603174603,199.28571428571428,-18.015873015873016,46.11111111111111,37.06349206349206,-4.523809523809524,24.84126984126984,325.0,6.746031746031746,325.0,90.39682539682539,58.17460317460317,-0.23809523809523808,-0.5555555555555556,-166.26984126984127
325.0,-13.73015873015873,46.74603174603175,-18.174603174603174,325.0,-325.0,148.65079365079364,-16.11111111111111,201.8253968253968,275.3174603174603,199.28571428571428,-18.015873015873016,46.11111111111111,37.06349206349206,-4.523809523809524,24.84126984126984,325.0,6.746031746031746,325.0,90.39682539682539,58.17460317460317,-0.23809523809523808,-0.5555555555555556,-166.26984126984127
234.36507936507934,-13.412698412698411,30.238095238095237,-17.698412698412696,325.0,-325.0,137.69841269841268,-27.38095238095238,203.4126984126984,272.6190476190476,189.28571428571428,-17.698412698412696,61.19047619047619,36.42857142857142,-11.349206349206348,24.523809523809522,325.0,5.158730158730158,325.0,88.96825396825396,57.06349206349206,-0.5555555555555556,0.5555555555555556,-166.26984126984127
234.36507936507934,-13.412698412698411,30.238095238095237,-17.698412698412696,325.0,-325.0,137.69841269841268,-27.38095238095238,203.4126984126984,272.6190476190476,189.28571428571428,-17.698412698412696,61.19047619047619,36.42857142857142,-11.349206349206348,24.523809523809522,325.0,5.158730158730158,325.0,88.96825396825396,57.06349206349206,-0.5555555555555556,0.5555555555555556,-166.26984126984127
-55.15873015873016,-13.253968253968253,51.03174603174603,-17.38095238095238,325.0,-325.0,150.07936507936506,-26.746031746031743,205.15873015873015,266.74603174603175,226.26984126984127,-17.539682539682538,66.42857142857143,35.95238095238095,-6.904761904761904,24.206349206349206,325.0,0.07936507936507936,325.0,87.85714285714285,56.269841269841265,-0.5555555555555556,-0.873015873015873,-166.26984126984127
-55.15873015873016,-13.253968253968253,51.03174603174603,-17.38095238095238,325.0,-325.0,150.07936507936506,-26.746031746031743,205.15873015873015,266.74603174603175,226.26984126984127,-17.539682539682538,66.42857142857143,35.95238095238095,-6.904761904761904,24.206349206349206,325.0,0.07936507936507936,325.0,87.85714285714285,56.269841269841265,-0.5555555555555556,-0.873015873015873,-166.26984126984127
-307.85714285714283,-12.936507936507935,70.39682539682539,-17.063492063492063,325.0,-325.0,157.69841269841268,-25.952380952380953,195.63492063492063,251.8253968253968,278.3333333333333,-17.063492063492063,100.55555555555554,35.0,-1.6666666666666665,23.730158730158728,325.0,2.46031746031746,325.0,85.79365079365078,55.15873015873016,0.07936507936507936,-1.8253968253968254,-166.26984126984127
-307.85714285714283,-12.936507936507935,70.39682539682539,-17.063492063492063,325.0,-325.0,157.69841269841268,-25.952380952380953,195.63492063492063,251.8253968253968,278.3333333333333,-17.063492063492063,100.55555555555554,35.0,-1.6666666666666665,23.730158730158728,325.0,2.46031746031746,325.0,85.79365079365078,55.15873015873016,0.07936507936507936,-1.8253968253968254,-166.26984126984127
-325.0,-12.777777777777777,86.74603174603175,-16.904761904761905,325.0,-325.0,163.73015873015873,-25.476190476190474,193.25396825396825,256.90476190476187,319.9206349206349,-16.904761904761905,71.5079365079365,34.36507936507936,9.761904761904761,23.253968253968253,325.0,3.888888888888889,325.0,84.36507936507937,54.2063492063492,-0.5555555555555556,-0.23809523809523808,-166.26984126984127
-325.0,-12.777777777777777,86.74603174603175,-16.904761904761905,325.0,-325.0,163.73015873015873,-25.476190476190474,193.25396825396825,256.90476190476187,319.9206349206349,-16.904761904761905,71.5079365079365,34.36507936507936,9.761904761904761,23.253968253968253,325.0,3.888888888888889,325.0,84.36507936507937,54.2063492063492,-0.5555555555555556,-0.23809523809523808,-166.26984126984127
-257.22222222222223,-5.158730158730158,136.74603174603175,-16.587301587301585,325.0,-325.0,173.73015873015873,-25.0,202.93650793650792,187.53968253968253,325.0,-16.428571428571427,94.84126984126983,33.888888888888886,19.126984126984127,22.777777777777775,325.0,-0.3968253968253968,320.07936507936506,54.36507936507936,-10.714285714285714,-0.7142857142857142,-0.5555555555555556,-321.8253968253968
-257.22222222222223,-5.158730158730158,136.74603174603175,-16.587301587301585,325.0,-325.0,173.73015873015873,-25.0,202.93650793650792,187.53968253968253,325.0,-16.428571428571427,94.84126984126983,33.888888888888886,19.126984126984127,22.777777777777775,325.0,-0.3968253968253968,320.07936507936506,54.36507936507936,-10.714285714285714,-0.7142857142857142,-0.5555555555555556,-321.8253968253968
-75.0,-12.46031746031746,140.23809523809524,-16.428571428571427,325.0,-325.0,165.15873015873015,-24.523809523809522,199.9206349206349,152.14285714285714,325.0,-16.26984126984127,108.65079365079364,33.41269841269841,8.015873015873016,22.46031746031746,325.0,2.619047619047619,306.1111111111111,81.19047619047619,51.666666666666664,-0.873015873015873,-0.5555555555555556,-321.8253968253968
-75.0,-12.46031746031746,140.23809523809524,-16.428571428571427,325.0,-325.0,165.15873015873015,-24.523809523809522,199.9206349206349,152.14285714285714,325.0,-16.26984126984127,108.65079365079364,33.41269841269841,8.015873015873016,22.46031746031746,325.0,2.619047619047619,306.1111111111111,81.19047619047619,51.666666666666664,-0.873015873015873,-0.5555555555555556,-321.8253968253968
-317.85714285714283,-12.46031746031746,131.19047619047618,-16.11111111111111,325.0,-325.0,171.8253968253968,-24.047619047619047,200.23809523809524,174.04761904761904,325.0,-15.95238095238095,107.6984126984127,32.77777777777778,19.92063492063492,21.984126984126984,325.0,-1.6666666666666665,307.06349206349205,81.19047619047619,54.047619047619044,1.0317460317460316,-0.7142857142857142,-321.8253968253968
-317.85714285714283,-12.46031746031746,131.19047619047618,-16.11111111111111,325.0,-325.0,171.8253968253968,-24.047619047619047,200.23809523809524,174.04761904761904,325.0,-15.95238095238095,107.6984126984127,32.77777777777778,19.92063492063492,21.984126984126984,325.0,-1.6666666666666665,307.06349206349205,81.19047619047619,54.047619047619044,1.0317460317460316,-0.7142857142857142,-321.8253968253968
-325.0,-11.984126984126984,143.57142857142856,-15.793650793650793,325.0,-325.0,185.47619047619045,-23.730158730158728,198.33333333333331,180.55555555555554,325.0,-15.793650793650793,141.984126984127,32.14285714285714,44.68253968253968,21.825396825396822,325.0,-8.968253968253968,311.984126984127,79.44444444444444,52.460317460317455,-0.07936507936507936,-0.5555555555555556,-321.8253968253968
-325.0,-11.984126984126984,143.57142857142856,-15.793650793650793,325.0,-325.0,185.47619047619045,-23.730158730158728,198.33333333333331,180.55555555555554,325.0,-15.793650793650793,141.984126984127,32.14285714285714,44.68253968253968,21.825396825396822,325.0,-8.968253968253968,311.984126984127,79.44444444444444,52.460317460317455,-0.07936507936507936,-0.5555555555555556,-321.8253968253968
-325.0,-11.825396825396824,126.58730158730158,-15.793650793650793,325.0,-325.0,165.63492063492063,-23.095238095238095,164.68253968253967,165.15873015873015,325.0,-15.476190476190474,90.87301587301587,31.666666666666664,25.952380952380953,21.349206349206348,325.0,-3.4126984126984126,314.36507936507934,78.17460317460316,51.507936507936506,0.23809523809523808,-0.5555555555555556,-321.8253968253968
-325.0,-11.825396825396824,126.58730158730158,-15.793650793650793,325.0,-325.0,165.63492063492063,-23.095238095238095,164.68253968253967,165.15873015873015,325.0,-15.476190476190474,90.87301587301587,31.666666666666664,25.952380952380953,21.349206349206348,325.0,-3.4126984126984126,314.36507936507934,78.17460317460316,51.507936507936506,0.23809523809523808,-0.5555555555555556,-321.8253968253968
-172.14285714285714,-11.825396825396824,124.68253968253967,-15.476190476190474,325.0,-325.0,171.8253968253968,-22.619047619047617,183.88888888888889,172.46031746031744,325.0,-15.158730158730158,110.55555555555554,31.03174603174603,25.634920634920633,21.03174603174603,325.0,-0.7142857142857142,313.57142857142856,76.74603174603175,50.55555555555555,-0.873015873015873,-1.6666666666666665,-166.26984126984127
-172.14285714285714,-11.825396825396824,124.68253968253967,-15.476190476190474,325.0,-325.0,171.8253968253968,-22.619047619047617,183.88888888888889,172.46031746031744,325.0,-15.158730158730158,110.55555555555554,31.03174603174603,25.634920634920633,21.03174603174603,325.0,-0.7142857142857142,313.57142857142856,76.74603174603175,50.55555555555555,-0.873015873015873,-1.6666666666666665,-166.26984126984127
92.46031746031746,-10.079365079365079,114.36507936507935,-15.317460317460316,325.0,-325.0,177.38095238095238,-22.46031746031746,179.60317460317458,187.06349206349205,325.0,-15.158730158730158,106.42857142857142,30.555555555555554,42.460317460317455,20.873015873015873,325.0,3.4126984126984126,320.55555555555554,76.1111111111111,49.76190476190476,-0.5555555555555556,-1.507936507936508,-166.26984126984127
92.46031746031746,-10.079365079365079,114.36507936507935,-15.317460317460316,325.0,-325.0,177.38095238095238,-22.46031746031746,179.60317460317458,187.06349206349205,325.0,-15.158730158730158,106.42857142857142,30.555555555555554,42.460317460317455,20.873015873015873,325.0,3.4126984126984126,320.55555555555554,76.1111111111111,49.76190476190476,-0.5555555555555556,-1.507936507936508,-166.26984126984127
91.98412698412697,-9.603174603174603,108.96825396825396,-15.158730158730158,323.73015873015873,-325.0,175.63492063492063,-22.142857142857142,156.9047619047619,184.2063492063492,325.0,-15.0,92.14285714285714,30.07936507936508,55.0,20.396825396825395,325.0,3.73015873015873,325.0,74.2063492063492,48.80952380952381,-0.07936507936507936,-0.07936507936507936,-166.26984126984127
91.98412698412697,-9.603174603174603,108.96825396825396,-15.158730158730158,323.73015873015873,-325.0,175.63492063492063,-22.142857142857142,156.9047619047619,184.2063492063492,325.0,-15.0,92.14285714285714,30.07936507936508,55.0,20.396825396825395,325.0,3.73015873015873,325.0,74.2063492063492,48.80952380952381,-0.07936507936507936,-0.07936507936507936,-166.26984126984127
21.666666666666664,-8.333333333333332,115.63492063492063,-14.682539682539682,318.4920634920635,-325.0,184.52380952380952,-21.666666666666664,158.17460317460316,175.0,325.0,-14.682539682539682,133.25396825396825,29.444444444444443,63.888888888888886,19.92063492063492,325.0,-0.5555555555555556,325.0,72.93650793650794,47.857142857142854,-0.5555555555555556,-0.5555555555555556,-166.26984126984127
21.666666666666664,-8.333333333333332,115.63492063492063,-14.682539682539682,318.4920634920635,-325.0,184.52380952380952,-21.666666666666664,158.17460317460316,175.0,325.0,-14.682539682539682,133.25396825396825,29.444444444444443,63.888888888888886,19.92063492063492,325.0,-0.5555555555555556,325.0,72.93650793650794,47.857142857142854,-0.5555555555555556,-0.5555555555555556,-166.26984126984127
-66.11111111111111,-6.587301587301587,132.61904761904762,-14.523809523809524,313.57142857142856,-325.0,200.7142857142857,-21.19047619047619,171.66666666666666,158.8095238095238,325.0,-14.523809523809524,159.44444444444443,28.96825396825397,80.71428571428571,19.92063492063492,325.0,3.4126984126984126,325.0,71.66666666666666,47.06349206349206,-0.23809523809523808,-0.873015873015873,-166.26984126984127
-66.11111111111111,-6.587301587301587,132.61904761904762,-14.523809523809524,313.57142857142856,-325.0,200.7142857142857,-21.19047619047619,171.66666666666666,158.8095238095238,325.0,-14.523809523809524,159.44444444444443,28.96825396825397,80.71428571428571,19.92063492063492,325.0,3.4126984126984126,325.0,71.66666666666666,47.06349206349206,-0.23809523809523808,-0.873015873015873,-166.26984126984127
12.46031746031746,-4.2063492063492065,119.28571428571428,-14.206349206349206,303.25396825396825,185.47619047619045,174.84126984126982,-12.777777777777777,148.65079365079364,151.984126984127,325.0,-14.047619047619047,110.87301587301587,28.015873015873016,55.0,19.126984126984127,325.0,-9.761904761904761,314.5238095238095,69.12698412698413,45.476190476190474,-0.5555555555555556,-0.873015873015873,-321.8253968253968
12.46031746031746,-4.2063492063492065,119.28571428571428,-14.206349206349206,303.25396825396825,185.47619047619045,174.84126984126982,-12.777777777777777,148.65079365079364,151.984126984127,325.0,-14.047619047619047,110.87301587301587,28.015873015873016,55.0,19.126984126984127,325.0,-9.761904761904761,314.5238095238095,69.12698412698413,45.476190476190474,-0.5555555555555556,-0.873015873015873,-321.8253968253968
48.01587301587301,-2.46031746031746,127.22222222222221,-14.206349206349206,298.3333333333333,325.0,188.65079365079364,-9.920634920634921,156.42857142857142,167.69841269841268,325.0,-14.047619047619047,114.04761904761904,27.539682539682538,74.84126984126983,18.80952380952381,325.0,-5.7936507936507935,294.68253968253964,67.85714285714285,44.84126984126984,-0.3968253968253968,-1.1904761904761905,-321.8253968253968
48.01587301587301,-2.46031746031746,127.22222222222221,-14.206349206349206,298.3333333333333,325.0,188.65079365079364,-9.920634920634921,156.42857142857142,167.69841269841268,325.0,-14.047619047619047,114.04761904761904,27.539682539682538,74.84126984126983,18.80952380952381,325.0,-5.7936507936507935,294.68253968253964,67.85714285714285,44.84126984126984,-0.3968253968253968,-1.1904761904761905,-321.8253968253968
-171.34920634920633,7.5396825396825395,143.09523809523807,-13.888888888888888,294.8412698412698,325.0,201.03174603174602,-16.26984126984127,159.6031746031746,175.79365079365078,325.0,-13.73015873015873,121.5079365079365,27.063492063492063,91.82539682539682,18.65079365079365,325.0,-2.46031746031746,302.1428571428571,67.22222222222221,44.2063492063492,-0.23809523809523808,-0.5555555555555556,-321.8253968253968
-171.34920634920633,7.5396825396825395,143.09523809523807,-13.888888888888888,294.8412698412698,325.0,201.03174603174602,-16.26984126984127,159.6031746031746,175.79365079365078,325.0,-13.73015873015873,121.5079365079365,27.063492063492063,91.82539682539682,18.65079365079365,325.0,-2.46031746031746,302.1428571428571,67.22222222222221,44.2063492063492,-0.23809523809523808,-0.5555555555555556,-321.8253968253968
-325.0,13.888888888888888,143.88888888888889,-13.571428571428571,290.07936507936506,325.0,192.3015873015873,-14.206349206349206,146.58730158730157,168.65079365079364,325.0,-13.412698412698411,105.31746031746032,26.587301587301585,84.36507936507937,18.333333333333332,322.3015873015873,-2.142857142857143,301.5079365079365,66.11111111111111,43.25396825396825,0.3968253968253968,-0.23809523809523808,-321.8253968253968
-325.0,13.888888888888888,143.88888888888889,-13.571428571428571,290.07936507936506,325.0,192.3015873015873,-14.206349206349206,146.58730158730157,168.65079365079364,325.0,-13.412698412698411,105.31746031746032,26.587301587301585,84.36507936507937,18.333333333333332,322.3015873015873,-2.142857142857143,301.5079365079365,66.11111111111111,43.25396825396825,0.3968253968253968,-0.23809523809523808,-321.8253968253968
-325.0,34.36507936507936,152.3015873015873,-13.412698412698411,284.04761904761904,325.0,192.46031746031744,-10.238095238095237,151.03174603174602,164.04761904761904,325.0,-13.253968253968253,108.80952380952381,26.11111111111111,89.6031746031746,17.857142857142858,315.6349206349206,-4.523809523809524,295.1587301587301,64.52380952380952,42.460317460317455,-0.5555555555555556,-0.873015873015873,-321.8253968253968
-325.0,34.36507936507936,152.3015873015873,-13.412698412698411,284.04761904761904,325.0,192.46031746031744,-10.238095238095237,151.03174603174602,164.04761904761904,325.0,-13.253968253968253,108.80952380952381,26.11111111111111,89.6031746031746,17.857142857142858,315.6349206349206,-4.523809523809524,295.1587301587301,64.52380952380952,42.460317460317455,-0.5555555555555556,-0.873015873015873,-321.8253968253968
-325.0,25.952380952380953,147.85714285714286,-13.253968253968253,279.6031746031746,325.0,192.3015873015873,-19.92063492063492,138.015873015873,156.26984126984127,325.0,-13.095238095238095,147.69841269841268,25.634920634920633,90.71428571428571,17.698412698412696,310.39682539682536,-1.507936507936508,276.1111111111111,63.57142857142857,41.666666666666664,-0.3968253968253968,-2.3015873015873014,-166.26984126984127
-325.0,25.952380952380953,147.85714285714286,-13.253968253968253,279.6031746031746,325.0,192.3015873015873,-19.92063492063492,138.015873015873,156.26984126984127,325.0,-13.095238095238095,147.69841269841268,25.634920634920633,90.71428571428571,17.698412698412696,310.39682539682536,-1.507936507936508,276.1111111111111,63.57142857142857,41.666666666666664,-0.3968253968253968,-2.3015873015873014,-166.26984126984127
-325.0,63.73015873015873,170.7142857142857,-12.619047619047619,272.77777777777777,325.0,208.17460317460316,48.650793650793645,152.61904761904762,144.84126984126982,325.0,-12.777777777777777,137.53968253968253,24.84126984126984,111.82539682539682,17.38095238095238,302.46031746031747,-1.6666666666666665,282.3015873015873,61.98412698412698,40.55555555555555,0.23809523809523808,-0.23809523809523808,-166.26984126984127
-325.0,63.73015873015873,170.7142857142857,-12.619047619047619,272.77777777777777,325.0,208.17460317460316,48.650793650793645,152.61904761904762,144.84126984126982,325.0,-12.777777777777777,137.53968253968253,24.84126984126984,111.82539682539682,17.38095238095238,302.46031746031747,-1.6666666666666665,282.3015873015873,61.98412698412698,40.55555555555555,0.23809523809523808,-0.23809523809523808,-166.26984126984127
-325.0,48.33333333333333,164.84126984126982,-12.777777777777777,269.6031746031746,325.0,206.58730158730157,19.92063492063492,140.87301587301587,126.74603174603173,325.0,-12.46031746031746,142.3015873015873,24.523809523809522,117.06349206349206,17.063492063492063,298.6507936507936,-2.142857142857143,285.7936507936508,61.19047619047619,40.079365079365076,0.3968253968253968,-0.23809523809523808,-166.26984126984127
-325.0,48.33333333333333,164.84126984126982,-12.777777777777777,269.6031746031746,325.0,206.58730158730157,19.92063492063492,140.87301587301587,126.74603174603173,325.0,-12.46031746031746,142.3015873015873,24.523809523809522,117.06349206349206,17.063492063492063,298.6507936507936,-2.142857142857143,285.7936507936508,61.19047619047619,40.079365079365076,0.3968253968253968,-0.23809523809523808,-166.26984126984127
-325.0,35.63492063492063,147.69841269841268,-12.46031746031746,264.04761904761904,325.0,197.69841269841268,-21.825396825396822,126.26984126984127,145.15873015873015,325.0,-12.3015873015873,150.87301587301587,24.047619047619047,105.47619047619047,16.587301587301585,292.46031746031747,-0.7142857142857142,275.95238095238096,59.92063492063492,39.285714285714285,-0.23809523809523808,-1.1904761904761905,-166.26984126984127
-325.0,35.63492063492063,147.69841269841268,-12.46031746031746,264.04761904761904,325.0,197.69841269841268,-21.825396825396822,126.26984126984127,145.15873015873015,325.0,-12.3015873015873,150.87301587301587,24.047619047619047,105.47619047619047,16.587301587301585,292.46031746031747,-0.7142857142857142,275.95238095238096,59.92063492063492,39.285714285714285,-0.23809523809523808,-1.1904761904761905,-166.26984126984127
-325.0,44.84126984126984,147.53968253968253,-11.984126984126984,262.9365079365079,325.0,198.4920634920635,-20.873015873015873,124.84126984126983,155.79365079365078,325.0,-12.3015873015873,145.79365079365078,24.206349206349206,108.65079365079364,16.904761904761905,291.19047619047615,-0.5555555555555556,279.44444444444446,59.76190476190476,39.12698412698413,-0.7142857142857142,-1.507936507936508,-166.26984126984127
-325.0,44.84126984126984,147.53968253968253,-11.984126984126984,262.9365079365079,325.0,198.4920634920635,-20.873015873015873,124.84126984126983,155.79365079365078,325.0,-12.3015873015873,145.79365079365078,24.206349206349206,108.65079365079364,16.904761904761905,291.19047619047615,-0.5555555555555556,279.44444444444446,59.76190476190476,39.12698412698413,-0.7142857142857142,-1.507936507936508,-166.26984126984127
-325.0,41.98412698412698,155.47619047619048,-11.984126984126984,255.63492063492063,325.0,202.46031746031744,-19.6031746031746,130.07936507936506,140.23809523809524,325.0,-11.984126984126984,154.52380952380952,23.253968253968253,114.2063492063492,6.26984126984127,282.77777777777777,-6.26984126984127,269.2857142857143,57.857142857142854,37.698412698412696,-0.3968253968253968,-0.23809523809523808,-321.8253968253968
-325.0,41.98412698412698,155.47619047619048,-11.984126984126984,255.63492063492063,325.0,202.46031746031744,-19.6031746031746,130.07936507936506,140.23809523809524,325.0,-11.984126984126984,154.52380952380952,23.253968253968253,114.2063492063492,6.26984126984127,282.77777777777777,-6.26984126984127,269.2857142857143,57.857142857142854,37.698412698412696,-0.3968253968253968,-0.23809523809523808,-321.8253968253968
-325.0,48.01587301587301,143.88888888888889,-11.984126984126984,251.5079365079365,325.0,190.7142857142857,-19.126984126984127,124.36507936507935,150.07936507936506,325.0,-11.825396825396824,121.34920634920634,22.777777777777775,103.4126984126984,-29.920634920634917,277.85714285714283,-8.174603174603174,263.0952380952381,56.74603174603174,37.22222222222222,0.07936507936507936,-0.5555555555555556,-321.8253968253968
-325.0,48.01587301587301,143.88888888888889,-11.984126984126984,251.5079365079365,325.0,190.7142857142857,-19.126984126984127,124.36507936507935,150.07936507936506,325.0,-11.825396825396824,121.34920634920634,22.777777777777775,103.4126984126984,-29.920634920634917,277.85714285714283,-8.174603174603174,263.0952380952381,56.74603174603174,37.22222222222222,0.07936507936507936,-0.5555555555555556,-321.8253968253968
-325.0,54.52380952380952,160.55555555555554,-11.666666666666666,247.38095238095238,325.0,209.60317460317458,-18.80952380952381,131.03174603174602,161.34920634920633,325.0,-11.666666666666666,156.26984126984127,22.46031746031746,132.3015873015873,6.904761904761904,273.25396825396825,0.07936507936507936,265.7936507936508,55.79365079365079,36.42857142857142,0.07936507936507936,-1.0317460317460316,-321.8253968253968
-325.0,54.52380952380952,160.55555555555554,-11.666666666666666,247.38095238095238,325.0,209.60317460317458,-18.80952380952381,131.03174603174602,161.34920634920633,325.0,-11.666666666666666,156.26984126984127,22.46031746031746,132.3015873015873,6.904761904761904,273.25396825396825,0.07936507936507936,265.7936507936508,55.79365079365079,36.42857142857142,0.07936507936507936,-1.0317460317460316,-321.8253968253968
-325.0,93.73015873015872,218.33333333333331,-11.507936507936508,243.25396825396825,325.0,219.76190476190476,-18.49206349206349,141.34920634920636,142.14285714285714,325.0,-11.507936507936508,150.7142857142857,21.984126984126984,140.23809523809524,16.587301587301585,268.6507936507936,-4.2063492063492065,245.0,41.82539682539682,-6.428571428571428,0.23809523809523808,-0.873015873015873,-321.8253968253968
-325.0,93.73015873015872,218.33333333333331,-11.507936507936508,243.25396825396825,325.0,219.76190476190476,-18.49206349206349,141.34920634920636,142.14285714285714,325.0,-11.507936507936508,150.7142857142857,21.984126984126984,140.23809523809524,16.587301587301585,268.6507936507936,-4.2063492063492065,245.0,41.82539682539682,-6.428571428571428,0.23809523809523808,-0.873015873015873,-321.8253968253968
-314.2063492063492,79.92063492063491,195.15873015873015,-11.19047619047619,239.28571428571428,325.0,203.25396825396825,-18.174603174603174,134.2063492063492,123.25396825396825,325.0,-11.349206349206348,173.4126984126984,21.666666666666664,122.46031746031746,16.587301587301585,264.2063492063492,-8.333333333333332,218.8095238095238,5.634920634920634,-28.015873015873016,0.23809523809523808,-0.07936507936507936,-321.8253968253968
-314.2063492063492,79.92063492063491,195.15873015873015,-11.19047619047619,239.28571428571428,325.0,203.25396825396825,-18.174603174603174,134.2063492063492,123.25396825396825,325.0,-11.349206349206348,173.4126984126984,21.666666666666664,122.46031746031746,16.587301587301585,264.2063492063492,-8.333333333333332,218.8095238095238,5.634920634920634,-28.015873015873016,0.23809523809523808,-0.07936507936507936,-321.8253968253968
59.76190476190476,63.41269841269841,175.0,-11.349206349206348,235.63492063492063,325.0,199.60317460317458,-17.857142857142858,126.58730158730158,113.57142857142857,325.0,-11.031746031746032,142.3015873015873,21.349206349206348,120.71428571428571,16.587301587301585,259.6031746031746,-0.5555555555555556,218.4920634920635,41.98412698412698,19.92063492063492,-1.6666666666666665,-1.0317460317460316,-166.26984126984127
59.76190476190476,63.41269841269841,175.0,-11.349206349206348,235.63492063492063,325.0,199.60317460317458,-17.857142857142858,126.58730158730158,113.57142857142857,325.0,-11.031746031746032,142.3015873015873,21.349206349206348,120.71428571428571,16.587301587301585,259.6031746031746,-0.5555555555555556,218.4920634920635,41.98412698412698,19.92063492063492,-1.6666666666666665,-1.0317460317460316,-166.26984126984127
-76.74603174603175,95.47619047619047,186.42857142857142,-11.031746031746032,231.66666666666666,-48.01587301587301,206.1111111111111,-17.698412698412696,123.73015873015872,122.77777777777777,325.0,-11.19047619047619,154.36507936507937,21.03174603174603,119.92063492063491,16.26984126984127,255.3174603174603,1.984126984126984,242.3015873015873,56.269841269841265,38.96825396825397,0.7142857142857142,-0.3968253968253968,-166.26984126984127
-76.74603174603175,95.47619047619047,186.42857142857142,-11.031746031746032,231.66666666666666,-48.01587301587301,206.1111111111111,-17.698412698412696,123.73015873015872,122.77777777777777,325.0,-11.19047619047619,154.36507936507937,21.03174603174603,119.92063492063491,16.26984126984127,255.3174603174603,1.984126984126984,242.3015873015873,56.269841269841265,38.96825396825397,0.7142857142857142,-0.3968253968253968,-166.26984126984127
-301.19047619047615,96.74603174603175,185.0,-10.555555555555555,228.8095238095238,-325.0,204.52380952380952,-17.38095238095238,124.68253968253967,116.9047619047619,325.0,-10.714285714285714,160.23809523809524,20.873015873015873,125.95238095238095,16.11111111111111,251.98412698412696,4.841269841269841,238.33333333333331,54.2063492063492,36.904761904761905,0.5555555555555556,-1.0317460317460316,-166.26984126984127
-301.19047619047615,96.74603174603175,185.0,-10.555555555555555,228.8095238095238,-325.0,204.52380952380952,-17.38095238095238,124.68253968253967,116.9047619047619,325.0,-10.714285714285714,160.23809523809524,20.873015873015873,125.95238095238095,16.11111111111111,251.98412698412696,4.841269841269841,238.33333333333331,54.2063492063492,36.904761904761905,0.5555555555555556,-1.0317460317460316,-166.26984126984127
-231.98412698412696,99.6031746031746,184.04761904761904,-10.555555555555555,224.2063492063492,-325.0,200.7142857142857,21.984126984126984,119.76190476190476,104.84126984126983,325.0,-10.396825396825395,140.55555555555554,20.238095238095237,133.0952380952381,15.634920634920634,246.58730158730157,-0.7142857142857142,235.95238095238093,52.77777777777777,35.79365079365079,-0.23809523809523808,-2.3015873015873014,-166.26984126984127
-231.98412698412696,99.6031746031746,184.04761904761904,-10.555555555555555,224.2063492063492,-325.0,200.7142857142857,21.984126984126984,119.76190476190476,104.84126984126983,325.0,-10.396825396825395,140.55555555555554,20.238095238095237,133.0952380952381,15.634920634920634,246.58730158730157,-0.7142857142857142,235.95238095238093,52.77777777777777,35.79365079365079,-0.23809523809523808,-2.3015873015873014,-166.26984126984127
48.650793650793645,106.26984126984127,182.14285714285714,-10.396825396825395,220.3968253968254,-325.0,196.11111111111111,57.22222222222222,107.38095238095238,98.33333333333333,325.0,-10.396825396825395,145.63492063492063,19.92063492063492,135.0,15.476190476190474,242.46031746031744,-4.523809523809524,238.17460317460316,51.82539682539682,35.15873015873016,-0.23809523809523808,-0.873015873015873,-166.26984126984127
48.650793650793645,106.26984126984127,182.14285714285714,-10.396825396825395,220.3968253968254,-325.0,196.11111111111111,57.22222222222222,107.38095238095238,98.33333333333333,325.0,-10.396825396825395,145.63492063492063,19.92063492063492,135.0,15.476190476190474,242.46031746031744,-4.523809523809524,238.17460317460316,51.82539682539682,35.15873015873016,-0.23809523809523808,-0.873015873015873,-166.26984126984127
49.44444444444444,110.87301587301587,194.68253968253967,-10.396825396825395,216.9047619047619,-325.0,197.69841269841268,59.44444444444444,108.96825396825396,82.77777777777777,325.0,-10.238095238095237,185.3174603174603,19.6031746031746,134.2063492063492,15.158730158730158,238.33333333333331,4.0476190476190474,221.34920634920633,51.03174603174603,34.52380952380952,0.3968253968253968,-1.349206349206349,-321.8253968253968
49.44444444444444,110.87301587301587,194.68253968253967,-10.396825396825395,216.9047619047619,-325.0,197.69841269841268,59.44444444444444,108.96825396825396,82.77777777777777,325.0,-10.238095238095237,185.3174603174603,19.6031746031746,134.2063492063492,15.158730158730158,238.33333333333331,4.0476190476190474,221.34920634920633,51.03174603174603,34.52380952380952,0.3968253968253968,-1.349206349206349,-321.8253968253968
-13.888888888888888,104.52380952380952,184.36507936507937,-10.238095238095237,213.25396825396825,-325.0,194.52380952380952,89.28571428571428,102.14285714285714,91.66666666666666,325.0,-10.238095238095237,153.73015873015873,19.126984126984127,136.58730158730157,15.0,234.36507936507934,4.365079365079365,227.69841269841268,29.6031746031746,-8.333333333333332,0.5555555555555556,-0.23809523809523808,-321.8253968253968
