,Fp1[1],Fp2[2],F3[3],F4[4],C3[5],C4[6],P3[7],P4[8],O1[9],O2[10],F7[11],F8[12],T3[13],T4[14],T5[15],T6[16],Fz[17],Pz[18],Cz[19],Pg1[20],Pg2[21],EOGR[22],EOOGL[23],EMG[24]
0,325.0,-325.0,-96.1111111111111,29.6031746031746,301.031746031746,325.0,325.0,325.0,-115.0,325.0,-325.0,325.0,-96.58730158730158,-302.77777777777777,-96.26984126984127,325.0,-325.0,325.0,-117.22222222222221,-325.0,-325.0,-6.746031746031746,-10.873015873015872,-166.26984126984127
1,325.0,-325.0,-96.1111111111111,29.6031746031746,301.031746031746,325.0,325.0,325.0,-115.0,325.0,-325.0,325.0,-96.58730158730158,-302.77777777777777,-96.26984126984127,325.0,-325.0,325.0,-117.22222222222221,-325.0,-325.0,-6.746031746031746,-10.873015873015872,-166.26984126984127
2,325.0,-325.0,-182.93650793650792,48.96825396825397,281.3492063492063,325.0,325.0,324.2063492063492,-203.4126984126984,325.0,-325.0,322.1428571428571,-183.7301587301587,-282.3015873015873,-181.03174603174602,325.0,-325.0,325.0,-84.36507936507937,-325.0,-325.0,27.539682539682538,36.74603174603175,-166.26984126984127
3,325.0,-325.0,-182.93650793650792,48.96825396825397,281.3492063492063,325.0,325.0,324.2063492063492,-203.4126984126984,325.0,-325.0,322.1428571428571,-183.7301587301587,-282.3015873015873,-181.03174603174602,325.0,-325.0,325.0,-84.36507936507937,-325.0,-325.0,27.539682539682538,36.74603174603175,-166.26984126984127
4,325.0,-325.0,-218.96825396825395,56.74603174603174,269.2857142857143,325.0,325.0,315.95238095238096,-240.2380952380952,325.0,-325.0,310.87301587301585,-223.88888888888889,-270.07936507936506,-215.47619047619045,325.0,-319.9206349206349,325.0,-66.26984126984127,-325.0,-325.0,-18.49206349206349,-23.88888888888889,-166.26984126984127
5,325.0,-325.0,-218.96825396825395,56.74603174603174,269.2857142857143,325.0,325.0,315.95238095238096,-240.2380952380952,325.0,-325.0,310.87301587301585,-223.88888888888889,-270.07936507936506,-215.47619047619045,325.0,-319.9206349206349,325.0,-66.26984126984127,-325.0,-325.0,-18.49206349206349,-23.88888888888889,-166.26984126984127
6,325.0,-325.0,-251.03174603174602,70.55555555555556,252.93650793650792,319.76190476190476,325.0,298.015873015873,-273.73015873015873,325.0,-325.0,292.6190476190476,-254.84126984126982,-253.7301587301587,-251.34920634920633,325.0,-301.3492063492063,325.0,-37.53968253968254,-325.0,-325.0,-0.5555555555555556,-0.5555555555555556,-166.26984126984127
7,325.0,-325.0,-251.03174603174602,70.55555555555556,252.93650793650792,319.76190476190476,325.0,298.015873015873,-273.73015873015873,325.0,-325.0,292.6190476190476,-254.84126984126982,-253.7301587301587,-251.34920634920633,325.0,-301.3492063492063,325.0,-37.53968253968254,-325.0,-325.0,-0.5555555555555556,-0.5555555555555556,-166.26984126984127
8,321.66666666666663,-325.0,-268.3333333333333,74.52380952380952,247.38095238095238,312.9365079365079,321.8253968253968,291.8253968253968,-291.984126984127,325.0,-325.0,286.26984126984127,-273.88888888888886,-248.015873015873,-269.44444444444446,325.0,-295.0,325.0,-28.96825396825397,-325.0,-325.0,2.619047619047619,3.888888888888889,-166.26984126984127
9,321.66666666666663,-325.0,-268.3333333333333,74.52380952380952,247.38095238095238,312.9365079365079,321.8253968253968,291.8253968253968,-291.984126984127,325.0,-325.0,286.26984126984127,-273.88888888888886,-248.015873015873,-269.44444444444446,325.0,-295.0,325.0,-28.96825396825397,-325.0,-325.0,2.619047619047619,3.888888888888889,-166.26984126984127
10,320.39682539682536,-325.0,-277.06349206349205,75.47619047619047,246.1111111111111,311.66666666666663,320.55555555555554,290.55555555555554,-300.55555555555554,325.0,-325.0,285.1587301587301,-284.36507936507934,-246.74603174603172,-277.38095238095235,325.0,-293.73015873015873,325.0,-26.587301587301585,-325.0,-325.0,-20.07936507936508,-26.11111111111111,-321.8253968253968
11,320.39682539682536,-325.0,-277.06349206349205,75.47619047619047,246.1111111111111,311.66666666666663,320.55555555555554,290.55555555555554,-300.55555555555554,325.0,-325.0,285.1587301587301,-284.36507936507934,-246.74603174603172,-277.38095238095235,325.0,-293.73015873015873,325.0,-26.587301587301585,-325.0,-325.0,-20.07936507936508,-26.11111111111111,-321.8253968253968
12,310.23809523809524,-325.0,-231.19047619047618,78.80952380952381,238.8095238095238,302.46031746031747,310.7142857142857,282.1428571428571,-253.09523809523807,325.0,-325.0,276.58730158730157,-234.84126984126982,-239.44444444444443,-232.14285714285714,-33.888888888888886,-285.0,-144.84126984126982,-16.904761904761905,-325.0,-325.0,2.142857142857143,2.7777777777777777,-321.8253968253968
13,310.23809523809524,-325.0,-231.19047619047618,78.80952380952381,238.8095238095238,302.46031746031747,310.7142857142857,282.1428571428571,-253.09523809523807,325.0,-325.0,276.58730158730157,-234.84126984126982,-239.44444444444443,-232.14285714285714,-33.888888888888886,-285.0,-144.84126984126982,-16.904761904761905,-325.0,-325.0,2.142857142857143,2.7777777777777777,-321.8253968253968
14,306.1111111111111,-325.0,-182.14285714285714,77.85714285714285,235.63492063492063,298.8095238095238,306.74603174603175,278.4920634920635,-202.61904761904762,325.0,-325.0,273.0952380952381,-184.04761904761904,-235.95238095238093,-182.93650793650792,-221.66666666666666,-281.19047619047615,-286.4285714285714,-13.888888888888888,-325.0,-325.0,-0.23809523809523808,-0.07936507936507936,-321.8253968253968
15,306.1111111111111,-325.0,-182.14285714285714,77.85714285714285,235.63492063492063,298.8095238095238,306.74603174603175,278.4920634920635,-202.61904761904762,325.0,-325.0,273.0952380952381,-184.04761904761904,-235.95238095238093,-182.93650793650792,-221.66666666666666,-281.19047619047615,-286.4285714285714,-13.888888888888888,-325.0,-325.0,-0.23809523809523808,-0.07936507936507936,-321.8253968253968
16,300.39682539682536,-325.0,-129.76190476190476,78.17460317460316,231.8253968253968,293.73015873015873,301.19047619047615,274.2063492063492,-151.5079365079365,325.0,-325.0,268.3333333333333,-131.5079365079365,-231.98412698412696,-134.04761904761904,-325.0,-276.1111111111111,-325.0,-9.285714285714285,-325.0,-325.0,22.936507936507937,33.25396825396825,-321.8253968253968
17,300.39682539682536,-325.0,-129.76190476190476,78.17460317460316,231.8253968253968,293.73015873015873,301.19047619047615,274.2063492063492,-151.5079365079365,325.0,-325.0,268.3333333333333,-131.5079365079365,-231.98412698412696,-134.04761904761904,-325.0,-276.1111111111111,-325.0,-9.285714285714285,-325.0,-325.0,22.936507936507937,33.25396825396825,-321.8253968253968
18,295.0,-325.0,-156.9047619047619,80.71428571428571,227.69841269841268,288.968253968254,296.1111111111111,269.6031746031746,-175.79365079365078,325.0,-325.0,263.4126984126984,-161.19047619047618,-227.69841269841268,-158.96825396825395,-325.0,-271.66666666666663,-325.0,-0.873015873015873,-325.0,-325.0,-24.365079365079364,-34.047619047619044,-321.8253968253968
19,295.0,-325.0,-156.9047619047619,80.71428571428571,227.69841269841268,288.968253968254,296.1111111111111,269.6031746031746,-175.79365079365078,325.0,-325.0,263.4126984126984,-161.19047619047618,-227.69841269841268,-158.96825396825395,-325.0,-271.66666666666663,-325.0,-0.873015873015873,-325.0,-325.0,-24.365079365079364,-34.047619047619044,-321.8253968253968
20,288.3333333333333,-325.0,-155.0,70.07936507936508,222.46031746031744,282.77777777777777,289.9206349206349,263.88888888888886,226.26984126984127,325.0,-325.0,257.85714285714283,-158.17460317460316,-222.77777777777777,-158.8095238095238,-325.0,-265.7936507936508,-325.0,-7.063492063492063,-325.0,-325.0,-0.3968253968253968,1.349206349206349,-166.26984126984127
21,288.3333333333333,-325.0,-155.0,70.07936507936508,222.46031746031744,282.77777777777777,289.9206349206349,263.88888888888886,226.26984126984127,325.0,-325.0,257.85714285714283,-158.17460317460316,-222.77777777777777,-158.8095238095238,-325.0,-265.7936507936508,-325.0,-7.063492063492063,-325.0,-325.0,-0.3968253968253968,1.349206349206349,-166.26984126984127
22,284.36507936507934,-325.0,-173.4126984126984,74.68253968253968,219.60317460317458,279.1269841269841,286.1111111111111,260.55555555555554,244.52380952380952,325.0,-325.0,254.68253968253967,-178.17460317460316,-219.76190476190476,-179.60317460317458,-325.0,-262.3015873015873,-325.0,3.4126984126984126,-325.0,-325.0,-0.7142857142857142,-1.0317460317460316,-166.26984126984127
23,284.36507936507934,-325.0,-173.4126984126984,74.68253968253968,219.60317460317458,279.1269841269841,286.1111111111111,260.55555555555554,244.52380952380952,325.0,-325.0,254.68253968253967,-178.17460317460316,-219.76190476190476,-179.60317460317458,-325.0,-262.3015873015873,-325.0,3.4126984126984126,-325.0,-325.0,-0.7142857142857142,-1.0317460317460316,-166.26984126984127
24,273.0952380952381,-325.0,-215.63492063492063,81.82539682539682,211.34920634920633,268.968253968254,275.4761904761905,251.03174603174602,325.0,325.0,-325.0,245.0,-219.12698412698413,-211.34920634920633,-222.93650793650792,-325.0,-252.3015873015873,-325.0,23.253968253968253,-325.0,-325.0,-0.23809523809523808,-1.507936507936508,-166.26984126984127
25,273.0952380952381,-325.0,-215.63492063492063,81.82539682539682,211.34920634920633,268.968253968254,275.4761904761905,251.03174603174602,325.0,325.0,-325.0,245.0,-219.12698412698413,-211.34920634920633,-222.93650793650792,-325.0,-252.3015873015873,-325.0,23.253968253968253,-325.0,-325.0,-0.23809523809523808,-1.507936507936508,-166.26984126984127
26,264.5238095238095,-325.0,-246.42857142857142,85.95238095238095,205.0,261.031746031746,267.22222222222223,243.57142857142856,325.0,325.0,-325.0,237.53968253968253,-250.2380952380952,-204.68253968253967,-252.77777777777777,-325.0,-244.68253968253967,-325.0,36.58730158730159,-325.0,-325.0,-22.777777777777775,-30.555555555555554,-166.26984126984127
27,264.5238095238095,-325.0,-246.42857142857142,85.95238095238095,205.0,261.031746031746,267.22222222222223,243.57142857142856,325.0,325.0,-325.0,237.53968253968253,-250.2380952380952,-204.68253968253967,-252.77777777777777,-325.0,-244.68253968253967,-325.0,36.58730158730159,-325.0,-325.0,-22.777777777777775,-30.555555555555554,-166.26984126984127
28,191.98412698412696,-273.0952380952381,-167.53968253968253,39.76190476190476,150.3968253968254,191.8253968253968,195.15873015873015,179.60317460317458,294.5238095238095,-0.07936507936507936,-73.88888888888889,173.4126984126984,-170.23809523809524,-148.96825396825395,-173.09523809523807,-313.4126984126984,-179.12698412698413,-278.4920634920635,37.857142857142854,-241.66666666666666,-240.7142857142857,-13.095238095238095,-17.857142857142858,-166.26984126984127
29,191.98412698412696,-273.0952380952381,-167.53968253968253,39.76190476190476,150.3968253968254,191.8253968253968,195.15873015873015,179.60317460317458,294.5238095238095,-0.07936507936507936,-73.88888888888889,173.4126984126984,-170.23809523809524,-148.96825396825395,-173.09523809523807,-313.4126984126984,-179.12698412698413,-278.4920634920635,37.857142857142854,-241.66666666666666,-240.7142857142857,-13.095238095238095,-17.857142857142858,-166.26984126984127
30,119.44444444444444,-221.03174603174602,-88.4920634920635,-6.428571428571428,95.95238095238095,122.77777777777777,123.25396825396825,115.63492063492063,264.2063492063492,-325.0,177.38095238095238,109.44444444444444,-90.07936507936508,-93.09523809523809,-93.4126984126984,-301.66666666666663,-113.57142857142857,-231.98412698412696,39.12698412698413,-158.33333333333331,-156.26984126984127,-3.253968253968254,-5.0,-321.8253968253968
31,119.44444444444444,-221.03174603174602,-88.4920634920635,-6.428571428571428,95.95238095238095,122.77777777777777,123.25396825396825,115.63492063492063,264.2063492063492,-325.0,177.38095238095238,109.44444444444444,-90.07936507936508,-93.09523809523809,-93.4126984126984,-301.66666666666663,-113.57142857142857,-231.98412698412696,39.12698412698413,-158.33333333333331,-156.26984126984127,-3.253968253968254,-5.0,-321.8253968253968
32,115.15873015873015,-213.7301587301587,-95.47619047619047,-0.23809523809523808,93.09523809523809,118.49206349206348,118.65079365079364,111.82539682539682,255.0,-325.0,210.55555555555554,105.63492063492063,-99.12698412698413,-90.07936507936508,-99.6031746031746,-291.66666666666663,-109.92063492063491,-224.68253968253967,45.317460317460316,-152.77777777777777,-150.87301587301587,-0.07936507936507936,-0.873015873015873,-321.8253968253968
33,115.15873015873015,-213.7301587301587,-95.47619047619047,-0.23809523809523808,93.09523809523809,118.49206349206348,118.65079365079364,111.82539682539682,255.0,-325.0,210.55555555555554,105.63492063492063,-99.12698412698413,-90.07936507936508,-99.6031746031746,-291.66666666666663,-109.92063492063491,-224.68253968253967,45.317460317460316,-152.77777777777777,-150.87301587301587,-0.07936507936507936,-0.873015873015873,-321.8253968253968
34,114.04761904761904,-211.8253968253968,-74.52380952380952,-5.7936507936507935,92.30158730158729,117.53968253968253,117.53968253968253,110.87301587301587,252.93650793650792,-325.0,295.95238095238096,104.68253968253968,-75.47619047619047,-89.12698412698413,-80.71428571428571,-289.1269841269841,-108.96825396825396,-222.77777777777777,39.44444444444444,-151.34920634920633,-149.44444444444443,32.93650793650794,43.095238095238095,-321.8253968253968
35,114.04761904761904,-211.8253968253968,-74.52380952380952,-5.7936507936507935,92.30158730158729,117.53968253968253,117.53968253968253,110.87301587301587,252.93650793650792,-325.0,295.95238095238096,104.68253968253968,-75.47619047619047,-89.12698412698413,-80.71428571428571,-289.1269841269841,-108.96825396825396,-222.77777777777777,39.44444444444444,-151.34920634920633,-149.44444444444443,32.93650793650794,43.095238095238095,-321.8253968253968
36,109.92063492063491,-204.84126984126982,-63.25396825396825,-7.5396825396825395,89.28571428571428,113.57142857142857,113.73015873015872,107.06349206349206,244.52380952380952,-325.0,325.0,100.87301587301587,-64.2063492063492,-85.95238095238095,-69.44444444444444,-279.6031746031746,-105.15873015873015,-215.79365079365078,38.33333333333333,-146.11111111111111,-144.04761904761904,33.57142857142857,44.52380952380952,-321.8253968253968
37,109.92063492063491,-204.84126984126982,-63.25396825396825,-7.5396825396825395,89.28571428571428,113.57142857142857,113.73015873015872,107.06349206349206,244.52380952380952,-325.0,325.0,100.87301587301587,-64.2063492063492,-85.95238095238095,-69.44444444444444,-279.6031746031746,-105.15873015873015,-215.79365079365078,38.33333333333333,-146.11111111111111,-144.04761904761904,33.57142857142857,44.52380952380952,-321.8253968253968
38,108.33333333333333,-202.14285714285714,-63.095238095238095,-6.428571428571428,88.01587301587301,111.98412698412697,112.14285714285714,105.79365079365078,241.34920634920633,-325.0,321.66666666666663,99.44444444444444,-64.52380952380952,-85.0,-68.65079365079364,-276.1111111111111,-103.73015873015872,-213.25396825396825,40.079365079365076,-144.2063492063492,-142.14285714285714,16.428571428571427,20.873015873015873,-321.8253968253968
39,108.33333333333333,-202.14285714285714,-63.095238095238095,-6.428571428571428,88.01587301587301,111.98412698412697,112.14285714285714,105.79365079365078,241.34920634920633,-325.0,321.66666666666663,99.44444444444444,-64.52380952380952,-85.0,-68.65079365079364,-276.1111111111111,-103.73015873015872,-213.25396825396825,40.079365079365076,-144.2063492063492,-142.14285714285714,16.428571428571427,20.873015873015873,-321.8253968253968
40,106.74603174603175,-199.44444444444443,-62.93650793650793,-5.158730158730158,86.9047619047619,110.55555555555554,110.71428571428571,104.52380952380952,238.33333333333331,-325.0,318.3333333333333,98.17460317460316,-64.68253968253968,-83.88888888888889,-67.6984126984127,-272.46031746031747,-102.30158730158729,-210.55555555555554,41.98412698412698,-142.14285714285714,-140.23809523809524,-0.7142857142857142,-2.619047619047619,-166.26984126984127
41,106.74603174603175,-199.44444444444443,-62.93650793650793,-5.158730158730158,86.9047619047619,110.55555555555554,110.71428571428571,104.52380952380952,238.33333333333331,-325.0,318.3333333333333,98.17460317460316,-64.68253968253968,-83.88888888888889,-67.6984126984127,-272.46031746031747,-102.30158730158729,-210.55555555555554,41.98412698412698,-142.14285714285714,-140.23809523809524,-0.7142857142857142,-2.619047619047619,-166.26984126984127
42,102.61904761904762,-192.3015873015873,-35.0,-14.206349206349206,83.25396825396825,41.34920634920635,106.42857142857142,100.39682539682539,229.28571428571428,-325.0,325.0,94.52380952380952,-36.42857142857142,-80.39682539682539,-39.76190476190476,-262.46031746031747,-98.49206349206348,-203.09523809523807,32.93650793650794,-137.06349206349205,-134.68253968253967,16.904761904761905,22.777777777777775,-166.26984126984127
43,102.61904761904762,-192.3015873015873,-35.0,-14.206349206349206,83.25396825396825,41.34920634920635,106.42857142857142,100.39682539682539,229.28571428571428,-325.0,325.0,94.52380952380952,-36.42857142857142,-80.39682539682539,-39.76190476190476,-262.46031746031747,-98.49206349206348,-203.09523809523807,32.93650793650794,-137.06349206349205,-134.68253968253967,16.904761904761905,22.777777777777775,-166.26984126984127
44,102.14285714285714,-191.5079365079365,-34.84126984126984,-9.761904761904761,82.93650793650794,60.71428571428571,105.95238095238095,99.92063492063491,228.49206349206347,-325.0,325.0,94.2063492063492,-37.06349206349206,-79.92063492063491,-41.19047619047619,-261.3492063492063,-98.01587301587301,-202.46031746031744,36.74603174603175,-136.58730158730157,-134.04761904761904,33.888888888888886,44.84126984126984,-166.26984126984127
45,102.14285714285714,-191.5079365079365,-34.84126984126984,-9.761904761904761,82.93650793650794,60.71428571428571,105.95238095238095,99.92063492063491,228.49206349206347,-325.0,325.0,94.2063492063492,-37.06349206349206,-79.92063492063491,-41.19047619047619,-261.3492063492063,-98.01587301587301,-202.46031746031744,36.74603174603175,-136.58730158730157,-134.04761904761904,33.888888888888886,44.84126984126984,-166.26984126984127
46,102.14285714285714,-191.5079365079365,-34.84126984126984,-9.761904761904761,82.93650793650794,60.71428571428571,105.95238095238095,99.92063492063491,228.49206349206347,-325.0,325.0,94.2063492063492,-37.06349206349206,-79.92063492063491,-41.19047619047619,-261.3492063492063,-98.01587301587301,-202.46031746031744,36.74603174603175,-136.58730158730157,-134.04761904761904,33.888888888888886,44.84126984126984,-166.26984126984127
47,102.14285714285714,-191.5079365079365,-34.84126984126984,-9.761904761904761,82.93650793650794,60.71428571428571,105.95238095238095,99.92063492063491,228.49206349206347,-325.0,325.0,94.2063492063492,-37.06349206349206,-79.92063492063491,-41.19047619047619,-261.3492063492063,-98.01587301587301,-202.46031746031744,36.74603174603175,-136.58730158730157,-134.04761904761904,33.888888888888886,44.84126984126984,-166.26984126984127
48,102.14285714285714,-191.5079365079365,-34.84126984126984,-9.761904761904761,82.93650793650794,60.71428571428571,105.95238095238095,99.92063492063491,228.49206349206347,-325.0,325.0,94.2063492063492,-37.06349206349206,-79.92063492063491,-41.19047619047619,-261.3492063492063,-98.01587301587301,-202.46031746031744,36.74603174603175,-136.58730158730157,-134.04761904761904,33.888888888888886,44.84126984126984,-166.26984126984127
49,102.14285714285714,-191.5079365079365,-34.84126984126984,-9.761904761904761,82.93650793650794,60.71428571428571,105.95238095238095,99.92063492063491,228.49206349206347,-325.0,325.0,94.2063492063492,-37.06349206349206,-79.92063492063491,-41.19047619047619,-261.3492063492063,-98.01587301587301,-202.46031746031744,36.74603174603175,-136.58730158730157,-134.04761904761904,33.888888888888886,44.84126984126984,-166.26984126984127
50,95.47619047619047,-179.60317460317458,0.07936507936507936,-20.396825396825395,77.6984126984127,-319.76190476190476,99.12698412698413,93.73015873015872,214.04761904761904,-308.8095238095238,325.0,87.85714285714285,-0.7142857142857142,-74.84126984126983,-3.571428571428571,-245.15873015873015,-91.66666666666666,-190.3968253968254,27.063492063492063,-127.6984126984127,-125.31746031746032,19.285714285714285,23.095238095238095,-321.8253968253968
51,95.47619047619047,-179.60317460317458,0.07936507936507936,-20.396825396825395,77.6984126984127,-319.76190476190476,99.12698412698413,93.73015873015872,214.04761904761904,-308.8095238095238,325.0,87.85714285714285,-0.7142857142857142,-74.84126984126983,-3.571428571428571,-245.15873015873015,-91.66666666666666,-190.3968253968254,27.063492063492063,-127.6984126984127,-125.31746031746032,19.285714285714285,23.095238095238095,-321.8253968253968
52,94.04761904761904,-177.38095238095238,8.968253968253968,-18.96825396825397,76.9047619047619,-319.76190476190476,97.6984126984127,92.61904761904762,211.34920634920633,-304.68253968253964,325.0,86.74603174603175,6.746031746031746,-73.88888888888889,6.111111111111111,-242.3015873015873,-90.39682539682539,-188.015873015873,28.015873015873016,-125.95238095238095,-123.73015873015872,-0.23809523809523808,-0.3968253968253968,-321.8253968253968
53,94.04761904761904,-177.38095238095238,8.968253968253968,-18.96825396825397,76.9047619047619,-319.76190476190476,97.6984126984127,92.61904761904762,211.34920634920633,-304.68253968253964,325.0,86.74603174603175,6.746031746031746,-73.88888888888889,6.111111111111111,-242.3015873015873,-90.39682539682539,-188.015873015873,28.015873015873016,-125.95238095238095,-123.73015873015872,-0.23809523809523808,-0.3968253968253968,-321.8253968253968
54,92.61904761904762,-174.2063492063492,32.61904761904762,-19.285714285714285,75.47619047619047,-325.0,96.26984126984127,90.71428571428571,207.69841269841268,-299.2857142857143,325.0,85.31746031746032,30.238095238095237,-72.3015873015873,29.444444444444443,-237.85714285714283,-88.65079365079364,-185.15873015873015,28.49206349206349,-123.73015873015872,-121.34920634920634,3.571428571428571,4.365079365079365,-321.8253968253968
55,92.61904761904762,-174.2063492063492,32.61904761904762,-19.285714285714285,75.47619047619047,-325.0,96.26984126984127,90.71428571428571,207.69841269841268,-299.2857142857143,325.0,85.31746031746032,30.238095238095237,-72.3015873015873,29.444444444444443,-237.85714285714283,-88.65079365079364,-185.15873015873015,28.49206349206349,-123.73015873015872,-121.34920634920634,3.571428571428571,4.365079365079365,-321.8253968253968
56,90.39682539682539,-170.55555555555554,65.79365079365078,-26.9047619047619,73.88888888888889,-325.0,93.73015873015872,88.96825396825396,203.25396825396825,-293.0952380952381,325.0,83.25396825396825,62.77777777777777,-70.87301587301587,63.57142857142857,-233.25396825396825,-86.9047619047619,-181.34920634920633,18.80952380952381,-121.19047619047619,-118.8095238095238,-19.76190476190476,-24.84126984126984,-321.8253968253968
57,90.39682539682539,-170.55555555555554,65.79365079365078,-26.9047619047619,73.88888888888889,-325.0,93.73015873015872,88.96825396825396,203.25396825396825,-293.0952380952381,325.0,83.25396825396825,62.77777777777777,-70.87301587301587,63.57142857142857,-233.25396825396825,-86.9047619047619,-181.34920634920633,18.80952380952381,-121.19047619047619,-118.8095238095238,-19.76190476190476,-24.84126984126984,-321.8253968253968
58,88.80952380952381,-167.69841269841268,60.238095238095234,-32.93650793650794,72.46031746031746,-325.0,92.30158730158729,87.22222222222221,199.9206349206349,-288.015873015873,325.0,81.82539682539682,59.76190476190476,-69.6031746031746,56.269841269841265,-229.28571428571428,-85.47619047619047,-178.4920634920635,13.095238095238095,-118.96825396825396,-116.58730158730158,18.65079365079365,24.68253968253968,-321.8253968253968
59,88.80952380952381,-167.69841269841268,60.238095238095234,-32.93650793650794,72.46031746031746,-325.0,92.30158730158729,87.22222222222221,199.9206349206349,-288.015873015873,325.0,81.82539682539682,59.76190476190476,-69.6031746031746,56.269841269841265,-229.28571428571428,-85.47619047619047,-178.4920634920635,13.095238095238095,-118.96825396825396,-116.58730158730158,18.65079365079365,24.68253968253968,-321.8253968253968
60,87.22222222222221,-164.84126984126982,54.36507936507936,-33.57142857142857,71.19047619047619,-325.0,90.55555555555556,85.79365079365078,196.42857142857142,-283.25396825396825,325.0,80.39682539682539,51.34920634920635,-68.4920634920635,52.77777777777777,-225.3174603174603,-84.04761904761904,-175.63492063492063,11.825396825396824,-117.06349206349206,-114.52380952380952,-20.71428571428571,-26.428571428571427,-166.26984126984127
61,87.22222222222221,-164.84126984126982,54.36507936507936,-33.57142857142857,71.19047619047619,-325.0,90.55555555555556,85.79365079365078,196.42857142857142,-283.25396825396825,325.0,80.39682539682539,51.34920634920635,-68.4920634920635,52.77777777777777,-225.3174603174603,-84.04761904761904,-175.63492063492063,11.825396825396824,-117.06349206349206,-114.52380952380952,-20.71428571428571,-26.428571428571427,-166.26984126984127
62,85.95238095238095,-162.77777777777777,65.0,-31.825396825396822,70.39682539682539,-325.0,89.6031746031746,84.84126984126983,194.04761904761904,-279.44444444444446,325.0,79.6031746031746,64.52380952380952,-67.53968253968253,61.507936507936506,-222.61904761904762,-82.77777777777777,-173.4126984126984,15.95238095238095,-115.31746031746032,-112.93650793650794,5.476190476190476,6.428571428571428,-166.26984126984127
63,85.95238095238095,-162.77777777777777,65.0,-31.825396825396822,70.39682539682539,-325.0,89.6031746031746,84.84126984126983,194.04761904761904,-279.44444444444446,325.0,79.6031746031746,64.52380952380952,-67.53968253968253,61.507936507936506,-222.61904761904762,-82.77777777777777,-173.4126984126984,15.95238095238095,-115.31746031746032,-112.93650793650794,5.476190476190476,6.428571428571428,-166.26984126984127
64,84.04761904761904,-159.44444444444443,38.49206349206349,-22.46031746031746,68.96825396825396,-325.0,87.53968253968253,82.93650793650794,189.76190476190476,-273.57142857142856,325.0,77.85714285714285,35.0,-66.11111111111111,36.904761904761905,-217.85714285714283,-81.03174603174602,-170.07936507936506,22.936507936507937,-112.93650793650794,-110.55555555555554,-20.71428571428571,-26.9047619047619,-166.26984126984127
65,84.04761904761904,-159.44444444444443,38.49206349206349,-22.46031746031746,68.96825396825396,-325.0,87.53968253968253,82.93650793650794,189.76190476190476,-273.57142857142856,325.0,77.85714285714285,35.0,-66.11111111111111,36.904761904761905,-217.85714285714283,-81.03174603174602,-170.07936507936506,22.936507936507937,-112.93650793650794,-110.55555555555554,-20.71428571428571,-26.9047619047619,-166.26984126984127
66,82.77777777777777,-83.25396825396825,54.047619047619044,-31.19047619047619,68.17460317460318,-325.0,85.95238095238095,81.98412698412697,187.38095238095238,-269.9206349206349,325.0,76.42857142857143,55.63492063492063,-65.15873015873015,52.3015873015873,-214.84126984126982,-80.07936507936508,-167.85714285714286,15.158730158730158,-111.34920634920634,-108.80952380952381,6.428571428571428,7.5396825396825395,-166.26984126984127
67,82.77777777777777,-83.25396825396825,54.047619047619044,-31.19047619047619,68.17460317460318,-325.0,85.95238095238095,81.98412698412697,187.38095238095238,-269.9206349206349,325.0,76.42857142857143,55.63492063492063,-65.15873015873015,52.3015873015873,-214.84126984126982,-80.07936507936508,-167.85714285714286,15.158730158730158,-111.34920634920634,-108.80952380952381,6.428571428571428,7.5396825396825395,-166.26984126984127
68,81.66666666666666,120.87301587301586,28.174603174603174,-33.888888888888886,67.22222222222221,-325.0,85.0,80.87301587301587,184.84126984126982,-266.58730158730157,325.0,75.47619047619047,26.9047619047619,-64.2063492063492,26.746031746031743,-212.3015873015873,-78.96825396825396,-165.95238095238093,12.142857142857142,-109.92063492063491,-107.38095238095238,-13.571428571428571,-18.49206349206349,-166.26984126984127
69,81.66666666666666,120.87301587301586,28.174603174603174,-33.888888888888886,67.22222222222221,-325.0,85.0,80.87301587301587,184.84126984126982,-266.58730158730157,325.0,75.47619047619047,26.9047619047619,-64.2063492063492,26.746031746031743,-212.3015873015873,-78.96825396825396,-165.95238095238093,12.142857142857142,-109.92063492063491,-107.38095238095238,-13.571428571428571,-18.49206349206349,-166.26984126984127
70,80.71428571428571,325.0,2.46031746031746,-36.42857142857142,66.42857142857143,-325.0,84.04761904761904,79.76190476190476,182.46031746031744,-263.0952380952381,325.0,74.52380952380952,-1.6666666666666665,-63.25396825396825,1.1904761904761905,-209.76190476190476,-77.85714285714285,-164.04761904761904,9.126984126984127,-108.33333333333333,-105.95238095238095,-33.41269841269841,-44.52380952380952,-321.8253968253968
71,80.71428571428571,325.0,2.46031746031746,-36.42857142857142,66.42857142857143,-325.0,84.04761904761904,79.76190476190476,182.46031746031744,-263.0952380952381,325.0,74.52380952380952,-1.6666666666666665,-63.25396825396825,1.1904761904761905,-209.76190476190476,-77.85714285714285,-164.04761904761904,9.126984126984127,-108.33333333333333,-105.95238095238095,-33.41269841269841,-44.52380952380952,-321.8253968253968
72,79.12698412698413,325.0,2.7777777777777777,-34.682539682539684,65.15873015873015,-325.0,82.46031746031746,78.4920634920635,179.28571428571428,-258.6507936507936,325.0,73.25396825396825,-1.1904761904761905,-62.3015873015873,1.8253968253968254,-206.26984126984127,-76.58730158730158,-161.34920634920633,10.873015873015872,-106.58730158730158,-104.2063492063492,-33.57142857142857,-44.2063492063492,-321.8253968253968
73,79.12698412698413,325.0,2.7777777777777777,-34.682539682539684,65.15873015873015,-325.0,82.46031746031746,78.4920634920635,179.28571428571428,-258.6507936507936,325.0,73.25396825396825,-1.1904761904761905,-62.3015873015873,1.8253968253968254,-206.26984126984127,-76.58730158730158,-161.34920634920633,10.873015873015872,-106.58730158730158,-104.2063492063492,-33.57142857142857,-44.2063492063492,-321.8253968253968
74,76.58730158730158,325.0,20.07936507936508,-32.61904761904762,63.095238095238095,-325.0,79.76190476190476,75.95238095238095,174.04761904761904,-251.03174603174602,325.0,71.03174603174602,20.238095238095237,-60.39682539682539,16.11111111111111,-200.3968253968254,-74.36507936507937,-156.74603174603175,12.619047619047619,-103.57142857142857,-100.87301587301587,20.71428571428571,27.38095238095238,-321.8253968253968
75,76.58730158730158,325.0,20.07936507936508,-32.61904761904762,63.095238095238095,-325.0,79.76190476190476,75.95238095238095,174.04761904761904,-251.03174603174602,325.0,71.03174603174602,20.238095238095237,-60.39682539682539,16.11111111111111,-200.3968253968254,-74.36507936507937,-156.74603174603175,12.619047619047619,-103.57142857142857,-100.87301587301587,20.71428571428571,27.38095238095238,-321.8253968253968
76,75.15873015873015,325.0,14.047619047619047,-31.666666666666664,61.98412698412698,-325.0,78.4920634920635,74.84126984126983,170.87301587301587,-246.74603174603172,325.0,69.6031746031746,10.873015873015872,-59.44444444444444,13.095238095238095,-196.9047619047619,-73.25396825396825,-154.36507936507937,12.619047619047619,-101.82539682539682,-99.12698412698413,-22.46031746031746,-28.015873015873016,-321.8253968253968
77,75.15873015873015,325.0,14.047619047619047,-31.666666666666664,61.98412698412698,-325.0,78.4920634920635,74.84126984126983,170.87301587301587,-246.74603174603172,325.0,69.6031746031746,10.873015873015872,-59.44444444444444,13.095238095238095,-196.9047619047619,-73.25396825396825,-154.36507936507937,12.619047619047619,-101.82539682539682,-99.12698412698413,-22.46031746031746,-28.015873015873016,-321.8253968253968
78,73.88888888888889,325.0,38.49206349206349,-36.58730158730159,61.03174603174603,-325.0,77.06349206349206,73.57142857142857,168.17460317460316,-242.3015873015873,325.0,68.4920634920635,38.96825396825397,-58.33333333333333,34.84126984126984,-193.88888888888889,-71.82539682539682,-151.8253968253968,8.174603174603174,-100.07936507936508,-97.38095238095238,21.825396825396822,27.38095238095238,-321.8253968253968
79,73.88888888888889,325.0,38.49206349206349,-36.58730158730159,61.03174603174603,-325.0,77.06349206349206,73.57142857142857,168.17460317460316,-242.3015873015873,325.0,68.4920634920635,38.96825396825397,-58.33333333333333,34.84126984126984,-193.88888888888889,-71.82539682539682,-151.8253968253968,8.174603174603174,-100.07936507936508,-97.38095238095238,21.825396825396822,27.38095238095238,-321.8253968253968
80,72.46031746031746,325.0,19.92063492063492,-28.65079365079365,59.76190476190476,-325.0,75.79365079365078,72.3015873015873,165.15873015873015,-238.49206349206347,325.0,67.22222222222221,16.746031746031743,-57.22222222222222,19.126984126984127,-190.55555555555554,-70.55555555555556,-149.44444444444443,15.476190476190474,-98.33333333333333,-95.63492063492063,-21.507936507936506,-28.96825396825397,-166.26984126984127
81,72.46031746031746,325.0,19.92063492063492,-28.65079365079365,59.76190476190476,-325.0,75.79365079365078,72.3015873015873,165.15873015873015,-238.49206349206347,325.0,67.22222222222221,16.746031746031743,-57.22222222222222,19.126984126984127,-190.55555555555554,-70.55555555555556,-149.44444444444443,15.476190476190474,-98.33333333333333,-95.63492063492063,-21.507936507936506,-28.96825396825397,-166.26984126984127
82,72.3015873015873,325.0,22.619047619047617,-28.809523809523807,59.285714285714285,-325.0,75.47619047619047,71.98412698412697,164.52380952380952,-237.53968253968253,325.0,67.06349206349206,20.07936507936508,-56.74603174603174,22.619047619047617,-189.60317460317458,-70.39682539682539,-148.65079365079364,15.793650793650793,-98.17460317460316,-95.0,-33.095238095238095,-43.73015873015873,-166.26984126984127
83,72.3015873015873,325.0,22.619047619047617,-28.809523809523807,59.285714285714285,-325.0,75.47619047619047,71.98412698412697,164.52380952380952,-237.53968253968253,325.0,67.06349206349206,20.07936507936508,-56.74603174603174,22.619047619047617,-189.60317460317458,-70.39682539682539,-148.65079365079364,15.793650793650793,-98.17460317460316,-95.0,-33.095238095238095,-43.73015873015873,-166.26984126984127
84,72.3015873015873,325.0,22.619047619047617,-28.809523809523807,59.285714285714285,-325.0,75.47619047619047,71.98412698412697,164.52380952380952,-237.53968253968253,325.0,67.06349206349206,20.07936507936508,-56.74603174603174,22.619047619047617,-189.60317460317458,-70.39682539682539,-148.65079365079364,15.793650793650793,-98.17460317460316,-95.0,-33.095238095238095,-43.73015873015873,-166.26984126984127
85,72.3015873015873,325.0,22.619047619047617,-28.809523809523807,59.285714285714285,-325.0,75.47619047619047,71.98412698412697,164.52380952380952,-237.53968253968253,325.0,67.06349206349206,20.07936507936508,-56.74603174603174,22.619047619047617,-189.60317460317458,-70.39682539682539,-148.65079365079364,15.793650793650793,-98.17460317460316,-95.0,-33.095238095238095,-43.73015873015873,-166.26984126984127
86,68.65079365079364,325.0,46.904761904761905,-29.285714285714285,56.904761904761905,-325.0,71.66666666666666,68.65079365079364,156.9047619047619,-226.26984126984127,325.0,64.04761904761905,48.01587301587301,-54.36507936507936,43.73015873015873,-181.19047619047618,-66.9047619047619,-142.3015873015873,14.365079365079364,-93.25396825396825,-90.55555555555556,21.507936507936506,29.126984126984127,-166.26984126984127
87,68.65079365079364,325.0,46.904761904761905,-29.285714285714285,56.904761904761905,-325.0,71.66666666666666,68.65079365079364,156.9047619047619,-226.26984126984127,325.0,64.04761904761905,48.01587301587301,-54.36507936507936,43.73015873015873,-181.19047619047618,-66.9047619047619,-142.3015873015873,14.365079365079364,-93.25396825396825,-90.55555555555556,21.507936507936506,29.126984126984127,-166.26984126984127
88,67.85714285714285,325.0,33.57142857142857,-29.444444444444443,56.11111111111111,-325.0,70.71428571428571,68.01587301587301,154.84126984126982,-223.4126984126984,325.0,62.77777777777777,30.396825396825395,-53.73015873015873,32.93650793650794,-178.65079365079364,-66.42857142857143,-119.12698412698413,12.46031746031746,-92.30158730158729,-89.12698412698413,-11.825396825396824,-15.317460317460316,-166.26984126984127
89,67.85714285714285,325.0,33.57142857142857,-29.444444444444443,56.11111111111111,-325.0,70.71428571428571,68.01587301587301,154.84126984126982,-223.4126984126984,325.0,62.77777777777777,30.396825396825395,-53.73015873015873,32.93650793650794,-178.65079365079364,-66.42857142857143,-119.12698412698413,12.46031746031746,-92.30158730158729,-89.12698412698413,-11.825396825396824,-15.317460317460316,-166.26984126984127
90,66.11111111111111,325.0,56.11111111111111,-23.41269841269841,55.0,-325.0,69.12698412698413,66.42857142857143,151.66666666666666,-218.4920634920635,325.0,61.666666666666664,57.22222222222222,-52.460317460317455,52.93650793650794,-175.0,-64.68253968253968,9.920634920634921,19.6031746031746,-90.23809523809523,-87.38095238095238,22.142857142857142,28.809523809523807,-321.8253968253968
91,66.11111111111111,325.0,56.11111111111111,-23.41269841269841,55.0,-325.0,69.12698412698413,66.42857142857143,151.66666666666666,-218.4920634920635,325.0,61.666666666666664,57.22222222222222,-52.460317460317455,52.93650793650794,-175.0,-64.68253968253968,9.920634920634921,19.6031746031746,-90.23809523809523,-87.38095238095238,22.142857142857142,28.809523809523807,-321.8253968253968
92,64.84126984126983,325.0,21.507936507936506,-27.38095238095238,53.888888888888886,-325.0,68.01587301587301,65.15873015873015,148.8095238095238,-214.84126984126982,325.0,60.39682539682539,18.65079365079365,-51.666666666666664,20.396825396825395,-172.14285714285714,-63.73015873015873,325.0,13.888888888888888,-88.4920634920635,-85.79365079365078,-22.777777777777775,-29.6031746031746,-321.8253968253968
93,64.84126984126983,325.0,21.507936507936506,-27.38095238095238,53.888888888888886,-325.0,68.01587301587301,65.15873015873015,148.8095238095238,-214.84126984126982,325.0,60.39682539682539,18.65079365079365,-51.666666666666664,20.396825396825395,-172.14285714285714,-63.73015873015873,325.0,13.888888888888888,-88.4920634920635,-85.79365079365078,-22.777777777777775,-29.6031746031746,-321.8253968253968
94,63.73015873015873,325.0,30.238095238095237,-37.38095238095238,52.93650793650794,-325.0,66.9047619047619,64.04761904761905,146.26984126984127,-211.19047619047618,325.0,59.44444444444444,31.03174603174603,-50.71428571428571,27.063492063492063,-169.28571428571428,-62.61904761904761,325.0,4.841269841269841,-87.22222222222221,-84.2063492063492,22.142857142857142,29.126984126984127,-321.8253968253968
95,63.73015873015873,325.0,30.238095238095237,-37.38095238095238,52.93650793650794,-325.0,66.9047619047619,64.04761904761905,146.26984126984127,-211.19047619047618,325.0,59.44444444444444,31.03174603174603,-50.71428571428571,27.063492063492063,-169.28571428571428,-62.61904761904761,325.0,4.841269841269841,-87.22222222222221,-84.2063492063492,22.142857142857142,29.126984126984127,-321.8253968253968
96,62.61904761904761,325.0,27.38095238095238,-34.047619047619044,52.14285714285714,-325.0,65.47619047619047,62.93650793650793,143.88888888888889,-207.53968253968253,325.0,58.49206349206349,24.84126984126984,-49.76190476190476,27.063492063492063,-166.42857142857142,-61.507936507936506,325.0,7.857142857142857,-85.47619047619047,-82.61904761904762,-23.41269841269841,-30.07936507936508,-321.8253968253968
97,62.61904761904761,325.0,27.38095238095238,-34.047619047619044,52.14285714285714,-325.0,65.47619047619047,62.93650793650793,143.88888888888889,-207.53968253968253,325.0,58.49206349206349,24.84126984126984,-49.76190476190476,27.063492063492063,-166.42857142857142,-61.507936507936506,325.0,7.857142857142857,-85.47619047619047,-82.61904761904762,-23.41269841269841,-30.07936507936508,-321.8253968253968
98,61.507936507936506,325.0,50.71428571428571,-36.58730158730159,51.19047619047619,-325.0,64.52380952380952,61.98412698412698,141.34920634920636,-203.88888888888889,325.0,57.38095238095238,51.98412698412698,-48.80952380952381,47.38095238095238,-163.73015873015873,-60.238095238095234,325.0,5.158730158730158,-84.04761904761904,-81.34920634920634,23.57142857142857,28.96825396825397,-321.8253968253968
99,61.507936507936506,325.0,50.71428571428571,-36.58730158730159,51.19047619047619,-325.0,64.52380952380952,61.98412698412698,141.34920634920636,-203.88888888888889,325.0,57.38095238095238,51.98412698412698,-48.80952380952381,47.38095238095238,-163.73015873015873,-60.238095238095234,325.0,5.158730158730158,-84.04761904761904,-81.34920634920634,23.57142857142857,28.96825396825397,-321.8253968253968
100,60.39682539682539,325.0,34.2063492063492,-30.87301587301587,50.238095238095234,-325.0,63.25396825396825,31.349206349206348,138.96825396825395,-200.3968253968254,325.0,56.269841269841265,31.98412698412698,-48.17460317460317,33.888888888888886,-160.87301587301587,-59.285714285714285,325.0,9.761904761904761,-82.61904761904762,-79.6031746031746,-23.57142857142857,-30.238095238095237,-166.26984126984127
101,60.39682539682539,325.0,34.2063492063492,-30.87301587301587,50.238095238095234,-325.0,63.25396825396825,31.349206349206348,138.96825396825395,-200.3968253968254,325.0,56.269841269841265,31.98412698412698,-48.17460317460317,33.888888888888886,-160.87301587301587,-59.285714285714285,325.0,9.761904761904761,-82.61904761904762,-79.6031746031746,-23.57142857142857,-30.238095238095237,-166.26984126984127
102,59.12698412698413,325.0,72.46031746031746,-31.03174603174603,49.6031746031746,-325.0,62.14285714285714,-49.44444444444444,136.58730158730157,-197.06349206349205,325.0,55.317460317460316,74.04761904761904,-47.22222222222222,69.44444444444444,-158.17460317460316,-58.17460317460317,325.0,9.444444444444445,-81.03174603174602,-78.33333333333333,22.46031746031746,29.285714285714285,-166.26984126984127
103,59.12698412698413,325.0,72.46031746031746,-31.03174603174603,49.6031746031746,-325.0,62.14285714285714,-49.44444444444444,136.58730158730157,-197.06349206349205,325.0,55.317460317460316,74.04761904761904,-47.22222222222222,69.44444444444444,-158.17460317460316,-58.17460317460317,325.0,9.444444444444445,-81.03174603174602,-78.33333333333333,22.46031746031746,29.285714285714285,-166.26984126984127
104,58.17460317460317,325.0,39.44444444444444,-25.952380952380953,48.650793650793645,-325.0,61.19047619047619,-1.0317460317460316,133.88888888888889,-193.7301587301587,325.0,54.36507936507936,36.904761904761905,-46.42857142857142,38.96825396825397,-155.47619047619048,-57.22222222222222,325.0,14.365079365079364,-79.6031746031746,-77.06349206349206,-24.206349206349206,-31.03174603174603,-166.26984126984127
105,58.17460317460317,325.0,39.44444444444444,-25.952380952380953,48.650793650793645,-325.0,61.19047619047619,-1.0317460317460316,133.88888888888889,-193.7301587301587,325.0,54.36507936507936,36.904761904761905,-46.42857142857142,38.96825396825397,-155.47619047619048,-57.22222222222222,325.0,14.365079365079364,-79.6031746031746,-77.06349206349206,-24.206349206349206,-31.03174603174603,-166.26984126984127
106,57.22222222222222,325.0,69.6031746031746,-28.333333333333332,47.857142857142854,-325.0,59.92063492063492,-188.4920634920635,131.8253968253968,-190.3968253968254,325.0,53.25396825396825,71.98412698412697,-45.476190476190474,67.6984126984127,-152.93650793650792,-56.269841269841265,325.0,11.825396825396824,-78.33333333333333,-75.63492063492063,22.777777777777775,29.920634920634917,-166.26984126984127
107,57.22222222222222,325.0,69.6031746031746,-28.333333333333332,47.857142857142854,-325.0,59.92063492063492,-188.4920634920635,131.8253968253968,-190.3968253968254,325.0,53.25396825396825,71.98412698412697,-45.476190476190474,67.6984126984127,-152.93650793650792,-56.269841269841265,325.0,11.825396825396824,-78.33333333333333,-75.63492063492063,22.777777777777775,29.920634920634917,-166.26984126984127
108,56.269841269841265,325.0,75.63492063492063,-32.93650793650794,47.06349206349206,-325.0,59.285714285714285,-221.34920634920633,130.07936507936506,-187.85714285714283,325.0,52.77777777777777,75.15873015873015,-45.0,76.9047619047619,-150.87301587301587,-55.63492063492063,325.0,5.952380952380952,-77.06349206349206,-74.52380952380952,-19.285714285714285,-23.253968253968253,-166.26984126984127
109,56.269841269841265,325.0,75.63492063492063,-32.93650793650794,47.06349206349206,-325.0,59.285714285714285,-221.34920634920633,130.07936507936506,-187.85714285714283,325.0,52.77777777777777,75.15873015873015,-45.0,76.9047619047619,-150.87301587301587,-55.63492063492063,325.0,5.952380952380952,-77.06349206349206,-74.52380952380952,-19.285714285714285,-23.253968253968253,-166.26984126984127
110,55.15873015873016,325.0,159.9206349206349,-39.285714285714285,46.11111111111111,-325.0,57.698412698412696,-325.0,127.38095238095238,-183.7301587301587,325.0,0.873015873015873,163.88888888888889,-43.888888888888886,159.44444444444443,-147.69841269841268,-54.2063492063492,325.0,0.07936507936507936,-75.63492063492063,-72.77777777777777,22.936507936507937,30.555555555555554,-321.8253968253968
111,55.15873015873016,325.0,159.9206349206349,-39.285714285714285,46.11111111111111,-325.0,57.698412698412696,-325.0,127.38095238095238,-183.7301587301587,325.0,0.873015873015873,163.88888888888889,-43.888888888888886,159.44444444444443,-147.69841269841268,-54.2063492063492,325.0,0.07936507936507936,-75.63492063492063,-72.77777777777777,22.936507936507937,30.555555555555554,-321.8253968253968
112,54.047619047619044,325.0,149.76190476190476,-35.79365079365079,45.317460317460316,-325.0,56.904761904761905,-325.0,125.0,-180.55555555555554,325.0,-85.79365079365078,148.96825396825395,-43.25396825396825,150.55555555555554,-145.15873015873015,-53.25396825396825,325.0,2.7777777777777777,-74.2063492063492,-71.34920634920634,-24.365079365079364,-31.98412698412698,-321.8253968253968
113,54.047619047619044,325.0,149.76190476190476,-35.79365079365079,45.317460317460316,-325.0,56.904761904761905,-325.0,125.0,-180.55555555555554,325.0,-85.79365079365078,148.96825396825395,-43.25396825396825,150.55555555555554,-145.15873015873015,-53.25396825396825,325.0,2.7777777777777777,-74.2063492063492,-71.34920634920634,-24.365079365079364,-31.98412698412698,-321.8253968253968
114,53.25396825396825,325.0,189.76190476190476,-40.714285714285715,44.84126984126984,-325.0,55.95238095238095,-325.0,123.57142857142857,-178.17460317460316,325.0,-325.0,194.2063492063492,-42.460317460317455,190.3968253968254,-143.09523809523807,-52.460317460317455,325.0,-1.349206349206349,-73.09523809523809,-70.39682539682539,18.80952380952381,24.365079365079364,-321.8253968253968
115,53.25396825396825,325.0,189.76190476190476,-40.714285714285715,44.84126984126984,-325.0,55.95238095238095,-325.0,123.57142857142857,-178.17460317460316,325.0,-325.0,194.2063492063492,-42.460317460317455,190.3968253968254,-143.09523809523807,-52.460317460317455,325.0,-1.349206349206349,-73.09523809523809,-70.39682539682539,18.80952380952381,24.365079365079364,-321.8253968253968
116,52.14285714285714,325.0,172.93650793650792,-33.095238095238095,43.888888888888886,-325.0,54.841269841269835,-325.0,120.87301587301586,-174.52380952380952,325.0,-261.3492063492063,173.09523809523807,-41.666666666666664,174.84126984126982,-140.3968253968254,-51.666666666666664,325.0,5.0,-71.66666666666666,-68.80952380952381,-24.206349206349206,-31.349206349206348,-321.8253968253968
117,52.14285714285714,325.0,172.93650793650792,-33.095238095238095,43.888888888888886,-325.0,54.841269841269835,-325.0,120.87301587301586,-174.52380952380952,325.0,-261.3492063492063,173.09523809523807,-41.666666666666664,174.84126984126982,-140.3968253968254,-51.666666666666664,325.0,5.0,-71.66666666666666,-68.80952380952381,-24.206349206349206,-31.349206349206348,-321.8253968253968
118,51.19047619047619,325.0,213.4126984126984,-35.79365079365079,43.095238095238095,-325.0,53.73015873015873,-325.0,118.8095238095238,-171.34920634920633,325.0,-325.0,218.8095238095238,-40.87301587301587,213.7301587301587,-138.17460317460316,-50.55555555555555,325.0,1.6666666666666665,-70.39682539682539,-67.6984126984127,24.523809523809522,30.555555555555554,-321.8253968253968
119,51.19047619047619,325.0,213.4126984126984,-35.79365079365079,43.095238095238095,-325.0,53.73015873015873,-325.0,118.8095238095238,-171.34920634920633,325.0,-325.0,218.8095238095238,-40.87301587301587,213.7301587301587,-138.17460317460316,-50.55555555555555,325.0,1.6666666666666665,-70.39682539682539,-67.6984126984127,24.523809523809522,30.555555555555554,-321.8253968253968
120,50.39682539682539,325.0,214.84126984126982,-38.01587301587301,42.14285714285714,-325.0,52.93650793650794,-325.0,116.74603174603173,-168.4920634920635,325.0,-325.0,214.84126984126982,-40.238095238095234,216.1111111111111,-135.47619047619048,-49.76190476190476,325.0,-1.0317460317460316,-69.12698412698413,-66.42857142857143,-25.0,-31.349206349206348,-166.26984126984127
121,50.39682539682539,325.0,214.84126984126982,-38.01587301587301,42.14285714285714,-325.0,52.93650793650794,-325.0,116.74603174603173,-168.4920634920635,325.0,-325.0,214.84126984126982,-40.238095238095234,216.1111111111111,-135.47619047619048,-49.76190476190476,325.0,-1.0317460317460316,-69.12698412698413,-66.42857142857143,-25.0,-31.349206349206348,-166.26984126984127
122,49.285714285714285,325.0,224.2063492063492,-144.68253968253967,41.507936507936506,-325.0,51.82539682539682,-325.0,114.68253968253967,-165.63492063492063,325.0,-325.0,229.44444444444443,-39.285714285714285,224.68253968253967,-133.25396825396825,-48.80952380952381,325.0,-3.095238095238095,-67.85714285714285,-65.15873015873015,24.047619047619047,31.666666666666664,-166.26984126984127
123,49.285714285714285,325.0,224.2063492063492,-144.68253968253967,41.507936507936506,-325.0,51.82539682539682,-325.0,114.68253968253967,-165.63492063492063,325.0,-325.0,229.44444444444443,-39.285714285714285,224.68253968253967,-133.25396825396825,-48.80952380952381,325.0,-3.095238095238095,-67.85714285714285,-65.15873015873015,24.047619047619047,31.666666666666664,-166.26984126984127
124,48.49206349206349,325.0,221.19047619047618,-118.49206349206348,40.87301587301587,-325.0,51.03174603174603,-325.0,112.77777777777777,-162.77777777777777,325.0,-325.0,222.61904761904762,-38.80952380952381,223.09523809523807,-130.87301587301587,-47.857142857142854,325.0,-3.888888888888889,-66.58730158730158,-64.04761904761905,-25.476190476190474,-32.77777777777778,-166.26984126984127
125,48.49206349206349,325.0,221.19047619047618,-118.49206349206348,40.87301587301587,-325.0,51.03174603174603,-325.0,112.77777777777777,-162.77777777777777,325.0,-325.0,222.61904761904762,-38.80952380952381,223.09523809523807,-130.87301587301587,-47.857142857142854,325.0,-3.888888888888889,-66.58730158730158,-64.04761904761905,-25.476190476190474,-32.77777777777778,-166.26984126984127
126,47.53968253968254,325.0,261.66666666666663,-285.1587301587301,40.079365079365076,-325.0,49.92063492063492,-325.0,110.71428571428571,-159.9206349206349,203.4126984126984,-325.0,268.8095238095238,-22.3015873015873,265.3174603174603,-128.8095238095238,-47.06349206349206,325.0,-10.714285714285714,-65.63492063492063,-62.77777777777777,25.634920634920633,31.825396825396822,-166.26984126984127
127,47.53968253968254,325.0,261.66666666666663,-285.1587301587301,40.079365079365076,-325.0,49.92063492063492,-325.0,110.71428571428571,-159.9206349206349,203.4126984126984,-325.0,268.8095238095238,-22.3015873015873,265.3174603174603,-128.8095238095238,-47.06349206349206,325.0,-10.714285714285714,-65.63492063492063,-62.77777777777777,25.634920634920633,31.825396825396822,-166.26984126984127
128,46.74603174603175,325.0,313.73015873015873,-304.36507936507934,39.44444444444444,-325.0,49.285714285714285,-325.0,108.80952380952381,-156.9047619047619,-307.22222222222223,-325.0,315.4761904761905,37.857142857142854,315.3174603174603,-126.42857142857142,-46.269841269841265,325.0,-16.428571428571427,-64.04761904761905,-61.666666666666664,-25.0,-32.61904761904762,-166.26984126984127
129,46.74603174603175,325.0,313.73015873015873,-304.36507936507934,39.44444444444444,-325.0,49.285714285714285,-325.0,108.80952380952381,-156.9047619047619,-307.22222222222223,-325.0,315.4761904761905,37.857142857142854,315.3174603174603,-126.42857142857142,-46.269841269841265,325.0,-16.428571428571427,-64.04761904761905,-61.666666666666664,-25.0,-32.61904761904762,-166.26984126984127
130,45.79365079365079,325.0,325.0,-318.17460317460313,38.65079365079365,-325.0,48.17460317460317,-325.0,107.06349206349206,-154.2063492063492,-325.0,-325.0,325.0,65.15873015873015,325.0,-124.2063492063492,-45.476190476190474,325.0,-6.904761904761904,-63.41269841269841,-60.39682539682539,24.047619047619047,31.19047619047619,-321.8253968253968
131,45.79365079365079,325.0,325.0,-318.17460317460313,38.65079365079365,-325.0,48.17460317460317,-325.0,107.06349206349206,-154.2063492063492,-325.0,-325.0,325.0,65.15873015873015,325.0,-124.2063492063492,-45.476190476190474,325.0,-6.904761904761904,-63.41269841269841,-60.39682539682539,24.047619047619047,31.19047619047619,-321.8253968253968
132,45.0,325.0,325.0,-325.0,37.857142857142854,-325.0,47.53968253968254,-325.0,105.15873015873015,-151.66666666666666,-325.0,-325.0,325.0,286.90476190476187,325.0,-122.14285714285714,-44.68253968253968,325.0,-2.46031746031746,-62.14285714285714,-59.285714285714285,-25.158730158730158,-32.77777777777778,-321.8253968253968
133,45.0,325.0,325.0,-325.0,37.857142857142854,-325.0,47.53968253968254,-325.0,105.15873015873015,-151.66666666666666,-325.0,-325.0,325.0,286.90476190476187,325.0,-122.14285714285714,-44.68253968253968,325.0,-2.46031746031746,-62.14285714285714,-59.285714285714285,-25.158730158730158,-32.77777777777778,-321.8253968253968
134,44.2063492063492,325.0,313.57142857142856,-325.0,37.38095238095238,-325.0,46.74603174603175,-325.0,103.4126984126984,-148.96825396825395,-325.0,-325.0,319.2857142857143,288.968253968254,315.4761904761905,-120.23809523809523,-43.888888888888886,325.0,-6.26984126984127,-60.873015873015866,-58.33333333333333,22.936507936507937,30.555555555555554,-321.8253968253968
135,44.2063492063492,325.0,313.57142857142856,-325.0,37.38095238095238,-325.0,46.74603174603175,-325.0,103.4126984126984,-148.96825396825395,-325.0,-325.0,319.2857142857143,288.968253968254,315.4761904761905,-120.23809523809523,-43.888888888888886,325.0,-6.26984126984127,-60.873015873015866,-58.33333333333333,22.936507936507937,30.555555555555554,-321.8253968253968
136,43.41269841269841,325.0,307.85714285714283,-325.0,36.74603174603175,-325.0,45.79365079365079,-325.0,101.5079365079365,-146.42857142857142,-325.0,-325.0,312.6190476190476,304.8412698412698,312.6190476190476,-118.01587301587301,-43.095238095238095,325.0,-7.5396825396825395,-59.92063492063492,-57.22222222222222,-24.365079365079364,-33.095238095238095,-321.8253968253968
137,43.41269841269841,325.0,307.85714285714283,-325.0,36.74603174603175,-325.0,45.79365079365079,-325.0,101.5079365079365,-146.42857142857142,-325.0,-325.0,312.6190476190476,304.8412698412698,312.6190476190476,-118.01587301587301,-43.095238095238095,325.0,-7.5396825396825395,-59.92063492063492,-57.22222222222222,-24.365079365079364,-33.095238095238095,-321.8253968253968
138,43.25396825396825,325.0,315.3174603174603,-325.0,36.58730158730159,-325.0,45.476190476190474,-325.0,101.03174603174602,-145.63492063492063,-325.0,-325.0,320.55555555555554,284.68253968253964,320.07936507936506,-117.38095238095238,-43.095238095238095,325.0,-6.587301587301587,-59.76190476190476,-56.74603174603174,-24.68253968253968,-35.0,-321.8253968253968
139,43.25396825396825,325.0,315.3174603174603,-325.0,36.58730158730159,-325.0,45.476190476190474,-325.0,101.03174603174602,-145.63492063492063,-325.0,-325.0,320.55555555555554,284.68253968253964,320.07936507936506,-117.38095238095238,-43.095238095238095,325.0,-6.587301587301587,-59.76190476190476,-56.74603174603174,-24.68253968253968,-35.0,-321.8253968253968
140,43.25396825396825,325.0,315.3174603174603,-325.0,36.58730158730159,-325.0,45.476190476190474,-325.0,101.03174603174602,-145.63492063492063,-325.0,-325.0,320.55555555555554,284.68253968253964,320.07936507936506,-117.38095238095238,-43.095238095238095,325.0,-6.587301587301587,-59.76190476190476,-56.74603174603174,-24.68253968253968,-35.0,-166.26984126984127
141,43.25396825396825,325.0,315.3174603174603,-325.0,36.58730158730159,-325.0,45.476190476190474,-325.0,101.03174603174602,-145.63492063492063,-325.0,-325.0,320.55555555555554,284.68253968253964,320.07936507936506,-117.38095238095238,-43.095238095238095,325.0,-6.587301587301587,-59.76190476190476,-56.74603174603174,-24.68253968253968,-35.0,-166.26984126984127
142,41.03174603174603,325.0,287.6984126984127,-325.0,35.0,-325.0,43.41269841269841,-325.0,96.42857142857142,-138.8095238095238,-325.0,-325.0,294.2063492063492,325.0,290.23809523809524,-112.14285714285714,59.285714285714285,325.0,4.523809523809524,-56.74603174603174,-54.2063492063492,24.523809523809522,31.03174603174603,-166.26984126984127
143,41.03174603174603,325.0,287.6984126984127,-325.0,35.0,-325.0,43.41269841269841,-325.0,96.42857142857142,-138.8095238095238,-325.0,-325.0,294.2063492063492,325.0,290.23809523809524,-112.14285714285714,59.285714285714285,325.0,4.523809523809524,-56.74603174603174,-54.2063492063492,24.523809523809522,31.03174603174603,-166.26984126984127
144,40.39682539682539,325.0,267.53968253968253,-325.0,34.2063492063492,-325.0,42.93650793650794,-325.0,94.52380952380952,-136.58730158730157,-325.0,-325.0,272.46031746031747,325.0,273.0952380952381,-110.23809523809523,23.88888888888889,325.0,11.507936507936508,-55.79365079365079,-53.25396825396825,-25.634920634920633,-33.095238095238095,-166.26984126984127
145,40.39682539682539,325.0,267.53968253968253,-325.0,34.2063492063492,-325.0,42.93650793650794,-325.0,94.52380952380952,-136.58730158730157,-325.0,-325.0,272.46031746031747,325.0,273.0952380952381,-110.23809523809523,23.88888888888889,325.0,11.507936507936508,-55.79365079365079,-53.25396825396825,-25.634920634920633,-33.095238095238095,-166.26984126984127
146,39.6031746031746,325.0,292.1428571428571,-325.0,33.73015873015873,-325.0,41.98412698412698,-325.0,92.93650793650794,-134.2063492063492,-325.0,-325.0,299.4444444444444,325.0,294.8412698412698,-108.49206349206348,301.5079365079365,325.0,4.0476190476190474,-54.841269841269835,-52.3015873015873,23.41269841269841,31.03174603174603,-166.26984126984127
147,39.6031746031746,325.0,292.1428571428571,-325.0,33.73015873015873,-325.0,41.98412698412698,-325.0,92.93650793650794,-134.2063492063492,-325.0,-325.0,299.4444444444444,325.0,294.8412698412698,-108.49206349206348,301.5079365079365,325.0,4.0476190476190474,-54.841269841269835,-52.3015873015873,23.41269841269841,31.03174603174603,-166.26984126984127
148,38.96825396825397,325.0,266.90476190476187,-325.0,33.095238095238095,-325.0,41.19047619047619,-325.0,91.34920634920634,-131.8253968253968,-325.0,-325.0,270.7142857142857,325.0,271.8253968253968,-106.58730158730158,325.0,325.0,-5.317460317460317,-53.73015873015873,-51.34920634920635,-25.158730158730158,-33.25396825396825,-166.26984126984127
149,38.96825396825397,325.0,266.90476190476187,-325.0,33.095238095238095,-325.0,41.19047619047619,-325.0,91.34920634920634,-131.8253968253968,-325.0,-325.0,270.7142857142857,325.0,271.8253968253968,-106.58730158730158,325.0,325.0,-5.317460317460317,-53.73015873015873,-51.34920634920635,-25.158730158730158,-33.25396825396825,-166.26984126984127
150,38.33333333333333,325.0,261.5079365079365,-325.0,32.77777777777778,-325.0,40.714285714285715,-325.0,90.23809523809523,-130.07936507936506,-325.0,-325.0,267.38095238095235,325.0,265.6349206349206,-105.31746031746032,325.0,325.0,-0.873015873015873,-52.93650793650794,-50.71428571428571,-0.5555555555555556,-0.5555555555555556,-321.8253968253968
151,38.33333333333333,325.0,261.5079365079365,-325.0,32.77777777777778,-325.0,40.714285714285715,-325.0,90.23809523809523,-130.07936507936506,-325.0,-325.0,267.38095238095235,325.0,265.6349206349206,-105.31746031746032,325.0,325.0,-0.873015873015873,-52.93650793650794,-50.71428571428571,-0.5555555555555556,-0.5555555555555556,-321.8253968253968
152,37.698412698412696,325.0,235.3174603174603,-325.0,31.825396825396822,-325.0,39.6031746031746,-325.0,88.33333333333333,-127.38095238095238,-325.0,-325.0,238.96825396825395,325.0,239.76190476190476,-102.93650793650794,325.0,325.0,7.063492063492063,-52.14285714285714,-49.6031746031746,-25.158730158730158,-32.61904761904762,-321.8253968253968
153,37.698412698412696,325.0,235.3174603174603,-325.0,31.825396825396822,-325.0,39.6031746031746,-325.0,88.33333333333333,-127.38095238095238,-325.0,-325.0,238.96825396825395,325.0,239.76190476190476,-102.93650793650794,325.0,325.0,7.063492063492063,-52.14285714285714,-49.6031746031746,-25.158730158730158,-32.61904761904762,-321.8253968253968
154,36.904761904761905,325.0,243.7301587301587,-325.0,31.507936507936506,-325.0,39.12698412698413,-325.0,86.58730158730158,-125.15873015873015,-325.0,-325.0,251.5079365079365,325.0,247.2222222222222,-101.19047619047619,325.0,325.0,0.873015873015873,-51.19047619047619,-48.650793650793645,24.523809523809522,31.19047619047619,-321.8253968253968
155,36.904761904761905,325.0,243.7301587301587,-325.0,31.507936507936506,-325.0,39.12698412698413,-325.0,86.58730158730158,-125.15873015873015,-325.0,-325.0,251.5079365079365,325.0,247.2222222222222,-101.19047619047619,325.0,325.0,0.873015873015873,-51.19047619047619,-48.650793650793645,24.523809523809522,31.19047619047619,-321.8253968253968
156,36.11111111111111,325.0,237.38095238095238,-325.0,31.03174603174603,-325.0,38.17460317460317,-325.0,85.15873015873015,-122.93650793650794,-325.0,-325.0,242.46031746031744,325.0,242.6190476190476,-99.44444444444444,325.0,325.0,-8.015873015873016,-50.238095238095234,-47.698412698412696,-25.476190476190474,-32.460317460317455,-321.8253968253968
157,36.11111111111111,325.0,237.38095238095238,-325.0,31.03174603174603,-325.0,38.17460317460317,-325.0,85.15873015873015,-122.93650793650794,-325.0,-325.0,242.46031746031744,325.0,242.6190476190476,-99.44444444444444,325.0,325.0,-8.015873015873016,-50.238095238095234,-47.698412698412696,-25.476190476190474,-32.460317460317455,-321.8253968253968
158,35.476190476190474,325.0,239.76190476190476,-325.0,30.396825396825395,-325.0,37.698412698412696,-325.0,83.73015873015872,-121.03174603174602,-325.0,-325.0,246.42857142857142,325.0,242.77777777777777,-98.01587301587301,325.0,325.0,-6.26984126984127,-49.44444444444444,-46.904761904761905,23.730158730158728,31.349206349206348,-321.8253968253968
159,35.476190476190474,325.0,239.76190476190476,-325.0,30.396825396825395,-325.0,37.698412698412696,-325.0,83.73015873015872,-121.03174603174602,-325.0,-325.0,246.42857142857142,325.0,242.77777777777777,-98.01587301587301,325.0,325.0,-6.26984126984127,-49.44444444444444,-46.904761904761905,23.730158730158728,31.349206349206348,-321.8253968253968
160,35.15873015873016,325.0,223.88888888888889,-325.0,29.76190476190476,-325.0,37.22222222222222,-325.0,82.61904761904762,-119.44444444444444,-325.0,-325.0,229.76190476190476,325.0,228.17460317460316,-96.58730158730158,325.0,325.0,-3.571428571428571,-48.80952380952381,-46.269841269841265,-0.873015873015873,0.23809523809523808,-166.26984126984127
161,35.15873015873016,325.0,223.88888888888889,-325.0,29.76190476190476,-325.0,37.22222222222222,-325.0,82.61904761904762,-119.44444444444444,-325.0,-325.0,229.76190476190476,325.0,228.17460317460316,-96.58730158730158,325.0,325.0,-3.571428571428571,-48.80952380952381,-46.269841269841265,-0.873015873015873,0.23809523809523808,-166.26984126984127
162,34.2063492063492,325.0,207.69841269841268,-325.0,29.285714285714285,-325.0,36.42857142857142,-325.0,80.87301587301587,-116.9047619047619,-325.0,-325.0,214.52380952380952,325.0,210.87301587301587,-94.52380952380952,325.0,325.0,-3.253968253968254,-47.53968253968254,-45.317460317460316,24.047619047619047,31.349206349206348,-166.26984126984127
163,34.2063492063492,325.0,207.69841269841268,-325.0,29.285714285714285,-325.0,36.42857142857142,-325.0,80.87301587301587,-116.9047619047619,-325.0,-325.0,214.52380952380952,325.0,210.87301587301587,-94.52380952380952,325.0,325.0,-3.253968253968254,-47.53968253968254,-45.317460317460316,24.047619047619047,31.349206349206348,-166.26984126984127
164,33.73015873015873,325.0,189.28571428571428,-325.0,28.809523809523807,-324.68253968253964,35.63492063492063,-325.0,79.44444444444444,-114.84126984126983,-325.0,-325.0,193.4126984126984,325.0,194.52380952380952,-93.09523809523809,325.0,325.0,1.6666666666666665,-47.06349206349206,-44.52380952380952,-24.523809523809522,-32.3015873015873,-166.26984126984127
165,33.73015873015873,325.0,189.28571428571428,-325.0,28.809523809523807,-324.68253968253964,35.63492063492063,-325.0,79.44444444444444,-114.84126984126983,-325.0,-325.0,193.4126984126984,325.0,194.52380952380952,-93.09523809523809,325.0,325.0,1.6666666666666665,-47.06349206349206,-44.52380952380952,-24.523809523809522,-32.3015873015873,-166.26984126984127
166,33.095238095238095,325.0,185.79365079365078,-325.0,28.333333333333332,-320.23809523809524,35.0,-325.0,78.17460317460316,-112.93650793650794,-325.0,-325.0,192.14285714285714,325.0,188.96825396825395,-24.047619047619047,325.0,325.0,2.7777777777777777,-46.11111111111111,-43.73015873015873,23.41269841269841,31.825396825396822,-166.26984126984127
167,33.095238095238095,325.0,185.79365079365078,-325.0,28.333333333333332,-320.23809523809524,35.0,-325.0,78.17460317460316,-112.93650793650794,-325.0,-325.0,192.14285714285714,325.0,188.96825396825395,-24.047619047619047,325.0,325.0,2.7777777777777777,-46.11111111111111,-43.73015873015873,23.41269841269841,31.825396825396822,-166.26984126984127
168,32.460317460317455,325.0,144.2063492063492,-325.0,27.857142857142854,-315.1587301587301,34.36507936507936,-325.0,76.74603174603175,-110.87301587301587,-325.0,-325.0,148.17460317460316,325.0,149.6031746031746,71.82539682539682,325.0,325.0,6.587301587301587,-45.317460317460316,-42.93650793650794,-24.68253968253968,-32.14285714285714,-166.26984126984127
169,32.460317460317455,325.0,144.2063492063492,-325.0,27.857142857142854,-315.1587301587301,34.36507936507936,-325.0,76.74603174603175,-110.87301587301587,-325.0,-325.0,148.17460317460316,325.0,149.6031746031746,71.82539682539682,325.0,325.0,6.587301587301587,-45.317460317460316,-42.93650793650794,-24.68253968253968,-32.14285714285714,-166.26984126984127
170,31.825396825396822,325.0,156.42857142857142,-325.0,27.38095238095238,-309.9206349206349,33.73015873015873,-325.0,75.31746031746032,-108.96825396825396,-324.5238095238095,-325.0,163.09523809523807,325.0,160.07936507936506,48.01587301587301,325.0,325.0,-1.984126984126984,-44.52380952380952,-41.98412698412698,23.253968253968253,31.03174603174603,-321.8253968253968
171,31.825396825396822,325.0,156.42857142857142,-325.0,27.38095238095238,-309.9206349206349,33.73015873015873,-325.0,75.31746031746032,-108.96825396825396,-324.5238095238095,-325.0,163.09523809523807,325.0,160.07936507936506,48.01587301587301,325.0,325.0,-1.984126984126984,-44.52380952380952,-41.98412698412698,23.253968253968253,31.03174603174603,-321.8253968253968
172,31.19047619047619,325.0,137.69841269841268,-325.0,-0.873015873015873,-304.8412698412698,25.0,-325.0,74.04761904761904,-107.22222222222221,-325.0,-325.0,141.5079365079365,325.0,143.88888888888889,85.15873015873015,325.0,325.0,-2.3015873015873014,-43.888888888888886,-41.34920634920635,-23.730158730158728,-31.507936507936506,-321.8253968253968
173,31.19047619047619,325.0,137.69841269841268,-325.0,-0.873015873015873,-304.8412698412698,25.0,-325.0,74.04761904761904,-107.22222222222221,-325.0,-325.0,141.5079365079365,325.0,143.88888888888889,85.15873015873015,325.0,325.0,-2.3015873015873014,-43.888888888888886,-41.34920634920635,-23.730158730158728,-31.507936507936506,-321.8253968253968
174,30.87301587301587,325.0,128.65079365079364,-325.0,24.523809523809522,-300.07936507936506,32.61904761904762,-325.0,72.61904761904762,-105.47619047619047,-286.90476190476187,-325.0,134.84126984126982,325.0,143.57142857142856,236.1111111111111,325.0,325.0,-0.07936507936507936,-43.25396825396825,-40.714285714285715,22.142857142857142,30.396825396825395,-321.8253968253968
175,30.87301587301587,325.0,128.65079365079364,-325.0,24.523809523809522,-300.07936507936506,32.61904761904762,-325.0,72.61904761904762,-105.47619047619047,-286.90476190476187,-325.0,134.84126984126982,325.0,143.57142857142856,236.1111111111111,325.0,325.0,-0.07936507936507936,-43.25396825396825,-40.714285714285715,22.142857142857142,30.396825396825395,-321.8253968253968
176,30.238095238095237,325.0,120.71428571428571,-325.0,-81.03174603174602,-295.0,-29.6031746031746,-325.0,71.34920634920634,-103.57142857142857,-325.0,-325.0,124.68253968253967,325.0,134.84126984126982,196.9047619047619,325.0,325.0,1.1904761904761905,-42.3015873015873,-39.92063492063492,-24.047619047619047,-30.555555555555554,-321.8253968253968
177,30.238095238095237,325.0,120.71428571428571,-325.0,-81.03174603174602,-295.0,-29.6031746031746,-325.0,71.34920634920634,-103.57142857142857,-325.0,-325.0,124.68253968253967,325.0,134.84126984126982,196.9047619047619,325.0,325.0,1.1904761904761905,-42.3015873015873,-39.92063492063492,-24.047619047619047,-30.555555555555554,-321.8253968253968
178,29.6031746031746,325.0,181.03174603174602,-325.0,-110.55555555555554,-290.07936507936506,23.41269841269841,-325.0,70.23809523809524,-101.66666666666666,-325.0,-325.0,190.3968253968254,325.0,208.015873015873,66.9047619047619,325.0,325.0,0.23809523809523808,-41.507936507936506,-39.12698412698413,23.41269841269841,31.03174603174603,-321.8253968253968
179,29.6031746031746,325.0,181.03174603174602,-325.0,-110.55555555555554,-290.07936507936506,23.41269841269841,-325.0,70.23809523809524,-101.66666666666666,-325.0,-325.0,190.3968253968254,325.0,208.015873015873,66.9047619047619,325.0,325.0,0.23809523809523808,-41.507936507936506,-39.12698412698413,23.41269841269841,31.03174603174603,-321.8253968253968
180,29.285714285714285,324.8412698412698,266.58730158730157,-325.0,-325.0,-286.74603174603175,-325.0,-325.0,69.28571428571428,-100.07936507936508,-325.0,-325.0,274.36507936507934,325.0,298.968253968254,237.53968253968253,325.0,325.0,-2.7777777777777777,-40.714285714285715,-38.65079365079365,-28.333333333333332,-37.38095238095238,-166.26984126984127
181,29.285714285714285,324.8412698412698,266.58730158730157,-325.0,-325.0,-286.74603174603175,-325.0,-325.0,69.28571428571428,-100.07936507936508,-325.0,-325.0,274.36507936507934,325.0,298.968253968254,237.53968253968253,325.0,325.0,-2.7777777777777777,-40.714285714285715,-38.65079365079365,-28.333333333333332,-37.38095238095238,-166.26984126984127
182,28.49206349206349,317.85714285714283,325.0,-325.0,-325.0,-280.7142857142857,-325.0,-325.0,67.85714285714285,-98.01587301587301,-325.0,-325.0,325.0,325.0,325.0,211.19047619047618,325.0,325.0,-12.936507936507935,-39.76190476190476,-37.53968253968254,23.41269841269841,30.71428571428571,-166.26984126984127
183,28.49206349206349,317.85714285714283,325.0,-325.0,-325.0,-280.7142857142857,-325.0,-325.0,67.85714285714285,-98.01587301587301,-325.0,-325.0,325.0,325.0,325.0,211.19047619047618,325.0,325.0,-12.936507936507935,-39.76190476190476,-37.53968253968254,23.41269841269841,30.71428571428571,-166.26984126984127
184,28.174603174603174,312.6190476190476,322.3015873015873,-325.0,-325.0,-276.1111111111111,-325.0,-325.0,66.9047619047619,-96.42857142857142,-325.0,-325.0,325.0,325.0,325.0,209.9206349206349,283.88888888888886,325.0,-6.746031746031746,-39.12698412698413,-36.904761904761905,-24.365079365079364,-31.19047619047619,-166.26984126984127
185,28.174603174603174,312.6190476190476,322.3015873015873,-325.0,-325.0,-276.1111111111111,-325.0,-325.0,66.9047619047619,-96.42857142857142,-325.0,-325.0,325.0,325.0,325.0,209.9206349206349,283.88888888888886,325.0,-6.746031746031746,-39.12698412698413,-36.904761904761905,-24.365079365079364,-31.19047619047619,-166.26984126984127
186,28.174603174603174,311.3492063492063,319.76190476190476,-325.0,-325.0,-274.8412698412698,-325.0,-325.0,66.74603174603175,-95.95238095238095,-325.0,-325.0,325.0,325.0,325.0,126.1111111111111,242.93650793650792,325.0,-5.158730158730158,-38.80952380952381,-36.74603174603175,-16.11111111111111,-21.825396825396822,-166.26984126984127
187,28.174603174603174,311.3492063492063,319.76190476190476,-325.0,-325.0,-274.8412698412698,-325.0,-325.0,66.74603174603175,-95.95238095238095,-325.0,-325.0,325.0,325.0,325.0,126.1111111111111,242.93650793650792,325.0,-5.158730158730158,-38.80952380952381,-36.74603174603175,-16.11111111111111,-21.825396825396822,-166.26984126984127
188,28.174603174603174,311.3492063492063,319.76190476190476,-325.0,-325.0,-274.8412698412698,-325.0,-325.0,66.74603174603175,-95.95238095238095,-325.0,-325.0,325.0,325.0,325.0,126.1111111111111,242.93650793650792,325.0,-5.158730158730158,-38.80952380952381,-36.74603174603175,-16.11111111111111,-21.825396825396822,-166.26984126984127
189,28.174603174603174,311.3492063492063,319.76190476190476,-325.0,-325.0,-274.8412698412698,-325.0,-325.0,66.74603174603175,-95.95238095238095,-325.0,-325.0,325.0,325.0,325.0,126.1111111111111,242.93650793650792,325.0,-5.158730158730158,-38.80952380952381,-36.74603174603175,-16.11111111111111,-21.825396825396822,-166.26984126984127
190,26.587301587301585,297.22222222222223,263.73015873015873,-325.0,-325.0,-262.9365079365079,-325.0,-325.0,63.41269841269841,-91.5079365079365,-325.0,-325.0,272.46031746031747,325.0,325.0,261.8253968253968,325.0,325.0,1.507936507936508,-37.38095238095238,-35.15873015873016,22.936507936507937,29.444444444444443,-321.8253968253968
191,26.587301587301585,297.22222222222223,263.73015873015873,-325.0,-325.0,-262.9365079365079,-325.0,-325.0,63.41269841269841,-91.5079365079365,-325.0,-325.0,272.46031746031747,325.0,325.0,261.8253968253968,325.0,325.0,1.507936507936508,-37.38095238095238,-35.15873015873016,22.936507936507937,29.444444444444443,-321.8253968253968
192,26.26984126984127,293.73015873015873,243.4126984126984,-322.46031746031747,-325.0,-259.9206349206349,-325.0,-325.0,62.61904761904761,-90.07936507936508,-325.0,-325.0,251.03174603174602,325.0,325.0,260.7142857142857,325.0,325.0,-0.5555555555555556,-36.74603174603175,-16.26984126984127,0.3968253968253968,-0.23809523809523808,-321.8253968253968
193,26.26984126984127,293.73015873015873,243.4126984126984,-322.46031746031747,-325.0,-259.9206349206349,-325.0,-325.0,62.61904761904761,-90.07936507936508,-325.0,-325.0,251.03174603174602,325.0,325.0,260.7142857142857,325.0,325.0,-0.5555555555555556,-36.74603174603175,-16.26984126984127,0.3968253968253968,-0.23809523809523808,-321.8253968253968
194,25.952380952380953,288.968253968254,227.85714285714283,-317.22222222222223,-325.0,-255.3174603174603,-325.0,-325.0,61.19047619047619,-88.80952380952381,-325.0,-325.0,236.42857142857142,325.0,325.0,277.53968253968253,325.0,325.0,-6.746031746031746,-36.42857142857142,-29.76190476190476,31.98412698412698,40.238095238095234,-321.8253968253968
195,25.952380952380953,288.968253968254,227.85714285714283,-317.22222222222223,-325.0,-255.3174603174603,-325.0,-325.0,61.19047619047619,-88.80952380952381,-325.0,-325.0,236.42857142857142,325.0,325.0,277.53968253968253,325.0,325.0,-6.746031746031746,-36.42857142857142,-29.76190476190476,31.98412698412698,40.238095238095234,-321.8253968253968
196,25.952380952380953,288.968253968254,227.85714285714283,-317.22222222222223,-325.0,-255.3174603174603,-325.0,-325.0,61.19047619047619,-88.80952380952381,-325.0,-325.0,236.42857142857142,325.0,325.0,277.53968253968253,325.0,325.0,-6.746031746031746,-36.42857142857142,-29.76190476190476,31.98412698412698,40.238095238095234,-321.8253968253968
197,25.952380952380953,288.968253968254,227.85714285714283,-317.22222222222223,-325.0,-255.3174603174603,-325.0,-325.0,61.19047619047619,-88.80952380952381,-325.0,-325.0,236.42857142857142,325.0,325.0,277.53968253968253,325.0,325.0,-6.746031746031746,-36.42857142857142,-29.76190476190476,31.98412698412698,40.238095238095234,-321.8253968253968
198,24.84126984126984,279.44444444444446,191.03174603174602,-306.26984126984127,-325.0,-247.06349206349205,-325.0,-325.0,59.44444444444444,-85.79365079365078,-325.0,-325.0,199.9206349206349,325.0,325.0,325.0,325.0,325.0,-5.7936507936507935,-34.84126984126984,-15.317460317460316,31.666666666666664,40.714285714285715,-321.8253968253968
199,24.84126984126984,279.44444444444446,191.03174603174602,-306.26984126984127,-325.0,-247.06349206349205,-325.0,-325.0,59.44444444444444,-85.79365079365078,-325.0,-325.0,199.9206349206349,325.0,325.0,325.0,325.0,325.0,-5.7936507936507935,-34.84126984126984,-15.317460317460316,31.666666666666664,40.714285714285715,-321.8253968253968
200,24.84126984126984,279.44444444444446,191.03174603174602,-306.26984126984127,-325.0,-247.06349206349205,-325.0,-325.0,59.44444444444444,-85.79365079365078,-325.0,-325.0,199.9206349206349,325.0,325.0,325.0,325.0,325.0,-5.7936507936507935,-34.84126984126984,-15.317460317460316,31.666666666666664,40.714285714285715,-166.26984126984127
201,24.84126984126984,279.44444444444446,191.03174603174602,-306.26984126984127,-325.0,-247.06349206349205,-325.0,-325.0,59.44444444444444,-85.79365079365078,-325.0,-325.0,199.9206349206349,325.0,325.0,325.0,325.0,325.0,-5.7936507936507935,-34.84126984126984,-15.317460317460316,31.666666666666664,40.714285714285715,-166.26984126984127
202,-84.52380952380952,264.5238095238095,145.63492063492063,-288.968253968254,-325.0,-234.2063492063492,-325.0,-325.0,55.79365079365079,-81.03174603174602,-325.0,-325.0,151.984126984127,325.0,325.0,325.0,325.0,325.0,-7.3809523809523805,-32.93650793650794,283.0952380952381,-21.825396825396822,-29.126984126984127,-166.26984126984127
203,-84.52380952380952,264.5238095238095,145.63492063492063,-288.968253968254,-325.0,-234.2063492063492,-325.0,-325.0,55.79365079365079,-81.03174603174602,-325.0,-325.0,151.984126984127,325.0,325.0,325.0,325.0,325.0,-7.3809523809523805,-32.93650793650794,283.0952380952381,-21.825396825396822,-29.126984126984127,-166.26984126984127
204,-19.285714285714285,261.5079365079365,173.4126984126984,-285.7936507936508,-325.0,-231.34920634920633,-325.0,-325.0,55.476190476190474,-79.92063492063491,-325.0,-325.0,183.25396825396825,325.0,325.0,325.0,325.0,325.0,-11.825396825396824,-32.77777777777778,237.06349206349205,31.825396825396822,42.460317460317455,-166.26984126984127
205,-19.285714285714285,261.5079365079365,173.4126984126984,-285.7936507936508,-325.0,-231.34920634920633,-325.0,-325.0,55.476190476190474,-79.92063492063491,-325.0,-325.0,183.25396825396825,325.0,325.0,325.0,325.0,325.0,-11.825396825396824,-32.77777777777778,237.06349206349205,31.825396825396822,42.460317460317455,-166.26984126984127
206,-179.9206349206349,255.79365079365078,150.87301587301587,-279.1269841269841,-325.0,-226.58730158730157,-325.0,-325.0,54.047619047619044,-78.17460317460316,-325.0,-325.0,156.9047619047619,325.0,325.0,325.0,325.0,325.0,-11.507936507936508,-31.825396825396822,325.0,-20.873015873015873,-29.285714285714285,-166.26984126984127
207,-179.9206349206349,255.79365079365078,150.87301587301587,-279.1269841269841,-325.0,-226.58730158730157,-325.0,-325.0,54.047619047619044,-78.17460317460316,-325.0,-325.0,156.9047619047619,325.0,325.0,325.0,325.0,325.0,-11.507936507936508,-31.825396825396822,325.0,-20.873015873015873,-29.285714285714285,-166.26984126984127
208,-141.34920634920636,252.77777777777777,179.60317460317458,-275.6349206349206,-325.0,-223.88888888888889,-325.0,-325.0,53.25396825396825,-77.06349206349206,-325.0,-325.0,185.15873015873015,325.0,325.0,325.0,325.0,325.0,-8.174603174603174,-31.349206349206348,325.0,31.666666666666664,41.82539682539682,-166.26984126984127
209,-141.34920634920636,252.77777777777777,179.60317460317458,-275.6349206349206,-325.0,-223.88888888888889,-325.0,-325.0,53.25396825396825,-77.06349206349206,-325.0,-325.0,185.15873015873015,325.0,325.0,325.0,325.0,325.0,-8.174603174603174,-31.349206349206348,325.0,31.666666666666664,41.82539682539682,-166.26984126984127
210,-141.34920634920636,252.77777777777777,179.60317460317458,-275.6349206349206,-325.0,-223.88888888888889,-325.0,-325.0,53.25396825396825,-77.06349206349206,-325.0,-325.0,185.15873015873015,325.0,325.0,325.0,325.0,325.0,-8.174603174603174,-31.349206349206348,325.0,31.666666666666664,41.82539682539682,-321.8253968253968
211,-141.34920634920636,252.77777777777777,179.60317460317458,-275.6349206349206,-325.0,-223.88888888888889,-325.0,-325.0,53.25396825396825,-77.06349206349206,-325.0,-325.0,185.15873015873015,325.0,325.0,325.0,325.0,325.0,-8.174603174603174,-31.349206349206348,325.0,31.666666666666664,41.82539682539682,-321.8253968253968
212,-141.34920634920636,252.77777777777777,179.60317460317458,-275.6349206349206,-325.0,-223.88888888888889,-325.0,-325.0,53.25396825396825,-77.06349206349206,-325.0,-325.0,185.15873015873015,325.0,325.0,325.0,325.0,325.0,-8.174603174603174,-31.349206349206348,325.0,31.666666666666664,41.82539682539682,-321.8253968253968
213,-141.34920634920636,252.77777777777777,179.60317460317458,-275.6349206349206,-325.0,-223.88888888888889,-325.0,-325.0,53.25396825396825,-77.06349206349206,-325.0,-325.0,185.15873015873015,325.0,325.0,325.0,325.0,325.0,-8.174603174603174,-31.349206349206348,325.0,31.666666666666664,41.82539682539682,-321.8253968253968
214,-325.0,43.888888888888886,242.3015873015873,-260.07936507936506,-325.0,-211.98412698412696,-325.0,-325.0,50.39682539682539,-72.93650793650794,-323.25396825396825,-325.0,198.17460317460316,325.0,325.0,112.77777777777777,325.0,310.39682539682536,-16.11111111111111,298.3333333333333,325.0,-20.396825396825395,-27.698412698412696,-321.8253968253968
215,-325.0,43.888888888888886,242.3015873015873,-260.07936507936506,-325.0,-211.98412698412696,-325.0,-325.0,50.39682539682539,-72.93650793650794,-323.25396825396825,-325.0,198.17460317460316,325.0,325.0,112.77777777777777,325.0,310.39682539682536,-16.11111111111111,298.3333333333333,325.0,-20.396825396825395,-27.698412698412696,-321.8253968253968
216,-325.0,86.58730158730158,325.0,-256.58730158730157,-325.0,-209.44444444444443,-325.0,-325.0,49.92063492063492,-72.14285714285714,-320.55555555555554,-325.0,217.69841269841268,325.0,325.0,80.07936507936508,325.0,306.58730158730157,-16.904761904761905,325.0,325.0,32.14285714285714,42.61904761904761,-321.8253968253968
217,-325.0,86.58730158730158,325.0,-256.58730158730157,-325.0,-209.44444444444443,-325.0,-325.0,49.92063492063492,-72.14285714285714,-320.55555555555554,-325.0,217.69841269841268,325.0,325.0,80.07936507936508,325.0,306.58730158730157,-16.904761904761905,325.0,325.0,32.14285714285714,42.61904761904761,-321.8253968253968
218,-325.0,170.3968253968254,271.66666666666663,-251.03174603174602,-325.0,-205.15873015873015,-325.0,-325.0,45.317460317460316,-70.39682539682539,-283.25396825396825,-325.0,143.88888888888889,325.0,325.0,156.58730158730157,325.0,300.23809523809524,-10.079365079365079,325.0,325.0,-21.19047619047619,-27.857142857142854,-321.8253968253968
219,-325.0,170.3968253968254,271.66666666666663,-251.03174603174602,-325.0,-205.15873015873015,-325.0,-325.0,45.317460317460316,-70.39682539682539,-283.25396825396825,-325.0,143.88888888888889,325.0,325.0,156.58730158730157,325.0,300.23809523809524,-10.079365079365079,325.0,325.0,-21.19047619047619,-27.857142857142854,-321.8253968253968
220,-325.0,227.2222222222222,218.33333333333331,-250.07936507936506,-325.0,-204.2063492063492,-325.0,-325.0,46.42857142857142,-69.92063492063491,-248.49206349206347,-325.0,143.4126984126984,325.0,325.0,67.22222222222221,325.0,299.2857142857143,-8.015873015873016,325.0,325.0,-7.857142857142857,-11.031746031746032,-166.26984126984127
221,-325.0,227.2222222222222,218.33333333333331,-250.07936507936506,-325.0,-204.2063492063492,-325.0,-325.0,46.42857142857142,-69.92063492063491,-248.49206349206347,-325.0,143.4126984126984,325.0,325.0,67.22222222222221,325.0,299.2857142857143,-8.015873015873016,325.0,325.0,-7.857142857142857,-11.031746031746032,-166.26984126984127
222,-325.0,62.460317460317455,280.23809523809524,-242.6190476190476,-325.0,-198.4920634920635,-325.0,-325.0,35.95238095238095,-68.01587301587301,316.4285714285714,-325.0,103.25396825396825,325.0,325.0,107.38095238095238,325.0,290.55555555555554,-16.746031746031743,325.0,325.0,-20.396825396825395,-27.539682539682538,-166.26984126984127
223,-325.0,62.460317460317455,280.23809523809524,-242.6190476190476,-325.0,-198.4920634920635,-325.0,-325.0,35.95238095238095,-68.01587301587301,316.4285714285714,-325.0,103.25396825396825,325.0,325.0,107.38095238095238,325.0,290.55555555555554,-16.746031746031743,325.0,325.0,-20.396825396825395,-27.539682539682538,-166.26984126984127
224,-325.0,72.46031746031746,325.0,-239.28571428571428,-325.0,-196.26984126984127,-325.0,-325.0,46.269841269841265,-67.06349206349206,325.0,-325.0,69.92063492063491,325.0,325.0,128.65079365079364,325.0,287.06349206349205,-16.587301587301585,325.0,325.0,33.25396825396825,43.41269841269841,-166.26984126984127
225,-325.0,72.46031746031746,325.0,-239.28571428571428,-325.0,-196.26984126984127,-325.0,-325.0,46.269841269841265,-67.06349206349206,325.0,-325.0,69.92063492063491,325.0,325.0,128.65079365079364,325.0,287.06349206349205,-16.587301587301585,325.0,325.0,33.25396825396825,43.41269841269841,-166.26984126984127
226,-325.0,152.46031746031744,285.95238095238096,-234.2063492063492,-325.0,-192.3015873015873,-325.0,-321.984126984127,10.873015873015872,-65.79365079365078,325.0,-325.0,18.80952380952381,325.0,325.0,316.90476190476187,325.0,278.968253968254,-13.73015873015873,325.0,325.0,-20.71428571428571,-26.11111111111111,-166.26984126984127
227,-325.0,152.46031746031744,285.95238095238096,-234.2063492063492,-325.0,-192.3015873015873,-325.0,-321.984126984127,10.873015873015872,-65.79365079365078,325.0,-325.0,18.80952380952381,325.0,325.0,316.90476190476187,325.0,278.968253968254,-13.73015873015873,325.0,325.0,-20.71428571428571,-26.11111111111111,-166.26984126984127
228,-325.0,221.19047619047618,246.9047619047619,-233.09523809523807,-325.0,-191.34920634920633,-325.0,-320.7142857142857,24.047619047619047,-65.47619047619047,325.0,-325.0,25.79365079365079,325.0,325.0,308.968253968254,325.0,275.4761904761905,-13.888888888888888,325.0,325.0,-6.26984126984127,-7.857142857142857,-166.26984126984127
229,-325.0,221.19047619047618,246.9047619047619,-233.09523809523807,-325.0,-191.34920634920633,-325.0,-320.7142857142857,24.047619047619047,-65.47619047619047,325.0,-325.0,25.79365079365079,325.0,325.0,308.968253968254,325.0,275.4761904761905,-13.888888888888888,325.0,325.0,-6.26984126984127,-7.857142857142857,-166.26984126984127
230,-325.0,178.4920634920635,325.0,-226.1111111111111,-325.0,-185.95238095238093,-325.0,-311.66666666666663,-17.698412698412696,-63.73015873015873,325.0,-322.1428571428571,-14.047619047619047,325.0,325.0,311.5079365079365,325.0,219.76190476190476,-13.571428571428571,325.0,325.0,-20.07936507936508,-25.634920634920633,-321.8253968253968
231,-325.0,178.4920634920635,325.0,-226.1111111111111,-325.0,-185.95238095238093,-325.0,-311.66666666666663,-17.698412698412696,-63.73015873015873,325.0,-322.1428571428571,-14.047619047619047,325.0,325.0,311.5079365079365,325.0,219.76190476190476,-13.571428571428571,325.0,325.0,-20.07936507936508,-25.634920634920633,-321.8253968253968
232,-325.0,238.17460317460316,325.0,-223.25396825396825,-325.0,-183.7301587301587,-325.0,-308.015873015873,43.25396825396825,-62.77777777777777,325.0,-318.015873015873,-45.476190476190474,325.0,325.0,325.0,325.0,239.60317460317458,-9.126984126984127,325.0,325.0,34.047619047619044,44.36507936507936,-321.8253968253968
233,-325.0,238.17460317460316,325.0,-223.25396825396825,-325.0,-183.7301587301587,-325.0,-308.015873015873,43.25396825396825,-62.77777777777777,325.0,-318.015873015873,-45.476190476190474,325.0,325.0,325.0,325.0,239.60317460317458,-9.126984126984127,325.0,325.0,34.047619047619044,44.36507936507936,-321.8253968253968
234,-325.0,231.66666666666666,325.0,-220.2380952380952,-325.0,-181.5079365079365,-325.0,-304.36507936507934,14.84126984126984,-61.98412698412698,325.0,-314.04761904761904,-58.33333333333333,325.0,325.0,325.0,325.0,178.4920634920635,-6.587301587301587,325.0,325.0,15.158730158730158,19.126984126984127,-321.8253968253968
235,-325.0,231.66666666666666,325.0,-220.2380952380952,-325.0,-181.5079365079365,-325.0,-304.36507936507934,14.84126984126984,-61.98412698412698,325.0,-314.04761904761904,-58.33333333333333,325.0,325.0,325.0,325.0,178.4920634920635,-6.587301587301587,325.0,325.0,15.158730158730158,19.126984126984127,-321.8253968253968
236,-325.0,225.15873015873015,325.0,-217.2222222222222,-325.0,-179.12698412698413,-325.0,-300.55555555555554,-13.412698412698411,-61.19047619047619,325.0,-309.9206349206349,-71.19047619047619,325.0,325.0,325.0,325.0,117.38095238095238,-4.0476190476190474,325.0,325.0,-3.73015873015873,-6.111111111111111,-321.8253968253968
237,-325.0,225.15873015873015,325.0,-217.2222222222222,-325.0,-179.12698412698413,-325.0,-300.55555555555554,-13.412698412698411,-61.19047619047619,325.0,-309.9206349206349,-71.19047619047619,325.0,325.0,325.0,325.0,117.38095238095238,-4.0476190476190474,325.0,325.0,-3.73015873015873,-6.111111111111111,-321.8253968253968
238,-325.0,220.87301587301587,325.0,-213.57142857142856,-325.0,-176.26984126984127,-325.0,-295.7936507936508,-29.285714285714285,-60.079365079365076,325.0,-304.8412698412698,-79.76190476190476,325.0,325.0,325.0,325.0,116.42857142857142,-5.158730158730158,325.0,325.0,-3.73015873015873,-5.317460317460317,-321.8253968253968
239,-325.0,220.87301587301587,325.0,-213.57142857142856,-325.0,-176.26984126984127,-325.0,-295.7936507936508,-29.285714285714285,-60.079365079365076,325.0,-304.8412698412698,-79.76190476190476,325.0,325.0,325.0,325.0,116.42857142857142,-5.158730158730158,325.0,325.0,-3.73015873015873,-5.317460317460317,-321.8253968253968
240,-325.0,203.25396825396825,325.0,-207.85714285714283,-325.0,-171.984126984127,-325.0,-288.968253968254,0.7142857142857142,-34.047619047619044,325.0,-297.06349206349205,-91.03174603174602,325.0,325.0,325.0,325.0,195.0,-5.476190476190476,325.0,325.0,33.73015873015873,44.68253968253968,-166.26984126984127
241,-325.0,203.25396825396825,325.0,-207.85714285714283,-325.0,-171.984126984127,-325.0,-288.968253968254,0.7142857142857142,-34.047619047619044,325.0,-297.06349206349205,-91.03174603174602,325.0,325.0,325.0,325.0,195.0,-5.476190476190476,325.0,325.0,33.73015873015873,44.68253968253968,-166.26984126984127
242,-325.0,144.04761904761904,325.0,-201.66666666666666,-325.0,-167.06349206349205,-325.0,-280.7142857142857,-67.38095238095238,-38.01587301587301,325.0,-288.6507936507936,-59.92063492063492,325.0,325.0,325.0,325.0,47.53968253968254,-6.904761904761904,325.0,325.0,16.11111111111111,20.71428571428571,-166.26984126984127
243,-325.0,144.04761904761904,325.0,-201.66666666666666,-325.0,-167.06349206349205,-325.0,-280.7142857142857,-67.38095238095238,-38.01587301587301,325.0,-288.6507936507936,-59.92063492063492,325.0,325.0,325.0,325.0,47.53968253968254,-6.904761904761904,325.0,325.0,16.11111111111111,20.71428571428571,-166.26984126984127
244,-325.0,91.34920634920634,325.0,-200.7142857142857,-325.0,-166.42857142857142,-325.0,-279.6031746031746,-54.52380952380952,-21.984126984126984,325.0,-287.38095238095235,-45.15873015873016,325.0,325.0,325.0,325.0,72.46031746031746,-8.174603174603174,325.0,325.0,34.2063492063492,44.84126984126984,-166.26984126984127
245,-325.0,91.34920634920634,325.0,-200.7142857142857,-325.0,-166.42857142857142,-325.0,-279.6031746031746,-54.52380952380952,-21.984126984126984,325.0,-287.38095238095235,-45.15873015873016,325.0,325.0,325.0,325.0,72.46031746031746,-8.174603174603174,325.0,325.0,34.2063492063492,44.84126984126984,-166.26984126984127
246,-325.0,91.34920634920634,325.0,-200.7142857142857,-325.0,-166.42857142857142,-325.0,-279.6031746031746,-54.52380952380952,-21.984126984126984,325.0,-287.38095238095235,-45.15873015873016,325.0,325.0,325.0,325.0,72.46031746031746,-8.174603174603174,325.0,325.0,34.2063492063492,44.84126984126984,-166.26984126984127
247,-325.0,91.34920634920634,325.0,-200.7142857142857,-325.0,-166.42857142857142,-325.0,-279.6031746031746,-54.52380952380952,-21.984126984126984,325.0,-287.38095238095235,-45.15873015873016,325.0,325.0,325.0,325.0,72.46031746031746,-8.174603174603174,325.0,325.0,34.2063492063492,44.84126984126984,-166.26984126984127
248,-325.0,-24.84126984126984,325.0,-195.63492063492063,-325.0,-162.3015873015873,-325.0,-272.9365079365079,-179.44444444444443,8.65079365079365,325.0,-280.39682539682536,-36.11111111111111,325.0,321.19047619047615,325.0,325.0,-15.317460317460316,-8.174603174603174,325.0,325.0,0.07936507936507936,0.3968253968253968,-166.26984126984127
249,-325.0,-24.84126984126984,325.0,-195.63492063492063,-325.0,-162.3015873015873,-325.0,-272.9365079365079,-179.44444444444443,8.65079365079365,325.0,-280.39682539682536,-36.11111111111111,325.0,321.19047619047615,325.0,325.0,-15.317460317460316,-8.174603174603174,325.0,325.0,0.07936507936507936,0.3968253968253968,-166.26984126984127
250,-325.0,6.746031746031746,325.0,-187.85714285714283,-325.0,-156.26984126984127,-325.0,-263.25396825396825,-160.23809523809524,-17.063492063492063,325.0,-269.76190476190476,99.76190476190476,325.0,313.4126984126984,325.0,325.0,-272.9365079365079,-11.349206349206348,325.0,325.0,17.22222222222222,22.3015873015873,-321.8253968253968
251,-325.0,6.746031746031746,325.0,-187.85714285714283,-325.0,-156.26984126984127,-325.0,-263.25396825396825,-160.23809523809524,-17.063492063492063,325.0,-269.76190476190476,99.76190476190476,325.0,313.4126984126984,325.0,325.0,-272.9365079365079,-11.349206349206348,325.0,325.0,17.22222222222222,22.3015873015873,-321.8253968253968
252,-325.0,-13.888888888888888,325.0,-185.3174603174603,-325.0,-154.2063492063492,-325.0,-260.07936507936506,-233.57142857142856,68.01587301587301,325.0,-266.58730158730157,124.2063492063492,325.0,309.4444444444444,325.0,325.0,-147.53968253968253,-15.634920634920634,325.0,325.0,0.3968253968253968,-0.07936507936507936,-321.8253968253968
253,-325.0,-13.888888888888888,325.0,-185.3174603174603,-325.0,-154.2063492063492,-325.0,-260.07936507936506,-233.57142857142856,68.01587301587301,325.0,-266.58730158730157,124.2063492063492,325.0,309.4444444444444,325.0,325.0,-147.53968253968253,-15.634920634920634,325.0,325.0,0.3968253968253968,-0.07936507936507936,-321.8253968253968
254,-325.0,18.174603174603174,325.0,-183.7301587301587,-325.0,-152.77777777777777,-325.0,-257.85714285714283,-300.07936507936506,118.8095238095238,325.0,-264.2063492063492,56.58730158730158,325.0,306.74603174603175,325.0,325.0,-74.36507936507937,-16.11111111111111,325.0,325.0,-33.095238095238095,-44.68253968253968,-321.8253968253968
255,-325.0,18.174603174603174,325.0,-183.7301587301587,-325.0,-152.77777777777777,-325.0,-257.85714285714283,-300.07936507936506,118.8095238095238,325.0,-264.2063492063492,56.58730158730158,325.0,306.74603174603175,325.0,325.0,-74.36507936507937,-16.11111111111111,325.0,325.0,-33.095238095238095,-44.68253968253968,-321.8253968253968
256,-325.0,18.174603174603174,325.0,-183.7301587301587,-325.0,-152.77777777777777,-325.0,-257.85714285714283,-300.07936507936506,118.8095238095238,325.0,-264.2063492063492,56.58730158730158,325.0,306.74603174603175,325.0,325.0,-74.36507936507937,-16.11111111111111,325.0,325.0,-33.095238095238095,-44.68253968253968,-321.8253968253968
257,-325.0,18.174603174603174,325.0,-183.7301587301587,-325.0,-152.77777777777777,-325.0,-257.85714285714283,-300.07936507936506,118.8095238095238,325.0,-264.2063492063492,56.58730158730158,325.0,306.74603174603175,325.0,325.0,-74.36507936507937,-16.11111111111111,325.0,325.0,-33.095238095238095,-44.68253968253968,-321.8253968253968
258,-325.0,18.174603174603174,325.0,-183.7301587301587,-325.0,-152.77777777777777,-325.0,-257.85714285714283,-300.07936507936506,118.8095238095238,325.0,-264.2063492063492,56.58730158730158,325.0,306.74603174603175,325.0,325.0,-74.36507936507937,-16.11111111111111,325.0,325.0,-33.095238095238095,-44.68253968253968,-321.8253968253968
259,-325.0,18.174603174603174,325.0,-183.7301587301587,-325.0,-152.77777777777777,-325.0,-257.85714285714283,-300.07936507936506,118.8095238095238,325.0,-264.2063492063492,56.58730158730158,325.0,306.74603174603175,325.0,325.0,-74.36507936507937,-16.11111111111111,325.0,325.0,-33.095238095238095,-44.68253968253968,-321.8253968253968
260,-325.0,-71.19047619047619,325.0,-177.53968253968253,-325.0,-148.015873015873,-325.0,-249.9206349206349,-179.76190476190476,92.46031746031746,325.0,-255.47619047619045,190.7142857142857,324.5238095238095,296.74603174603175,325.0,325.0,-199.76190476190476,-13.253968253968253,325.0,325.0,-33.25396825396825,-44.68253968253968,-166.26984126984127
261,-325.0,-71.19047619047619,325.0,-177.53968253968253,-325.0,-148.015873015873,-325.0,-249.9206349206349,-179.76190476190476,92.46031746031746,325.0,-255.47619047619045,190.7142857142857,324.5238095238095,296.74603174603175,325.0,325.0,-199.76190476190476,-13.253968253968253,325.0,325.0,-33.25396825396825,-44.68253968253968,-166.26984126984127
262,-325.0,85.79365079365078,325.0,-169.9206349206349,-325.0,-141.984126984127,-325.0,-239.9206349206349,17.22222222222222,-55.79365079365079,325.0,-245.15873015873015,306.90476190476187,321.3492063492063,284.36507936507934,325.0,325.0,-325.0,-10.238095238095237,325.0,325.0,3.253968253968254,3.73015873015873,-166.26984126984127
263,-325.0,85.79365079365078,325.0,-169.9206349206349,-325.0,-141.984126984127,-325.0,-239.9206349206349,17.22222222222222,-55.79365079365079,325.0,-245.15873015873015,306.90476190476187,321.3492063492063,284.36507936507934,325.0,325.0,-325.0,-10.238095238095237,325.0,325.0,3.253968253968254,3.73015873015873,-166.26984126984127
264,-325.0,-50.87301587301587,323.73015873015873,-167.53968253968253,-325.0,-140.3968253968254,-325.0,-237.06349206349205,-44.84126984126984,7.3809523809523805,325.0,-241.98412698412696,315.95238095238096,317.22222222222223,280.87301587301585,325.0,325.0,-325.0,-11.19047619047619,325.0,325.0,-15.317460317460316,-20.396825396825395,-166.26984126984127
265,-325.0,-50.87301587301587,323.73015873015873,-167.53968253968253,-325.0,-140.3968253968254,-325.0,-237.06349206349205,-44.84126984126984,7.3809523809523805,325.0,-241.98412698412696,315.95238095238096,317.22222222222223,280.87301587301585,325.0,325.0,-325.0,-11.19047619047619,325.0,325.0,-15.317460317460316,-20.396825396825395,-166.26984126984127
266,-325.0,52.460317460317455,319.76190476190476,-163.73015873015873,-325.0,-137.22222222222223,-325.0,-232.3015873015873,-11.19047619047619,-53.73015873015873,325.0,-236.9047619047619,325.0,310.39682539682536,274.68253968253964,325.0,325.0,-325.0,-8.492063492063492,325.0,325.0,3.4126984126984126,4.0476190476190474,-166.26984126984127
267,-325.0,52.460317460317455,319.76190476190476,-163.73015873015873,-325.0,-137.22222222222223,-325.0,-232.3015873015873,-11.19047619047619,-53.73015873015873,325.0,-236.9047619047619,325.0,310.39682539682536,274.68253968253964,325.0,325.0,-325.0,-8.492063492063492,325.0,325.0,3.4126984126984126,4.0476190476190474,-166.26984126984127
268,-325.0,-188.015873015873,312.9365079365079,-160.3968253968254,-325.0,-134.68253968253967,-325.0,-227.69841269841268,-60.71428571428571,251.98412698412696,325.0,-231.98412698412696,325.0,303.73015873015873,269.1269841269841,325.0,325.0,-325.0,-5.317460317460317,325.0,325.0,-19.92063492063492,-25.79365079365079,-166.26984126984127
269,-325.0,-188.015873015873,312.9365079365079,-160.3968253968254,-325.0,-134.68253968253967,-325.0,-227.69841269841268,-60.71428571428571,251.98412698412696,325.0,-231.98412698412696,325.0,303.73015873015873,269.1269841269841,325.0,325.0,-325.0,-5.317460317460317,325.0,325.0,-19.92063492063492,-25.79365079365079,-166.26984126984127
270,-325.0,132.3015873015873,308.8095238095238,-158.015873015873,-325.0,-132.93650793650792,-325.0,-225.15873015873015,-46.904761904761905,54.047619047619044,325.0,-228.96825396825395,325.0,299.9206349206349,265.7936507936508,325.0,322.9365079365079,-325.0,-4.841269841269841,325.0,325.0,4.841269841269841,5.158730158730158,-321.8253968253968
271,-325.0,132.3015873015873,308.8095238095238,-158.015873015873,-325.0,-132.93650793650792,-325.0,-225.15873015873015,-46.904761904761905,54.047619047619044,325.0,-228.96825396825395,325.0,299.9206349206349,265.7936507936508,325.0,322.9365079365079,-325.0,-4.841269841269841,325.0,325.0,4.841269841269841,5.158730158730158,-321.8253968253968
272,-325.0,-325.0,303.4126984126984,-155.63492063492063,-325.0,-130.7142857142857,-325.0,-221.5079365079365,12.777777777777777,325.0,325.0,-225.3174603174603,325.0,294.68253968253964,261.3492063492063,325.0,317.53968253968253,-325.0,-7.5396825396825395,325.0,325.0,-7.698412698412698,-8.492063492063492,-321.8253968253968
273,-325.0,-325.0,303.4126984126984,-155.63492063492063,-325.0,-130.7142857142857,-325.0,-221.5079365079365,12.777777777777777,325.0,325.0,-225.3174603174603,325.0,294.68253968253964,261.3492063492063,325.0,317.53968253968253,-325.0,-7.5396825396825395,325.0,325.0,-7.698412698412698,-8.492063492063492,-321.8253968253968
274,-325.0,177.06349206349205,298.015873015873,-152.61904761904762,-325.0,-128.4920634920635,-325.0,-217.69841269841268,-90.87301587301587,303.88888888888886,325.0,-221.19047619047618,325.0,289.76190476190476,256.90476190476187,325.0,312.1428571428571,-325.0,-11.984126984126984,325.0,325.0,6.26984126984127,7.3809523809523805,-321.8253968253968
275,-325.0,177.06349206349205,298.015873015873,-152.61904761904762,-325.0,-128.4920634920635,-325.0,-217.69841269841268,-90.87301587301587,303.88888888888886,325.0,-221.19047619047618,325.0,289.76190476190476,256.90476190476187,325.0,312.1428571428571,-325.0,-11.984126984126984,325.0,325.0,6.26984126984127,7.3809523809523805,-321.8253968253968
276,-325.0,-15.634920634920634,294.2063492063492,-150.7142857142857,-325.0,-126.9047619047619,-325.0,-215.15873015873015,-183.7301587301587,314.36507936507934,325.0,-218.4920634920635,325.0,285.95238095238096,253.57142857142856,325.0,308.17460317460313,-325.0,-9.444444444444445,325.0,325.0,-13.095238095238095,-18.333333333333332,-321.8253968253968
277,-325.0,-15.634920634920634,294.2063492063492,-150.7142857142857,-325.0,-126.9047619047619,-325.0,-215.15873015873015,-183.7301587301587,314.36507936507934,325.0,-218.4920634920635,325.0,285.95238095238096,253.57142857142856,325.0,308.17460317460313,-325.0,-9.444444444444445,325.0,325.0,-13.095238095238095,-18.333333333333332,-321.8253968253968
278,-325.0,-43.095238095238095,286.58730158730157,-146.74603174603175,-325.0,-123.88888888888889,-325.0,-210.07936507936506,-136.26984126984127,325.0,325.0,-213.25396825396825,325.0,278.4920634920635,247.38095238095238,325.0,300.39682539682536,-325.0,-3.4126984126984126,325.0,325.0,19.92063492063492,25.317460317460316,-321.8253968253968
279,-325.0,-43.095238095238095,286.58730158730157,-146.74603174603175,-325.0,-123.88888888888889,-325.0,-210.07936507936506,-136.26984126984127,325.0,325.0,-213.25396825396825,325.0,278.4920634920635,247.38095238095238,325.0,300.39682539682536,-325.0,-3.4126984126984126,325.0,325.0,19.92063492063492,25.317460317460316,-321.8253968253968
280,-325.0,-258.3333333333333,281.5079365079365,-144.36507936507937,-325.0,-121.98412698412697,-325.0,-206.58730158730157,-190.7142857142857,325.0,325.0,-209.60317460317458,325.0,273.73015873015873,243.09523809523807,325.0,295.3174603174603,-287.53968253968253,0.07936507936507936,325.0,325.0,-21.825396825396822,-27.38095238095238,-166.26984126984127
281,-325.0,-258.3333333333333,281.5079365079365,-144.36507936507937,-325.0,-121.98412698412697,-325.0,-206.58730158730157,-190.7142857142857,325.0,325.0,-209.60317460317458,325.0,273.73015873015873,243.09523809523807,325.0,295.3174603174603,-287.53968253968253,0.07936507936507936,325.0,325.0,-21.825396825396822,-27.38095238095238,-166.26984126984127
282,-325.0,3.095238095238095,278.17460317460313,-142.3015873015873,-325.0,-120.23809523809523,-325.0,-204.04761904761904,-206.1111111111111,325.0,325.0,-207.2222222222222,325.0,270.07936507936506,240.07936507936506,325.0,291.5079365079365,-325.0,-0.07936507936507936,325.0,325.0,7.3809523809523805,9.761904761904761,-166.26984126984127
283,-325.0,3.095238095238095,278.17460317460313,-142.3015873015873,-325.0,-120.23809523809523,-325.0,-204.04761904761904,-206.1111111111111,325.0,325.0,-207.2222222222222,325.0,270.07936507936506,240.07936507936506,325.0,291.5079365079365,-325.0,-0.07936507936507936,325.0,325.0,7.3809523809523805,9.761904761904761,-166.26984126984127
284,-325.0,-325.0,271.984126984127,-139.12698412698413,-325.0,-117.85714285714285,-325.0,-200.07936507936506,-207.2222222222222,325.0,325.0,-202.61904761904762,325.0,264.2063492063492,235.0,325.0,285.3174603174603,-325.0,-6.904761904761904,325.0,325.0,-21.349206349206348,-27.698412698412696,-166.26984126984127
285,-325.0,-325.0,271.984126984127,-139.12698412698413,-325.0,-117.85714285714285,-325.0,-200.07936507936506,-207.2222222222222,325.0,325.0,-202.61904761904762,325.0,264.2063492063492,235.0,325.0,285.3174603174603,-325.0,-6.904761904761904,325.0,325.0,-21.349206349206348,-27.698412698412696,-166.26984126984127
286,-325.0,-325.0,267.22222222222223,-136.74603174603175,-325.0,-115.79365079365078,-325.0,-196.74603174603175,-202.14285714285714,325.0,198.65079365079364,-199.12698412698413,325.0,259.6031746031746,230.87301587301587,325.0,280.55555555555554,-325.0,-9.603174603174603,325.0,325.0,20.71428571428571,27.698412698412696,-166.26984126984127
287,-325.0,-325.0,267.22222222222223,-136.74603174603175,-325.0,-115.79365079365078,-325.0,-196.74603174603175,-202.14285714285714,325.0,198.65079365079364,-199.12698412698413,325.0,259.6031746031746,230.87301587301587,325.0,280.55555555555554,-325.0,-9.603174603174603,325.0,325.0,20.71428571428571,27.698412698412696,-166.26984126984127
288,-325.0,-325.0,262.46031746031747,-134.2063492063492,-325.0,-113.73015873015872,-325.0,-193.25396825396825,-306.4285714285714,325.0,-325.0,-195.47619047619045,325.0,255.15873015873015,227.2222222222222,325.0,275.7936507936508,-325.0,-10.238095238095237,325.0,325.0,-20.07936507936508,-27.698412698412696,-166.26984126984127
289,-325.0,-325.0,262.46031746031747,-134.2063492063492,-325.0,-113.73015873015872,-325.0,-193.25396825396825,-306.4285714285714,325.0,-325.0,-195.47619047619045,325.0,255.15873015873015,227.2222222222222,325.0,275.7936507936508,-325.0,-10.238095238095237,325.0,325.0,-20.07936507936508,-27.698412698412696,-166.26984126984127
290,-325.0,-288.8095238095238,258.015873015873,-131.66666666666666,-325.0,-111.82539682539682,-325.0,-190.3968253968254,-325.0,325.0,-325.0,-192.3015873015873,325.0,250.87301587301585,223.25396825396825,325.0,271.031746031746,-325.0,-11.825396825396824,325.0,325.0,20.396825396825395,27.539682539682538,-321.8253968253968
291,-325.0,-288.8095238095238,258.015873015873,-131.66666666666666,-325.0,-111.82539682539682,-325.0,-190.3968253968254,-325.0,325.0,-325.0,-192.3015873015873,325.0,250.87301587301585,223.25396825396825,325.0,271.031746031746,-325.0,-11.825396825396824,325.0,325.0,20.396825396825395,27.539682539682538,-321.8253968253968
292,-325.0,-308.4920634920635,253.4126984126984,-129.44444444444443,-323.73015873015873,-109.92063492063491,-325.0,-187.38095238095238,-325.0,325.0,-325.0,-189.28571428571428,325.0,246.42857142857142,219.44444444444443,325.0,266.4285714285714,-325.0,-8.492063492063492,325.0,325.0,-21.507936507936506,-28.65079365079365,-321.8253968253968
293,-325.0,-308.4920634920635,253.4126984126984,-129.44444444444443,-323.73015873015873,-109.92063492063491,-325.0,-187.38095238095238,-325.0,325.0,-325.0,-189.28571428571428,325.0,246.42857142857142,219.44444444444443,325.0,266.4285714285714,-325.0,-8.492063492063492,325.0,325.0,-21.507936507936506,-28.65079365079365,-321.8253968253968
294,-325.0,-245.79365079365078,248.96825396825395,-127.22222222222221,-318.6507936507936,-108.17460317460316,-323.57142857142856,-184.2063492063492,-325.0,325.0,-325.0,-185.95238095238093,325.0,242.14285714285714,215.95238095238093,325.0,261.984126984127,-325.0,-8.015873015873016,325.0,325.0,21.666666666666664,28.015873015873016,-321.8253968253968
295,-325.0,-245.79365079365078,248.96825396825395,-127.22222222222221,-318.6507936507936,-108.17460317460316,-323.57142857142856,-184.2063492063492,-325.0,325.0,-325.0,-185.95238095238093,325.0,242.14285714285714,215.95238095238093,325.0,261.984126984127,-325.0,-8.015873015873016,325.0,325.0,21.666666666666664,28.015873015873016,-321.8253968253968
296,-325.0,-325.0,244.68253968253967,-124.84126984126983,-313.57142857142856,-106.42857142857142,-318.17460317460313,-181.34920634920633,-325.0,325.0,-325.0,-182.93650793650792,325.0,238.015873015873,212.14285714285714,325.0,257.53968253968253,-325.0,-6.111111111111111,325.0,325.0,-22.142857142857142,-28.49206349206349,-321.8253968253968
297,-325.0,-325.0,244.68253968253967,-124.84126984126983,-313.57142857142856,-106.42857142857142,-318.17460317460313,-181.34920634920633,-325.0,325.0,-325.0,-182.93650793650792,325.0,238.015873015873,212.14285714285714,325.0,257.53968253968253,-325.0,-6.111111111111111,325.0,325.0,-22.142857142857142,-28.49206349206349,-321.8253968253968
298,-325.0,-288.6507936507936,240.3968253968254,-122.6190476190476,-308.4920634920635,-104.68253968253968,-312.9365079365079,-178.4920634920635,-325.0,325.0,-325.0,-179.9206349206349,325.0,233.88888888888889,208.4920634920635,325.0,253.09523809523807,-325.0,-4.365079365079365,325.0,325.0,21.03174603174603,28.65079365079365,-321.8253968253968
299,-325.0,-288.6507936507936,240.3968253968254,-122.6190476190476,-308.4920634920635,-104.68253968253968,-312.9365079365079,-178.4920634920635,-325.0,325.0,-325.0,-179.9206349206349,325.0,233.88888888888889,208.4920634920635,325.0,253.09523809523807,-325.0,-4.365079365079365,325.0,325.0,21.03174603174603,28.65079365079365,-321.8253968253968
300,-325.0,-325.0,237.2222222222222,-121.34920634920634,-304.68253968253964,-103.4126984126984,-308.968253968254,-175.95238095238093,-325.0,325.0,-325.0,-177.53968253968253,325.0,230.55555555555554,205.95238095238093,325.0,249.9206349206349,-325.0,-6.111111111111111,325.0,325.0,-12.619047619047619,-16.11111111111111,-166.26984126984127
301,-325.0,-325.0,237.2222222222222,-121.34920634920634,-304.68253968253964,-103.4126984126984,-308.968253968254,-175.95238095238093,-325.0,325.0,-325.0,-177.53968253968253,325.0,230.55555555555554,205.95238095238093,325.0,249.9206349206349,-325.0,-6.111111111111111,325.0,325.0,-12.619047619047619,-16.11111111111111,-166.26984126984127
302,-325.0,-325.0,234.04761904761904,-119.6031746031746,-301.19047619047615,-102.14285714285714,-305.1587301587301,-174.04761904761904,-325.0,325.0,-325.0,-175.15873015873015,325.0,227.69841269841268,203.4126984126984,325.0,246.74603174603172,-325.0,-10.555555555555555,325.0,325.0,8.809523809523808,12.619047619047619,-166.26984126984127
303,-325.0,-325.0,234.04761904761904,-119.6031746031746,-301.19047619047615,-102.14285714285714,-305.1587301587301,-174.04761904761904,-325.0,325.0,-325.0,-175.15873015873015,325.0,227.69841269841268,203.4126984126984,325.0,246.74603174603172,-325.0,-10.555555555555555,325.0,325.0,8.809523809523808,12.619047619047619,-166.26984126984127
304,-325.0,-325.0,228.015873015873,-116.42857142857142,-294.04761904761904,-99.44444444444444,-297.6984126984127,-169.9206349206349,-325.0,325.0,-325.0,-170.87301587301587,321.19047619047615,221.8253968253968,198.17460317460316,325.0,240.3968253968254,-325.0,-11.984126984126984,325.0,325.0,-23.095238095238095,-30.07936507936508,-166.26984126984127
305,-325.0,-325.0,228.015873015873,-116.42857142857142,-294.04761904761904,-99.44444444444444,-297.6984126984127,-169.9206349206349,-325.0,325.0,-325.0,-170.87301587301587,321.19047619047615,221.8253968253968,198.17460317460316,325.0,240.3968253968254,-325.0,-11.984126984126984,325.0,325.0,-23.095238095238095,-30.07936507936508,-166.26984126984127
306,-325.0,-184.84126984126982,223.88888888888889,-114.36507936507935,-289.2857142857143,-98.01587301587301,-292.77777777777777,-167.2222222222222,-325.0,325.0,-325.0,-168.17460317460316,315.7936507936508,218.015873015873,194.84126984126982,325.0,236.26984126984127,-325.0,-9.126984126984127,325.0,325.0,20.873015873015873,28.809523809523807,-166.26984126984127
307,-325.0,-184.84126984126982,223.88888888888889,-114.36507936507935,-289.2857142857143,-98.01587301587301,-292.77777777777777,-167.2222222222222,-325.0,325.0,-325.0,-168.17460317460316,315.7936507936508,218.015873015873,194.84126984126982,325.0,236.26984126984127,-325.0,-9.126984126984127,325.0,325.0,20.873015873015873,28.809523809523807,-166.26984126984127
308,-325.0,-148.65079365079364,220.07936507936506,-112.46031746031746,-284.5238095238095,-96.42857142857142,-287.85714285714283,-164.52380952380952,-325.0,325.0,-325.0,-165.3174603174603,310.39682539682536,214.2063492063492,191.34920634920633,325.0,232.3015873015873,-325.0,-3.888888888888889,325.0,325.0,-23.57142857142857,-30.238095238095237,-166.26984126984127
309,-325.0,-148.65079365079364,220.07936507936506,-112.46031746031746,-284.5238095238095,-96.42857142857142,-287.85714285714283,-164.52380952380952,-325.0,325.0,-325.0,-165.3174603174603,310.39682539682536,214.2063492063492,191.34920634920633,325.0,232.3015873015873,-325.0,-3.888888888888889,325.0,325.0,-23.57142857142857,-30.238095238095237,-166.26984126984127
310,-325.0,118.49206349206348,216.26984126984127,-110.39682539682539,-280.23809523809524,-94.84126984126983,-283.25396825396825,-161.8253968253968,-325.0,325.0,-325.0,-162.61904761904762,305.0,210.3968253968254,188.17460317460316,325.0,228.49206349206347,-325.0,-5.317460317460317,325.0,325.0,22.142857142857142,29.126984126984127,-321.8253968253968
311,-325.0,118.49206349206348,216.26984126984127,-110.39682539682539,-280.23809523809524,-94.84126984126983,-283.25396825396825,-161.8253968253968,-325.0,325.0,-325.0,-162.61904761904762,305.0,210.3968253968254,188.17460317460316,325.0,228.49206349206347,-325.0,-5.317460317460317,325.0,325.0,22.142857142857142,29.126984126984127,-321.8253968253968
312,-325.0,-98.80952380952381,212.61904761904762,-108.49206349206348,-275.7936507936508,-93.4126984126984,-278.4920634920635,-159.44444444444443,-325.0,325.0,-325.0,-159.6031746031746,299.76190476190476,206.74603174603175,185.15873015873015,325.0,224.36507936507934,-325.0,-1.1904761904761905,325.0,325.0,-22.936507936507937,-30.555555555555554,-321.8253968253968
313,-325.0,-98.80952380952381,212.61904761904762,-108.49206349206348,-275.7936507936508,-93.4126984126984,-278.4920634920635,-159.44444444444443,-325.0,325.0,-325.0,-159.6031746031746,299.76190476190476,206.74603174603175,185.15873015873015,325.0,224.36507936507934,-325.0,-1.1904761904761905,325.0,325.0,-22.936507936507937,-30.555555555555554,-321.8253968253968
314,-325.0,154.52380952380952,208.65079365079364,-106.42857142857142,-271.3492063492063,-91.82539682539682,-273.88888888888886,-156.74603174603175,-325.0,325.0,-325.0,-157.2222222222222,294.5238095238095,203.25396825396825,181.984126984127,325.0,220.7142857142857,-325.0,-3.888888888888889,325.0,325.0,23.095238095238095,29.126984126984127,-321.8253968253968
315,-325.0,154.52380952380952,208.65079365079364,-106.42857142857142,-271.3492063492063,-91.82539682539682,-273.88888888888886,-156.74603174603175,-325.0,325.0,-325.0,-157.2222222222222,294.5238095238095,203.25396825396825,181.984126984127,325.0,220.7142857142857,-325.0,-3.888888888888889,325.0,325.0,23.095238095238095,29.126984126984127,-321.8253968253968
316,-325.0,82.93650793650794,205.0,-104.52380952380952,-267.06349206349205,-90.07936507936508,-269.1269841269841,-154.2063492063492,-325.0,325.0,-325.0,-154.36507936507937,289.4444444444444,199.60317460317458,178.65079365079364,325.0,216.74603174603175,-325.0,-0.7142857142857142,325.0,325.0,-23.730158730158728,-31.19047619047619,-321.8253968253968
317,-325.0,82.93650793650794,205.0,-104.52380952380952,-267.06349206349205,-90.07936507936508,-269.1269841269841,-154.2063492063492,-325.0,325.0,-325.0,-154.36507936507937,289.4444444444444,199.60317460317458,178.65079365079364,325.0,216.74603174603175,-325.0,-0.7142857142857142,325.0,325.0,-23.730158730158728,-31.19047619047619,-321.8253968253968
318,-325.0,41.507936507936506,201.34920634920633,-102.77777777777777,-262.6190476190476,-89.12698412698413,-264.8412698412698,-151.66666666666666,-325.0,325.0,-325.0,-151.8253968253968,284.36507936507934,196.11111111111111,175.63492063492063,325.0,213.09523809523807,-325.0,-0.5555555555555556,325.0,325.0,22.619047619047617,29.920634920634917,-321.8253968253968
319,-325.0,41.507936507936506,201.34920634920633,-102.77777777777777,-262.6190476190476,-89.12698412698413,-264.8412698412698,-151.66666666666666,-325.0,325.0,-325.0,-151.8253968253968,284.36507936507934,196.11111111111111,175.63492063492063,325.0,213.09523809523807,-325.0,-0.5555555555555556,325.0,325.0,22.619047619047617,29.920634920634917,-321.8253968253968
320,-325.0,-42.61904761904761,197.85714285714283,-100.87301587301587,-258.3333333333333,-87.38095238095238,-260.39682539682536,-149.12698412698413,-325.0,325.0,-325.0,-149.28571428571428,279.76190476190476,192.77777777777777,172.77777777777777,325.0,209.60317460317458,-325.0,4.523809523809524,325.0,325.0,-24.206349206349206,-31.03174603174603,-166.26984126984127
321,-325.0,-42.61904761904761,197.85714285714283,-100.87301587301587,-258.3333333333333,-87.38095238095238,-260.39682539682536,-149.12698412698413,-325.0,325.0,-325.0,-149.28571428571428,279.76190476190476,192.77777777777777,172.77777777777777,325.0,209.60317460317458,-325.0,4.523809523809524,325.0,325.0,-24.206349206349206,-31.03174603174603,-166.26984126984127
322,-325.0,-11.031746031746032,194.36507936507937,-99.28571428571428,-254.36507936507934,-85.79365079365078,-256.1111111111111,-146.9047619047619,-325.0,325.0,-325.0,-146.74603174603175,274.8412698412698,189.28571428571428,169.9206349206349,325.0,205.95238095238093,-325.0,-0.07936507936507936,325.0,325.0,23.41269841269841,29.76190476190476,-166.26984126984127
323,-325.0,-11.031746031746032,194.36507936507937,-99.28571428571428,-254.36507936507934,-85.79365079365078,-256.1111111111111,-146.9047619047619,-325.0,325.0,-325.0,-146.74603174603175,274.8412698412698,189.28571428571428,169.9206349206349,325.0,205.95238095238093,-325.0,-0.07936507936507936,325.0,325.0,23.41269841269841,29.76190476190476,-166.26984126984127
324,-325.0,-272.9365079365079,191.03174603174602,-97.53968253968253,-250.2380952380952,-84.2063492063492,-251.8253968253968,-144.52380952380952,-325.0,325.0,-325.0,-144.04761904761904,270.07936507936506,186.11111111111111,166.9047619047619,325.0,202.46031746031744,-325.0,-6.111111111111111,325.0,325.0,-23.253968253968253,-31.349206349206348,-166.26984126984127
325,-325.0,-272.9365079365079,191.03174603174602,-97.53968253968253,-250.2380952380952,-84.2063492063492,-251.8253968253968,-144.52380952380952,-325.0,325.0,-325.0,-144.04761904761904,270.07936507936506,186.11111111111111,166.9047619047619,325.0,202.46031746031744,-325.0,-6.111111111111111,325.0,325.0,-23.253968253968253,-31.349206349206348,-166.26984126984127
326,-325.0,-229.9206349206349,187.69841269841268,-95.79365079365078,-246.1111111111111,-82.93650793650794,-247.69841269841268,-142.14285714285714,-325.0,325.0,-325.0,-141.984126984127,265.6349206349206,182.77777777777777,164.04761904761904,325.0,198.96825396825395,-325.0,-1.6666666666666665,325.0,325.0,22.619047619047617,30.07936507936508,-166.26984126984127
