,Fp1[1],Fp2[2],F3[3],F4[4],C3[5],C4[6],P3[7],P4[8],O1[9],O2[10],F7[11],F8[12],T3[13],T4[14],T5[15],T6[16],Fz[17],Pz[18],Cz[19],Pg1[20],Pg2[21],EOGR[22],EOOGL[23],EMG[24]
0,212.61904761904762,-215.63492063492063,-162.77777777777777,134.52380952380952,273.25396825396825,325.0,265.1587301587301,325.0,-199.44444444444443,325.0,-325.0,325.0,-166.11111111111111,-219.60317460317458,-166.58730158730157,325.0,-319.6031746031746,325.0,-65.95238095238095,-325.0,-325.0,28.65079365079365,35.63492063492063,-166.26984126984127
1,212.61904761904762,-215.63492063492063,-162.77777777777777,134.52380952380952,273.25396825396825,325.0,265.1587301587301,325.0,-199.44444444444443,325.0,-325.0,325.0,-166.11111111111111,-219.60317460317458,-166.58730158730157,325.0,-319.6031746031746,325.0,-65.95238095238095,-325.0,-325.0,28.65079365079365,35.63492063492063,-166.26984126984127
2,212.61904761904762,-215.63492063492063,-162.77777777777777,134.52380952380952,273.25396825396825,325.0,265.1587301587301,325.0,-199.44444444444443,325.0,-325.0,325.0,-166.11111111111111,-219.60317460317458,-166.58730158730157,325.0,-319.6031746031746,325.0,-65.95238095238095,-325.0,-325.0,28.65079365079365,35.63492063492063,-166.26984126984127
3,212.61904761904762,-215.63492063492063,-162.77777777777777,134.52380952380952,273.25396825396825,325.0,265.1587301587301,325.0,-199.44444444444443,325.0,-325.0,325.0,-166.11111111111111,-219.60317460317458,-166.58730158730157,325.0,-319.6031746031746,325.0,-65.95238095238095,-325.0,-325.0,28.65079365079365,35.63492063492063,-166.26984126984127
4,212.61904761904762,-215.63492063492063,-162.77777777777777,134.52380952380952,273.25396825396825,325.0,265.1587301587301,325.0,-199.44444444444443,325.0,-325.0,325.0,-166.11111111111111,-219.60317460317458,-166.58730158730157,325.0,-319.6031746031746,325.0,-65.95238095238095,-325.0,-325.0,28.65079365079365,35.63492063492063,-166.26984126984127
5,212.61904761904762,-215.63492063492063,-162.77777777777777,134.52380952380952,273.25396825396825,325.0,265.1587301587301,325.0,-199.44444444444443,325.0,-325.0,325.0,-166.11111111111111,-219.60317460317458,-166.58730158730157,325.0,-319.6031746031746,325.0,-65.95238095238095,-325.0,-325.0,28.65079365079365,35.63492063492063,-166.26984126984127
6,212.61904761904762,-215.63492063492063,-162.77777777777777,134.52380952380952,273.25396825396825,325.0,265.1587301587301,325.0,-199.44444444444443,325.0,-325.0,325.0,-166.11111111111111,-219.60317460317458,-166.58730158730157,325.0,-319.6031746031746,325.0,-65.95238095238095,-325.0,-325.0,28.65079365079365,35.63492063492063,-166.26984126984127
7,212.61904761904762,-215.63492063492063,-162.77777777777777,134.52380952380952,273.25396825396825,325.0,265.1587301587301,325.0,-199.44444444444443,325.0,-325.0,325.0,-166.11111111111111,-219.60317460317458,-166.58730158730157,325.0,-319.6031746031746,325.0,-65.95238095238095,-325.0,-325.0,28.65079365079365,35.63492063492063,-166.26984126984127
8,162.93650793650792,-166.74603174603175,-284.8412698412698,124.04761904761904,213.88888888888889,325.0,205.63492063492063,307.38095238095235,325.0,325.0,-325.0,304.5238095238095,-287.85714285714283,-168.8095238095238,-291.984126984127,-325.0,-249.28571428571428,325.0,32.3015873015873,-325.0,-325.0,-0.3968253968253968,-1.1904761904761905,-166.26984126984127
9,162.93650793650792,-166.74603174603175,-284.8412698412698,124.04761904761904,213.88888888888889,325.0,205.63492063492063,307.38095238095235,325.0,325.0,-325.0,304.5238095238095,-287.85714285714283,-168.8095238095238,-291.984126984127,-325.0,-249.28571428571428,325.0,32.3015873015873,-325.0,-325.0,-0.3968253968253968,-1.1904761904761905,-166.26984126984127
10,160.07936507936506,-164.04761904761904,-301.66666666666663,123.57142857142857,210.07936507936506,325.0,201.66666666666666,302.1428571428571,325.0,325.0,-325.0,298.8095238095238,-307.69841269841265,-165.63492063492063,-307.06349206349205,-325.0,-244.68253968253967,325.0,38.65079365079365,-325.0,-325.0,-26.9047619047619,-35.15873015873016,-321.8253968253968
11,160.07936507936506,-164.04761904761904,-301.66666666666663,123.57142857142857,210.07936507936506,325.0,201.66666666666666,302.1428571428571,325.0,325.0,-325.0,298.8095238095238,-307.69841269841265,-165.63492063492063,-307.06349206349205,-325.0,-244.68253968253967,325.0,38.65079365079365,-325.0,-325.0,-26.9047619047619,-35.15873015873016,-321.8253968253968
12,153.73015873015873,-157.69841269841268,-297.53968253968253,114.04761904761904,202.46031746031744,325.0,194.2063492063492,291.8253968253968,325.0,325.0,-325.0,288.3333333333333,-303.88888888888886,-159.28571428571428,-303.25396825396825,-325.0,-235.79365079365078,325.0,43.888888888888886,-316.90476190476187,-325.0,-28.174603174603174,-37.06349206349206,-321.8253968253968
13,153.73015873015873,-157.69841269841268,-297.53968253968253,114.04761904761904,202.46031746031744,325.0,194.2063492063492,291.8253968253968,325.0,325.0,-325.0,288.3333333333333,-303.88888888888886,-159.28571428571428,-303.25396825396825,-325.0,-235.79365079365078,325.0,43.888888888888886,-316.90476190476187,-325.0,-28.174603174603174,-37.06349206349206,-321.8253968253968
14,153.73015873015873,-157.69841269841268,-297.53968253968253,114.04761904761904,202.46031746031744,325.0,194.2063492063492,291.8253968253968,325.0,325.0,-325.0,288.3333333333333,-303.88888888888886,-159.28571428571428,-303.25396825396825,-325.0,-235.79365079365078,325.0,43.888888888888886,-316.90476190476187,-325.0,-28.174603174603174,-37.06349206349206,-321.8253968253968
15,153.73015873015873,-157.69841269841268,-297.53968253968253,114.04761904761904,202.46031746031744,325.0,194.2063492063492,291.8253968253968,325.0,325.0,-325.0,288.3333333333333,-303.88888888888886,-159.28571428571428,-303.25396825396825,-325.0,-235.79365079365078,325.0,43.888888888888886,-316.90476190476187,-325.0,-28.174603174603174,-37.06349206349206,-321.8253968253968
16,153.73015873015873,-157.69841269841268,-297.53968253968253,114.04761904761904,202.46031746031744,325.0,194.2063492063492,291.8253968253968,325.0,325.0,-325.0,288.3333333333333,-303.88888888888886,-159.28571428571428,-303.25396825396825,-325.0,-235.79365079365078,325.0,43.888888888888886,-316.90476190476187,-325.0,-28.174603174603174,-37.06349206349206,-321.8253968253968
17,153.73015873015873,-157.69841269841268,-297.53968253968253,114.04761904761904,202.46031746031744,325.0,194.2063492063492,291.8253968253968,325.0,325.0,-325.0,288.3333333333333,-303.88888888888886,-159.28571428571428,-303.25396825396825,-325.0,-235.79365079365078,325.0,43.888888888888886,-316.90476190476187,-325.0,-28.174603174603174,-37.06349206349206,-321.8253968253968
18,153.73015873015873,-157.69841269841268,-297.53968253968253,114.04761904761904,202.46031746031744,325.0,194.2063492063492,291.8253968253968,325.0,325.0,-325.0,288.3333333333333,-303.88888888888886,-159.28571428571428,-303.25396825396825,-325.0,-235.79365079365078,325.0,43.888888888888886,-316.90476190476187,-325.0,-28.174603174603174,-37.06349206349206,-321.8253968253968
19,153.73015873015873,-157.69841269841268,-297.53968253968253,114.04761904761904,202.46031746031744,325.0,194.2063492063492,291.8253968253968,325.0,325.0,-325.0,288.3333333333333,-303.88888888888886,-159.28571428571428,-303.25396825396825,-325.0,-235.79365079365078,325.0,43.888888888888886,-316.90476190476187,-325.0,-28.174603174603174,-37.06349206349206,-321.8253968253968
20,37.698412698412696,52.14285714285714,41.19047619047619,-23.095238095238095,188.17460317460316,202.14285714285714,133.57142857142856,-32.77777777777778,152.3015873015873,-325.0,325.0,226.42857142857142,105.95238095238095,-107.06349206349206,105.63492063492063,-266.4285714285714,-23.41269841269841,325.0,-94.36507936507935,-228.015873015873,-272.9365079365079,-21.03174603174603,110.23809523809523,-166.26984126984127
21,37.698412698412696,52.14285714285714,41.19047619047619,-23.095238095238095,188.17460317460316,202.14285714285714,133.57142857142856,-32.77777777777778,152.3015873015873,-325.0,325.0,226.42857142857142,105.95238095238095,-107.06349206349206,105.63492063492063,-266.4285714285714,-23.41269841269841,325.0,-94.36507936507935,-228.015873015873,-272.9365079365079,-21.03174603174603,110.23809523809523,-166.26984126984127
22,-36.74603174603175,220.7142857142857,143.4126984126984,278.968253968254,224.68253968253967,104.84126984126983,123.4126984126984,-286.74603174603175,-20.396825396825395,-325.0,325.0,236.58730158730157,278.6507936507936,-96.9047619047619,278.3333333333333,-256.26984126984127,128.96825396825395,325.0,-267.06349206349205,-217.85714285714283,-283.0952380952381,-10.873015873015872,262.6190476190476,-166.26984126984127
23,-36.74603174603175,220.7142857142857,143.4126984126984,278.968253968254,224.68253968253967,104.84126984126983,123.4126984126984,-286.74603174603175,-20.396825396825395,-325.0,325.0,236.58730158730157,278.6507936507936,-96.9047619047619,278.3333333333333,-256.26984126984127,128.96825396825395,325.0,-267.06349206349205,-217.85714285714283,-283.0952380952381,-10.873015873015872,262.6190476190476,-166.26984126984127
24,-36.74603174603175,220.7142857142857,143.4126984126984,278.968253968254,224.68253968253967,104.84126984126983,123.4126984126984,-286.74603174603175,-20.396825396825395,-325.0,325.0,236.58730158730157,278.6507936507936,-96.9047619047619,278.3333333333333,-256.26984126984127,128.96825396825395,325.0,-267.06349206349205,-217.85714285714283,-283.0952380952381,-10.873015873015872,262.6190476190476,-166.26984126984127
25,-36.74603174603175,220.7142857142857,143.4126984126984,278.968253968254,224.68253968253967,104.84126984126983,123.4126984126984,-286.74603174603175,-20.396825396825395,-325.0,325.0,236.58730158730157,278.6507936507936,-96.9047619047619,278.3333333333333,-256.26984126984127,128.96825396825395,325.0,-267.06349206349205,-217.85714285714283,-283.0952380952381,-10.873015873015872,262.6190476190476,-166.26984126984127
26,30.555555555555554,59.285714285714285,68.80952380952381,-23.095238095238095,178.96825396825395,185.3174603174603,124.52380952380952,-45.476190476190474,147.69841269841268,-325.0,325.0,213.57142857142856,135.3174603174603,-99.6031746031746,131.8253968253968,-250.7142857142857,-12.777777777777777,325.0,-100.55555555555554,-214.2063492063492,-257.38095238095235,10.873015873015872,152.46031746031744,-166.26984126984127
27,30.555555555555554,59.285714285714285,68.80952380952381,-23.095238095238095,178.96825396825395,185.3174603174603,124.52380952380952,-45.476190476190474,147.69841269841268,-325.0,325.0,213.57142857142856,135.3174603174603,-99.6031746031746,131.8253968253968,-250.7142857142857,-12.777777777777777,325.0,-100.55555555555554,-214.2063492063492,-257.38095238095235,10.873015873015872,152.46031746031744,-166.26984126984127
28,95.95238095238095,-100.23809523809523,-5.7936507936507935,-325.0,131.03174603174602,261.3492063492063,123.57142857142857,192.46031746031744,310.23809523809524,-325.0,325.0,187.06349206349205,-7.857142857142857,-100.55555555555554,-14.523809523809524,-240.87301587301587,-151.66666666666666,325.0,68.96825396825396,-206.74603174603175,-227.38095238095238,32.14285714285714,41.98412698412698,-166.26984126984127
29,95.95238095238095,-100.23809523809523,-5.7936507936507935,-325.0,131.03174603174602,261.3492063492063,123.57142857142857,192.46031746031744,310.23809523809524,-325.0,325.0,187.06349206349205,-7.857142857142857,-100.55555555555554,-14.523809523809524,-240.87301587301587,-151.66666666666666,325.0,68.96825396825396,-206.74603174603175,-227.38095238095238,32.14285714285714,41.98412698412698,-166.26984126984127
30,94.2063492063492,-98.33333333333333,-5.952380952380952,-325.0,128.8095238095238,256.90476190476187,121.34920634920634,189.12698412698413,304.8412698412698,-325.0,325.0,183.57142857142856,-7.698412698412698,-98.80952380952381,-14.365079365079364,-236.42857142857142,-148.8095238095238,325.0,71.98412698412697,-202.93650793650792,-222.93650793650792,31.666666666666664,41.507936507936506,-321.8253968253968
31,94.2063492063492,-98.33333333333333,-5.952380952380952,-325.0,128.8095238095238,256.90476190476187,121.34920634920634,189.12698412698413,304.8412698412698,-325.0,325.0,183.57142857142856,-7.698412698412698,-98.80952380952381,-14.365079365079364,-236.42857142857142,-148.8095238095238,325.0,71.98412698412697,-202.93650793650792,-222.93650793650792,31.666666666666664,41.507936507936506,-321.8253968253968
32,91.5079365079365,-95.63492063492063,-18.333333333333332,-325.0,125.31746031746032,250.55555555555554,117.85714285714285,184.36507936507937,297.06349206349205,-325.0,325.0,178.4920634920635,-21.984126984126984,-95.95238095238095,-23.253968253968253,-230.3968253968254,-145.0,325.0,72.93650793650794,-197.85714285714283,-217.06349206349205,-0.873015873015873,-1.0317460317460316,-321.8253968253968
33,91.5079365079365,-95.63492063492063,-18.333333333333332,-325.0,125.31746031746032,250.55555555555554,117.85714285714285,184.36507936507937,297.06349206349205,-325.0,325.0,178.4920634920635,-21.984126984126984,-95.95238095238095,-23.253968253968253,-230.3968253968254,-145.0,325.0,72.93650793650794,-197.85714285714283,-217.06349206349205,-0.873015873015873,-1.0317460317460316,-321.8253968253968
34,86.26984126984127,-90.39682539682539,-6.746031746031746,-325.0,118.8095238095238,237.69841269841268,111.34920634920634,175.0,282.1428571428571,-325.0,325.0,169.44444444444443,-11.825396825396824,-90.39682539682539,249.60317460317458,-218.8095238095238,-137.06349206349205,325.0,63.25396825396825,-187.53968253968253,-205.63492063492063,5.7936507936507935,7.857142857142857,-321.8253968253968
35,86.26984126984127,-90.39682539682539,-6.746031746031746,-325.0,118.8095238095238,237.69841269841268,111.34920634920634,175.0,282.1428571428571,-325.0,325.0,169.44444444444443,-11.825396825396824,-90.39682539682539,249.60317460317458,-218.8095238095238,-137.06349206349205,325.0,63.25396825396825,-187.53968253968253,-205.63492063492063,5.7936507936507935,7.857142857142857,-321.8253968253968
36,86.26984126984127,-90.39682539682539,-6.746031746031746,-325.0,118.8095238095238,237.69841269841268,111.34920634920634,175.0,282.1428571428571,-325.0,325.0,169.44444444444443,-11.825396825396824,-90.39682539682539,249.60317460317458,-218.8095238095238,-137.06349206349205,325.0,63.25396825396825,-187.53968253968253,-205.63492063492063,5.7936507936507935,7.857142857142857,-321.8253968253968
37,86.26984126984127,-90.39682539682539,-6.746031746031746,-325.0,118.8095238095238,237.69841269841268,111.34920634920634,175.0,282.1428571428571,-325.0,325.0,169.44444444444443,-11.825396825396824,-90.39682539682539,249.60317460317458,-218.8095238095238,-137.06349206349205,325.0,63.25396825396825,-187.53968253968253,-205.63492063492063,5.7936507936507935,7.857142857142857,-321.8253968253968
38,86.26984126984127,-90.39682539682539,-6.746031746031746,-325.0,118.8095238095238,237.69841269841268,111.34920634920634,175.0,282.1428571428571,-325.0,325.0,169.44444444444443,-11.825396825396824,-90.39682539682539,249.60317460317458,-218.8095238095238,-137.06349206349205,325.0,63.25396825396825,-187.53968253968253,-205.63492063492063,5.7936507936507935,7.857142857142857,-321.8253968253968
39,86.26984126984127,-90.39682539682539,-6.746031746031746,-325.0,118.8095238095238,237.69841269841268,111.34920634920634,175.0,282.1428571428571,-325.0,325.0,169.44444444444443,-11.825396825396824,-90.39682539682539,249.60317460317458,-218.8095238095238,-137.06349206349205,325.0,63.25396825396825,-187.53968253968253,-205.63492063492063,5.7936507936507935,7.857142857142857,-321.8253968253968
40,81.82539682539682,-85.95238095238095,159.12698412698413,-325.0,112.93650793650794,226.9047619047619,105.95238095238095,166.9047619047619,269.2857142857143,-325.0,325.0,161.34920634920633,-13.571428571428571,-85.95238095238095,287.22222222222223,-208.8095238095238,-130.55555555555554,139.6031746031746,58.49206349206349,-178.8095238095238,-195.95238095238093,19.6031746031746,25.476190476190474,-166.26984126984127
41,81.82539682539682,-85.95238095238095,159.12698412698413,-325.0,112.93650793650794,226.9047619047619,105.95238095238095,166.9047619047619,269.2857142857143,-325.0,325.0,161.34920634920633,-13.571428571428571,-85.95238095238095,287.22222222222223,-208.8095238095238,-130.55555555555554,139.6031746031746,58.49206349206349,-178.8095238095238,-195.95238095238093,19.6031746031746,25.476190476190474,-166.26984126984127
42,75.79365079365078,-79.92063492063491,325.0,-325.0,105.31746031746032,212.77777777777777,98.65079365079364,155.95238095238093,252.14285714285714,-325.0,325.0,150.3968253968254,-56.74603174603174,-79.92063492063491,325.0,-195.47619047619045,-121.82539682539682,139.6031746031746,50.39682539682539,-167.2222222222222,-182.93650793650792,33.095238095238095,43.57142857142857,-166.26984126984127
43,75.79365079365078,-79.92063492063491,325.0,-325.0,105.31746031746032,212.77777777777777,98.65079365079364,155.95238095238093,252.14285714285714,-325.0,325.0,150.3968253968254,-56.74603174603174,-79.92063492063491,325.0,-195.47619047619045,-121.82539682539682,139.6031746031746,50.39682539682539,-167.2222222222222,-182.93650793650792,33.095238095238095,43.57142857142857,-166.26984126984127
44,74.2063492063492,-78.4920634920635,325.0,-325.0,103.57142857142857,209.28571428571428,96.74603174603175,153.25396825396825,247.85714285714283,-325.0,325.0,147.69841269841268,-98.01587301587301,-78.33333333333333,325.0,-192.14285714285714,-119.6031746031746,325.0,47.22222222222222,-164.36507936507937,-179.60317460317458,32.93650793650794,44.047619047619044,-166.26984126984127
45,74.2063492063492,-78.4920634920635,325.0,-325.0,103.57142857142857,209.28571428571428,96.74603174603175,153.25396825396825,247.85714285714283,-325.0,325.0,147.69841269841268,-98.01587301587301,-78.33333333333333,325.0,-192.14285714285714,-119.6031746031746,325.0,47.22222222222222,-164.36507936507937,-179.60317460317458,32.93650793650794,44.047619047619044,-166.26984126984127
46,74.2063492063492,-78.4920634920635,325.0,-325.0,103.57142857142857,209.28571428571428,96.74603174603175,153.25396825396825,247.85714285714283,-325.0,325.0,147.69841269841268,-98.01587301587301,-78.33333333333333,325.0,-192.14285714285714,-119.6031746031746,325.0,47.22222222222222,-164.36507936507937,-179.60317460317458,32.93650793650794,44.047619047619044,-166.26984126984127
47,74.2063492063492,-78.4920634920635,325.0,-325.0,103.57142857142857,209.28571428571428,96.74603174603175,153.25396825396825,247.85714285714283,-325.0,325.0,147.69841269841268,-98.01587301587301,-78.33333333333333,325.0,-192.14285714285714,-119.6031746031746,325.0,47.22222222222222,-164.36507936507937,-179.60317460317458,32.93650793650794,44.047619047619044,-166.26984126984127
48,74.2063492063492,-78.4920634920635,325.0,-325.0,103.57142857142857,209.28571428571428,96.74603174603175,153.25396825396825,247.85714285714283,-325.0,325.0,147.69841269841268,-98.01587301587301,-78.33333333333333,325.0,-192.14285714285714,-119.6031746031746,325.0,47.22222222222222,-164.36507936507937,-179.60317460317458,32.93650793650794,44.047619047619044,-166.26984126984127
49,74.2063492063492,-78.4920634920635,325.0,-325.0,103.57142857142857,209.28571428571428,96.74603174603175,153.25396825396825,247.85714285714283,-325.0,325.0,147.69841269841268,-98.01587301587301,-78.33333333333333,325.0,-192.14285714285714,-119.6031746031746,325.0,47.22222222222222,-164.36507936507937,-179.60317460317458,32.93650793650794,44.047619047619044,-166.26984126984127
50,74.2063492063492,-78.4920634920635,325.0,-325.0,103.57142857142857,209.28571428571428,96.74603174603175,153.25396825396825,247.85714285714283,-325.0,325.0,147.69841269841268,-98.01587301587301,-78.33333333333333,325.0,-192.14285714285714,-119.6031746031746,325.0,47.22222222222222,-164.36507936507937,-179.60317460317458,32.93650793650794,44.047619047619044,-321.8253968253968
51,74.2063492063492,-78.4920634920635,325.0,-325.0,103.57142857142857,209.28571428571428,96.74603174603175,153.25396825396825,247.85714285714283,-325.0,325.0,147.69841269841268,-98.01587301587301,-78.33333333333333,325.0,-192.14285714285714,-119.6031746031746,325.0,47.22222222222222,-164.36507936507937,-179.60317460317458,32.93650793650794,44.047619047619044,-321.8253968253968
52,68.80952380952381,-73.09523809523809,325.0,-310.07936507936506,96.42857142857142,195.95238095238093,89.76190476190476,143.09523809523807,231.8253968253968,-325.0,325.0,137.53968253968253,113.4126984126984,-72.77777777777777,325.0,-179.60317460317458,-111.5079365079365,-0.07936507936507936,41.03174603174603,-153.57142857142856,-167.38095238095238,32.3015873015873,43.41269841269841,-321.8253968253968
53,68.80952380952381,-73.09523809523809,325.0,-310.07936507936506,96.42857142857142,195.95238095238093,89.76190476190476,143.09523809523807,231.8253968253968,-325.0,325.0,137.53968253968253,113.4126984126984,-72.77777777777777,325.0,-179.60317460317458,-111.5079365079365,-0.07936507936507936,41.03174603174603,-153.57142857142856,-167.38095238095238,32.3015873015873,43.41269841269841,-321.8253968253968
54,62.93650793650793,-67.06349206349206,325.0,-292.6190476190476,88.4920634920635,180.87301587301587,82.3015873015873,131.984126984127,213.88888888888889,-325.0,310.39682539682536,126.42857142857142,325.0,-66.58730158730158,325.0,-165.63492063492063,-102.30158730158729,-325.0,32.460317460317455,-141.5079365079365,-153.73015873015873,-0.873015873015873,-1.1904761904761905,-321.8253968253968
55,62.93650793650793,-67.06349206349206,325.0,-292.6190476190476,88.4920634920635,180.87301587301587,82.3015873015873,131.984126984127,213.88888888888889,-325.0,310.39682539682536,126.42857142857142,325.0,-66.58730158730158,325.0,-165.63492063492063,-102.30158730158729,-325.0,32.460317460317455,-141.5079365079365,-153.73015873015873,-0.873015873015873,-1.1904761904761905,-321.8253968253968
56,62.3015873015873,-66.42857142857143,325.0,-290.07936507936506,87.6984126984127,179.28571428571428,81.82539682539682,130.87301587301587,211.98412698412696,-325.0,295.95238095238096,125.47619047619047,325.0,-65.95238095238095,325.0,-164.2063492063492,-101.34920634920634,-325.0,29.920634920634917,-140.23809523809524,-152.3015873015873,-33.25396825396825,-45.15873015873016,-321.8253968253968
57,62.3015873015873,-66.42857142857143,325.0,-290.07936507936506,87.6984126984127,179.28571428571428,81.82539682539682,130.87301587301587,211.98412698412696,-325.0,295.95238095238096,125.47619047619047,325.0,-65.95238095238095,325.0,-164.2063492063492,-101.34920634920634,-325.0,29.920634920634917,-140.23809523809524,-152.3015873015873,-33.25396825396825,-45.15873015873016,-321.8253968253968
58,70.87301587301587,-54.68253968253968,325.0,-272.3015873015873,85.47619047619047,175.0,-93.57142857142857,127.6984126984127,43.73015873015873,-314.8412698412698,152.3015873015873,111.5079365079365,162.46031746031744,-64.2063492063492,162.46031746031744,-159.9206349206349,-98.96825396825396,-325.0,34.84126984126984,-136.26984126984127,-148.015873015873,-4.841269841269841,-4.841269841269841,-321.8253968253968
59,70.87301587301587,-54.68253968253968,325.0,-272.3015873015873,85.47619047619047,175.0,-93.57142857142857,127.6984126984127,43.73015873015873,-314.8412698412698,152.3015873015873,111.5079365079365,162.46031746031744,-64.2063492063492,162.46031746031744,-159.9206349206349,-98.96825396825396,-325.0,34.84126984126984,-136.26984126984127,-148.015873015873,-4.841269841269841,-4.841269841269841,-321.8253968253968
60,57.22222222222222,-60.873015873015866,325.0,-267.38095238095235,80.71428571428571,165.95238095238093,74.84126984126983,121.03174603174602,195.95238095238093,-325.0,174.2063492063492,115.31746031746032,325.0,-60.39682539682539,325.0,-151.66666666666666,-93.25396825396825,-325.0,26.11111111111111,-129.28571428571428,-140.07936507936506,5.634920634920634,6.26984126984127,-166.26984126984127
61,57.22222222222222,-60.873015873015866,325.0,-267.38095238095235,80.71428571428571,165.95238095238093,74.84126984126983,121.03174603174602,195.95238095238093,-325.0,174.2063492063492,115.31746031746032,325.0,-60.39682539682539,325.0,-151.66666666666666,-93.25396825396825,-325.0,26.11111111111111,-129.28571428571428,-140.07936507936506,5.634920634920634,6.26984126984127,-166.26984126984127
62,57.22222222222222,-60.873015873015866,325.0,-267.38095238095235,80.71428571428571,165.95238095238093,74.84126984126983,121.03174603174602,195.95238095238093,-325.0,174.2063492063492,115.31746031746032,325.0,-60.39682539682539,325.0,-151.66666666666666,-93.25396825396825,-325.0,26.11111111111111,-129.28571428571428,-140.07936507936506,5.634920634920634,6.26984126984127,-166.26984126984127
63,57.22222222222222,-60.873015873015866,325.0,-267.38095238095235,80.71428571428571,165.95238095238093,74.84126984126983,121.03174603174602,195.95238095238093,-325.0,174.2063492063492,115.31746031746032,325.0,-60.39682539682539,325.0,-151.66666666666666,-93.25396825396825,-325.0,26.11111111111111,-129.28571428571428,-140.07936507936506,5.634920634920634,6.26984126984127,-166.26984126984127
64,57.22222222222222,-60.873015873015866,325.0,-267.38095238095235,80.71428571428571,165.95238095238093,74.84126984126983,121.03174603174602,195.95238095238093,-325.0,174.2063492063492,115.31746031746032,325.0,-60.39682539682539,325.0,-151.66666666666666,-93.25396825396825,-325.0,26.11111111111111,-129.28571428571428,-140.07936507936506,5.634920634920634,6.26984126984127,-166.26984126984127
65,57.22222222222222,-60.873015873015866,325.0,-267.38095238095235,80.71428571428571,165.95238095238093,74.84126984126983,121.03174603174602,195.95238095238093,-325.0,174.2063492063492,115.31746031746032,325.0,-60.39682539682539,325.0,-151.66666666666666,-93.25396825396825,-325.0,26.11111111111111,-129.28571428571428,-140.07936507936506,5.634920634920634,6.26984126984127,-166.26984126984127
66,57.22222222222222,-60.873015873015866,325.0,-267.38095238095235,80.71428571428571,165.95238095238093,74.84126984126983,121.03174603174602,195.95238095238093,-325.0,174.2063492063492,115.31746031746032,325.0,-60.39682539682539,325.0,-151.66666666666666,-93.25396825396825,-325.0,26.11111111111111,-129.28571428571428,-140.07936507936506,5.634920634920634,6.26984126984127,-166.26984126984127
67,57.22222222222222,-60.873015873015866,325.0,-267.38095238095235,80.71428571428571,165.95238095238093,74.84126984126983,121.03174603174602,195.95238095238093,-325.0,174.2063492063492,115.31746031746032,325.0,-60.39682539682539,325.0,-151.66666666666666,-93.25396825396825,-325.0,26.11111111111111,-129.28571428571428,-140.07936507936506,5.634920634920634,6.26984126984127,-166.26984126984127
68,57.22222222222222,-60.873015873015866,325.0,-267.38095238095235,80.71428571428571,165.95238095238093,74.84126984126983,121.03174603174602,195.95238095238093,-325.0,174.2063492063492,115.31746031746032,325.0,-60.39682539682539,325.0,-151.66666666666666,-93.25396825396825,-325.0,26.11111111111111,-129.28571428571428,-140.07936507936506,5.634920634920634,6.26984126984127,-166.26984126984127
69,57.22222222222222,-60.873015873015866,325.0,-267.38095238095235,80.71428571428571,165.95238095238093,74.84126984126983,121.03174603174602,195.95238095238093,-325.0,174.2063492063492,115.31746031746032,325.0,-60.39682539682539,325.0,-151.66666666666666,-93.25396825396825,-325.0,26.11111111111111,-129.28571428571428,-140.07936507936506,5.634920634920634,6.26984126984127,-166.26984126984127
70,57.22222222222222,-60.873015873015866,325.0,-267.38095238095235,80.71428571428571,165.95238095238093,74.84126984126983,121.03174603174602,195.95238095238093,-325.0,174.2063492063492,115.31746031746032,325.0,-60.39682539682539,325.0,-151.66666666666666,-93.25396825396825,-325.0,26.11111111111111,-129.28571428571428,-140.07936507936506,5.634920634920634,6.26984126984127,-321.8253968253968
71,57.22222222222222,-60.873015873015866,325.0,-267.38095238095235,80.71428571428571,165.95238095238093,74.84126984126983,121.03174603174602,195.95238095238093,-325.0,174.2063492063492,115.31746031746032,325.0,-60.39682539682539,325.0,-151.66666666666666,-93.25396825396825,-325.0,26.11111111111111,-129.28571428571428,-140.07936507936506,5.634920634920634,6.26984126984127,-321.8253968253968
72,57.22222222222222,-60.873015873015866,325.0,-267.38095238095235,80.71428571428571,165.95238095238093,74.84126984126983,121.03174603174602,195.95238095238093,-325.0,174.2063492063492,115.31746031746032,325.0,-60.39682539682539,325.0,-151.66666666666666,-93.25396825396825,-325.0,26.11111111111111,-129.28571428571428,-140.07936507936506,5.634920634920634,6.26984126984127,-321.8253968253968
73,57.22222222222222,-60.873015873015866,325.0,-267.38095238095235,80.71428571428571,165.95238095238093,74.84126984126983,121.03174603174602,195.95238095238093,-325.0,174.2063492063492,115.31746031746032,325.0,-60.39682539682539,325.0,-151.66666666666666,-93.25396825396825,-325.0,26.11111111111111,-129.28571428571428,-140.07936507936506,5.634920634920634,6.26984126984127,-321.8253968253968
74,57.22222222222222,-60.873015873015866,325.0,-267.38095238095235,80.71428571428571,165.95238095238093,74.84126984126983,121.03174603174602,195.95238095238093,-325.0,174.2063492063492,115.31746031746032,325.0,-60.39682539682539,325.0,-151.66666666666666,-93.25396825396825,-325.0,26.11111111111111,-129.28571428571428,-140.07936507936506,5.634920634920634,6.26984126984127,-321.8253968253968
75,57.22222222222222,-60.873015873015866,325.0,-267.38095238095235,80.71428571428571,165.95238095238093,74.84126984126983,121.03174603174602,195.95238095238093,-325.0,174.2063492063492,115.31746031746032,325.0,-60.39682539682539,325.0,-151.66666666666666,-93.25396825396825,-325.0,26.11111111111111,-129.28571428571428,-140.07936507936506,5.634920634920634,6.26984126984127,-321.8253968253968
76,57.22222222222222,-60.873015873015866,325.0,-267.38095238095235,80.71428571428571,165.95238095238093,74.84126984126983,121.03174603174602,195.95238095238093,-325.0,174.2063492063492,115.31746031746032,325.0,-60.39682539682539,325.0,-151.66666666666666,-93.25396825396825,-325.0,26.11111111111111,-129.28571428571428,-140.07936507936506,5.634920634920634,6.26984126984127,-321.8253968253968
77,57.22222222222222,-60.873015873015866,325.0,-267.38095238095235,80.71428571428571,165.95238095238093,74.84126984126983,121.03174603174602,195.95238095238093,-325.0,174.2063492063492,115.31746031746032,325.0,-60.39682539682539,325.0,-151.66666666666666,-93.25396825396825,-325.0,26.11111111111111,-129.28571428571428,-140.07936507936506,5.634920634920634,6.26984126984127,-321.8253968253968
78,57.22222222222222,-60.873015873015866,325.0,-267.38095238095235,80.71428571428571,165.95238095238093,74.84126984126983,121.03174603174602,195.95238095238093,-325.0,174.2063492063492,115.31746031746032,325.0,-60.39682539682539,325.0,-151.66666666666666,-93.25396825396825,-325.0,26.11111111111111,-129.28571428571428,-140.07936507936506,5.634920634920634,6.26984126984127,-321.8253968253968
79,57.22222222222222,-60.873015873015866,325.0,-267.38095238095235,80.71428571428571,165.95238095238093,74.84126984126983,121.03174603174602,195.95238095238093,-325.0,174.2063492063492,115.31746031746032,325.0,-60.39682539682539,325.0,-151.66666666666666,-93.25396825396825,-325.0,26.11111111111111,-129.28571428571428,-140.07936507936506,5.634920634920634,6.26984126984127,-321.8253968253968
80,57.22222222222222,-60.873015873015866,325.0,-267.38095238095235,80.71428571428571,165.95238095238093,74.84126984126983,121.03174603174602,195.95238095238093,-325.0,174.2063492063492,115.31746031746032,325.0,-60.39682539682539,325.0,-151.66666666666666,-93.25396825396825,-325.0,26.11111111111111,-129.28571428571428,-140.07936507936506,5.634920634920634,6.26984126984127,-166.26984126984127
81,57.22222222222222,-60.873015873015866,325.0,-267.38095238095235,80.71428571428571,165.95238095238093,74.84126984126983,121.03174603174602,195.95238095238093,-325.0,174.2063492063492,115.31746031746032,325.0,-60.39682539682539,325.0,-151.66666666666666,-93.25396825396825,-325.0,26.11111111111111,-129.28571428571428,-140.07936507936506,5.634920634920634,6.26984126984127,-166.26984126984127
82,57.22222222222222,-60.873015873015866,325.0,-267.38095238095235,80.71428571428571,165.95238095238093,74.84126984126983,121.03174603174602,195.95238095238093,-325.0,174.2063492063492,115.31746031746032,325.0,-60.39682539682539,325.0,-151.66666666666666,-93.25396825396825,-325.0,26.11111111111111,-129.28571428571428,-140.07936507936506,5.634920634920634,6.26984126984127,-166.26984126984127
83,57.22222222222222,-60.873015873015866,325.0,-267.38095238095235,80.71428571428571,165.95238095238093,74.84126984126983,121.03174603174602,195.95238095238093,-325.0,174.2063492063492,115.31746031746032,325.0,-60.39682539682539,325.0,-151.66666666666666,-93.25396825396825,-325.0,26.11111111111111,-129.28571428571428,-140.07936507936506,5.634920634920634,6.26984126984127,-166.26984126984127
84,57.22222222222222,-60.873015873015866,325.0,-267.38095238095235,80.71428571428571,165.95238095238093,74.84126984126983,121.03174603174602,195.95238095238093,-325.0,174.2063492063492,115.31746031746032,325.0,-60.39682539682539,325.0,-151.66666666666666,-93.25396825396825,-325.0,26.11111111111111,-129.28571428571428,-140.07936507936506,5.634920634920634,6.26984126984127,-166.26984126984127
85,57.22222222222222,-60.873015873015866,325.0,-267.38095238095235,80.71428571428571,165.95238095238093,74.84126984126983,121.03174603174602,195.95238095238093,-325.0,174.2063492063492,115.31746031746032,325.0,-60.39682539682539,325.0,-151.66666666666666,-93.25396825396825,-325.0,26.11111111111111,-129.28571428571428,-140.07936507936506,5.634920634920634,6.26984126984127,-166.26984126984127
86,57.22222222222222,-60.873015873015866,325.0,-267.38095238095235,80.71428571428571,165.95238095238093,74.84126984126983,121.03174603174602,195.95238095238093,-325.0,174.2063492063492,115.31746031746032,325.0,-60.39682539682539,325.0,-151.66666666666666,-93.25396825396825,-325.0,26.11111111111111,-129.28571428571428,-140.07936507936506,5.634920634920634,6.26984126984127,-166.26984126984127
87,57.22222222222222,-60.873015873015866,325.0,-267.38095238095235,80.71428571428571,165.95238095238093,74.84126984126983,121.03174603174602,195.95238095238093,-325.0,174.2063492063492,115.31746031746032,325.0,-60.39682539682539,325.0,-151.66666666666666,-93.25396825396825,-325.0,26.11111111111111,-129.28571428571428,-140.07936507936506,5.634920634920634,6.26984126984127,-166.26984126984127
88,57.22222222222222,-60.873015873015866,325.0,-267.38095238095235,80.71428571428571,165.95238095238093,74.84126984126983,121.03174603174602,195.95238095238093,-325.0,174.2063492063492,115.31746031746032,325.0,-60.39682539682539,325.0,-151.66666666666666,-93.25396825396825,-325.0,26.11111111111111,-129.28571428571428,-140.07936507936506,5.634920634920634,6.26984126984127,-166.26984126984127
89,57.22222222222222,-60.873015873015866,325.0,-267.38095238095235,80.71428571428571,165.95238095238093,74.84126984126983,121.03174603174602,195.95238095238093,-325.0,174.2063492063492,115.31746031746032,325.0,-60.39682539682539,325.0,-151.66666666666666,-93.25396825396825,-325.0,26.11111111111111,-129.28571428571428,-140.07936507936506,5.634920634920634,6.26984126984127,-166.26984126984127
90,57.22222222222222,-60.873015873015866,325.0,-267.38095238095235,80.71428571428571,165.95238095238093,74.84126984126983,121.03174603174602,195.95238095238093,-325.0,174.2063492063492,115.31746031746032,325.0,-60.39682539682539,325.0,-151.66666666666666,-93.25396825396825,-325.0,26.11111111111111,-129.28571428571428,-140.07936507936506,5.634920634920634,6.26984126984127,-321.8253968253968
91,57.22222222222222,-60.873015873015866,325.0,-267.38095238095235,80.71428571428571,165.95238095238093,74.84126984126983,121.03174603174602,195.95238095238093,-325.0,174.2063492063492,115.31746031746032,325.0,-60.39682539682539,325.0,-151.66666666666666,-93.25396825396825,-325.0,26.11111111111111,-129.28571428571428,-140.07936507936506,5.634920634920634,6.26984126984127,-321.8253968253968
92,57.22222222222222,-60.873015873015866,325.0,-267.38095238095235,80.71428571428571,165.95238095238093,74.84126984126983,121.03174603174602,195.95238095238093,-325.0,174.2063492063492,115.31746031746032,325.0,-60.39682539682539,325.0,-151.66666666666666,-93.25396825396825,-325.0,26.11111111111111,-129.28571428571428,-140.07936507936506,5.634920634920634,6.26984126984127,-321.8253968253968
93,57.22222222222222,-60.873015873015866,325.0,-267.38095238095235,80.71428571428571,165.95238095238093,74.84126984126983,121.03174603174602,195.95238095238093,-325.0,174.2063492063492,115.31746031746032,325.0,-60.39682539682539,325.0,-151.66666666666666,-93.25396825396825,-325.0,26.11111111111111,-129.28571428571428,-140.07936507936506,5.634920634920634,6.26984126984127,-321.8253968253968
94,57.22222222222222,-60.873015873015866,325.0,-267.38095238095235,80.71428571428571,165.95238095238093,74.84126984126983,121.03174603174602,195.95238095238093,-325.0,174.2063492063492,115.31746031746032,325.0,-60.39682539682539,325.0,-151.66666666666666,-93.25396825396825,-325.0,26.11111111111111,-129.28571428571428,-140.07936507936506,5.634920634920634,6.26984126984127,-321.8253968253968
95,57.22222222222222,-60.873015873015866,325.0,-267.38095238095235,80.71428571428571,165.95238095238093,74.84126984126983,121.03174603174602,195.95238095238093,-325.0,174.2063492063492,115.31746031746032,325.0,-60.39682539682539,325.0,-151.66666666666666,-93.25396825396825,-325.0,26.11111111111111,-129.28571428571428,-140.07936507936506,5.634920634920634,6.26984126984127,-321.8253968253968
96,57.22222222222222,-60.873015873015866,325.0,-267.38095238095235,80.71428571428571,165.95238095238093,74.84126984126983,121.03174603174602,195.95238095238093,-325.0,174.2063492063492,115.31746031746032,325.0,-60.39682539682539,325.0,-151.66666666666666,-93.25396825396825,-325.0,26.11111111111111,-129.28571428571428,-140.07936507936506,5.634920634920634,6.26984126984127,-321.8253968253968
97,57.22222222222222,-60.873015873015866,325.0,-267.38095238095235,80.71428571428571,165.95238095238093,74.84126984126983,121.03174603174602,195.95238095238093,-325.0,174.2063492063492,115.31746031746032,325.0,-60.39682539682539,325.0,-151.66666666666666,-93.25396825396825,-325.0,26.11111111111111,-129.28571428571428,-140.07936507936506,5.634920634920634,6.26984126984127,-321.8253968253968
98,57.22222222222222,-60.873015873015866,325.0,-267.38095238095235,80.71428571428571,165.95238095238093,74.84126984126983,121.03174603174602,195.95238095238093,-325.0,174.2063492063492,115.31746031746032,325.0,-60.39682539682539,325.0,-151.66666666666666,-93.25396825396825,-325.0,26.11111111111111,-129.28571428571428,-140.07936507936506,5.634920634920634,6.26984126984127,-321.8253968253968
99,57.22222222222222,-60.873015873015866,325.0,-267.38095238095235,80.71428571428571,165.95238095238093,74.84126984126983,121.03174603174602,195.95238095238093,-325.0,174.2063492063492,115.31746031746032,325.0,-60.39682539682539,325.0,-151.66666666666666,-93.25396825396825,-325.0,26.11111111111111,-129.28571428571428,-140.07936507936506,5.634920634920634,6.26984126984127,-321.8253968253968
100,57.22222222222222,-60.873015873015866,325.0,-267.38095238095235,80.71428571428571,165.95238095238093,74.84126984126983,121.03174603174602,195.95238095238093,-325.0,174.2063492063492,115.31746031746032,325.0,-60.39682539682539,325.0,-151.66666666666666,-93.25396825396825,-325.0,26.11111111111111,-129.28571428571428,-140.07936507936506,5.634920634920634,6.26984126984127,-166.26984126984127
101,57.22222222222222,-60.873015873015866,325.0,-267.38095238095235,80.71428571428571,165.95238095238093,74.84126984126983,121.03174603174602,195.95238095238093,-325.0,174.2063492063492,115.31746031746032,325.0,-60.39682539682539,325.0,-151.66666666666666,-93.25396825396825,-325.0,26.11111111111111,-129.28571428571428,-140.07936507936506,5.634920634920634,6.26984126984127,-166.26984126984127
102,57.22222222222222,-60.873015873015866,325.0,-267.38095238095235,80.71428571428571,165.95238095238093,74.84126984126983,121.03174603174602,195.95238095238093,-325.0,174.2063492063492,115.31746031746032,325.0,-60.39682539682539,325.0,-151.66666666666666,-93.25396825396825,-325.0,26.11111111111111,-129.28571428571428,-140.07936507936506,5.634920634920634,6.26984126984127,-166.26984126984127
103,57.22222222222222,-60.873015873015866,325.0,-267.38095238095235,80.71428571428571,165.95238095238093,74.84126984126983,121.03174603174602,195.95238095238093,-325.0,174.2063492063492,115.31746031746032,325.0,-60.39682539682539,325.0,-151.66666666666666,-93.25396825396825,-325.0,26.11111111111111,-129.28571428571428,-140.07936507936506,5.634920634920634,6.26984126984127,-166.26984126984127
104,57.22222222222222,-60.873015873015866,325.0,-267.38095238095235,80.71428571428571,165.95238095238093,74.84126984126983,121.03174603174602,195.95238095238093,-325.0,174.2063492063492,115.31746031746032,325.0,-60.39682539682539,325.0,-151.66666666666666,-93.25396825396825,-325.0,26.11111111111111,-129.28571428571428,-140.07936507936506,5.634920634920634,6.26984126984127,-166.26984126984127
105,57.22222222222222,-60.873015873015866,325.0,-267.38095238095235,80.71428571428571,165.95238095238093,74.84126984126983,121.03174603174602,195.95238095238093,-325.0,174.2063492063492,115.31746031746032,325.0,-60.39682539682539,325.0,-151.66666666666666,-93.25396825396825,-325.0,26.11111111111111,-129.28571428571428,-140.07936507936506,5.634920634920634,6.26984126984127,-166.26984126984127
106,57.22222222222222,-60.873015873015866,325.0,-267.38095238095235,80.71428571428571,165.95238095238093,74.84126984126983,121.03174603174602,195.95238095238093,-325.0,174.2063492063492,115.31746031746032,325.0,-60.39682539682539,325.0,-151.66666666666666,-93.25396825396825,-325.0,26.11111111111111,-129.28571428571428,-140.07936507936506,5.634920634920634,6.26984126984127,-166.26984126984127
107,57.22222222222222,-60.873015873015866,325.0,-267.38095238095235,80.71428571428571,165.95238095238093,74.84126984126983,121.03174603174602,195.95238095238093,-325.0,174.2063492063492,115.31746031746032,325.0,-60.39682539682539,325.0,-151.66666666666666,-93.25396825396825,-325.0,26.11111111111111,-129.28571428571428,-140.07936507936506,5.634920634920634,6.26984126984127,-166.26984126984127
108,57.22222222222222,-60.873015873015866,325.0,-267.38095238095235,80.71428571428571,165.95238095238093,74.84126984126983,121.03174603174602,195.95238095238093,-325.0,174.2063492063492,115.31746031746032,325.0,-60.39682539682539,325.0,-151.66666666666666,-93.25396825396825,-325.0,26.11111111111111,-129.28571428571428,-140.07936507936506,5.634920634920634,6.26984126984127,-166.26984126984127
109,57.22222222222222,-60.873015873015866,325.0,-267.38095238095235,80.71428571428571,165.95238095238093,74.84126984126983,121.03174603174602,195.95238095238093,-325.0,174.2063492063492,115.31746031746032,325.0,-60.39682539682539,325.0,-151.66666666666666,-93.25396825396825,-325.0,26.11111111111111,-129.28571428571428,-140.07936507936506,5.634920634920634,6.26984126984127,-166.26984126984127
110,57.22222222222222,-60.873015873015866,325.0,-267.38095238095235,80.71428571428571,165.95238095238093,74.84126984126983,121.03174603174602,195.95238095238093,-325.0,174.2063492063492,115.31746031746032,325.0,-60.39682539682539,325.0,-151.66666666666666,-93.25396825396825,-325.0,26.11111111111111,-129.28571428571428,-140.07936507936506,5.634920634920634,6.26984126984127,-321.8253968253968
111,57.22222222222222,-60.873015873015866,325.0,-267.38095238095235,80.71428571428571,165.95238095238093,74.84126984126983,121.03174603174602,195.95238095238093,-325.0,174.2063492063492,115.31746031746032,325.0,-60.39682539682539,325.0,-151.66666666666666,-93.25396825396825,-325.0,26.11111111111111,-129.28571428571428,-140.07936507936506,5.634920634920634,6.26984126984127,-321.8253968253968
112,-17.698412698412696,190.7142857142857,-300.7142857142857,-301.5079365079365,208.65079365079364,-225.47619047619045,-194.04761904761904,298.8095238095238,-184.2063492063492,-101.66666666666666,59.285714285714285,240.3968253968254,-187.85714285714283,-136.9047619047619,39.12698412698413,-314.04761904761904,-250.07936507936506,-205.79365079365078,-38.96825396825397,-260.07936507936506,224.84126984126982,61.507936507936506,-34.36507936507936,-321.8253968253968
113,-17.698412698412696,190.7142857142857,-300.7142857142857,-301.5079365079365,208.65079365079364,-225.47619047619045,-194.04761904761904,298.8095238095238,-184.2063492063492,-101.66666666666666,59.285714285714285,240.3968253968254,-187.85714285714283,-136.9047619047619,39.12698412698413,-314.04761904761904,-250.07936507936506,-205.79365079365078,-38.96825396825397,-260.07936507936506,224.84126984126982,61.507936507936506,-34.36507936507936,-321.8253968253968
114,-17.698412698412696,190.7142857142857,-300.7142857142857,-301.5079365079365,208.65079365079364,-225.47619047619045,-194.04761904761904,298.8095238095238,-184.2063492063492,-101.66666666666666,59.285714285714285,240.3968253968254,-187.85714285714283,-136.9047619047619,39.12698412698413,-314.04761904761904,-250.07936507936506,-205.79365079365078,-38.96825396825397,-260.07936507936506,224.84126984126982,61.507936507936506,-34.36507936507936,-321.8253968253968
115,-17.698412698412696,190.7142857142857,-300.7142857142857,-301.5079365079365,208.65079365079364,-225.47619047619045,-194.04761904761904,298.8095238095238,-184.2063492063492,-101.66666666666666,59.285714285714285,240.3968253968254,-187.85714285714283,-136.9047619047619,39.12698412698413,-314.04761904761904,-250.07936507936506,-205.79365079365078,-38.96825396825397,-260.07936507936506,224.84126984126982,61.507936507936506,-34.36507936507936,-321.8253968253968
116,6.746031746031746,78.01587301587301,2.7777777777777777,-228.015873015873,127.22222222222221,-275.3174603174603,-76.26984126984127,184.36507936507937,-35.317460317460316,-152.14285714285714,192.14285714285714,152.77777777777777,68.4920634920635,-85.47619047619047,162.61904761904762,-201.19047619047618,-151.66666666666666,-265.4761904761905,-18.96825396825397,-167.2222222222222,72.61904761904762,20.07936507936508,-30.555555555555554,-321.8253968253968
117,6.746031746031746,78.01587301587301,2.7777777777777777,-228.015873015873,127.22222222222221,-275.3174603174603,-76.26984126984127,184.36507936507937,-35.317460317460316,-152.14285714285714,192.14285714285714,152.77777777777777,68.4920634920635,-85.47619047619047,162.61904761904762,-201.19047619047618,-151.66666666666666,-265.4761904761905,-18.96825396825397,-167.2222222222222,72.61904761904762,20.07936507936508,-30.555555555555554,-321.8253968253968
118,31.349206349206348,-34.52380952380952,306.26984126984127,-154.52380952380952,45.95238095238095,-325.0,41.507936507936506,70.07936507936508,113.57142857142857,-202.61904761904762,325.0,65.31746031746032,325.0,-34.047619047619044,286.26984126984127,-88.33333333333333,-53.095238095238095,-325.0,1.1904761904761905,-74.36507936507937,-79.44444444444444,-21.349206349206348,-26.746031746031743,-321.8253968253968
119,31.349206349206348,-34.52380952380952,306.26984126984127,-154.52380952380952,45.95238095238095,-325.0,41.507936507936506,70.07936507936508,113.57142857142857,-202.61904761904762,325.0,65.31746031746032,325.0,-34.047619047619044,286.26984126984127,-88.33333333333333,-53.095238095238095,-325.0,1.1904761904761905,-74.36507936507937,-79.44444444444444,-21.349206349206348,-26.746031746031743,-321.8253968253968
120,31.349206349206348,-34.52380952380952,306.26984126984127,-154.52380952380952,45.95238095238095,-325.0,41.507936507936506,70.07936507936508,113.57142857142857,-202.61904761904762,325.0,65.31746031746032,325.0,-34.047619047619044,286.26984126984127,-88.33333333333333,-53.095238095238095,-325.0,1.1904761904761905,-74.36507936507937,-79.44444444444444,-21.349206349206348,-26.746031746031743,-166.26984126984127
121,31.349206349206348,-34.52380952380952,306.26984126984127,-154.52380952380952,45.95238095238095,-325.0,41.507936507936506,70.07936507936508,113.57142857142857,-202.61904761904762,325.0,65.31746031746032,325.0,-34.047619047619044,286.26984126984127,-88.33333333333333,-53.095238095238095,-325.0,1.1904761904761905,-74.36507936507937,-79.44444444444444,-21.349206349206348,-26.746031746031743,-166.26984126984127
122,31.349206349206348,-34.52380952380952,306.26984126984127,-154.52380952380952,45.95238095238095,-325.0,41.507936507936506,70.07936507936508,113.57142857142857,-202.61904761904762,325.0,65.31746031746032,325.0,-34.047619047619044,286.26984126984127,-88.33333333333333,-53.095238095238095,-325.0,1.1904761904761905,-74.36507936507937,-79.44444444444444,-21.349206349206348,-26.746031746031743,-166.26984126984127
123,31.349206349206348,-34.52380952380952,306.26984126984127,-154.52380952380952,45.95238095238095,-325.0,41.507936507936506,70.07936507936508,113.57142857142857,-202.61904761904762,325.0,65.31746031746032,325.0,-34.047619047619044,286.26984126984127,-88.33333333333333,-53.095238095238095,-325.0,1.1904761904761905,-74.36507936507937,-79.44444444444444,-21.349206349206348,-26.746031746031743,-166.26984126984127
124,31.349206349206348,-34.52380952380952,306.26984126984127,-154.52380952380952,45.95238095238095,-325.0,41.507936507936506,70.07936507936508,113.57142857142857,-202.61904761904762,325.0,65.31746031746032,325.0,-34.047619047619044,286.26984126984127,-88.33333333333333,-53.095238095238095,-325.0,1.1904761904761905,-74.36507936507937,-79.44444444444444,-21.349206349206348,-26.746031746031743,-166.26984126984127
125,31.349206349206348,-34.52380952380952,306.26984126984127,-154.52380952380952,45.95238095238095,-325.0,41.507936507936506,70.07936507936508,113.57142857142857,-202.61904761904762,325.0,65.31746031746032,325.0,-34.047619047619044,286.26984126984127,-88.33333333333333,-53.095238095238095,-325.0,1.1904761904761905,-74.36507936507937,-79.44444444444444,-21.349206349206348,-26.746031746031743,-166.26984126984127
126,29.76190476190476,-32.93650793650794,293.25396825396825,-148.015873015873,43.888888888888886,-325.0,39.76190476190476,-58.49206349206349,108.80952380952381,-194.36507936507937,325.0,62.61904761904761,325.0,-32.460317460317455,274.5238095238095,-84.84126984126983,-49.285714285714285,-325.0,-1.8253968253968254,-71.34920634920634,-75.95238095238095,0.5555555555555556,1.349206349206349,-166.26984126984127
127,29.76190476190476,-32.93650793650794,293.25396825396825,-148.015873015873,43.888888888888886,-325.0,39.76190476190476,-58.49206349206349,108.80952380952381,-194.36507936507937,325.0,62.61904761904761,325.0,-32.460317460317455,274.5238095238095,-84.84126984126983,-49.285714285714285,-325.0,-1.8253968253968254,-71.34920634920634,-75.95238095238095,0.5555555555555556,1.349206349206349,-166.26984126984127
128,28.015873015873016,-30.87301587301587,276.58730158730157,-139.6031746031746,41.19047619047619,-325.0,37.22222222222222,-48.01587301587301,102.77777777777777,-183.7301587301587,324.2063492063492,59.285714285714285,323.57142857142856,-30.555555555555554,259.6031746031746,-80.39682539682539,-46.904761904761905,-325.0,-6.428571428571428,-67.22222222222221,-71.66666666666666,-0.7142857142857142,1.507936507936508,-166.26984126984127
129,28.015873015873016,-30.87301587301587,276.58730158730157,-139.6031746031746,41.19047619047619,-325.0,37.22222222222222,-48.01587301587301,102.77777777777777,-183.7301587301587,324.2063492063492,59.285714285714285,323.57142857142856,-30.555555555555554,259.6031746031746,-80.39682539682539,-46.904761904761905,-325.0,-6.428571428571428,-67.22222222222221,-71.66666666666666,-0.7142857142857142,1.507936507936508,-166.26984126984127
130,10.555555555555555,-37.38095238095238,102.14285714285714,-70.87301587301587,167.85714285714286,-213.4126984126984,18.65079365079365,-149.9206349206349,-111.5079365079365,-220.07936507936506,165.3174603174603,94.68253968253968,-1.984126984126984,47.22222222222222,-21.19047619047619,-44.2063492063492,99.12698412698413,-229.60317460317458,-144.68253968253967,-185.47619047619045,-17.38095238095238,-174.84126984126982,-129.44444444444443,-321.8253968253968
131,10.555555555555555,-37.38095238095238,102.14285714285714,-70.87301587301587,167.85714285714286,-213.4126984126984,18.65079365079365,-149.9206349206349,-111.5079365079365,-220.07936507936506,165.3174603174603,94.68253968253968,-1.984126984126984,47.22222222222222,-21.19047619047619,-44.2063492063492,99.12698412698413,-229.60317460317458,-144.68253968253967,-185.47619047619045,-17.38095238095238,-174.84126984126982,-129.44444444444443,-321.8253968253968
132,-6.26984126984127,-44.047619047619044,-68.80952380952381,-4.2063492063492065,295.0,-101.66666666666666,0.873015873015873,-14.047619047619047,-324.36507936507934,-258.968253968254,17.698412698412696,131.19047619047618,-323.57142857142856,124.52380952380952,-298.4920634920635,-9.285714285714285,245.63492063492063,-134.04761904761904,-285.3174603174603,-304.68253968253964,35.63492063492063,-325.0,-226.42857142857142,-321.8253968253968
133,-6.26984126984127,-44.047619047619044,-68.80952380952381,-4.2063492063492065,295.0,-101.66666666666666,0.873015873015873,-14.047619047619047,-324.36507936507934,-258.968253968254,17.698412698412696,131.19047619047618,-323.57142857142856,124.52380952380952,-298.4920634920635,-9.285714285714285,245.63492063492063,-134.04761904761904,-285.3174603174603,-304.68253968253964,35.63492063492063,-325.0,-226.42857142857142,-321.8253968253968
134,25.317460317460316,-28.015873015873016,253.4126984126984,-127.38095238095238,37.698412698412696,-325.0,33.888888888888886,-325.0,93.88888888888889,-168.015873015873,279.6031746031746,-325.0,296.90476190476187,-27.857142857142854,238.17460317460316,-73.25396825396825,128.17460317460316,-325.0,-17.38095238095238,-61.19047619047619,-65.15873015873015,1.0317460317460316,0.873015873015873,-321.8253968253968
135,25.317460317460316,-28.015873015873016,253.4126984126984,-127.38095238095238,37.698412698412696,-325.0,33.888888888888886,-325.0,93.88888888888889,-168.015873015873,279.6031746031746,-325.0,296.90476190476187,-27.857142857142854,238.17460317460316,-73.25396825396825,128.17460317460316,-325.0,-17.38095238095238,-61.19047619047619,-65.15873015873015,1.0317460317460316,0.873015873015873,-321.8253968253968
136,25.0,-27.698412698412696,249.76190476190476,-125.47619047619047,37.22222222222222,-325.0,33.73015873015873,-325.0,92.77777777777777,-165.79365079365078,293.25396825396825,-325.0,292.9365079365079,-27.38095238095238,235.15873015873015,-72.46031746031746,325.0,-325.0,-19.126984126984127,-60.39682539682539,-64.36507936507937,20.238095238095237,30.07936507936508,-321.8253968253968
137,25.0,-27.698412698412696,249.76190476190476,-125.47619047619047,37.22222222222222,-325.0,33.73015873015873,-325.0,92.77777777777777,-165.79365079365078,293.25396825396825,-325.0,292.9365079365079,-27.38095238095238,235.15873015873015,-72.46031746031746,325.0,-325.0,-19.126984126984127,-60.39682539682539,-64.36507936507937,20.238095238095237,30.07936507936508,-321.8253968253968
138,25.0,-27.698412698412696,249.76190476190476,-125.47619047619047,37.22222222222222,-325.0,33.73015873015873,-325.0,92.77777777777777,-165.79365079365078,293.25396825396825,-325.0,292.9365079365079,-27.38095238095238,235.15873015873015,-72.46031746031746,325.0,-325.0,-19.126984126984127,-60.39682539682539,-64.36507936507937,20.238095238095237,30.07936507936508,-321.8253968253968
139,25.0,-27.698412698412696,249.76190476190476,-125.47619047619047,37.22222222222222,-325.0,33.73015873015873,-325.0,92.77777777777777,-165.79365079365078,293.25396825396825,-325.0,292.9365079365079,-27.38095238095238,235.15873015873015,-72.46031746031746,325.0,-325.0,-19.126984126984127,-60.39682539682539,-64.36507936507937,20.238095238095237,30.07936507936508,-321.8253968253968
140,25.0,-27.698412698412696,249.76190476190476,-125.47619047619047,37.22222222222222,-325.0,33.73015873015873,-325.0,92.77777777777777,-165.79365079365078,293.25396825396825,-325.0,292.9365079365079,-27.38095238095238,235.15873015873015,-72.46031746031746,325.0,-325.0,-19.126984126984127,-60.39682539682539,-64.36507936507937,20.238095238095237,30.07936507936508,-166.26984126984127
141,25.0,-27.698412698412696,249.76190476190476,-125.47619047619047,37.22222222222222,-325.0,33.73015873015873,-325.0,92.77777777777777,-165.79365079365078,293.25396825396825,-325.0,292.9365079365079,-27.38095238095238,235.15873015873015,-72.46031746031746,325.0,-325.0,-19.126984126984127,-60.39682539682539,-64.36507936507937,20.238095238095237,30.07936507936508,-166.26984126984127
142,23.41269841269841,-25.79365079365079,236.1111111111111,-118.65079365079364,35.15873015873016,-325.0,31.349206349206348,-325.0,87.53968253968253,-156.58730158730157,224.84126984126982,-325.0,276.90476190476187,-25.634920634920633,222.46031746031744,-68.4920634920635,287.53968253968253,-317.69841269841265,-24.84126984126984,-57.06349206349206,-60.39682539682539,1.8253968253968254,2.3015873015873014,-166.26984126984127
143,23.41269841269841,-25.79365079365079,236.1111111111111,-118.65079365079364,35.15873015873016,-325.0,31.349206349206348,-325.0,87.53968253968253,-156.58730158730157,224.84126984126982,-325.0,276.90476190476187,-25.634920634920633,222.46031746031744,-68.4920634920635,287.53968253968253,-317.69841269841265,-24.84126984126984,-57.06349206349206,-60.39682539682539,1.8253968253968254,2.3015873015873014,-166.26984126984127
144,23.095238095238095,-25.634920634920633,232.93650793650792,-116.9047619047619,34.52380952380952,-325.0,31.03174603174603,-325.0,86.42857142857143,-154.84126984126982,251.8253968253968,-325.0,273.4126984126984,-25.317460317460316,219.44444444444443,-67.6984126984127,325.0,-313.88888888888886,-21.03174603174603,-56.42857142857142,-59.6031746031746,-2.142857142857143,-1.0317460317460316,-166.26984126984127
145,23.095238095238095,-25.634920634920633,232.93650793650792,-116.9047619047619,34.52380952380952,-325.0,31.03174603174603,-325.0,86.42857142857143,-154.84126984126982,251.8253968253968,-325.0,273.4126984126984,-25.317460317460316,219.44444444444443,-67.6984126984127,325.0,-313.88888888888886,-21.03174603174603,-56.42857142857142,-59.6031746031746,-2.142857142857143,-1.0317460317460316,-166.26984126984127
146,22.46031746031746,-24.84126984126984,226.74603174603175,-114.04761904761904,33.73015873015873,-325.0,30.07936507936508,-325.0,84.04761904761904,-150.7142857142857,203.09523809523807,-325.0,266.4285714285714,-24.84126984126984,214.04761904761904,-65.95238095238095,325.0,-306.26984126984127,-16.11111111111111,-54.68253968253968,-58.17460317460317,-1.6666666666666665,-0.3968253968253968,-166.26984126984127
147,22.46031746031746,-24.84126984126984,226.74603174603175,-114.04761904761904,33.73015873015873,-325.0,30.07936507936508,-325.0,84.04761904761904,-150.7142857142857,203.09523809523807,-325.0,266.4285714285714,-24.84126984126984,214.04761904761904,-65.95238095238095,325.0,-306.26984126984127,-16.11111111111111,-54.68253968253968,-58.17460317460317,-1.6666666666666665,-0.3968253968253968,-166.26984126984127
148,21.825396825396822,-24.365079365079364,221.8253968253968,-111.5079365079365,32.77777777777778,-325.0,29.285714285714285,-325.0,82.3015873015873,-147.53968253968253,210.3968253968254,-325.0,260.55555555555554,-24.206349206349206,209.60317460317458,-64.52380952380952,325.0,-300.23809523809524,-15.158730158730158,-53.73015873015873,-56.74603174603174,-24.523809523809522,-31.349206349206348,-166.26984126984127
149,21.825396825396822,-24.365079365079364,221.8253968253968,-111.5079365079365,32.77777777777778,-325.0,29.285714285714285,-325.0,82.3015873015873,-147.53968253968253,210.3968253968254,-325.0,260.55555555555554,-24.206349206349206,209.60317460317458,-64.52380952380952,325.0,-300.23809523809524,-15.158730158730158,-53.73015873015873,-56.74603174603174,-24.523809523809522,-31.349206349206348,-166.26984126984127
150,21.349206349206348,-23.730158730158728,216.1111111111111,-108.33333333333333,31.98412698412698,-325.0,28.65079365079365,-325.0,80.07936507936508,-143.73015873015873,-18.49206349206349,-325.0,253.88888888888889,-23.57142857142857,204.2063492063492,-62.460317460317455,325.0,-292.9365079365079,-11.19047619047619,-52.3015873015873,-55.317460317460316,3.571428571428571,5.317460317460317,-321.8253968253968
151,21.349206349206348,-23.730158730158728,216.1111111111111,-108.33333333333333,31.98412698412698,-325.0,28.65079365079365,-325.0,80.07936507936508,-143.73015873015873,-18.49206349206349,-325.0,253.88888888888889,-23.57142857142857,204.2063492063492,-62.460317460317455,325.0,-292.9365079365079,-11.19047619047619,-52.3015873015873,-55.317460317460316,3.571428571428571,5.317460317460317,-321.8253968253968
152,20.71428571428571,-23.095238095238095,210.3968253968254,-105.47619047619047,31.19047619047619,-325.0,27.698412698412696,-325.0,78.17460317460316,-139.9206349206349,-46.11111111111111,-325.0,247.38095238095238,-22.777777777777775,199.12698412698413,-52.77777777777777,325.0,-285.7936507936508,-14.365079365079364,-50.71428571428571,-53.73015873015873,22.46031746031746,30.396825396825395,-321.8253968253968
153,20.71428571428571,-23.095238095238095,210.3968253968254,-105.47619047619047,31.19047619047619,-325.0,27.698412698412696,-325.0,78.17460317460316,-139.9206349206349,-46.11111111111111,-325.0,247.38095238095238,-22.777777777777775,199.12698412698413,-52.77777777777777,325.0,-285.7936507936508,-14.365079365079364,-50.71428571428571,-53.73015873015873,22.46031746031746,30.396825396825395,-321.8253968253968
154,20.396825396825395,-22.46031746031746,206.58730158730157,-103.88888888888889,30.71428571428571,-325.0,27.22222222222222,-325.0,76.58730158730158,-137.38095238095238,-220.07936507936506,-325.0,243.25396825396825,-22.46031746031746,195.63492063492063,-54.2063492063492,325.0,-281.19047619047615,-21.03174603174603,-49.92063492063492,-52.77777777777777,-22.936507936507937,-30.555555555555554,-321.8253968253968
155,20.396825396825395,-22.46031746031746,206.58730158730157,-103.88888888888889,30.71428571428571,-325.0,27.22222222222222,-325.0,76.58730158730158,-137.38095238095238,-220.07936507936506,-325.0,243.25396825396825,-22.46031746031746,195.63492063492063,-54.2063492063492,325.0,-281.19047619047615,-21.03174603174603,-49.92063492063492,-52.77777777777777,-22.936507936507937,-30.555555555555554,-321.8253968253968
156,19.92063492063492,-22.142857142857142,202.93650793650792,-101.82539682539682,30.07936507936508,-325.0,26.9047619047619,-325.0,75.15873015873015,-135.0,-143.4126984126984,-325.0,238.8095238095238,-22.142857142857142,192.3015873015873,-52.460317460317455,325.0,-276.74603174603175,-19.6031746031746,-48.96825396825397,-51.82539682539682,22.3015873015873,30.71428571428571,-321.8253968253968
157,19.92063492063492,-22.142857142857142,202.93650793650792,-101.82539682539682,30.07936507936508,-325.0,26.9047619047619,-325.0,75.15873015873015,-135.0,-143.4126984126984,-325.0,238.8095238095238,-22.142857142857142,192.3015873015873,-52.460317460317455,325.0,-276.74603174603175,-19.6031746031746,-48.96825396825397,-51.82539682539682,22.3015873015873,30.71428571428571,-321.8253968253968
158,19.444444444444443,-21.507936507936506,197.53968253968253,-99.12698412698413,29.285714285714285,-325.0,25.952380952380953,-325.0,73.4126984126984,-131.5079365079365,-325.0,-325.0,232.77777777777777,-21.349206349206348,187.38095238095238,-57.53968253968254,325.0,-269.9206349206349,-36.58730158730159,-47.698412698412696,-50.238095238095234,5.952380952380952,7.698412698412698,-321.8253968253968
159,19.444444444444443,-21.507936507936506,197.53968253968253,-99.12698412698413,29.285714285714285,-325.0,25.952380952380953,-325.0,73.4126984126984,-131.5079365079365,-325.0,-325.0,232.77777777777777,-21.349206349206348,187.38095238095238,-57.53968253968254,325.0,-269.9206349206349,-36.58730158730159,-47.698412698412696,-50.238095238095234,5.952380952380952,7.698412698412698,-321.8253968253968
160,19.126984126984127,-21.19047619047619,194.2063492063492,-97.53968253968253,28.65079365079365,-325.0,25.634920634920633,-325.0,71.98412698412697,-129.28571428571428,-215.95238095238093,-325.0,228.8095238095238,-21.19047619047619,184.2063492063492,-3.4126984126984126,325.0,-265.4761904761905,-38.49206349206349,-47.06349206349206,-49.6031746031746,-8.492063492063492,-8.968253968253968,-166.26984126984127
161,19.126984126984127,-21.19047619047619,194.2063492063492,-97.53968253968253,28.65079365079365,-325.0,25.634920634920633,-325.0,71.98412698412697,-129.28571428571428,-215.95238095238093,-325.0,228.8095238095238,-21.19047619047619,184.2063492063492,-3.4126984126984126,325.0,-265.4761904761905,-38.49206349206349,-47.06349206349206,-49.6031746031746,-8.492063492063492,-8.968253968253968,-166.26984126984127
162,23.41269841269841,-162.93650793650792,-63.57142857142857,-200.87301587301587,39.285714285714285,-225.79365079365078,22.936507936507937,-325.0,147.69841269841268,-74.52380952380952,-62.14285714285714,-189.9206349206349,266.1111111111111,-140.55555555555554,-70.87301587301587,-19.285714285714285,300.87301587301585,-127.22222222222221,-0.07936507936507936,19.6031746031746,-23.253968253968253,0.3968253968253968,-39.6031746031746,-166.26984126984127
163,23.41269841269841,-162.93650793650792,-63.57142857142857,-200.87301587301587,39.285714285714285,-225.79365079365078,22.936507936507937,-325.0,147.69841269841268,-74.52380952380952,-62.14285714285714,-189.9206349206349,266.1111111111111,-140.55555555555554,-70.87301587301587,-19.285714285714285,300.87301587301585,-127.22222222222221,-0.07936507936507936,19.6031746031746,-23.253968253968253,0.3968253968253968,-39.6031746031746,-166.26984126984127
164,22.936507936507937,-162.3015873015873,-67.6984126984127,-198.8095238095238,38.01587301587301,-225.79365079365078,22.3015873015873,-325.0,145.95238095238093,-71.66666666666666,-62.14285714285714,-189.9206349206349,261.5079365079365,-139.9206349206349,-74.68253968253968,4.841269841269841,300.87301587301585,-121.66666666666666,-143.57142857142856,21.03174603174603,-22.142857142857142,8.809523809523808,-29.920634920634917,-166.26984126984127
165,22.936507936507937,-162.3015873015873,-67.6984126984127,-198.8095238095238,38.01587301587301,-225.79365079365078,22.3015873015873,-325.0,145.95238095238093,-71.66666666666666,-62.14285714285714,-189.9206349206349,261.5079365079365,-139.9206349206349,-74.68253968253968,4.841269841269841,300.87301587301585,-121.66666666666666,-143.57142857142856,21.03174603174603,-22.142857142857142,8.809523809523808,-29.920634920634917,-166.26984126984127
166,17.857142857142858,-19.76190476190476,182.3015873015873,-91.34920634920634,26.9047619047619,-325.0,23.88888888888889,-325.0,67.53968253968253,-121.5079365079365,-249.12698412698413,-325.0,215.15873015873015,-19.6031746031746,173.4126984126984,78.33333333333333,325.0,-250.7142857142857,-325.0,-43.888888888888886,-46.269841269841265,20.238095238095237,29.285714285714285,-166.26984126984127
167,17.857142857142858,-19.76190476190476,182.3015873015873,-91.34920634920634,26.9047619047619,-325.0,23.88888888888889,-325.0,67.53968253968253,-121.5079365079365,-249.12698412698413,-325.0,215.15873015873015,-19.6031746031746,173.4126984126984,78.33333333333333,325.0,-250.7142857142857,-325.0,-43.888888888888886,-46.269841269841265,20.238095238095237,29.285714285714285,-166.26984126984127
168,17.38095238095238,-19.444444444444443,177.69841269841268,-88.80952380952381,21.507936507936506,-325.0,23.253968253968253,-325.0,65.79365079365078,-118.33333333333333,-325.0,-325.0,209.60317460317458,-19.126984126984127,169.12698412698413,105.47619047619047,325.0,-244.52380952380952,-325.0,-42.61904761904761,-44.84126984126984,7.698412698412698,9.761904761904761,-166.26984126984127
169,17.38095238095238,-19.444444444444443,177.69841269841268,-88.80952380952381,21.507936507936506,-325.0,23.253968253968253,-325.0,65.79365079365078,-118.33333333333333,-325.0,-325.0,209.60317460317458,-19.126984126984127,169.12698412698413,105.47619047619047,325.0,-244.52380952380952,-325.0,-42.61904761904761,-44.84126984126984,7.698412698412698,9.761904761904761,-166.26984126984127
170,17.22222222222222,-18.96825396825397,175.3174603174603,-87.6984126984127,26.587301587301585,-325.0,22.936507936507937,-325.0,65.0,-116.74603174603173,-325.0,-325.0,206.9047619047619,-18.80952380952381,166.58730158730157,251.03174603174602,325.0,-241.5079365079365,-325.0,-42.3015873015873,-44.36507936507936,11.666666666666666,18.65079365079365,-321.8253968253968
171,17.22222222222222,-18.96825396825397,175.3174603174603,-87.6984126984127,26.587301587301585,-325.0,22.936507936507937,-325.0,65.0,-116.74603174603173,-325.0,-325.0,206.9047619047619,-18.80952380952381,166.58730158730157,251.03174603174602,325.0,-241.5079365079365,-325.0,-42.3015873015873,-44.36507936507936,11.666666666666666,18.65079365079365,-321.8253968253968
172,16.746031746031743,-18.65079365079365,171.34920634920633,-85.79365079365078,4.2063492063492065,-325.0,22.46031746031746,-325.0,63.57142857142857,-114.36507936507935,-325.0,-325.0,202.3015873015873,-18.49206349206349,163.25396825396825,310.07936507936506,325.0,-236.58730158730157,-325.0,-41.507936507936506,-43.41269841269841,8.174603174603174,11.19047619047619,-321.8253968253968
173,16.746031746031743,-18.65079365079365,171.34920634920633,-85.79365079365078,4.2063492063492065,-325.0,22.46031746031746,-325.0,63.57142857142857,-114.36507936507935,-325.0,-325.0,202.3015873015873,-18.49206349206349,163.25396825396825,310.07936507936506,325.0,-236.58730158730157,-325.0,-41.507936507936506,-43.41269841269841,8.174603174603174,11.19047619047619,-321.8253968253968
174,16.26984126984127,-18.174603174603174,167.53968253968253,-83.73015873015872,-15.0,-324.2063492063492,17.698412698412696,-325.0,62.3015873015873,-111.98412698412697,-325.0,-325.0,197.85714285714283,-7.3809523809523805,159.76190476190476,325.0,325.0,-231.8253968253968,-325.0,-40.55555555555555,-42.3015873015873,-0.3968253968253968,-0.07936507936507936,-321.8253968253968
175,16.26984126984127,-18.174603174603174,167.53968253968253,-83.73015873015872,-15.0,-324.2063492063492,17.698412698412696,-325.0,62.3015873015873,-111.98412698412697,-325.0,-325.0,197.85714285714283,-7.3809523809523805,159.76190476190476,325.0,325.0,-231.8253968253968,-325.0,-40.55555555555555,-42.3015873015873,-0.3968253968253968,-0.07936507936507936,-321.8253968253968
176,15.95238095238095,-17.698412698412696,164.68253968253967,-82.3015873015873,16.428571428571427,-320.87301587301585,20.71428571428571,-325.0,61.19047619047619,-109.92063492063491,-325.0,-325.0,194.84126984126982,-17.38095238095238,157.06349206349205,260.07936507936506,325.0,-227.85714285714283,-325.0,-39.6031746031746,-41.666666666666664,29.444444444444443,40.87301587301587,-321.8253968253968
177,15.95238095238095,-17.698412698412696,164.68253968253967,-82.3015873015873,16.428571428571427,-320.87301587301585,20.71428571428571,-325.0,61.19047619047619,-109.92063492063491,-325.0,-325.0,194.84126984126982,-17.38095238095238,157.06349206349205,260.07936507936506,325.0,-227.85714285714283,-325.0,-39.6031746031746,-41.666666666666664,29.444444444444443,40.87301587301587,-321.8253968253968
178,15.793650793650793,-17.38095238095238,162.46031746031744,-81.19047619047619,-44.047619047619044,-317.06349206349205,6.26984126984127,-325.0,60.238095238095234,-108.49206349206348,-325.0,-325.0,192.14285714285714,53.57142857142857,155.0,292.46031746031747,325.0,-225.15873015873015,-325.0,-39.12698412698413,-41.19047619047619,9.285714285714285,12.3015873015873,-321.8253968253968
179,15.793650793650793,-17.38095238095238,162.46031746031744,-81.19047619047619,-44.047619047619044,-317.06349206349205,6.26984126984127,-325.0,60.238095238095234,-108.49206349206348,-325.0,-325.0,192.14285714285714,53.57142857142857,155.0,292.46031746031747,325.0,-225.15873015873015,-325.0,-39.12698412698413,-41.19047619047619,9.285714285714285,12.3015873015873,-321.8253968253968
180,15.158730158730158,-17.063492063492063,156.74603174603175,-78.33333333333333,-123.4126984126984,-306.74603174603175,-48.650793650793645,-325.0,58.17460317460317,-105.0,-325.0,-325.0,185.47619047619045,308.3333333333333,149.76190476190476,325.0,325.0,-218.015873015873,-325.0,-37.857142857142854,-39.6031746031746,-10.555555555555555,-13.888888888888888,-166.26984126984127
181,15.158730158730158,-17.063492063492063,156.74603174603175,-78.33333333333333,-123.4126984126984,-306.74603174603175,-48.650793650793645,-325.0,58.17460317460317,-105.0,-325.0,-325.0,185.47619047619045,308.3333333333333,149.76190476190476,325.0,325.0,-218.015873015873,-325.0,-37.857142857142854,-39.6031746031746,-10.555555555555555,-13.888888888888888,-166.26984126984127
182,14.84126984126984,-16.587301587301585,153.88888888888889,-76.9047619047619,-130.7142857142857,-301.66666666666663,-15.317460317460316,-325.0,57.22222222222222,-102.93650793650794,-325.0,-325.0,182.14285714285714,325.0,147.2222222222222,325.0,325.0,-214.36507936507937,-325.0,-37.22222222222222,-38.80952380952381,10.079365079365079,13.095238095238095,-166.26984126984127
183,14.84126984126984,-16.587301587301585,153.88888888888889,-76.9047619047619,-130.7142857142857,-301.66666666666663,-15.317460317460316,-325.0,57.22222222222222,-102.93650793650794,-325.0,-325.0,182.14285714285714,325.0,147.2222222222222,325.0,325.0,-214.36507936507937,-325.0,-37.22222222222222,-38.80952380952381,10.079365079365079,13.095238095238095,-166.26984126984127
184,14.682539682539682,-16.428571428571427,151.8253968253968,-75.95238095238095,-213.7301587301587,-298.015873015873,-101.98412698412697,-325.0,56.58730158730158,-101.66666666666666,-325.0,-325.0,179.60317460317458,325.0,145.3174603174603,325.0,325.0,-211.8253968253968,-325.0,-36.904761904761905,-38.17460317460317,-0.7142857142857142,-0.7142857142857142,-166.26984126984127
185,14.682539682539682,-16.428571428571427,151.8253968253968,-75.95238095238095,-213.7301587301587,-298.015873015873,-101.98412698412697,-325.0,56.58730158730158,-101.66666666666666,-325.0,-325.0,179.60317460317458,325.0,145.3174603174603,325.0,325.0,-211.8253968253968,-325.0,-36.904761904761905,-38.17460317460317,-0.7142857142857142,-0.7142857142857142,-166.26984126984127
186,14.365079365079364,-16.11111111111111,149.12698412698413,-74.52380952380952,-266.4285714285714,-293.0952380952381,-105.0,-325.0,55.476190476190474,-99.92063492063491,-325.0,-325.0,176.58730158730157,325.0,142.77777777777777,325.0,325.0,-208.4920634920635,-325.0,-36.11111111111111,-37.698412698412696,-0.7142857142857142,-0.5555555555555556,-166.26984126984127
187,14.365079365079364,-16.11111111111111,149.12698412698413,-74.52380952380952,-266.4285714285714,-293.0952380952381,-105.0,-325.0,55.476190476190474,-99.92063492063491,-325.0,-325.0,176.58730158730157,325.0,142.77777777777777,325.0,325.0,-208.4920634920635,-325.0,-36.11111111111111,-37.698412698412696,-0.7142857142857142,-0.5555555555555556,-166.26984126984127
188,14.365079365079364,-15.793650793650793,147.85714285714286,-73.73015873015872,-207.85714285714283,-290.7142857142857,11.825396825396824,-325.0,55.15873015873016,-99.12698412698413,-325.0,-325.0,175.15873015873015,325.0,141.66666666666666,325.0,325.0,-206.58730158730157,-325.0,-35.79365079365079,-37.53968253968254,30.07936507936508,41.507936507936506,-166.26984126984127
189,14.365079365079364,-15.793650793650793,147.85714285714286,-73.73015873015872,-207.85714285714283,-290.7142857142857,11.825396825396824,-325.0,55.15873015873016,-99.12698412698413,-325.0,-325.0,175.15873015873015,325.0,141.66666666666666,325.0,325.0,-206.58730158730157,-325.0,-35.79365079365079,-37.53968253968254,30.07936507936508,41.507936507936506,-166.26984126984127
190,14.047619047619047,-15.634920634920634,145.15873015873015,-72.46031746031746,-256.4285714285714,-286.1111111111111,-27.063492063492063,-325.0,54.047619047619044,-97.38095238095238,-325.0,-325.0,171.984126984127,325.0,139.12698412698413,325.0,325.0,-203.25396825396825,-325.0,-35.15873015873016,-36.74603174603175,30.87301587301587,41.666666666666664,-321.8253968253968
191,14.047619047619047,-15.634920634920634,145.15873015873015,-72.46031746031746,-256.4285714285714,-286.1111111111111,-27.063492063492063,-325.0,54.047619047619044,-97.38095238095238,-325.0,-325.0,171.984126984127,325.0,139.12698412698413,325.0,325.0,-203.25396825396825,-325.0,-35.15873015873016,-36.74603174603175,30.87301587301587,41.666666666666664,-321.8253968253968
192,13.73015873015873,-15.476190476190474,142.61904761904762,-71.03174603174602,-304.8412698412698,-281.3492063492063,-65.95238095238095,-325.0,53.095238095238095,-95.63492063492063,-325.0,-325.0,168.96825396825395,325.0,136.74603174603175,325.0,325.0,-199.76190476190476,-325.0,-34.36507936507936,-35.95238095238095,31.666666666666664,41.98412698412698,-321.8253968253968
193,13.73015873015873,-15.476190476190474,142.61904761904762,-71.03174603174602,-304.8412698412698,-281.3492063492063,-65.95238095238095,-325.0,53.095238095238095,-95.63492063492063,-325.0,-325.0,168.96825396825395,325.0,136.74603174603175,325.0,325.0,-199.76190476190476,-325.0,-34.36507936507936,-35.95238095238095,31.666666666666664,41.98412698412698,-321.8253968253968
194,13.412698412698411,-15.158730158730158,138.96825396825395,-69.28571428571428,-315.0,-274.5238095238095,-195.47619047619045,-325.0,51.666666666666664,-93.25396825396825,-325.0,-325.0,164.52380952380952,325.0,133.25396825396825,325.0,325.0,62.61904761904761,-325.0,-33.57142857142857,-35.0,-0.3968253968253968,-0.5555555555555556,-321.8253968253968
195,13.412698412698411,-15.158730158730158,138.96825396825395,-69.28571428571428,-315.0,-274.5238095238095,-195.47619047619045,-325.0,51.666666666666664,-93.25396825396825,-325.0,-325.0,164.52380952380952,325.0,133.25396825396825,325.0,325.0,62.61904761904761,-325.0,-33.57142857142857,-35.0,-0.3968253968253968,-0.5555555555555556,-321.8253968253968
196,105.31746031746032,-88.33333333333333,-85.0,-185.79365079365078,-264.04761904761904,-121.03174603174602,-215.15873015873015,-172.61904761904762,35.15873015873016,-202.46031746031744,-193.09523809523807,-320.07936507936506,-22.3015873015873,71.03174603174602,64.36507936507937,305.3174603174603,166.74603174603175,9.444444444444445,-115.79365079365078,87.38095238095238,-9.603174603174603,99.28571428571428,26.746031746031743,-321.8253968253968
197,105.31746031746032,-88.33333333333333,-85.0,-185.79365079365078,-264.04761904761904,-121.03174603174602,-215.15873015873015,-172.61904761904762,35.15873015873016,-202.46031746031744,-193.09523809523807,-320.07936507936506,-22.3015873015873,71.03174603174602,64.36507936507937,305.3174603174603,166.74603174603175,9.444444444444445,-115.79365079365078,87.38095238095238,-9.603174603174603,99.28571428571428,26.746031746031743,-321.8253968253968
198,105.0,-88.01587301587301,-87.53968253968253,-184.52380952380952,-264.04761904761904,-116.58730158730158,-247.85714285714283,-172.61904761904762,34.2063492063492,-200.7142857142857,-193.09523809523807,-320.07936507936506,-25.0,71.03174603174602,61.98412698412698,305.3174603174603,166.74603174603175,-244.68253968253967,-115.79365079365078,88.17460317460316,-8.968253968253968,100.07936507936508,26.746031746031743,-321.8253968253968
199,105.0,-88.01587301587301,-87.53968253968253,-184.52380952380952,-264.04761904761904,-116.58730158730158,-247.85714285714283,-172.61904761904762,34.2063492063492,-200.7142857142857,-193.09523809523807,-320.07936507936506,-25.0,71.03174603174602,61.98412698412698,305.3174603174603,166.74603174603175,-244.68253968253967,-115.79365079365078,88.17460317460316,-8.968253968253968,100.07936507936508,26.746031746031743,-321.8253968253968
200,12.3015873015873,-13.571428571428571,129.12698412698413,-64.36507936507937,-325.0,-256.90476190476187,-325.0,-325.0,48.17460317460317,-86.42857142857143,-325.0,-325.0,153.4126984126984,325.0,124.2063492063492,325.0,325.0,-183.25396825396825,-325.0,-30.87301587301587,-32.460317460317455,-4.365079365079365,-8.809523809523808,-166.26984126984127
201,12.3015873015873,-13.571428571428571,129.12698412698413,-64.36507936507937,-325.0,-256.90476190476187,-325.0,-325.0,48.17460317460317,-86.42857142857143,-325.0,-325.0,153.4126984126984,325.0,124.2063492063492,325.0,325.0,-183.25396825396825,-325.0,-30.87301587301587,-32.460317460317455,-4.365079365079365,-8.809523809523808,-166.26984126984127
202,12.3015873015873,-13.571428571428571,129.12698412698413,-64.36507936507937,-325.0,-256.90476190476187,-325.0,-325.0,48.17460317460317,-86.42857142857143,-325.0,-325.0,153.4126984126984,325.0,124.2063492063492,325.0,325.0,-183.25396825396825,-325.0,-30.87301587301587,-32.460317460317455,-4.365079365079365,-8.809523809523808,-166.26984126984127
203,12.3015873015873,-13.571428571428571,129.12698412698413,-64.36507936507937,-325.0,-256.90476190476187,-325.0,-325.0,48.17460317460317,-86.42857142857143,-325.0,-325.0,153.4126984126984,325.0,124.2063492063492,325.0,325.0,-183.25396825396825,-325.0,-30.87301587301587,-32.460317460317455,-4.365079365079365,-8.809523809523808,-166.26984126984127
204,11.825396825396824,-13.095238095238095,124.04761904761904,-61.98412698412698,-325.0,-248.015873015873,-325.0,-325.0,46.269841269841265,-83.4126984126984,-325.0,-325.0,147.53968253968253,325.0,119.44444444444444,325.0,325.0,-146.26984126984127,-325.0,-29.920634920634917,-31.349206349206348,14.523809523809524,17.38095238095238,-166.26984126984127
205,11.825396825396824,-13.095238095238095,124.04761904761904,-61.98412698412698,-325.0,-248.015873015873,-325.0,-325.0,46.269841269841265,-83.4126984126984,-325.0,-325.0,147.53968253968253,325.0,119.44444444444444,325.0,325.0,-146.26984126984127,-325.0,-29.920634920634917,-31.349206349206348,14.523809523809524,17.38095238095238,-166.26984126984127
206,11.507936507936508,-12.619047619047619,119.12698412698413,-59.44444444444444,-325.0,-238.96825396825395,-325.0,-325.0,44.52380952380952,-80.39682539682539,-325.0,-325.0,141.66666666666666,325.0,114.68253968253967,325.0,325.0,-109.12698412698413,-325.0,-28.96825396825397,-30.238095238095237,33.57142857142857,43.57142857142857,-166.26984126984127
207,11.507936507936508,-12.619047619047619,119.12698412698413,-59.44444444444444,-325.0,-238.96825396825395,-325.0,-325.0,44.52380952380952,-80.39682539682539,-325.0,-325.0,141.66666666666666,325.0,114.68253968253967,325.0,325.0,-109.12698412698413,-325.0,-28.96825396825397,-30.238095238095237,33.57142857142857,43.57142857142857,-166.26984126984127
208,2.3015873015873014,-12.619047619047619,115.47619047619047,-57.698412698412696,-325.0,-231.8253968253968,-325.0,-325.0,43.095238095238095,-77.85714285714285,-325.0,-325.0,137.38095238095238,325.0,111.34920634920634,325.0,325.0,313.88888888888886,-325.0,-28.174603174603174,-28.96825396825397,15.158730158730158,19.76190476190476,-166.26984126984127
209,2.3015873015873014,-12.619047619047619,115.47619047619047,-57.698412698412696,-325.0,-231.8253968253968,-325.0,-325.0,43.095238095238095,-77.85714285714285,-325.0,-325.0,137.38095238095238,325.0,111.34920634920634,325.0,325.0,313.88888888888886,-325.0,-28.174603174603174,-28.96825396825397,15.158730158730158,19.76190476190476,-166.26984126984127
210,-9.603174603174603,-12.3015873015873,113.4126984126984,-56.58730158730158,-325.0,-228.015873015873,-325.0,-325.0,42.3015873015873,-76.58730158730158,-325.0,-325.0,134.84126984126982,325.0,109.44444444444444,325.0,325.0,323.73015873015873,-325.0,85.31746031746032,-20.873015873015873,16.428571428571427,20.873015873015873,-321.8253968253968
211,-9.603174603174603,-12.3015873015873,113.4126984126984,-56.58730158730158,-325.0,-228.015873015873,-325.0,-325.0,42.3015873015873,-76.58730158730158,-325.0,-325.0,134.84126984126982,325.0,109.44444444444444,325.0,325.0,323.73015873015873,-325.0,85.31746031746032,-20.873015873015873,16.428571428571427,20.873015873015873,-321.8253968253968
212,11.984126984126984,-11.825396825396824,110.87301587301587,-55.63492063492063,-325.0,-223.4126984126984,-325.0,-325.0,41.19047619047619,-74.84126984126983,15.634920634920634,-325.0,132.14285714285714,325.0,107.06349206349206,325.0,325.0,325.0,-325.0,84.2063492063492,-27.539682539682538,31.825396825396822,42.77777777777778,-321.8253968253968
213,11.984126984126984,-11.825396825396824,110.87301587301587,-55.63492063492063,-325.0,-223.4126984126984,-325.0,-325.0,41.19047619047619,-74.84126984126983,15.634920634920634,-325.0,132.14285714285714,325.0,107.06349206349206,325.0,325.0,325.0,-325.0,84.2063492063492,-27.539682539682538,31.825396825396822,42.77777777777778,-321.8253968253968
214,-108.96825396825396,-11.666666666666666,108.33333333333333,-54.2063492063492,-325.0,-218.8095238095238,-325.0,-325.0,40.238095238095234,-73.4126984126984,106.74603174603175,-325.0,129.28571428571428,325.0,104.68253968253968,325.0,325.0,305.4761904761905,-325.0,198.4920634920635,78.65079365079364,-15.95238095238095,-22.777777777777775,-321.8253968253968
215,-108.96825396825396,-11.666666666666666,108.33333333333333,-54.2063492063492,-325.0,-218.8095238095238,-325.0,-325.0,40.238095238095234,-73.4126984126984,106.74603174603175,-325.0,129.28571428571428,325.0,104.68253968253968,325.0,325.0,305.4761904761905,-325.0,198.4920634920635,78.65079365079364,-15.95238095238095,-22.777777777777775,-321.8253968253968
216,8.333333333333332,-11.507936507936508,106.9047619047619,-53.57142857142857,-325.0,-216.26984126984127,-325.0,-325.0,39.92063492063492,-72.3015873015873,274.2063492063492,-325.0,127.6984126984127,325.0,103.4126984126984,325.0,325.0,263.88888888888886,-324.36507936507934,325.0,-25.317460317460316,32.61904761904762,43.095238095238095,-321.8253968253968
217,8.333333333333332,-11.507936507936508,106.9047619047619,-53.57142857142857,-325.0,-216.26984126984127,-325.0,-325.0,39.92063492063492,-72.3015873015873,274.2063492063492,-325.0,127.6984126984127,325.0,103.4126984126984,325.0,325.0,263.88888888888886,-324.36507936507934,325.0,-25.317460317460316,32.61904761904762,43.095238095238095,-321.8253968253968
218,8.333333333333332,-11.507936507936508,106.9047619047619,-53.57142857142857,-325.0,-216.26984126984127,-325.0,-325.0,39.92063492063492,-72.3015873015873,274.2063492063492,-325.0,127.6984126984127,325.0,103.4126984126984,325.0,325.0,263.88888888888886,-324.36507936507934,325.0,-25.317460317460316,32.61904761904762,43.095238095238095,-321.8253968253968
219,8.333333333333332,-11.507936507936508,106.9047619047619,-53.57142857142857,-325.0,-216.26984126984127,-325.0,-325.0,39.92063492063492,-72.3015873015873,274.2063492063492,-325.0,127.6984126984127,325.0,103.4126984126984,325.0,325.0,263.88888888888886,-324.36507936507934,325.0,-25.317460317460316,32.61904761904762,43.095238095238095,-321.8253968253968
220,-58.17460317460317,-11.19047619047619,103.09523809523809,-51.666666666666664,-325.0,-209.12698412698413,-325.0,-325.0,38.49206349206349,-69.76190476190476,301.19047619047615,-325.0,123.09523809523809,325.0,99.6031746031746,325.0,325.0,-219.9206349206349,-313.4126984126984,325.0,5.634920634920634,32.61904761904762,43.25396825396825,-166.26984126984127
221,-58.17460317460317,-11.19047619047619,103.09523809523809,-51.666666666666664,-325.0,-209.12698412698413,-325.0,-325.0,38.49206349206349,-69.76190476190476,301.19047619047615,-325.0,123.09523809523809,325.0,99.6031746031746,325.0,325.0,-219.9206349206349,-313.4126984126984,325.0,5.634920634920634,32.61904761904762,43.25396825396825,-166.26984126984127
222,-119.76190476190476,-11.031746031746032,101.66666666666666,-50.87301587301587,-325.0,-206.42857142857142,-325.0,-325.0,38.01587301587301,-68.80952380952381,160.23809523809524,-325.0,121.5079365079365,325.0,98.33333333333333,325.0,325.0,-218.96825396825395,-309.2857142857143,325.0,88.80952380952381,16.904761904761905,22.46031746031746,-166.26984126984127
223,-119.76190476190476,-11.031746031746032,101.66666666666666,-50.87301587301587,-325.0,-206.42857142857142,-325.0,-325.0,38.01587301587301,-68.80952380952381,160.23809523809524,-325.0,121.5079365079365,325.0,98.33333333333333,325.0,325.0,-218.96825396825395,-309.2857142857143,325.0,88.80952380952381,16.904761904761905,22.46031746031746,-166.26984126984127
224,-145.79365079365078,-10.873015873015872,99.44444444444444,-49.44444444444444,-325.0,-202.3015873015873,-325.0,-325.0,37.38095238095238,-67.6984126984127,315.3174603174603,-325.0,118.65079365079364,325.0,96.26984126984127,325.0,325.0,-157.38095238095238,-302.46031746031747,325.0,127.85714285714285,32.14285714285714,43.73015873015873,-166.26984126984127
225,-145.79365079365078,-10.873015873015872,99.44444444444444,-49.44444444444444,-325.0,-202.3015873015873,-325.0,-325.0,37.38095238095238,-67.6984126984127,315.3174603174603,-325.0,118.65079365079364,325.0,96.26984126984127,325.0,325.0,-157.38095238095238,-302.46031746031747,325.0,127.85714285714285,32.14285714285714,43.73015873015873,-166.26984126984127
226,-325.0,-10.714285714285714,97.6984126984127,-48.96825396825397,-325.0,-198.96825396825395,-325.0,-325.0,36.74603174603175,-66.42857142857143,173.88888888888889,-325.0,116.42857142857142,325.0,94.68253968253968,325.0,325.0,-174.2063492063492,-297.38095238095235,325.0,325.0,-31.98412698412698,-44.047619047619044,-166.26984126984127
227,-325.0,-10.714285714285714,97.6984126984127,-48.96825396825397,-325.0,-198.96825396825395,-325.0,-325.0,36.74603174603175,-66.42857142857143,173.88888888888889,-325.0,116.42857142857142,325.0,94.68253968253968,325.0,325.0,-174.2063492063492,-297.38095238095235,325.0,325.0,-31.98412698412698,-44.047619047619044,-166.26984126984127
228,-221.98412698412696,-10.555555555555555,96.42857142857142,-48.33333333333333,-325.0,-196.58730158730157,-325.0,-325.0,36.11111111111111,-65.63492063492063,249.44444444444443,-325.0,115.0,325.0,93.4126984126984,325.0,325.0,-164.52380952380952,-293.73015873015873,325.0,199.12698412698413,-19.444444444444443,-25.476190476190474,-166.26984126984127
229,-221.98412698412696,-10.555555555555555,96.42857142857142,-48.33333333333333,-325.0,-196.58730158730157,-325.0,-325.0,36.11111111111111,-65.63492063492063,249.44444444444443,-325.0,115.0,325.0,93.4126984126984,325.0,325.0,-164.52380952380952,-293.73015873015873,325.0,199.12698412698413,-19.444444444444443,-25.476190476190474,-166.26984126984127
230,-325.0,-10.079365079365079,94.2063492063492,-47.06349206349206,-325.0,-192.93650793650792,-325.0,-325.0,35.476190476190474,-64.2063492063492,157.38095238095238,-325.0,112.46031746031746,325.0,91.34920634920634,325.0,325.0,-175.0,-287.22222222222223,325.0,325.0,-32.14285714285714,-44.2063492063492,-321.8253968253968
231,-325.0,-10.079365079365079,94.2063492063492,-47.06349206349206,-325.0,-192.93650793650792,-325.0,-325.0,35.476190476190474,-64.2063492063492,157.38095238095238,-325.0,112.46031746031746,325.0,91.34920634920634,325.0,325.0,-175.0,-287.22222222222223,325.0,325.0,-32.14285714285714,-44.2063492063492,-321.8253968253968
232,-325.0,63.73015873015873,90.39682539682539,-45.317460317460316,-325.0,-185.63492063492063,-325.0,-319.4444444444444,34.047619047619044,-60.39682539682539,79.6031746031746,-324.04761904761904,108.17460317460316,325.0,87.85714285714285,325.0,325.0,325.0,-276.58730158730157,325.0,325.0,-13.571428571428571,-18.80952380952381,-321.8253968253968
233,-325.0,63.73015873015873,90.39682539682539,-45.317460317460316,-325.0,-185.63492063492063,-325.0,-319.4444444444444,34.047619047619044,-60.39682539682539,79.6031746031746,-324.04761904761904,108.17460317460316,325.0,87.85714285714285,325.0,325.0,325.0,-276.58730158730157,325.0,325.0,-13.571428571428571,-18.80952380952381,-321.8253968253968
234,-325.0,24.047619047619047,90.07936507936508,-44.84126984126984,-325.0,-184.68253968253967,-325.0,-318.3333333333333,33.888888888888886,-61.34920634920635,13.095238095238095,-322.9365079365079,107.85714285714285,325.0,87.53968253968253,325.0,325.0,325.0,-275.1587301587301,325.0,325.0,5.476190476190476,6.111111111111111,-321.8253968253968
235,-325.0,24.047619047619047,90.07936507936508,-44.84126984126984,-325.0,-184.68253968253967,-325.0,-318.3333333333333,33.888888888888886,-61.34920634920635,13.095238095238095,-322.9365079365079,107.85714285714285,325.0,87.53968253968253,325.0,325.0,325.0,-275.1587301587301,325.0,325.0,5.476190476190476,6.111111111111111,-321.8253968253968
236,-325.0,170.3968253968254,87.85714285714285,-43.888888888888886,-325.0,-180.23809523809524,-325.0,-310.55555555555554,32.93650793650794,5.7936507936507935,131.34920634920636,-314.5238095238095,104.84126984126983,325.0,85.15873015873015,325.0,325.0,325.0,-268.3333333333333,325.0,325.0,-32.61904761904762,-43.25396825396825,-321.8253968253968
237,-325.0,170.3968253968254,87.85714285714285,-43.888888888888886,-325.0,-180.23809523809524,-325.0,-310.55555555555554,32.93650793650794,5.7936507936507935,131.34920634920636,-314.5238095238095,104.84126984126983,325.0,85.15873015873015,325.0,325.0,325.0,-268.3333333333333,325.0,325.0,-32.61904761904762,-43.25396825396825,-321.8253968253968
238,-301.8253968253968,186.9047619047619,86.42857142857143,-43.41269841269841,-325.0,-178.17460317460316,-325.0,-306.90476190476187,32.460317460317455,96.74603174603175,228.17460317460316,-310.7142857142857,103.4126984126984,325.0,84.04761904761904,325.0,325.0,325.0,-265.0,325.0,325.0,-20.238095238095237,-26.428571428571427,-321.8253968253968
239,-301.8253968253968,186.9047619047619,86.42857142857143,-43.41269841269841,-325.0,-178.17460317460316,-325.0,-306.90476190476187,32.460317460317455,96.74603174603175,228.17460317460316,-310.7142857142857,103.4126984126984,325.0,84.04761904761904,325.0,325.0,325.0,-265.0,325.0,325.0,-20.238095238095237,-26.428571428571427,-321.8253968253968
240,-325.0,325.0,84.04761904761904,-42.14285714285714,-325.0,-173.57142857142856,-325.0,-299.6031746031746,31.666666666666664,30.07936507936508,44.68253968253968,-303.0952380952381,100.71428571428571,325.0,81.82539682539682,325.0,325.0,325.0,-258.015873015873,325.0,325.0,-11.984126984126984,-16.904761904761905,-166.26984126984127
241,-325.0,325.0,84.04761904761904,-42.14285714285714,-325.0,-173.57142857142856,-325.0,-299.6031746031746,31.666666666666664,30.07936507936508,44.68253968253968,-303.0952380952381,100.71428571428571,325.0,81.82539682539682,325.0,325.0,325.0,-258.015873015873,325.0,325.0,-11.984126984126984,-16.904761904761905,-166.26984126984127
242,-325.0,236.9047619047619,82.93650793650794,-41.666666666666664,-325.0,-171.66666666666666,-325.0,-295.95238095238096,31.349206349206348,82.46031746031746,157.85714285714286,-299.1269841269841,99.28571428571428,325.0,80.87301587301587,325.0,325.0,325.0,-254.68253968253967,325.0,325.0,-0.5555555555555556,-0.23809523809523808,-166.26984126984127
243,-325.0,236.9047619047619,82.93650793650794,-41.666666666666664,-325.0,-171.66666666666666,-325.0,-295.95238095238096,31.349206349206348,82.46031746031746,157.85714285714286,-299.1269841269841,99.28571428571428,325.0,80.87301587301587,325.0,325.0,325.0,-254.68253968253967,325.0,325.0,-0.5555555555555556,-0.23809523809523808,-166.26984126984127
244,-325.0,325.0,80.71428571428571,-40.39682539682539,-325.0,-167.38095238095238,-325.0,-288.8095238095238,30.07936507936508,-14.682539682539682,-10.079365079365079,-291.66666666666663,96.74603174603175,325.0,78.65079365079364,325.0,325.0,302.46031746031747,-248.33333333333331,325.0,325.0,8.174603174603174,9.603174603174603,-166.26984126984127
245,-325.0,325.0,80.71428571428571,-40.39682539682539,-325.0,-167.38095238095238,-325.0,-288.8095238095238,30.07936507936508,-14.682539682539682,-10.079365079365079,-291.66666666666663,96.74603174603175,325.0,78.65079365079364,325.0,325.0,302.46031746031747,-248.33333333333331,325.0,325.0,8.174603174603174,9.603174603174603,-166.26984126984127
246,-325.0,325.0,78.96825396825396,-39.92063492063492,-325.0,-163.88888888888889,-325.0,-283.25396825396825,24.68253968253968,137.06349206349205,192.14285714285714,-285.7936507936508,94.68253968253968,325.0,76.9047619047619,325.0,321.5079365079365,309.76190476190476,-242.93650793650792,325.0,325.0,-21.507936507936506,-27.539682539682538,-166.26984126984127
247,-325.0,325.0,78.96825396825396,-39.92063492063492,-325.0,-163.88888888888889,-325.0,-283.25396825396825,24.68253968253968,137.06349206349205,192.14285714285714,-285.7936507936508,94.68253968253968,325.0,76.9047619047619,325.0,321.5079365079365,309.76190476190476,-242.93650793650792,325.0,325.0,-21.507936507936506,-27.539682539682538,-166.26984126984127
248,-325.0,325.0,77.38095238095238,-38.96825396825397,-325.0,-161.19047619047618,-325.0,-278.6507936507936,27.857142857142854,15.634920634920634,143.4126984126984,-280.87301587301585,92.93650793650794,325.0,75.47619047619047,325.0,315.95238095238096,182.46031746031744,-238.65079365079364,325.0,325.0,20.71428571428571,26.9047619047619,-166.26984126984127
249,-325.0,325.0,77.38095238095238,-38.96825396825397,-325.0,-161.19047619047618,-325.0,-278.6507936507936,27.857142857142854,15.634920634920634,143.4126984126984,-280.87301587301585,92.93650793650794,325.0,75.47619047619047,325.0,315.95238095238096,182.46031746031744,-238.65079365079364,325.0,325.0,20.71428571428571,26.9047619047619,-166.26984126984127
250,-325.0,325.0,74.68253968253968,-37.698412698412696,-325.0,-155.95238095238093,-325.0,-269.9206349206349,23.253968253968253,-63.57142857142857,146.26984126984127,-271.8253968253968,89.92063492063491,325.0,72.93650793650794,325.0,305.3174603174603,260.07936507936506,-230.55555555555554,325.0,325.0,20.396825396825395,26.428571428571427,-321.8253968253968
251,-325.0,325.0,74.68253968253968,-37.698412698412696,-325.0,-155.95238095238093,-325.0,-269.9206349206349,23.253968253968253,-63.57142857142857,146.26984126984127,-271.8253968253968,89.92063492063491,325.0,72.93650793650794,325.0,305.3174603174603,260.07936507936506,-230.55555555555554,325.0,325.0,20.396825396825395,26.428571428571427,-321.8253968253968
252,-325.0,322.77777777777777,73.09523809523809,-36.904761904761905,-325.0,-152.61904761904762,-325.0,-264.5238095238095,16.746031746031743,-24.206349206349206,153.88888888888889,-266.1111111111111,87.85714285714285,325.0,71.19047619047619,325.0,298.968253968254,325.0,-225.79365079365078,325.0,325.0,-0.3968253968253968,-0.7142857142857142,-321.8253968253968
253,-325.0,322.77777777777777,73.09523809523809,-36.904761904761905,-325.0,-152.61904761904762,-325.0,-264.5238095238095,16.746031746031743,-24.206349206349206,153.88888888888889,-266.1111111111111,87.85714285714285,325.0,71.19047619047619,325.0,298.968253968254,325.0,-225.79365079365078,325.0,325.0,-0.3968253968253968,-0.7142857142857142,-321.8253968253968
254,-325.0,325.0,71.34920634920634,-36.11111111111111,-325.0,-149.6031746031746,-325.0,-259.1269841269841,19.76190476190476,116.1111111111111,316.74603174603175,-260.55555555555554,85.79365079365078,325.0,69.92063492063491,325.0,292.6190476190476,325.0,-220.7142857142857,325.0,325.0,8.65079365079365,11.19047619047619,-321.8253968253968
255,-325.0,325.0,71.34920634920634,-36.11111111111111,-325.0,-149.6031746031746,-325.0,-259.1269841269841,19.76190476190476,116.1111111111111,316.74603174603175,-260.55555555555554,85.79365079365078,325.0,69.92063492063491,325.0,292.6190476190476,325.0,-220.7142857142857,325.0,325.0,8.65079365079365,11.19047619047619,-321.8253968253968
256,-325.0,325.0,70.39682539682539,-35.476190476190474,-325.0,-147.69841269841268,-325.0,-256.1111111111111,-7.063492063492063,85.31746031746032,149.12698412698413,-257.38095238095235,84.68253968253968,325.0,68.96825396825396,325.0,288.968253968254,325.0,-217.85714285714283,325.0,325.0,-0.23809523809523808,-0.7142857142857142,-321.8253968253968
257,-325.0,325.0,70.39682539682539,-35.476190476190474,-325.0,-147.69841269841268,-325.0,-256.1111111111111,-7.063492063492063,85.31746031746032,149.12698412698413,-257.38095238095235,84.68253968253968,325.0,68.96825396825396,325.0,288.968253968254,325.0,-217.85714285714283,325.0,325.0,-0.23809523809523808,-0.7142857142857142,-321.8253968253968
258,-325.0,325.0,68.80952380952381,-34.84126984126984,-325.0,-144.84126984126982,-325.0,-251.03174603174602,6.587301587301587,80.23809523809523,317.06349206349205,-251.98412698412696,82.93650793650794,325.0,67.38095238095238,325.0,282.9365079365079,325.0,-213.4126984126984,325.0,325.0,7.698412698412698,12.142857142857142,-321.8253968253968
259,-325.0,325.0,68.80952380952381,-34.84126984126984,-325.0,-144.84126984126982,-325.0,-251.03174603174602,6.587301587301587,80.23809523809523,317.06349206349205,-251.98412698412696,82.93650793650794,325.0,67.38095238095238,325.0,282.9365079365079,325.0,-213.4126984126984,325.0,325.0,7.698412698412698,12.142857142857142,-321.8253968253968
260,-284.04761904761904,142.14285714285714,185.95238095238093,54.2063492063492,-26.11111111111111,-103.73015873015872,-234.84126984126982,-181.8253968253968,-46.58730158730158,-166.9047619047619,134.52380952380952,21.507936507936506,201.5079365079365,322.46031746031747,188.8095238095238,321.3492063492063,299.1269841269841,325.0,-12.777777777777777,152.61904761904762,41.19047619047619,-85.15873015873015,21.666666666666664,-166.26984126984127
261,-284.04761904761904,142.14285714285714,185.95238095238093,54.2063492063492,-26.11111111111111,-103.73015873015872,-234.84126984126982,-181.8253968253968,-46.58730158730158,-166.9047619047619,134.52380952380952,21.507936507936506,201.5079365079365,322.46031746031747,188.8095238095238,321.3492063492063,299.1269841269841,325.0,-12.777777777777777,152.61904761904762,41.19047619047619,-85.15873015873015,21.666666666666664,-166.26984126984127
262,-325.0,325.0,66.11111111111111,-33.41269841269841,-325.0,-139.6031746031746,-325.0,-242.14285714285714,-45.79365079365079,60.238095238095234,325.0,-242.3015873015873,79.6031746031746,325.0,65.15873015873015,325.0,272.3015873015873,325.0,-205.15873015873015,325.0,325.0,-15.0,-19.126984126984127,-166.26984126984127
263,-325.0,325.0,66.11111111111111,-33.41269841269841,-325.0,-139.6031746031746,-325.0,-242.14285714285714,-45.79365079365079,60.238095238095234,325.0,-242.3015873015873,79.6031746031746,325.0,65.15873015873015,325.0,272.3015873015873,325.0,-205.15873015873015,325.0,325.0,-15.0,-19.126984126984127,-166.26984126984127
264,-325.0,325.0,64.52380952380952,-32.61904761904762,-325.0,-135.3174603174603,-325.0,-235.15873015873015,-89.92063492063491,-50.87301587301587,306.74603174603175,-235.63492063492063,77.22222222222221,325.0,62.93650793650793,325.0,264.2063492063492,325.0,-199.12698412698413,325.0,325.0,6.111111111111111,9.126984126984127,-166.26984126984127
265,-325.0,325.0,64.52380952380952,-32.61904761904762,-325.0,-135.3174603174603,-325.0,-235.15873015873015,-89.92063492063491,-50.87301587301587,306.74603174603175,-235.63492063492063,77.22222222222221,325.0,62.93650793650793,325.0,264.2063492063492,325.0,-199.12698412698413,325.0,325.0,6.111111111111111,9.126984126984127,-166.26984126984127
266,-325.0,325.0,60.39682539682539,-32.3015873015873,-325.0,-133.73015873015873,-325.0,-232.3015873015873,-165.3174603174603,-59.285714285714285,123.88888888888889,-232.46031746031744,76.26984126984127,325.0,58.96825396825397,325.0,260.87301587301585,325.0,-196.58730158730157,325.0,325.0,-0.5555555555555556,-1.507936507936508,-166.26984126984127
267,-325.0,325.0,60.39682539682539,-32.3015873015873,-325.0,-133.73015873015873,-325.0,-232.3015873015873,-165.3174603174603,-59.285714285714285,123.88888888888889,-232.46031746031744,76.26984126984127,325.0,58.96825396825397,325.0,260.87301587301585,325.0,-196.58730158730157,325.0,325.0,-0.5555555555555556,-1.507936507936508,-166.26984126984127
268,-325.0,325.0,62.14285714285714,-31.507936507936506,-325.0,-131.03174603174602,-325.0,-227.69841269841268,-151.5079365079365,-51.19047619047619,306.58730158730157,-227.69841269841268,74.36507936507937,325.0,53.41269841269841,325.0,255.3174603174603,325.0,-192.3015873015873,325.0,325.0,5.317460317460317,8.015873015873016,-166.26984126984127
269,-325.0,325.0,62.14285714285714,-31.507936507936506,-325.0,-131.03174603174602,-325.0,-227.69841269841268,-151.5079365079365,-51.19047619047619,306.58730158730157,-227.69841269841268,74.36507936507937,325.0,53.41269841269841,325.0,255.3174603174603,325.0,-192.3015873015873,325.0,325.0,5.317460317460317,8.015873015873016,-166.26984126984127
270,-325.0,325.0,43.095238095238095,-30.71428571428571,-325.0,-128.17460317460316,-325.0,-223.09523809523807,-265.4761904761905,-65.31746031746032,111.5079365079365,-222.61904761904762,71.34920634920634,325.0,34.36507936507936,325.0,249.9206349206349,325.0,-188.015873015873,325.0,325.0,0.3968253968253968,-0.23809523809523808,-321.8253968253968
271,-325.0,325.0,43.095238095238095,-30.71428571428571,-325.0,-128.17460317460316,-325.0,-223.09523809523807,-265.4761904761905,-65.31746031746032,111.5079365079365,-222.61904761904762,71.34920634920634,325.0,34.36507936507936,325.0,249.9206349206349,325.0,-188.015873015873,325.0,325.0,0.3968253968253968,-0.23809523809523808,-321.8253968253968
272,-325.0,325.0,47.06349206349206,-30.07936507936508,-325.0,-126.1111111111111,-325.0,-219.60317460317458,-217.69841269841268,-62.77777777777777,288.968253968254,-219.28571428571428,71.5079365079365,325.0,20.238095238095237,325.0,245.79365079365078,325.0,-185.0,325.0,325.0,-19.444444444444443,-22.936507936507937,-321.8253968253968
273,-325.0,325.0,47.06349206349206,-30.07936507936508,-325.0,-126.1111111111111,-325.0,-219.60317460317458,-217.69841269841268,-62.77777777777777,288.968253968254,-219.28571428571428,71.5079365079365,325.0,20.238095238095237,325.0,245.79365079365078,325.0,-185.0,325.0,325.0,-19.444444444444443,-22.936507936507937,-321.8253968253968
274,-325.0,325.0,54.2063492063492,-29.76190476190476,-325.0,-124.52380952380952,-325.0,-216.9047619047619,-235.95238095238093,-57.698412698412696,292.6190476190476,-216.58730158730157,70.87301587301587,325.0,41.19047619047619,325.0,242.6190476190476,325.0,-182.61904761904762,325.0,325.0,3.4126984126984126,7.222222222222221,-321.8253968253968
275,-325.0,325.0,54.2063492063492,-29.76190476190476,-325.0,-124.52380952380952,-325.0,-216.9047619047619,-235.95238095238093,-57.698412698412696,292.6190476190476,-216.58730158730157,70.87301587301587,325.0,41.19047619047619,325.0,242.6190476190476,325.0,-182.61904761904762,325.0,325.0,3.4126984126984126,7.222222222222221,-321.8253968253968
276,-325.0,325.0,28.015873015873016,-28.96825396825397,-325.0,-120.71428571428571,-325.0,-210.87301587301587,-291.8253968253968,-40.714285714285715,96.1111111111111,-209.9206349206349,66.42857142857143,325.0,8.492063492063492,325.0,235.3174603174603,325.0,-177.06349206349205,325.0,325.0,-0.7142857142857142,-1.1904761904761905,-321.8253968253968
277,-325.0,325.0,28.015873015873016,-28.96825396825397,-325.0,-120.71428571428571,-325.0,-210.87301587301587,-291.8253968253968,-40.714285714285715,96.1111111111111,-209.9206349206349,66.42857142857143,325.0,8.492063492063492,325.0,235.3174603174603,325.0,-177.06349206349205,325.0,325.0,-0.7142857142857142,-1.1904761904761905,-321.8253968253968
278,-325.0,325.0,15.95238095238095,-28.174603174603174,-325.0,-118.96825396825396,-325.0,-207.38095238095238,-308.3333333333333,-36.904761904761905,95.95238095238095,-206.26984126984127,63.57142857142857,325.0,-6.26984126984127,325.0,231.19047619047618,325.0,-173.88888888888889,325.0,325.0,-0.873015873015873,-1.349206349206349,-321.8253968253968
279,-325.0,325.0,15.95238095238095,-28.174603174603174,-325.0,-118.96825396825396,-325.0,-207.38095238095238,-308.3333333333333,-36.904761904761905,95.95238095238095,-206.26984126984127,63.57142857142857,325.0,-6.26984126984127,325.0,231.19047619047618,325.0,-173.88888888888889,325.0,325.0,-0.873015873015873,-1.349206349206349,-321.8253968253968
280,-325.0,325.0,-93.57142857142857,-27.698412698412696,-325.0,-116.58730158730158,-325.0,-203.88888888888889,-325.0,-43.73015873015873,-110.55555555555554,-202.93650793650792,43.095238095238095,325.0,-120.71428571428571,325.0,227.38095238095238,325.0,-170.87301587301587,325.0,325.0,-24.523809523809522,-36.269841269841265,-166.26984126984127
281,-325.0,325.0,-93.57142857142857,-27.698412698412696,-325.0,-116.58730158730158,-325.0,-203.88888888888889,-325.0,-43.73015873015873,-110.55555555555554,-202.93650793650792,43.095238095238095,325.0,-120.71428571428571,325.0,227.38095238095238,325.0,-170.87301587301587,325.0,325.0,-24.523809523809522,-36.269841269841265,-166.26984126984127
282,-325.0,325.0,15.0,-26.746031746031743,-325.0,-114.52380952380952,-325.0,-199.9206349206349,-325.0,-53.41269841269841,273.88888888888886,-198.65079365079364,54.047619047619044,325.0,-15.95238095238095,276.90476190476187,222.46031746031744,325.0,-167.38095238095238,325.0,325.0,2.142857142857143,5.7936507936507935,-166.26984126984127
283,-325.0,325.0,15.0,-26.746031746031743,-325.0,-114.52380952380952,-325.0,-199.9206349206349,-325.0,-53.41269841269841,273.88888888888886,-198.65079365079364,54.047619047619044,325.0,-15.95238095238095,276.90476190476187,222.46031746031744,325.0,-167.38095238095238,325.0,325.0,2.142857142857143,5.7936507936507935,-166.26984126984127
284,-325.0,325.0,-34.047619047619044,-26.11111111111111,-325.0,-114.04761904761904,-325.0,-198.96825396825395,-325.0,-44.2063492063492,258.8095238095238,-197.85714285714283,41.98412698412698,325.0,-88.65079365079364,308.015873015873,221.5079365079365,325.0,-166.9047619047619,325.0,325.0,-20.396825396825395,-24.84126984126984,-166.26984126984127
285,-325.0,325.0,-34.047619047619044,-26.11111111111111,-325.0,-114.04761904761904,-325.0,-198.96825396825395,-325.0,-44.2063492063492,258.8095238095238,-197.85714285714283,41.98412698412698,325.0,-88.65079365079364,308.015873015873,221.5079365079365,325.0,-166.9047619047619,325.0,325.0,-20.396825396825395,-24.84126984126984,-166.26984126984127
286,-325.0,325.0,-1.349206349206349,-15.634920634920634,-325.0,-110.71428571428571,-325.0,-193.7301587301587,-325.0,40.714285714285715,268.8095238095238,-192.3015873015873,41.98412698412698,321.984126984127,-49.76190476190476,318.015873015873,215.0,98.65079365079364,-161.66666666666666,325.0,325.0,2.142857142857143,3.571428571428571,-166.26984126984127
287,-325.0,325.0,-1.349206349206349,-15.634920634920634,-325.0,-110.71428571428571,-325.0,-193.7301587301587,-325.0,40.714285714285715,268.8095238095238,-192.3015873015873,41.98412698412698,321.984126984127,-49.76190476190476,318.015873015873,215.0,98.65079365079364,-161.66666666666666,325.0,325.0,2.142857142857143,3.571428571428571,-166.26984126984127
288,-325.0,325.0,-111.34920634920634,-13.888888888888888,-325.0,-108.49206349206348,-325.0,-190.23809523809524,-325.0,-45.79365079365079,-126.26984126984127,-188.65079365079364,16.26984126984127,316.4285714285714,-152.77777777777777,259.6031746031746,211.34920634920633,-204.68253968253967,-158.4920634920635,325.0,325.0,-1.984126984126984,-4.0476190476190474,-166.26984126984127
289,-325.0,325.0,-111.34920634920634,-13.888888888888888,-325.0,-108.49206349206348,-325.0,-190.23809523809524,-325.0,-45.79365079365079,-126.26984126984127,-188.65079365079364,16.26984126984127,316.4285714285714,-152.77777777777777,259.6031746031746,211.34920634920633,-204.68253968253967,-158.4920634920635,325.0,325.0,-1.984126984126984,-4.0476190476190474,-166.26984126984127
290,-325.0,325.0,-34.52380952380952,-6.746031746031746,-325.0,-107.06349206349206,-325.0,-187.38095238095238,-325.0,3.4126984126984126,253.7301587301587,-185.79365079365078,24.523809523809522,310.87301587301585,-89.6031746031746,308.968253968254,207.69841269841268,-40.714285714285715,-155.95238095238093,325.0,325.0,0.873015873015873,2.7777777777777777,-321.8253968253968
291,-325.0,325.0,-34.52380952380952,-6.746031746031746,-325.0,-107.06349206349206,-325.0,-187.38095238095238,-325.0,3.4126984126984126,253.7301587301587,-185.79365079365078,24.523809523809522,310.87301587301585,-89.6031746031746,308.968253968254,207.69841269841268,-40.714285714285715,-155.95238095238093,325.0,325.0,0.873015873015873,2.7777777777777777,-321.8253968253968
292,-325.0,325.0,-150.7142857142857,-4.841269841269841,-325.0,-105.0,-325.0,-184.04761904761904,-325.0,-52.77777777777777,-130.3968253968254,-182.3015873015873,-3.095238095238095,305.7936507936508,-193.4126984126984,230.7142857142857,204.04761904761904,-277.85714285714283,-153.09523809523807,325.0,325.0,-1.1904761904761905,-3.571428571428571,-321.8253968253968
293,-325.0,325.0,-150.7142857142857,-4.841269841269841,-325.0,-105.0,-325.0,-184.04761904761904,-325.0,-52.77777777777777,-130.3968253968254,-182.3015873015873,-3.095238095238095,305.7936507936508,-193.4126984126984,230.7142857142857,204.04761904761904,-277.85714285714283,-153.09523809523807,325.0,325.0,-1.1904761904761905,-3.571428571428571,-321.8253968253968
294,-325.0,325.0,-76.42857142857143,-17.38095238095238,-325.0,-100.87301587301587,-325.0,-176.9047619047619,-325.0,23.095238095238095,88.65079365079364,-174.84126984126982,42.77777777777778,292.6190476190476,-133.57142857142856,251.5079365079365,195.3174603174603,-315.0,-146.58730158730157,325.0,325.0,20.873015873015873,29.920634920634917,-321.8253968253968
295,-325.0,325.0,-76.42857142857143,-17.38095238095238,-325.0,-100.87301587301587,-325.0,-176.9047619047619,-325.0,23.095238095238095,88.65079365079364,-174.84126984126982,42.77777777777778,292.6190476190476,-133.57142857142856,251.5079365079365,195.3174603174603,-315.0,-146.58730158730157,325.0,325.0,20.873015873015873,29.920634920634917,-321.8253968253968
296,-325.0,325.0,-232.46031746031744,127.22222222222221,-325.0,-99.12698412698413,-325.0,-174.04761904761904,-325.0,120.87301587301586,10.873015873015872,-171.8253968253968,-99.92063492063491,287.53968253968253,-282.46031746031747,323.4126984126984,191.98412698412696,-58.33333333333333,-143.88888888888889,325.0,325.0,-21.507936507936506,-30.87301587301587,-321.8253968253968
297,-325.0,325.0,-232.46031746031744,127.22222222222221,-325.0,-99.12698412698413,-325.0,-174.04761904761904,-325.0,120.87301587301586,10.873015873015872,-171.8253968253968,-99.92063492063491,287.53968253968253,-282.46031746031747,323.4126984126984,191.98412698412696,-58.33333333333333,-143.88888888888889,325.0,325.0,-21.507936507936506,-30.87301587301587,-321.8253968253968
298,-325.0,325.0,-163.09523809523807,57.857142857142854,-325.0,-97.6984126984127,-325.0,-171.8253968253968,-325.0,78.01587301587301,51.03174603174603,-169.9206349206349,-33.73015873015873,283.88888888888886,-191.03174603174602,314.5238095238095,189.44444444444443,-187.85714285714283,-142.14285714285714,325.0,325.0,0.07936507936507936,0.07936507936507936,-321.8253968253968
299,-325.0,325.0,-163.09523809523807,57.857142857142854,-325.0,-97.6984126984127,-325.0,-171.8253968253968,-325.0,78.01587301587301,51.03174603174603,-169.9206349206349,-33.73015873015873,283.88888888888886,-191.03174603174602,314.5238095238095,189.44444444444443,-187.85714285714283,-142.14285714285714,325.0,325.0,0.07936507936507936,0.07936507936507936,-321.8253968253968
300,-325.0,325.0,-229.44444444444443,149.9206349206349,-325.0,-95.63492063492063,-325.0,-167.85714285714286,-325.0,69.92063492063491,21.984126984126984,-165.47619047619045,-93.4126984126984,276.58730158730157,-308.4920634920635,145.79365079365078,184.84126984126982,-325.0,-138.4920634920635,325.0,325.0,-1.0317460317460316,-1.0317460317460316,-166.26984126984127
301,-325.0,325.0,-229.44444444444443,149.9206349206349,-325.0,-95.63492063492063,-325.0,-167.85714285714286,-325.0,69.92063492063491,21.984126984126984,-165.47619047619045,-93.4126984126984,276.58730158730157,-308.4920634920635,145.79365079365078,184.84126984126982,-325.0,-138.4920634920635,325.0,325.0,-1.0317460317460316,-1.0317460317460316,-166.26984126984127
302,-325.0,325.0,-73.57142857142857,15.317460317460316,-325.0,-93.88888888888889,-325.0,-165.0,-325.0,-77.6984126984127,223.4126984126984,-162.46031746031744,23.253968253968253,271.984126984127,-114.2063492063492,-155.79365079365078,181.5079365079365,-325.0,-135.79365079365078,325.0,325.0,21.666666666666664,31.507936507936506,-166.26984126984127
303,-325.0,325.0,-73.57142857142857,15.317460317460316,-325.0,-93.88888888888889,-325.0,-165.0,-325.0,-77.6984126984127,223.4126984126984,-162.46031746031744,23.253968253968253,271.984126984127,-114.2063492063492,-155.79365079365078,181.5079365079365,-325.0,-135.79365079365078,325.0,325.0,21.666666666666664,31.507936507936506,-166.26984126984127
304,-325.0,325.0,-315.3174603174603,28.174603174603174,-325.0,-91.82539682539682,-325.0,-161.5079365079365,-325.0,-68.01587301587301,-244.52380952380952,-158.8095238095238,-158.65079365079364,265.95238095238096,-325.0,-273.88888888888886,177.69841269841268,-325.0,-132.77777777777777,325.0,325.0,0.23809523809523808,0.07936507936507936,-166.26984126984127
305,-325.0,325.0,-315.3174603174603,28.174603174603174,-325.0,-91.82539682539682,-325.0,-161.5079365079365,-325.0,-68.01587301587301,-244.52380952380952,-158.8095238095238,-158.65079365079364,265.95238095238096,-325.0,-273.88888888888886,177.69841269841268,-325.0,-132.77777777777777,325.0,325.0,0.23809523809523808,0.07936507936507936,-166.26984126984127
306,-325.0,325.0,-207.53968253968253,44.2063492063492,-325.0,-90.55555555555556,-325.0,-158.96825396825395,-325.0,-66.9047619047619,145.0,-156.42857142857142,-110.07936507936508,261.1904761904762,-237.2222222222222,-205.0,174.68253968253967,-325.0,-130.7142857142857,325.0,325.0,-2.46031746031746,-1.984126984126984,-166.26984126984127
307,-325.0,325.0,-207.53968253968253,44.2063492063492,-325.0,-90.55555555555556,-325.0,-158.96825396825395,-325.0,-66.9047619047619,145.0,-156.42857142857142,-110.07936507936508,261.1904761904762,-237.2222222222222,-205.0,174.68253968253967,-325.0,-130.7142857142857,325.0,325.0,-2.46031746031746,-1.984126984126984,-166.26984126984127
308,-325.0,325.0,-302.1428571428571,106.1111111111111,-325.0,-90.23809523809523,-325.0,-158.33333333333331,-325.0,-66.58730158730158,86.58730158730158,-155.79365079365078,-214.2063492063492,260.07936507936506,-325.0,-167.06349206349205,174.04761904761904,-325.0,-130.23809523809524,325.0,325.0,-25.158730158730158,-32.93650793650794,-166.26984126984127
309,-325.0,325.0,-302.1428571428571,106.1111111111111,-325.0,-90.23809523809523,-325.0,-158.33333333333331,-325.0,-66.58730158730158,86.58730158730158,-155.79365079365078,-214.2063492063492,260.07936507936506,-325.0,-167.06349206349205,174.04761904761904,-325.0,-130.23809523809524,325.0,325.0,-25.158730158730158,-32.93650793650794,-166.26984126984127
310,-325.0,325.0,-325.0,325.0,-320.87301587301585,-77.6984126984127,-325.0,-137.53968253968253,-325.0,315.0,-325.0,-134.52380952380952,-240.07936507936506,224.2063492063492,-325.0,273.25396825396825,150.07936507936506,-325.0,-112.14285714285714,316.90476190476187,325.0,-15.793650793650793,-24.047619047619047,-321.8253968253968
311,-325.0,325.0,-325.0,325.0,-320.87301587301585,-77.6984126984127,-325.0,-137.53968253968253,-325.0,315.0,-325.0,-134.52380952380952,-240.07936507936506,224.2063492063492,-325.0,273.25396825396825,150.07936507936506,-325.0,-112.14285714285714,316.90476190476187,325.0,-15.793650793650793,-24.047619047619047,-321.8253968253968
312,-325.0,325.0,-325.0,325.0,-320.87301587301585,-77.6984126984127,-325.0,-137.53968253968253,-325.0,315.0,-325.0,-134.52380952380952,-240.07936507936506,224.2063492063492,-325.0,273.25396825396825,150.07936507936506,-325.0,-112.14285714285714,316.90476190476187,325.0,-15.793650793650793,-24.047619047619047,-321.8253968253968
313,-325.0,325.0,-325.0,325.0,-320.87301587301585,-77.6984126984127,-325.0,-137.53968253968253,-325.0,315.0,-325.0,-134.52380952380952,-240.07936507936506,224.2063492063492,-325.0,273.25396825396825,150.07936507936506,-325.0,-112.14285714285714,316.90476190476187,325.0,-15.793650793650793,-24.047619047619047,-321.8253968253968
