,Fp1[1],Fp2[2],F3[3],F4[4],C3[5],C4[6],P3[7],P4[8],O1[9],O2[10],F7[11],F8[12],T3[13],T4[14],T5[15],T6[16],Fz[17],Pz[18],Cz[19],Pg1[20],Pg2[21],EOGR[22],EOOGL[23],EMG[24]
0,325.0,0.7142857142857142,2.3015873015873014,-325.0,-50.55555555555555,325.0,325.0,325.0,325.0,42.3015873015873,325.0,7.5396825396825395,325.0,14.682539682539682,325.0,31.98412698412698,325.0,-325.0,-325.0,-325.0,-325.0,0.5555555555555556,-0.3968253968253968,-166.26984126984127
1,325.0,0.7142857142857142,2.3015873015873014,-325.0,-50.55555555555555,325.0,325.0,325.0,325.0,42.3015873015873,325.0,7.5396825396825395,325.0,14.682539682539682,325.0,31.98412698412698,325.0,-325.0,-325.0,-325.0,-325.0,0.5555555555555556,-0.3968253968253968,-166.26984126984127
2,325.0,9.444444444444445,11.666666666666666,-325.0,-20.396825396825395,314.36507936507934,325.0,325.0,325.0,37.38095238095238,325.0,11.984126984126984,325.0,18.174603174603174,325.0,29.920634920634917,325.0,-325.0,-325.0,-325.0,-325.0,-0.873015873015873,-0.5555555555555556,-166.26984126984127
3,325.0,9.444444444444445,11.666666666666666,-325.0,-20.396825396825395,314.36507936507934,325.0,325.0,325.0,37.38095238095238,325.0,11.984126984126984,325.0,18.174603174603174,325.0,29.920634920634917,325.0,-325.0,-325.0,-325.0,-325.0,-0.873015873015873,-0.5555555555555556,-166.26984126984127
4,325.0,22.936507936507937,24.68253968253968,-325.0,0.3968253968253968,-117.53968253968253,325.0,325.0,325.0,44.84126984126984,325.0,23.57142857142857,325.0,28.65079365079365,325.0,38.49206349206349,325.0,-325.0,-325.0,-325.0,-325.0,0.7142857142857142,0.23809523809523808,-166.26984126984127
5,325.0,22.936507936507937,24.68253968253968,-325.0,0.3968253968253968,-117.53968253968253,325.0,325.0,325.0,44.84126984126984,325.0,23.57142857142857,325.0,28.65079365079365,325.0,38.49206349206349,325.0,-325.0,-325.0,-325.0,-325.0,0.7142857142857142,0.23809523809523808,-166.26984126984127
6,325.0,27.22222222222222,28.65079365079365,-325.0,14.206349206349206,-325.0,325.0,325.0,325.0,42.3015873015873,325.0,25.79365079365079,325.0,29.76190476190476,325.0,36.58730158730159,325.0,-325.0,-325.0,-325.0,-325.0,-0.07936507936507936,-0.5555555555555556,-166.26984126984127
7,325.0,27.22222222222222,28.65079365079365,-325.0,14.206349206349206,-325.0,325.0,325.0,325.0,42.3015873015873,325.0,25.79365079365079,325.0,29.76190476190476,325.0,36.58730158730159,325.0,-325.0,-325.0,-325.0,-325.0,-0.07936507936507936,-0.5555555555555556,-166.26984126984127
8,325.0,30.71428571428571,32.3015873015873,-325.0,23.57142857142857,-325.0,325.0,325.0,325.0,41.666666666666664,325.0,28.96825396825397,325.0,32.93650793650794,325.0,37.698412698412696,325.0,-325.0,-325.0,-325.0,-325.0,-2.142857142857143,1.1904761904761905,-166.26984126984127
9,325.0,30.71428571428571,32.3015873015873,-325.0,23.57142857142857,-325.0,325.0,325.0,325.0,41.666666666666664,325.0,28.96825396825397,325.0,32.93650793650794,325.0,37.698412698412696,325.0,-325.0,-325.0,-325.0,-325.0,-2.142857142857143,1.1904761904761905,-166.26984126984127
10,325.0,37.06349206349206,38.49206349206349,-325.0,31.666666666666664,-325.0,325.0,325.0,325.0,46.11111111111111,325.0,34.52380952380952,325.0,38.17460317460317,325.0,42.61904761904761,325.0,-325.0,-325.0,-325.0,-325.0,1.349206349206349,-1.0317460317460316,-321.8253968253968
11,325.0,37.06349206349206,38.49206349206349,-325.0,31.666666666666664,-325.0,325.0,325.0,325.0,46.11111111111111,325.0,34.52380952380952,325.0,38.17460317460317,325.0,42.61904761904761,325.0,-325.0,-325.0,-325.0,-325.0,1.349206349206349,-1.0317460317460316,-321.8253968253968
12,325.0,33.095238095238095,34.682539682539684,-325.0,29.76190476190476,-325.0,325.0,325.0,325.0,40.55555555555555,325.0,30.396825396825395,325.0,33.888888888888886,325.0,37.38095238095238,325.0,-325.0,-325.0,-325.0,-325.0,-3.4126984126984126,1.0317460317460316,-321.8253968253968
13,325.0,33.095238095238095,34.682539682539684,-325.0,29.76190476190476,-325.0,325.0,325.0,325.0,40.55555555555555,325.0,30.396825396825395,325.0,33.888888888888886,325.0,37.38095238095238,325.0,-325.0,-325.0,-325.0,-325.0,-3.4126984126984126,1.0317460317460316,-321.8253968253968
14,325.0,33.57142857142857,35.15873015873016,-325.0,31.666666666666664,-325.0,325.0,325.0,325.0,40.079365079365076,325.0,31.03174603174603,325.0,34.047619047619044,325.0,37.22222222222222,325.0,-325.0,-325.0,-325.0,-325.0,1.984126984126984,-1.1904761904761905,-321.8253968253968
15,325.0,33.57142857142857,35.15873015873016,-325.0,31.666666666666664,-325.0,325.0,325.0,325.0,40.079365079365076,325.0,31.03174603174603,325.0,34.047619047619044,325.0,37.22222222222222,325.0,-325.0,-325.0,-325.0,-325.0,1.984126984126984,-1.1904761904761905,-321.8253968253968
16,325.0,34.36507936507936,35.79365079365079,-325.0,34.047619047619044,-325.0,325.0,325.0,325.0,39.44444444444444,325.0,31.19047619047619,325.0,34.36507936507936,325.0,36.904761904761905,325.0,-325.0,-323.57142857142856,-325.0,-325.0,-2.46031746031746,1.0317460317460316,-321.8253968253968
17,325.0,34.36507936507936,35.79365079365079,-325.0,34.047619047619044,-325.0,325.0,325.0,325.0,39.44444444444444,325.0,31.19047619047619,325.0,34.36507936507936,325.0,36.904761904761905,325.0,-325.0,-323.57142857142856,-325.0,-325.0,-2.46031746031746,1.0317460317460316,-321.8253968253968
18,325.0,31.98412698412698,33.25396825396825,-325.0,33.095238095238095,-325.0,325.0,325.0,325.0,35.79365079365079,325.0,28.49206349206349,325.0,31.507936507936506,325.0,33.73015873015873,325.0,-325.0,-318.17460317460313,-325.0,-325.0,2.142857142857143,-1.1904761904761905,-321.8253968253968
19,325.0,31.98412698412698,33.25396825396825,-325.0,33.095238095238095,-325.0,325.0,325.0,325.0,35.79365079365079,325.0,28.49206349206349,325.0,31.507936507936506,325.0,33.73015873015873,325.0,-325.0,-318.17460317460313,-325.0,-325.0,2.142857142857143,-1.1904761904761905,-321.8253968253968
20,325.0,30.555555555555554,31.825396825396822,-325.0,33.095238095238095,-325.0,325.0,325.0,325.0,32.93650793650794,325.0,26.9047619047619,325.0,29.76190476190476,325.0,31.19047619047619,325.0,-325.0,-312.77777777777777,-325.0,-325.0,-2.3015873015873014,0.3968253968253968,-166.26984126984127
21,325.0,30.555555555555554,31.825396825396822,-325.0,33.095238095238095,-325.0,325.0,325.0,325.0,32.93650793650794,325.0,26.9047619047619,325.0,29.76190476190476,325.0,31.19047619047619,325.0,-325.0,-312.77777777777777,-325.0,-325.0,-2.3015873015873014,0.3968253968253968,-166.26984126984127
22,325.0,32.14285714285714,33.57142857142857,-325.0,35.95238095238095,-325.0,325.0,325.0,325.0,33.57142857142857,325.0,28.96825396825397,325.0,31.349206349206348,325.0,32.460317460317455,325.0,-325.0,-306.1111111111111,-325.0,-325.0,1.6666666666666665,-0.873015873015873,-166.26984126984127
23,325.0,32.14285714285714,33.57142857142857,-325.0,35.95238095238095,-325.0,325.0,325.0,325.0,33.57142857142857,325.0,28.96825396825397,325.0,31.349206349206348,325.0,32.460317460317455,325.0,-325.0,-306.1111111111111,-325.0,-325.0,1.6666666666666665,-0.873015873015873,-166.26984126984127
24,136.9047619047619,-10.555555555555555,-11.031746031746032,-148.4920634920635,1.349206349206349,-189.28571428571428,195.15873015873015,-325.0,199.44444444444443,-21.03174603174603,151.984126984127,-10.873015873015872,175.3174603174603,-15.95238095238095,145.63492063492063,-17.857142857142858,129.28571428571428,-154.36507936507937,325.0,-123.25396825396825,-118.8095238095238,-1.8253968253968254,0.23809523809523808,-166.26984126984127
25,136.9047619047619,-10.555555555555555,-11.031746031746032,-148.4920634920635,1.349206349206349,-189.28571428571428,195.15873015873015,-325.0,199.44444444444443,-21.03174603174603,151.984126984127,-10.873015873015872,175.3174603174603,-15.95238095238095,145.63492063492063,-17.857142857142858,129.28571428571428,-154.36507936507937,325.0,-123.25396825396825,-118.8095238095238,-1.8253968253968254,0.23809523809523808,-166.26984126984127
26,135.0,-14.047619047619047,-14.523809523809524,-146.42857142857142,-2.142857142857143,-187.06349206349205,192.61904761904762,-325.0,196.9047619047619,-24.365079365079364,149.9206349206349,-14.206349206349206,172.93650793650792,-19.6031746031746,143.88888888888889,-21.507936507936506,127.53968253968253,-152.46031746031744,325.0,-121.5079365079365,-117.22222222222221,-0.3968253968253968,-0.23809523809523808,-166.26984126984127
27,135.0,-14.047619047619047,-14.523809523809524,-146.42857142857142,-2.142857142857143,-187.06349206349205,192.61904761904762,-325.0,196.9047619047619,-24.365079365079364,149.9206349206349,-14.206349206349206,172.93650793650792,-19.6031746031746,143.88888888888889,-21.507936507936506,127.53968253968253,-152.46031746031744,325.0,-121.5079365079365,-117.22222222222221,-0.3968253968253968,-0.23809523809523808,-166.26984126984127
28,130.23809523809524,-17.539682539682538,-18.174603174603174,-141.34920634920636,-5.952380952380952,-158.4920634920635,186.11111111111111,-325.0,190.55555555555554,-27.38095238095238,145.0,-17.38095238095238,166.9047619047619,-23.095238095238095,139.12698412698413,-24.523809523809522,123.09523809523809,-147.38095238095238,325.0,-117.38095238095238,-113.09523809523809,-0.5555555555555556,-1.507936507936508,-166.26984126984127
29,130.23809523809524,-17.539682539682538,-18.174603174603174,-141.34920634920636,-5.952380952380952,-158.4920634920635,186.11111111111111,-325.0,190.55555555555554,-27.38095238095238,145.0,-17.38095238095238,166.9047619047619,-23.095238095238095,139.12698412698413,-24.523809523809522,123.09523809523809,-147.38095238095238,325.0,-117.38095238095238,-113.09523809523809,-0.5555555555555556,-1.507936507936508,-166.26984126984127
30,127.38095238095238,-19.126984126984127,-19.285714285714285,-138.33333333333331,-8.015873015873016,-157.06349206349205,182.14285714285714,-325.0,186.42857142857142,-28.809523809523807,141.984126984127,-18.96825396825397,163.57142857142856,-24.523809523809522,135.95238095238093,-25.79365079365079,120.39682539682539,-144.36507936507937,325.0,-115.15873015873015,-110.55555555555554,1.349206349206349,-1.6666666666666665,-321.8253968253968
31,127.38095238095238,-19.126984126984127,-19.285714285714285,-138.33333333333331,-8.015873015873016,-157.06349206349205,182.14285714285714,-325.0,186.42857142857142,-28.809523809523807,141.984126984127,-18.96825396825397,163.57142857142856,-24.523809523809522,135.95238095238093,-25.79365079365079,120.39682539682539,-144.36507936507937,325.0,-115.15873015873015,-110.55555555555554,1.349206349206349,-1.6666666666666665,-321.8253968253968
32,125.79365079365078,-22.777777777777775,-22.3015873015873,-136.58730158730157,-11.666666666666666,-175.63492063492063,179.76190476190476,-325.0,184.04761904761904,-32.14285714285714,140.23809523809524,-22.619047619047617,161.5079365079365,-27.857142857142854,134.04761904761904,-28.96825396825397,118.8095238095238,-142.46031746031744,325.0,-113.73015873015872,-108.80952380952381,1.349206349206349,-2.3015873015873014,-321.8253968253968
33,125.79365079365078,-22.777777777777775,-22.3015873015873,-136.58730158730157,-11.666666666666666,-175.63492063492063,179.76190476190476,-325.0,184.04761904761904,-32.14285714285714,140.23809523809524,-22.619047619047617,161.5079365079365,-27.857142857142854,134.04761904761904,-28.96825396825397,118.8095238095238,-142.46031746031744,325.0,-113.73015873015872,-108.80952380952381,1.349206349206349,-2.3015873015873014,-321.8253968253968
34,59.12698412698413,-17.857142857142858,-18.65079365079365,-65.63492063492063,-16.428571428571427,283.88888888888886,86.74603174603175,-207.85714285714283,90.23809523809523,-20.555555555555554,68.4920634920635,-17.063492063492063,78.33333333333333,-21.349206349206348,65.15873015873015,-19.285714285714285,56.58730158730158,21.19047619047619,325.0,325.0,-51.507936507936506,0.5555555555555556,-1.8253968253968254,-321.8253968253968
35,59.12698412698413,-17.857142857142858,-18.65079365079365,-65.63492063492063,-16.428571428571427,283.88888888888886,86.74603174603175,-207.85714285714283,90.23809523809523,-20.555555555555554,68.4920634920635,-17.063492063492063,78.33333333333333,-21.349206349206348,65.15873015873015,-19.285714285714285,56.58730158730158,21.19047619047619,325.0,325.0,-51.507936507936506,0.5555555555555556,-1.8253968253968254,-321.8253968253968
36,58.17460317460317,-14.047619047619047,-15.476190476190474,-64.68253968253968,-13.095238095238095,215.0,85.15873015873015,-204.52380952380952,88.65079365079364,-16.904761904761905,67.22222222222221,-13.73015873015873,77.06349206349206,-17.22222222222222,64.04761904761905,-15.95238095238095,55.476190476190474,164.84126984126982,325.0,325.0,-50.71428571428571,-2.9365079365079363,0.23809523809523808,-321.8253968253968
37,58.17460317460317,-14.047619047619047,-15.476190476190474,-64.68253968253968,-13.095238095238095,215.0,85.15873015873015,-204.52380952380952,88.65079365079364,-16.904761904761905,67.22222222222221,-13.73015873015873,77.06349206349206,-17.22222222222222,64.04761904761905,-15.95238095238095,55.476190476190474,164.84126984126982,325.0,325.0,-50.71428571428571,-2.9365079365079363,0.23809523809523808,-321.8253968253968
38,57.22222222222222,-8.968253968253968,-9.761904761904761,-63.25396825396825,-7.857142857142857,191.34920634920633,83.88888888888889,-201.19047619047618,87.22222222222221,-11.19047619047619,66.11111111111111,-7.857142857142857,75.79365079365078,-11.825396825396824,62.93650793650793,-9.761904761904761,54.52380952380952,250.7142857142857,325.0,325.0,-49.92063492063492,1.0317460317460316,-0.7142857142857142,-321.8253968253968
39,57.22222222222222,-8.968253968253968,-9.761904761904761,-63.25396825396825,-7.857142857142857,191.34920634920633,83.88888888888889,-201.19047619047618,87.22222222222221,-11.19047619047619,66.11111111111111,-7.857142857142857,75.79365079365078,-11.825396825396824,62.93650793650793,-9.761904761904761,54.52380952380952,250.7142857142857,325.0,325.0,-49.92063492063492,1.0317460317460316,-0.7142857142857142,-321.8253968253968
40,56.11111111111111,-6.111111111111111,-7.5396825396825395,-62.460317460317455,-5.634920634920634,114.84126984126983,82.46031746031746,-198.015873015873,85.79365079365078,-8.968253968253968,65.0,-5.952380952380952,74.36507936507937,-9.285714285714285,61.98412698412698,-8.174603174603174,53.41269841269841,325.0,325.0,325.0,-48.96825396825397,-2.46031746031746,0.23809523809523808,-166.26984126984127
41,56.11111111111111,-6.111111111111111,-7.5396825396825395,-62.460317460317455,-5.634920634920634,114.84126984126983,82.46031746031746,-198.015873015873,85.79365079365078,-8.968253968253968,65.0,-5.952380952380952,74.36507936507937,-9.285714285714285,61.98412698412698,-8.174603174603174,53.41269841269841,325.0,325.0,325.0,-48.96825396825397,-2.46031746031746,0.23809523809523808,-166.26984126984127
42,55.0,-11.031746031746032,-11.666666666666666,-61.34920634920635,-10.079365079365079,54.841269841269835,80.87301587301587,-194.84126984126982,84.36507936507937,-13.095238095238095,63.888888888888886,-10.396825396825395,73.25396825396825,-14.206349206349206,60.71428571428571,-12.3015873015873,52.61904761904761,325.0,325.0,325.0,-48.17460317460317,1.349206349206349,-2.142857142857143,-166.26984126984127
43,55.0,-11.031746031746032,-11.666666666666666,-61.34920634920635,-10.079365079365079,54.841269841269835,80.87301587301587,-194.84126984126982,84.36507936507937,-13.095238095238095,63.888888888888886,-10.396825396825395,73.25396825396825,-14.206349206349206,60.71428571428571,-12.3015873015873,52.61904761904761,325.0,325.0,325.0,-48.17460317460317,1.349206349206349,-2.142857142857143,-166.26984126984127
44,16.587301587301585,-13.095238095238095,-14.365079365079364,135.47619047619048,-15.158730158730158,11.666666666666666,-4.2063492063492065,-121.19047619047619,-125.31746031746032,-13.412698412698411,31.507936507936506,-12.777777777777777,-130.23809523809524,-13.888888888888888,20.71428571428571,-13.253968253968253,-23.253968253968253,321.984126984127,220.2380952380952,268.015873015873,141.34920634920636,-1.8253968253968254,-1.6666666666666665,-166.26984126984127
45,16.587301587301585,-13.095238095238095,-14.365079365079364,135.47619047619048,-15.158730158730158,11.666666666666666,-4.2063492063492065,-121.19047619047619,-125.31746031746032,-13.412698412698411,31.507936507936506,-12.777777777777777,-130.23809523809524,-13.888888888888888,20.71428571428571,-13.253968253968253,-23.253968253968253,321.984126984127,220.2380952380952,268.015873015873,141.34920634920636,-1.8253968253968254,-1.6666666666666665,-166.26984126984127
46,-23.730158730158728,-9.444444444444445,-10.873015873015872,325.0,-13.571428571428571,-78.4920634920635,-85.15873015873015,-68.01587301587301,-325.0,-8.809523809523808,-2.46031746031746,-8.968253968253968,-325.0,-8.015873015873016,-20.555555555555554,-8.968253968253968,-98.49206349206348,314.04761904761904,120.55555555555554,207.53968253968253,325.0,0.3968253968253968,1.8253968253968254,-166.26984126984127
47,-23.730158730158728,-9.444444444444445,-10.873015873015872,325.0,-13.571428571428571,-78.4920634920635,-85.15873015873015,-68.01587301587301,-325.0,-8.809523809523808,-2.46031746031746,-8.968253968253968,-325.0,-8.015873015873016,-20.555555555555554,-8.968253968253968,-98.49206349206348,314.04761904761904,120.55555555555554,207.53968253968253,325.0,0.3968253968253968,1.8253968253968254,-166.26984126984127
48,-35.63492063492063,-9.444444444444445,-10.079365079365079,325.0,-13.253968253968253,-76.1111111111111,-93.4126984126984,-66.26984126984127,-325.0,-8.333333333333332,-15.634920634920634,-10.079365079365079,-325.0,-8.65079365079365,-32.77777777777778,-8.333333333333332,-130.55555555555554,306.74603174603175,117.38095238095238,202.46031746031744,325.0,2.619047619047619,-0.873015873015873,-166.26984126984127
49,-35.63492063492063,-9.444444444444445,-10.079365079365079,325.0,-13.253968253968253,-76.1111111111111,-93.4126984126984,-66.26984126984127,-325.0,-8.333333333333332,-15.634920634920634,-10.079365079365079,-325.0,-8.65079365079365,-32.77777777777778,-8.333333333333332,-130.55555555555554,306.74603174603175,117.38095238095238,202.46031746031744,325.0,2.619047619047619,-0.873015873015873,-166.26984126984127
50,-35.63492063492063,-9.444444444444445,-10.079365079365079,325.0,-13.253968253968253,-76.1111111111111,-93.4126984126984,-66.26984126984127,-325.0,-8.333333333333332,-15.634920634920634,-10.079365079365079,-325.0,-8.65079365079365,-32.77777777777778,-8.333333333333332,-130.55555555555554,306.74603174603175,117.38095238095238,202.46031746031744,325.0,2.619047619047619,-0.873015873015873,-321.8253968253968
51,-35.63492063492063,-9.444444444444445,-10.079365079365079,325.0,-13.253968253968253,-76.1111111111111,-93.4126984126984,-66.26984126984127,-325.0,-8.333333333333332,-15.634920634920634,-10.079365079365079,-325.0,-8.65079365079365,-32.77777777777778,-8.333333333333332,-130.55555555555554,306.74603174603175,117.38095238095238,202.46031746031744,325.0,2.619047619047619,-0.873015873015873,-321.8253968253968
52,-35.63492063492063,-9.444444444444445,-10.079365079365079,325.0,-13.253968253968253,-76.1111111111111,-93.4126984126984,-66.26984126984127,-325.0,-8.333333333333332,-15.634920634920634,-10.079365079365079,-325.0,-8.65079365079365,-32.77777777777778,-8.333333333333332,-130.55555555555554,306.74603174603175,117.38095238095238,202.46031746031744,325.0,2.619047619047619,-0.873015873015873,-321.8253968253968
53,-35.63492063492063,-9.444444444444445,-10.079365079365079,325.0,-13.253968253968253,-76.1111111111111,-93.4126984126984,-66.26984126984127,-325.0,-8.333333333333332,-15.634920634920634,-10.079365079365079,-325.0,-8.65079365079365,-32.77777777777778,-8.333333333333332,-130.55555555555554,306.74603174603175,117.38095238095238,202.46031746031744,325.0,2.619047619047619,-0.873015873015873,-321.8253968253968
54,-35.63492063492063,-9.444444444444445,-10.079365079365079,325.0,-13.253968253968253,-76.1111111111111,-93.4126984126984,-66.26984126984127,-325.0,-8.333333333333332,-15.634920634920634,-10.079365079365079,-325.0,-8.65079365079365,-32.77777777777778,-8.333333333333332,-130.55555555555554,306.74603174603175,117.38095238095238,202.46031746031744,325.0,2.619047619047619,-0.873015873015873,-321.8253968253968
55,-35.63492063492063,-9.444444444444445,-10.079365079365079,325.0,-13.253968253968253,-76.1111111111111,-93.4126984126984,-66.26984126984127,-325.0,-8.333333333333332,-15.634920634920634,-10.079365079365079,-325.0,-8.65079365079365,-32.77777777777778,-8.333333333333332,-130.55555555555554,306.74603174603175,117.38095238095238,202.46031746031744,325.0,2.619047619047619,-0.873015873015873,-321.8253968253968
56,-35.63492063492063,-9.444444444444445,-10.079365079365079,325.0,-13.253968253968253,-76.1111111111111,-93.4126984126984,-66.26984126984127,-325.0,-8.333333333333332,-15.634920634920634,-10.079365079365079,-325.0,-8.65079365079365,-32.77777777777778,-8.333333333333332,-130.55555555555554,306.74603174603175,117.38095238095238,202.46031746031744,325.0,2.619047619047619,-0.873015873015873,-321.8253968253968
57,-35.63492063492063,-9.444444444444445,-10.079365079365079,325.0,-13.253968253968253,-76.1111111111111,-93.4126984126984,-66.26984126984127,-325.0,-8.333333333333332,-15.634920634920634,-10.079365079365079,-325.0,-8.65079365079365,-32.77777777777778,-8.333333333333332,-130.55555555555554,306.74603174603175,117.38095238095238,202.46031746031744,325.0,2.619047619047619,-0.873015873015873,-321.8253968253968
58,-35.63492063492063,-9.444444444444445,-10.079365079365079,325.0,-13.253968253968253,-76.1111111111111,-93.4126984126984,-66.26984126984127,-325.0,-8.333333333333332,-15.634920634920634,-10.079365079365079,-325.0,-8.65079365079365,-32.77777777777778,-8.333333333333332,-130.55555555555554,306.74603174603175,117.38095238095238,202.46031746031744,325.0,2.619047619047619,-0.873015873015873,-321.8253968253968
59,-35.63492063492063,-9.444444444444445,-10.079365079365079,325.0,-13.253968253968253,-76.1111111111111,-93.4126984126984,-66.26984126984127,-325.0,-8.333333333333332,-15.634920634920634,-10.079365079365079,-325.0,-8.65079365079365,-32.77777777777778,-8.333333333333332,-130.55555555555554,306.74603174603175,117.38095238095238,202.46031746031744,325.0,2.619047619047619,-0.873015873015873,-321.8253968253968
60,-35.63492063492063,-9.444444444444445,-10.079365079365079,325.0,-13.253968253968253,-76.1111111111111,-93.4126984126984,-66.26984126984127,-325.0,-8.333333333333332,-15.634920634920634,-10.079365079365079,-325.0,-8.65079365079365,-32.77777777777778,-8.333333333333332,-130.55555555555554,306.74603174603175,117.38095238095238,202.46031746031744,325.0,2.619047619047619,-0.873015873015873,-166.26984126984127
61,-35.63492063492063,-9.444444444444445,-10.079365079365079,325.0,-13.253968253968253,-76.1111111111111,-93.4126984126984,-66.26984126984127,-325.0,-8.333333333333332,-15.634920634920634,-10.079365079365079,-325.0,-8.65079365079365,-32.77777777777778,-8.333333333333332,-130.55555555555554,306.74603174603175,117.38095238095238,202.46031746031744,325.0,2.619047619047619,-0.873015873015873,-166.26984126984127
62,-35.63492063492063,-9.444444444444445,-10.079365079365079,325.0,-13.253968253968253,-76.1111111111111,-93.4126984126984,-66.26984126984127,-325.0,-8.333333333333332,-15.634920634920634,-10.079365079365079,-325.0,-8.65079365079365,-32.77777777777778,-8.333333333333332,-130.55555555555554,306.74603174603175,117.38095238095238,202.46031746031744,325.0,2.619047619047619,-0.873015873015873,-166.26984126984127
63,-35.63492063492063,-9.444444444444445,-10.079365079365079,325.0,-13.253968253968253,-76.1111111111111,-93.4126984126984,-66.26984126984127,-325.0,-8.333333333333332,-15.634920634920634,-10.079365079365079,-325.0,-8.65079365079365,-32.77777777777778,-8.333333333333332,-130.55555555555554,306.74603174603175,117.38095238095238,202.46031746031744,325.0,2.619047619047619,-0.873015873015873,-166.26984126984127
64,-35.63492063492063,-9.444444444444445,-10.079365079365079,325.0,-13.253968253968253,-76.1111111111111,-93.4126984126984,-66.26984126984127,-325.0,-8.333333333333332,-15.634920634920634,-10.079365079365079,-325.0,-8.65079365079365,-32.77777777777778,-8.333333333333332,-130.55555555555554,306.74603174603175,117.38095238095238,202.46031746031744,325.0,2.619047619047619,-0.873015873015873,-166.26984126984127
65,-35.63492063492063,-9.444444444444445,-10.079365079365079,325.0,-13.253968253968253,-76.1111111111111,-93.4126984126984,-66.26984126984127,-325.0,-8.333333333333332,-15.634920634920634,-10.079365079365079,-325.0,-8.65079365079365,-32.77777777777778,-8.333333333333332,-130.55555555555554,306.74603174603175,117.38095238095238,202.46031746031744,325.0,2.619047619047619,-0.873015873015873,-166.26984126984127
66,-35.63492063492063,-9.444444444444445,-10.079365079365079,325.0,-13.253968253968253,-76.1111111111111,-93.4126984126984,-66.26984126984127,-325.0,-8.333333333333332,-15.634920634920634,-10.079365079365079,-325.0,-8.65079365079365,-32.77777777777778,-8.333333333333332,-130.55555555555554,306.74603174603175,117.38095238095238,202.46031746031744,325.0,2.619047619047619,-0.873015873015873,-166.26984126984127
67,-35.63492063492063,-9.444444444444445,-10.079365079365079,325.0,-13.253968253968253,-76.1111111111111,-93.4126984126984,-66.26984126984127,-325.0,-8.333333333333332,-15.634920634920634,-10.079365079365079,-325.0,-8.65079365079365,-32.77777777777778,-8.333333333333332,-130.55555555555554,306.74603174603175,117.38095238095238,202.46031746031744,325.0,2.619047619047619,-0.873015873015873,-166.26984126984127
68,-35.63492063492063,-9.444444444444445,-10.079365079365079,325.0,-13.253968253968253,-76.1111111111111,-93.4126984126984,-66.26984126984127,-325.0,-8.333333333333332,-15.634920634920634,-10.079365079365079,-325.0,-8.65079365079365,-32.77777777777778,-8.333333333333332,-130.55555555555554,306.74603174603175,117.38095238095238,202.46031746031744,325.0,2.619047619047619,-0.873015873015873,-166.26984126984127
69,-35.63492063492063,-9.444444444444445,-10.079365079365079,325.0,-13.253968253968253,-76.1111111111111,-93.4126984126984,-66.26984126984127,-325.0,-8.333333333333332,-15.634920634920634,-10.079365079365079,-325.0,-8.65079365079365,-32.77777777777778,-8.333333333333332,-130.55555555555554,306.74603174603175,117.38095238095238,202.46031746031744,325.0,2.619047619047619,-0.873015873015873,-166.26984126984127
70,-35.63492063492063,-9.444444444444445,-10.079365079365079,325.0,-13.253968253968253,-76.1111111111111,-93.4126984126984,-66.26984126984127,-325.0,-8.333333333333332,-15.634920634920634,-10.079365079365079,-325.0,-8.65079365079365,-32.77777777777778,-8.333333333333332,-130.55555555555554,306.74603174603175,117.38095238095238,202.46031746031744,325.0,2.619047619047619,-0.873015873015873,-321.8253968253968
71,-35.63492063492063,-9.444444444444445,-10.079365079365079,325.0,-13.253968253968253,-76.1111111111111,-93.4126984126984,-66.26984126984127,-325.0,-8.333333333333332,-15.634920634920634,-10.079365079365079,-325.0,-8.65079365079365,-32.77777777777778,-8.333333333333332,-130.55555555555554,306.74603174603175,117.38095238095238,202.46031746031744,325.0,2.619047619047619,-0.873015873015873,-321.8253968253968
72,-35.63492063492063,-9.444444444444445,-10.079365079365079,325.0,-13.253968253968253,-76.1111111111111,-93.4126984126984,-66.26984126984127,-325.0,-8.333333333333332,-15.634920634920634,-10.079365079365079,-325.0,-8.65079365079365,-32.77777777777778,-8.333333333333332,-130.55555555555554,306.74603174603175,117.38095238095238,202.46031746031744,325.0,2.619047619047619,-0.873015873015873,-321.8253968253968
73,-35.63492063492063,-9.444444444444445,-10.079365079365079,325.0,-13.253968253968253,-76.1111111111111,-93.4126984126984,-66.26984126984127,-325.0,-8.333333333333332,-15.634920634920634,-10.079365079365079,-325.0,-8.65079365079365,-32.77777777777778,-8.333333333333332,-130.55555555555554,306.74603174603175,117.38095238095238,202.46031746031744,325.0,2.619047619047619,-0.873015873015873,-321.8253968253968
74,-35.63492063492063,-9.444444444444445,-10.079365079365079,325.0,-13.253968253968253,-76.1111111111111,-93.4126984126984,-66.26984126984127,-325.0,-8.333333333333332,-15.634920634920634,-10.079365079365079,-325.0,-8.65079365079365,-32.77777777777778,-8.333333333333332,-130.55555555555554,306.74603174603175,117.38095238095238,202.46031746031744,325.0,2.619047619047619,-0.873015873015873,-321.8253968253968
75,-35.63492063492063,-9.444444444444445,-10.079365079365079,325.0,-13.253968253968253,-76.1111111111111,-93.4126984126984,-66.26984126984127,-325.0,-8.333333333333332,-15.634920634920634,-10.079365079365079,-325.0,-8.65079365079365,-32.77777777777778,-8.333333333333332,-130.55555555555554,306.74603174603175,117.38095238095238,202.46031746031744,325.0,2.619047619047619,-0.873015873015873,-321.8253968253968
76,-325.0,10.396825396825395,9.285714285714285,212.3015873015873,7.5396825396825395,-31.03174603174603,-325.0,61.19047619047619,-203.57142857142856,11.507936507936508,-325.0,11.666666666666666,-235.0,11.984126984126984,-325.0,11.031746031746032,-325.0,135.47619047619048,49.6031746031746,86.74603174603175,325.0,0.07936507936507936,0.5555555555555556,-321.8253968253968
77,-325.0,10.396825396825395,9.285714285714285,212.3015873015873,7.5396825396825395,-31.03174603174603,-325.0,61.19047619047619,-203.57142857142856,11.507936507936508,-325.0,11.666666666666666,-235.0,11.984126984126984,-325.0,11.031746031746032,-325.0,135.47619047619048,49.6031746031746,86.74603174603175,325.0,0.07936507936507936,0.5555555555555556,-321.8253968253968
78,-236.58730158730157,2.619047619047619,1.8253968253968254,133.0952380952381,0.3968253968253968,4.523809523809524,-215.95238095238093,106.58730158730158,-128.8095238095238,3.73015873015873,-225.79365079365078,3.888888888888889,-147.69841269841268,6.111111111111111,-222.77777777777777,3.571428571428571,-211.5079365079365,86.1111111111111,1.507936507936508,53.41269841269841,204.52380952380952,0.873015873015873,-0.3968253968253968,-321.8253968253968
79,-236.58730158730157,2.619047619047619,1.8253968253968254,133.0952380952381,0.3968253968253968,4.523809523809524,-215.95238095238093,106.58730158730158,-128.8095238095238,3.73015873015873,-225.79365079365078,3.888888888888889,-147.69841269841268,6.111111111111111,-222.77777777777777,3.571428571428571,-211.5079365079365,86.1111111111111,1.507936507936508,53.41269841269841,204.52380952380952,0.873015873015873,-0.3968253968253968,-321.8253968253968
80,-146.9047619047619,-7.222222222222221,-7.5396825396825395,53.57142857142857,-8.65079365079365,22.936507936507937,-105.95238095238095,144.2063492063492,-53.41269841269841,-5.952380952380952,-125.63492063492063,-5.952380952380952,-59.92063492063492,-1.507936507936508,-119.6031746031746,-5.7936507936507935,-97.22222222222221,36.42857142857142,-120.23809523809523,18.015873015873016,83.57142857142857,-0.5555555555555556,-0.5555555555555556,-166.26984126984127
81,-146.9047619047619,-7.222222222222221,-7.5396825396825395,53.57142857142857,-8.65079365079365,22.936507936507937,-105.95238095238095,144.2063492063492,-53.41269841269841,-5.952380952380952,-125.63492063492063,-5.952380952380952,-59.92063492063492,-1.507936507936508,-119.6031746031746,-5.7936507936507935,-97.22222222222221,36.42857142857142,-120.23809523809523,18.015873015873016,83.57142857142857,-0.5555555555555556,-0.5555555555555556,-166.26984126984127
82,-144.36507936507937,-11.031746031746032,-11.666666666666666,52.77777777777777,-12.619047619047619,21.984126984126984,-103.88888888888889,155.47619047619048,-52.61904761904761,-10.079365079365079,-123.57142857142857,-10.079365079365079,-58.650793650793645,-5.317460317460317,-117.6984126984127,-10.396825396825395,-95.31746031746032,35.79365079365079,-204.04761904761904,7.5396825396825395,81.98412698412697,0.5555555555555556,-2.619047619047619,-166.26984126984127
83,-144.36507936507937,-11.031746031746032,-11.666666666666666,52.77777777777777,-12.619047619047619,21.984126984126984,-103.88888888888889,155.47619047619048,-52.61904761904761,-10.079365079365079,-123.57142857142857,-10.079365079365079,-58.650793650793645,-5.317460317460317,-117.6984126984127,-10.396825396825395,-95.31746031746032,35.79365079365079,-204.04761904761904,7.5396825396825395,81.98412698412697,0.5555555555555556,-2.619047619047619,-166.26984126984127
84,-141.984126984127,-7.3809523809523805,-8.65079365079365,51.666666666666664,-9.285714285714285,-21.666666666666664,-102.14285714285714,141.34920634920636,-51.666666666666664,-6.904761904761904,-121.5079365079365,-5.476190476190476,-58.01587301587301,-2.3015873015873014,-115.63492063492063,-7.063492063492063,-93.88888888888889,35.15873015873016,-77.6984126984127,22.777777777777775,80.55555555555556,0.873015873015873,1.349206349206349,-166.26984126984127
85,-141.984126984127,-7.3809523809523805,-8.65079365079365,51.666666666666664,-9.285714285714285,-21.666666666666664,-102.14285714285714,141.34920634920636,-51.666666666666664,-6.904761904761904,-121.5079365079365,-5.476190476190476,-58.01587301587301,-2.3015873015873014,-115.63492063492063,-7.063492063492063,-93.88888888888889,35.15873015873016,-77.6984126984127,22.777777777777775,80.55555555555556,0.873015873015873,1.349206349206349,-166.26984126984127
86,-139.44444444444443,-9.603174603174603,-10.238095238095237,51.19047619047619,-10.714285714285714,-69.92063492063491,-100.39682539682539,169.9206349206349,-50.87301587301587,-8.174603174603174,-119.44444444444444,-8.174603174603174,-56.74603174603174,-3.571428571428571,-113.88888888888889,-8.492063492063492,-92.14285714285714,34.682539682539684,-50.238095238095234,-6.26984126984127,79.12698412698413,0.07936507936507936,-1.507936507936508,-166.26984126984127
87,-139.44444444444443,-9.603174603174603,-10.238095238095237,51.19047619047619,-10.714285714285714,-69.92063492063491,-100.39682539682539,169.9206349206349,-50.87301587301587,-8.174603174603174,-119.44444444444444,-8.174603174603174,-56.74603174603174,-3.571428571428571,-113.88888888888889,-8.492063492063492,-92.14285714285714,34.682539682539684,-50.238095238095234,-6.26984126984127,79.12698412698413,0.07936507936507936,-1.507936507936508,-166.26984126984127
88,-136.58730158730157,-5.476190476190476,-6.587301587301587,49.92063492063492,-6.904761904761904,-156.11111111111111,-98.65079365079364,145.79365079365078,-49.92063492063492,-4.682539682539682,-117.22222222222221,-4.2063492063492065,-55.63492063492063,-0.3968253968253968,-111.66666666666666,-4.523809523809524,-90.39682539682539,33.888888888888886,26.587301587301585,14.84126984126984,77.38095238095238,-1.8253968253968254,0.873015873015873,-166.26984126984127
89,-136.58730158730157,-5.476190476190476,-6.587301587301587,49.92063492063492,-6.904761904761904,-156.11111111111111,-98.65079365079364,145.79365079365078,-49.92063492063492,-4.682539682539682,-117.22222222222221,-4.2063492063492065,-55.63492063492063,-0.3968253968253968,-111.66666666666666,-4.523809523809524,-90.39682539682539,33.888888888888886,26.587301587301585,14.84126984126984,77.38095238095238,-1.8253968253968254,0.873015873015873,-166.26984126984127
90,-134.36507936507937,-3.4126984126984126,-3.888888888888889,48.96825396825397,-4.523809523809524,-138.33333333333331,-96.74603174603175,160.07936507936506,-48.96825396825397,-2.3015873015873014,-115.31746031746032,-1.6666666666666665,-54.841269841269835,1.8253968253968254,-109.76190476190476,-2.3015873015873014,-88.96825396825396,33.25396825396825,26.428571428571427,5.476190476190476,75.95238095238095,1.0317460317460316,-1.349206349206349,-321.8253968253968
91,-134.36507936507937,-3.4126984126984126,-3.888888888888889,48.96825396825397,-4.523809523809524,-138.33333333333331,-96.74603174603175,160.07936507936506,-48.96825396825397,-2.3015873015873014,-115.31746031746032,-1.6666666666666665,-54.841269841269835,1.8253968253968254,-109.76190476190476,-2.3015873015873014,-88.96825396825396,33.25396825396825,26.428571428571427,5.476190476190476,75.95238095238095,1.0317460317460316,-1.349206349206349,-321.8253968253968
92,-131.984126984127,-0.23809523809523808,-1.0317460317460316,48.33333333333333,-1.507936507936508,-122.6190476190476,-95.0,142.77777777777777,-48.17460317460317,0.7142857142857142,-113.4126984126984,1.349206349206349,-53.888888888888886,4.682539682539682,-108.01587301587301,0.7142857142857142,-87.38095238095238,32.77777777777778,39.12698412698413,11.031746031746032,74.68253968253968,-2.3015873015873014,1.1904761904761905,-321.8253968253968
93,-131.984126984127,-0.23809523809523808,-1.0317460317460316,48.33333333333333,-1.507936507936508,-122.6190476190476,-95.0,142.77777777777777,-48.17460317460317,0.7142857142857142,-113.4126984126984,1.349206349206349,-53.888888888888886,4.682539682539682,-108.01587301587301,0.7142857142857142,-87.38095238095238,32.77777777777778,39.12698412698413,11.031746031746032,74.68253968253968,-2.3015873015873014,1.1904761904761905,-321.8253968253968
94,-129.28571428571428,-0.7142857142857142,-1.349206349206349,47.22222222222222,-1.8253968253968254,6.111111111111111,-92.93650793650794,152.14285714285714,-47.22222222222222,0.5555555555555556,-111.19047619047619,1.1904761904761905,-52.93650793650794,4.841269841269841,-105.95238095238095,0.7142857142857142,-85.63492063492063,31.98412698412698,37.06349206349206,5.7936507936507935,73.09523809523809,0.3968253968253968,-0.3968253968253968,-321.8253968253968
95,-129.28571428571428,-0.7142857142857142,-1.349206349206349,47.22222222222222,-1.8253968253968254,6.111111111111111,-92.93650793650794,152.14285714285714,-47.22222222222222,0.5555555555555556,-111.19047619047619,1.1904761904761905,-52.93650793650794,4.841269841269841,-105.95238095238095,0.7142857142857142,-85.63492063492063,31.98412698412698,37.06349206349206,5.7936507936507935,73.09523809523809,0.3968253968253968,-0.3968253968253968,-321.8253968253968
96,-126.42857142857142,8.333333333333332,7.698412698412698,46.11111111111111,7.222222222222221,41.34920634920635,-91.34920634920634,149.44444444444443,-46.269841269841265,9.761904761904761,-108.96825396825396,9.920634920634921,-51.666666666666664,13.888888888888888,-103.57142857142857,9.603174603174603,-83.73015873015872,31.507936507936506,10.873015873015872,1.349206349206349,71.5079365079365,-1.6666666666666665,-1.507936507936508,-321.8253968253968
97,-126.42857142857142,8.333333333333332,7.698412698412698,46.11111111111111,7.222222222222221,41.34920634920635,-91.34920634920634,149.44444444444443,-46.269841269841265,9.761904761904761,-108.96825396825396,9.920634920634921,-51.666666666666664,13.888888888888888,-103.57142857142857,9.603174603174603,-83.73015873015872,31.507936507936506,10.873015873015872,1.349206349206349,71.5079365079365,-1.6666666666666665,-1.507936507936508,-321.8253968253968
98,-124.2063492063492,11.031746031746032,10.396825396825395,45.317460317460316,9.761904761904761,-40.39682539682539,-89.76190476190476,150.87301587301587,-45.476190476190474,11.825396825396824,-107.22222222222221,13.095238095238095,-50.87301587301587,15.158730158730158,-101.98412698412697,12.142857142857142,-82.46031746031746,31.03174603174603,4.2063492063492065,19.92063492063492,70.23809523809524,0.873015873015873,0.873015873015873,-321.8253968253968
99,-124.2063492063492,11.031746031746032,10.396825396825395,45.317460317460316,9.761904761904761,-40.39682539682539,-89.76190476190476,150.87301587301587,-45.476190476190474,11.825396825396824,-107.22222222222221,13.095238095238095,-50.87301587301587,15.158730158730158,-101.98412698412697,12.142857142857142,-82.46031746031746,31.03174603174603,4.2063492063492065,19.92063492063492,70.23809523809524,0.873015873015873,0.873015873015873,-321.8253968253968
100,-122.6190476190476,21.507936507936506,20.396825396825395,44.84126984126984,19.92063492063492,-111.98412698412697,-88.4920634920635,149.76190476190476,-44.84126984126984,22.3015873015873,-105.95238095238095,23.253968253968253,-50.238095238095234,26.26984126984127,-100.71428571428571,22.46031746031746,-81.34920634920634,30.396825396825395,-1.349206349206349,15.0,69.28571428571428,-0.23809523809523808,-0.07936507936507936,-166.26984126984127
101,-122.6190476190476,21.507936507936506,20.396825396825395,44.84126984126984,19.92063492063492,-111.98412698412697,-88.4920634920635,149.76190476190476,-44.84126984126984,22.3015873015873,-105.95238095238095,23.253968253968253,-50.238095238095234,26.26984126984127,-100.71428571428571,22.46031746031746,-81.34920634920634,30.396825396825395,-1.349206349206349,15.0,69.28571428571428,-0.23809523809523808,-0.07936507936507936,-166.26984126984127
102,-120.07936507936508,26.9047619047619,26.11111111111111,43.888888888888886,25.476190476190474,-149.28571428571428,-86.74603174603175,141.19047619047618,-44.2063492063492,27.38095238095238,-103.73015873015872,28.65079365079365,-48.96825396825397,30.71428571428571,-98.80952380952381,27.857142857142854,-79.6031746031746,30.07936507936508,35.79365079365079,21.03174603174603,67.6984126984127,-0.07936507936507936,0.7142857142857142,-166.26984126984127
103,-120.07936507936508,26.9047619047619,26.11111111111111,43.888888888888886,25.476190476190474,-149.28571428571428,-86.74603174603175,141.19047619047618,-44.2063492063492,27.38095238095238,-103.73015873015872,28.65079365079365,-48.96825396825397,30.71428571428571,-98.80952380952381,27.857142857142854,-79.6031746031746,30.07936507936508,35.79365079365079,21.03174603174603,67.6984126984127,-0.07936507936507936,0.7142857142857142,-166.26984126984127
104,-118.49206349206348,26.587301587301585,25.317460317460316,43.25396825396825,25.158730158730158,-162.77777777777777,-85.47619047619047,139.12698412698413,-43.57142857142857,27.38095238095238,-102.46031746031746,28.333333333333332,-48.49206349206349,31.19047619047619,-97.53968253968253,27.698412698412696,-78.65079365079364,29.6031746031746,21.825396825396822,12.777777777777777,66.9047619047619,0.23809523809523808,-0.3968253968253968,-166.26984126984127
105,-118.49206349206348,26.587301587301585,25.317460317460316,43.25396825396825,25.158730158730158,-162.77777777777777,-85.47619047619047,139.12698412698413,-43.57142857142857,27.38095238095238,-102.46031746031746,28.333333333333332,-48.49206349206349,31.19047619047619,-97.53968253968253,27.698412698412696,-78.65079365079364,29.6031746031746,21.825396825396822,12.777777777777777,66.9047619047619,0.23809523809523808,-0.3968253968253968,-166.26984126984127
106,-116.1111111111111,27.857142857142854,26.9047619047619,42.3015873015873,26.11111111111111,-146.26984126984127,-84.04761904761904,126.9047619047619,-42.61904761904761,28.333333333333332,-100.39682539682539,29.285714285714285,-47.38095238095238,31.507936507936506,-95.63492063492063,28.65079365079365,-77.06349206349206,28.96825396825397,18.49206349206349,19.76190476190476,65.47619047619047,0.5555555555555556,-0.07936507936507936,-166.26984126984127
107,-116.1111111111111,27.857142857142854,26.9047619047619,42.3015873015873,26.11111111111111,-146.26984126984127,-84.04761904761904,126.9047619047619,-42.61904761904761,28.333333333333332,-100.39682539682539,29.285714285714285,-47.38095238095238,31.507936507936506,-95.63492063492063,28.65079365079365,-77.06349206349206,28.96825396825397,18.49206349206349,19.76190476190476,65.47619047619047,0.5555555555555556,-0.07936507936507936,-166.26984126984127
108,-114.52380952380952,24.523809523809522,23.88888888888889,41.666666666666664,23.095238095238095,-124.84126984126983,-82.93650793650794,115.0,-42.3015873015873,25.634920634920633,-99.12698412698413,25.158730158730158,-46.74603174603175,28.809523809523807,-94.36507936507935,25.476190476190474,-75.95238095238095,28.96825396825397,-27.22222222222222,-8.492063492063492,64.52380952380952,-2.3015873015873014,-0.07936507936507936,-166.26984126984127
109,-114.52380952380952,24.523809523809522,23.88888888888889,41.666666666666664,23.095238095238095,-124.84126984126983,-82.93650793650794,115.0,-42.3015873015873,25.634920634920633,-99.12698412698413,25.158730158730158,-46.74603174603175,28.809523809523807,-94.36507936507935,25.476190476190474,-75.95238095238095,28.96825396825397,-27.22222222222222,-8.492063492063492,64.52380952380952,-2.3015873015873014,-0.07936507936507936,-166.26984126984127
110,-112.14285714285714,16.26984126984127,15.634920634920634,41.03174603174603,14.682539682539682,-100.07936507936508,-81.03174603174602,128.015873015873,-41.34920634920635,16.904761904761905,-97.22222222222221,17.698412698412696,-45.79365079365079,19.92063492063492,-92.61904761904762,17.063492063492063,-74.36507936507937,28.174603174603174,22.936507936507937,18.333333333333332,63.41269841269841,0.5555555555555556,-0.07936507936507936,-321.8253968253968
111,-112.14285714285714,16.26984126984127,15.634920634920634,41.03174603174603,14.682539682539682,-100.07936507936508,-81.03174603174602,128.015873015873,-41.34920634920635,16.904761904761905,-97.22222222222221,17.698412698412696,-45.79365079365079,19.92063492063492,-92.61904761904762,17.063492063492063,-74.36507936507937,28.174603174603174,22.936507936507937,18.333333333333332,63.41269841269841,0.5555555555555556,-0.07936507936507936,-321.8253968253968
112,-110.23809523809523,19.285714285714285,18.49206349206349,40.238095238095234,18.015873015873016,-33.57142857142857,-79.76190476190476,131.34920634920636,-40.55555555555555,20.555555555555554,-95.63492063492063,20.396825396825395,-45.0,23.88888888888889,-91.03174603174602,20.71428571428571,-73.09523809523809,27.698412698412696,-61.34920634920635,-12.619047619047619,62.14285714285714,0.07936507936507936,-1.984126984126984,-321.8253968253968
113,-110.23809523809523,19.285714285714285,18.49206349206349,40.238095238095234,18.015873015873016,-33.57142857142857,-79.76190476190476,131.34920634920636,-40.55555555555555,20.555555555555554,-95.63492063492063,20.396825396825395,-45.0,23.88888888888889,-91.03174603174602,20.71428571428571,-73.09523809523809,27.698412698412696,-61.34920634920635,-12.619047619047619,62.14285714285714,0.07936507936507936,-1.984126984126984,-321.8253968253968
114,-108.49206349206348,20.555555555555554,19.76190476190476,39.6031746031746,18.96825396825397,23.253968253968253,-78.33333333333333,126.42857142857142,-39.92063492063492,21.03174603174603,-94.04761904761904,21.825396825396822,-44.36507936507936,23.88888888888889,-89.6031746031746,21.19047619047619,-71.98412698412697,27.22222222222222,-12.46031746031746,18.80952380952381,61.03174603174603,-0.07936507936507936,0.23809523809523808,-321.8253968253968
115,-108.49206349206348,20.555555555555554,19.76190476190476,39.6031746031746,18.96825396825397,23.253968253968253,-78.33333333333333,126.42857142857142,-39.92063492063492,21.03174603174603,-94.04761904761904,21.825396825396822,-44.36507936507936,23.88888888888889,-89.6031746031746,21.19047619047619,-71.98412698412697,27.22222222222222,-12.46031746031746,18.80952380952381,61.03174603174603,-0.07936507936507936,0.23809523809523808,-321.8253968253968
116,-57.698412698412696,0.7142857142857142,0.07936507936507936,21.349206349206348,-0.5555555555555556,-7.063492063492063,-42.14285714285714,107.06349206349206,-6.587301587301587,1.6666666666666665,-51.19047619047619,3.253968253968254,-23.730158730158728,1.0317460317460316,-48.96825396825397,1.6666666666666665,29.76190476190476,15.0,-76.26984126984127,-48.96825396825397,32.77777777777778,0.07936507936507936,-0.7142857142857142,-321.8253968253968
117,-57.698412698412696,0.7142857142857142,0.07936507936507936,21.349206349206348,-0.5555555555555556,-7.063492063492063,-42.14285714285714,107.06349206349206,-6.587301587301587,1.6666666666666665,-51.19047619047619,3.253968253968254,-23.730158730158728,1.0317460317460316,-48.96825396825397,1.6666666666666665,29.76190476190476,15.0,-76.26984126984127,-48.96825396825397,32.77777777777778,0.07936507936507936,-0.7142857142857142,-321.8253968253968
118,-19.6031746031746,-6.111111111111111,-6.904761904761904,7.857142857142857,-7.222222222222221,-170.3968253968254,-15.158730158730158,47.22222222222222,24.523809523809522,-5.317460317460317,-18.80952380952381,-1.984126984126984,-8.492063492063492,-7.857142857142857,-18.174603174603174,-5.0,73.57142857142857,5.476190476190476,-208.96825396825395,-266.74603174603175,11.666666666666666,-2.9365079365079363,1.507936507936508,-321.8253968253968
119,-19.6031746031746,-6.111111111111111,-6.904761904761904,7.857142857142857,-7.222222222222221,-170.3968253968254,-15.158730158730158,47.22222222222222,24.523809523809522,-5.317460317460317,-18.80952380952381,-1.984126984126984,-8.492063492063492,-7.857142857142857,-18.174603174603174,-5.0,73.57142857142857,5.476190476190476,-208.96825396825395,-266.74603174603175,11.666666666666666,-2.9365079365079363,1.507936507936508,-321.8253968253968
120,-19.285714285714285,-7.3809523809523805,-7.857142857142857,7.3809523809523805,-8.492063492063492,-133.25396825396825,-14.84126984126984,46.58730158730158,29.6031746031746,-6.428571428571428,-18.49206349206349,-3.095238095238095,-8.174603174603174,-9.285714285714285,-17.698412698412696,-6.111111111111111,325.0,5.476190476190476,-98.96825396825396,-99.12698412698413,9.603174603174603,0.7142857142857142,-0.7142857142857142,-166.26984126984127
121,-19.285714285714285,-7.3809523809523805,-7.857142857142857,7.3809523809523805,-8.492063492063492,-133.25396825396825,-14.84126984126984,46.58730158730158,29.6031746031746,-6.428571428571428,-18.49206349206349,-3.095238095238095,-8.174603174603174,-9.285714285714285,-17.698412698412696,-6.111111111111111,325.0,5.476190476190476,-98.96825396825396,-99.12698412698413,9.603174603174603,0.7142857142857142,-0.7142857142857142,-166.26984126984127
122,-18.96825396825397,-1.8253968253968254,-2.619047619047619,7.222222222222221,-2.7777777777777777,-180.23809523809524,-14.682539682539682,23.88888888888889,37.698412698412696,-0.7142857142857142,-18.174603174603174,2.46031746031746,-8.015873015873016,-3.253968253968254,-17.539682539682538,-0.7142857142857142,257.22222222222223,5.476190476190476,-152.93650793650792,-280.87301587301585,-6.26984126984127,-1.6666666666666665,-1.8253968253968254,-166.26984126984127
123,-18.96825396825397,-1.8253968253968254,-2.619047619047619,7.222222222222221,-2.7777777777777777,-180.23809523809524,-14.682539682539682,23.88888888888889,37.698412698412696,-0.7142857142857142,-18.174603174603174,2.46031746031746,-8.015873015873016,-3.253968253968254,-17.539682539682538,-0.7142857142857142,257.22222222222223,5.476190476190476,-152.93650793650792,-280.87301587301585,-6.26984126984127,-1.6666666666666665,-1.8253968253968254,-166.26984126984127
124,-135.79365079365078,3.4126984126984126,1.507936507936508,-40.87301587301587,1.507936507936508,110.23809523809523,34.682539682539684,2.619047619047619,20.238095238095237,4.2063492063492065,-64.52380952380952,2.9365079365079363,24.523809523809522,2.46031746031746,-41.03174603174603,4.682539682539682,325.0,-21.507936507936506,-196.74603174603175,2.3015873015873014,23.095238095238095,-1.0317460317460316,0.5555555555555556,-166.26984126984127
125,-135.79365079365078,3.4126984126984126,1.507936507936508,-40.87301587301587,1.507936507936508,110.23809523809523,34.682539682539684,2.619047619047619,20.238095238095237,4.2063492063492065,-64.52380952380952,2.9365079365079363,24.523809523809522,2.46031746031746,-41.03174603174603,4.682539682539682,325.0,-21.507936507936506,-196.74603174603175,2.3015873015873014,23.095238095238095,-1.0317460317460316,0.5555555555555556,-166.26984126984127
126,70.07936507936508,-4.0476190476190474,-4.523809523809524,-46.904761904761905,-5.158730158730158,130.7142857142857,27.857142857142854,20.396825396825395,13.412698412698411,-3.253968253968254,149.44444444444443,-3.888888888888889,17.38095238095238,-4.2063492063492065,129.28571428571428,-2.3015873015873014,325.0,-48.33333333333333,-164.52380952380952,6.26984126984127,-79.12698412698413,1.349206349206349,-1.6666666666666665,-166.26984126984127
127,70.07936507936508,-4.0476190476190474,-4.523809523809524,-46.904761904761905,-5.158730158730158,130.7142857142857,27.857142857142854,20.396825396825395,13.412698412698411,-3.253968253968254,149.44444444444443,-3.888888888888889,17.38095238095238,-4.2063492063492065,129.28571428571428,-2.3015873015873014,325.0,-48.33333333333333,-164.52380952380952,6.26984126984127,-79.12698412698413,1.349206349206349,-1.6666666666666665,-166.26984126984127
128,-31.349206349206348,0.7142857142857142,-1.0317460317460316,-47.53968253968254,-1.1904761904761905,139.12698412698413,31.98412698412698,15.158730158730158,17.539682539682538,1.349206349206349,39.6031746031746,0.873015873015873,21.349206349206348,0.07936507936507936,34.047619047619044,2.3015873015873014,325.0,-28.96825396825397,-106.42857142857142,2.7777777777777777,-16.11111111111111,-0.7142857142857142,0.07936507936507936,-166.26984126984127
129,-31.349206349206348,0.7142857142857142,-1.0317460317460316,-47.53968253968254,-1.1904761904761905,139.12698412698413,31.98412698412698,15.158730158730158,17.539682539682538,1.349206349206349,39.6031746031746,0.873015873015873,21.349206349206348,0.07936507936507936,34.047619047619044,2.3015873015873014,325.0,-28.96825396825397,-106.42857142857142,2.7777777777777777,-16.11111111111111,-0.7142857142857142,0.07936507936507936,-166.26984126984127
130,114.84126984126983,-2.46031746031746,-2.619047619047619,-11.666666666666666,-3.73015873015873,123.25396825396825,28.333333333333332,19.285714285714285,14.365079365079364,-2.142857142857143,143.57142857142856,-3.095238095238095,18.015873015873016,-4.682539682539682,118.96825396825396,-0.5555555555555556,325.0,-23.41269841269841,-60.71428571428571,129.9206349206349,77.38095238095238,-0.5555555555555556,-1.1904761904761905,-321.8253968253968
131,114.84126984126983,-2.46031746031746,-2.619047619047619,-11.666666666666666,-3.73015873015873,123.25396825396825,28.333333333333332,19.285714285714285,14.365079365079364,-2.142857142857143,143.57142857142856,-3.095238095238095,18.015873015873016,-4.682539682539682,118.96825396825396,-0.5555555555555556,325.0,-23.41269841269841,-60.71428571428571,129.9206349206349,77.38095238095238,-0.5555555555555556,-1.1904761904761905,-321.8253968253968
132,-58.650793650793645,-4.682539682539682,-6.428571428571428,-116.58730158730158,-6.428571428571428,98.17460317460316,25.476190476190474,13.412698412698411,11.349206349206348,-4.2063492063492065,9.920634920634921,-4.841269841269841,15.793650793650793,-4.2063492063492065,13.095238095238095,-3.095238095238095,325.0,-43.095238095238095,-91.98412698412697,-130.7142857142857,-154.36507936507937,-0.23809523809523808,-0.5555555555555556,-321.8253968253968
133,-58.650793650793645,-4.682539682539682,-6.428571428571428,-116.58730158730158,-6.428571428571428,98.17460317460316,25.476190476190474,13.412698412698411,11.349206349206348,-4.2063492063492065,9.920634920634921,-4.841269841269841,15.793650793650793,-4.2063492063492065,13.095238095238095,-3.095238095238095,325.0,-43.095238095238095,-91.98412698412697,-130.7142857142857,-154.36507936507937,-0.23809523809523808,-0.5555555555555556,-321.8253968253968
134,-7.5396825396825395,-10.555555555555555,-11.507936507936508,-43.73015873015873,-11.825396825396824,87.6984126984127,19.6031746031746,1.984126984126984,5.634920634920634,-10.396825396825395,9.444444444444445,-10.873015873015872,9.285714285714285,-12.619047619047619,7.3809523809523805,-8.809523809523808,325.0,-19.285714285714285,-65.15873015873015,109.76190476190476,114.52380952380952,-1.507936507936508,-0.23809523809523808,-321.8253968253968
135,-7.5396825396825395,-10.555555555555555,-11.507936507936508,-43.73015873015873,-11.825396825396824,87.6984126984127,19.6031746031746,1.984126984126984,5.634920634920634,-10.396825396825395,9.444444444444445,-10.873015873015872,9.285714285714285,-12.619047619047619,7.3809523809523805,-8.809523809523808,325.0,-19.285714285714285,-65.15873015873015,109.76190476190476,114.52380952380952,-1.507936507936508,-0.23809523809523808,-321.8253968253968
136,-79.44444444444444,-3.73015873015873,-5.634920634920634,-140.3968253968254,-5.158730158730158,63.73015873015873,25.952380952380953,16.11111111111111,11.984126984126984,-3.253968253968254,-7.698412698412698,-3.571428571428571,16.26984126984127,-3.253968253968254,-5.476190476190476,-1.6666666666666665,325.0,-42.77777777777778,-95.63492063492063,-137.38095238095238,-136.74603174603175,0.23809523809523808,-1.1904761904761905,-321.8253968253968
137,-79.44444444444444,-3.73015873015873,-5.634920634920634,-140.3968253968254,-5.158730158730158,63.73015873015873,25.952380952380953,16.11111111111111,11.984126984126984,-3.253968253968254,-7.698412698412698,-3.571428571428571,16.26984126984127,-3.253968253968254,-5.476190476190476,-1.6666666666666665,325.0,-42.77777777777778,-95.63492063492063,-137.38095238095238,-136.74603174603175,0.23809523809523808,-1.1904761904761905,-321.8253968253968
138,-4.0476190476190474,0.5555555555555556,-0.873015873015873,-58.33333333333333,-0.873015873015873,65.63492063492063,29.920634920634917,7.222222222222221,15.95238095238095,0.7142857142857142,2.46031746031746,-0.23809523809523808,19.92063492063492,-1.8253968253968254,4.365079365079365,2.619047619047619,325.0,-14.84126984126984,-75.47619047619047,110.55555555555554,136.9047619047619,-1.0317460317460316,-0.3968253968253968,-321.8253968253968
139,-4.0476190476190474,0.5555555555555556,-0.873015873015873,-58.33333333333333,-0.873015873015873,65.63492063492063,29.920634920634917,7.222222222222221,15.95238095238095,0.7142857142857142,2.46031746031746,-0.23809523809523808,19.92063492063492,-1.8253968253968254,4.365079365079365,2.619047619047619,325.0,-14.84126984126984,-75.47619047619047,110.55555555555554,136.9047619047619,-1.0317460317460316,-0.3968253968253968,-321.8253968253968
140,-26.11111111111111,-0.7142857142857142,-2.619047619047619,-99.92063492063491,-2.142857142857143,92.14285714285714,28.809523809523807,10.079365079365079,14.84126984126984,-0.5555555555555556,-3.253968253968254,-0.873015873015873,18.49206349206349,-1.6666666666666665,-4.0476190476190474,1.1904761904761905,324.5238095238095,-29.76190476190476,-77.06349206349206,-19.76190476190476,7.857142857142857,0.07936507936507936,-0.873015873015873,-166.26984126984127
141,-26.11111111111111,-0.7142857142857142,-2.619047619047619,-99.92063492063491,-2.142857142857143,92.14285714285714,28.809523809523807,10.079365079365079,14.84126984126984,-0.5555555555555556,-3.253968253968254,-0.873015873015873,18.49206349206349,-1.6666666666666665,-4.0476190476190474,1.1904761904761905,324.5238095238095,-29.76190476190476,-77.06349206349206,-19.76190476190476,7.857142857142857,0.07936507936507936,-0.873015873015873,-166.26984126984127
142,128.8095238095238,-3.571428571428571,-3.888888888888889,-50.39682539682539,-4.2063492063492065,135.3174603174603,25.476190476190474,9.603174603174603,12.3015873015873,-2.9365079365079363,90.55555555555556,-3.73015873015873,16.11111111111111,-5.634920634920634,72.93650793650794,-0.7142857142857142,321.5079365079365,-26.428571428571427,34.52380952380952,129.12698412698413,131.66666666666666,-0.873015873015873,-1.349206349206349,-166.26984126984127
143,128.8095238095238,-3.571428571428571,-3.888888888888889,-50.39682539682539,-4.2063492063492065,135.3174603174603,25.476190476190474,9.603174603174603,12.3015873015873,-2.9365079365079363,90.55555555555556,-3.73015873015873,16.11111111111111,-5.634920634920634,72.93650793650794,-0.7142857142857142,321.5079365079365,-26.428571428571427,34.52380952380952,129.12698412698413,131.66666666666666,-0.873015873015873,-1.349206349206349,-166.26984126984127
144,14.206349206349206,-4.682539682539682,-6.111111111111111,-108.33333333333333,-6.26984126984127,89.28571428571428,22.619047619047617,6.587301587301587,9.603174603174603,-4.682539682539682,36.74603174603175,-5.476190476190476,13.73015873015873,-5.952380952380952,28.49206349206349,-2.619047619047619,-1.8253968253968254,-36.58730158730159,-88.4920634920635,-18.80952380952381,-26.746031746031743,-0.23809523809523808,-0.5555555555555556,-166.26984126984127
145,14.206349206349206,-4.682539682539682,-6.111111111111111,-108.33333333333333,-6.26984126984127,89.28571428571428,22.619047619047617,6.587301587301587,9.603174603174603,-4.682539682539682,36.74603174603175,-5.476190476190476,13.73015873015873,-5.952380952380952,28.49206349206349,-2.619047619047619,-1.8253968253968254,-36.58730158730159,-88.4920634920635,-18.80952380952381,-26.746031746031743,-0.23809523809523808,-0.5555555555555556,-166.26984126984127
146,-100.23809523809523,-5.7936507936507935,-8.174603174603174,-166.11111111111111,-8.333333333333332,43.41269841269841,19.76190476190476,3.571428571428571,6.904761904761904,-6.428571428571428,-17.063492063492063,-7.063492063492063,11.507936507936508,-6.111111111111111,-15.95238095238095,-4.523809523809524,-325.0,-46.74603174603175,-211.5079365079365,-166.74603174603175,-185.0,0.5555555555555556,0.23809523809523808,-166.26984126984127
147,-100.23809523809523,-5.7936507936507935,-8.174603174603174,-166.11111111111111,-8.333333333333332,43.41269841269841,19.76190476190476,3.571428571428571,6.904761904761904,-6.428571428571428,-17.063492063492063,-7.063492063492063,11.507936507936508,-6.111111111111111,-15.95238095238095,-4.523809523809524,-325.0,-46.74603174603175,-211.5079365079365,-166.74603174603175,-185.0,0.5555555555555556,0.23809523809523808,-166.26984126984127
148,-95.31746031746032,11.349206349206348,7.857142857142857,-102.14285714285714,8.174603174603174,76.26984126984127,30.71428571428571,-4.2063492063492065,20.71428571428571,8.968253968253968,-26.746031746031743,10.238095238095237,23.57142857142857,9.285714285714285,-35.63492063492063,10.714285714285714,-180.87301587301587,-44.36507936507936,-113.57142857142857,-118.49206349206348,-117.22222222222221,-0.23809523809523808,0.23809523809523808,-166.26984126984127
149,-95.31746031746032,11.349206349206348,7.857142857142857,-102.14285714285714,8.174603174603174,76.26984126984127,30.71428571428571,-4.2063492063492065,20.71428571428571,8.968253968253968,-26.746031746031743,10.238095238095237,23.57142857142857,9.285714285714285,-35.63492063492063,10.714285714285714,-180.87301587301587,-44.36507936507936,-113.57142857142857,-118.49206349206348,-117.22222222222221,-0.23809523809523808,0.23809523809523808,-166.26984126984127
150,13.412698412698411,4.2063492063492065,1.984126984126984,-20.71428571428571,1.984126984126984,12.619047619047619,24.047619047619047,-19.76190476190476,14.682539682539682,2.3015873015873014,5.634920634920634,3.253968253968254,16.428571428571427,0.23809523809523808,-6.587301587301587,4.0476190476190474,-163.88888888888889,-25.0,-72.93650793650794,169.60317460317458,171.5079365079365,-2.3015873015873014,0.07936507936507936,-321.8253968253968
151,13.412698412698411,4.2063492063492065,1.984126984126984,-20.71428571428571,1.984126984126984,12.619047619047619,24.047619047619047,-19.76190476190476,14.682539682539682,2.3015873015873014,5.634920634920634,3.253968253968254,16.428571428571427,0.23809523809523808,-6.587301587301587,4.0476190476190474,-163.88888888888889,-25.0,-72.93650793650794,169.60317460317458,171.5079365079365,-2.3015873015873014,0.07936507936507936,-321.8253968253968
152,85.47619047619047,-1.349206349206349,-3.73015873015873,-104.52380952380952,-3.888888888888889,15.0,18.015873015873016,-1.6666666666666665,8.492063492063492,-3.73015873015873,141.03174603174602,-2.142857142857143,10.714285714285714,-3.73015873015873,115.15873015873015,-1.8253968253968254,162.46031746031744,-65.15873015873015,-53.57142857142857,-19.92063492063492,-116.74603174603173,0.07936507936507936,-2.142857142857143,-321.8253968253968
153,85.47619047619047,-1.349206349206349,-3.73015873015873,-104.52380952380952,-3.888888888888889,15.0,18.015873015873016,-1.6666666666666665,8.492063492063492,-3.73015873015873,141.03174603174602,-2.142857142857143,10.714285714285714,-3.73015873015873,115.15873015873015,-1.8253968253968254,162.46031746031744,-65.15873015873015,-53.57142857142857,-19.92063492063492,-116.74603174603173,0.07936507936507936,-2.142857142857143,-321.8253968253968
154,17.38095238095238,4.2063492063492065,1.1904761904761905,-82.61904761904762,1.349206349206349,82.14285714285714,23.253968253968253,-3.888888888888889,13.73015873015873,1.984126984126984,66.74603174603175,3.253968253968254,15.95238095238095,1.349206349206349,58.650793650793645,3.571428571428571,325.0,-40.714285714285715,-22.3015873015873,32.3015873015873,-26.11111111111111,-0.23809523809523808,-1.349206349206349,-321.8253968253968
155,17.38095238095238,4.2063492063492065,1.1904761904761905,-82.61904761904762,1.349206349206349,82.14285714285714,23.253968253968253,-3.888888888888889,13.73015873015873,1.984126984126984,66.74603174603175,3.253968253968254,15.95238095238095,1.349206349206349,58.650793650793645,3.571428571428571,325.0,-40.714285714285715,-22.3015873015873,32.3015873015873,-26.11111111111111,-0.23809523809523808,-1.349206349206349,-321.8253968253968
156,13.412698412698411,7.3809523809523805,5.317460317460317,-20.873015873015873,5.634920634920634,77.38095238095238,26.9047619047619,-18.65079365079365,17.698412698412696,5.7936507936507935,25.952380952380953,6.904761904761904,19.6031746031746,3.73015873015873,20.396825396825395,7.698412698412698,325.0,-22.142857142857142,91.19047619047619,188.96825396825395,156.74603174603175,-1.1904761904761905,1.1904761904761905,-321.8253968253968
157,13.412698412698411,7.3809523809523805,5.317460317460317,-20.873015873015873,5.634920634920634,77.38095238095238,26.9047619047619,-18.65079365079365,17.698412698412696,5.7936507936507935,25.952380952380953,6.904761904761904,19.6031746031746,3.73015873015873,20.396825396825395,7.698412698412698,325.0,-22.142857142857142,91.19047619047619,188.96825396825395,156.74603174603175,-1.1904761904761905,1.1904761904761905,-321.8253968253968
158,201.98412698412696,-0.873015873015873,-1.8253968253968254,-34.36507936507936,-2.3015873015873014,51.82539682539682,18.174603174603174,3.253968253968254,9.126984126984127,-2.9365079365079363,233.7301587301587,-1.984126984126984,11.349206349206348,-4.2063492063492065,202.93650793650792,-1.0317460317460316,325.0,-47.06349206349206,55.476190476190474,132.46031746031744,-20.71428571428571,-0.07936507936507936,-2.142857142857143,-321.8253968253968
159,201.98412698412696,-0.873015873015873,-1.8253968253968254,-34.36507936507936,-2.3015873015873014,51.82539682539682,18.174603174603174,3.253968253968254,9.126984126984127,-2.9365079365079363,233.7301587301587,-1.984126984126984,11.349206349206348,-4.2063492063492065,202.93650793650792,-1.0317460317460316,325.0,-47.06349206349206,55.476190476190474,132.46031746031744,-20.71428571428571,-0.07936507936507936,-2.142857142857143,-321.8253968253968
160,-68.80952380952381,-3.73015873015873,-5.476190476190476,-5.317460317460317,-3.571428571428571,-40.238095238095234,12.46031746031746,-21.349206349206348,4.682539682539682,-4.841269841269841,-108.17460317460316,-3.571428571428571,6.904761904761904,-5.476190476190476,-102.46031746031746,-4.0476190476190474,-220.87301587301587,-46.904761904761905,-76.1111111111111,-59.12698412698413,-0.3968253968253968,-0.07936507936507936,1.507936507936508,-166.26984126984127
161,-68.80952380952381,-3.73015873015873,-5.476190476190476,-5.317460317460317,-3.571428571428571,-40.238095238095234,12.46031746031746,-21.349206349206348,4.682539682539682,-4.841269841269841,-108.17460317460316,-3.571428571428571,6.904761904761904,-5.476190476190476,-102.46031746031746,-4.0476190476190474,-220.87301587301587,-46.904761904761905,-76.1111111111111,-59.12698412698413,-0.3968253968253968,-0.07936507936507936,1.507936507936508,-166.26984126984127
162,30.555555555555554,-0.3968253968253968,-1.6666666666666665,7.222222222222221,-0.23809523809523808,-35.15873015873016,15.95238095238095,-11.19047619047619,8.492063492063492,-1.6666666666666665,-12.142857142857142,-0.07936507936507936,10.238095238095237,-1.984126984126984,-22.777777777777775,-0.3968253968253968,67.85714285714285,-49.44444444444444,-32.61904761904762,-9.603174603174603,9.761904761904761,-0.23809523809523808,-0.23809523809523808,-166.26984126984127
163,30.555555555555554,-0.3968253968253968,-1.6666666666666665,7.222222222222221,-0.23809523809523808,-35.15873015873016,15.95238095238095,-11.19047619047619,8.492063492063492,-1.6666666666666665,-12.142857142857142,-0.07936507936507936,10.238095238095237,-1.984126984126984,-22.777777777777775,-0.3968253968253968,67.85714285714285,-49.44444444444444,-32.61904761904762,-9.603174603174603,9.761904761904761,-0.23809523809523808,-0.23809523809523808,-166.26984126984127
164,28.015873015873016,4.841269841269841,3.571428571428571,2.7777777777777777,4.841269841269841,-64.04761904761905,21.19047619047619,-6.746031746031746,13.73015873015873,3.4126984126984126,-13.571428571428571,5.158730158730158,15.317460317460316,3.095238095238095,-23.730158730158728,4.682539682539682,93.57142857142857,-46.74603174603175,-45.317460317460316,-18.65079365079365,7.222222222222221,-0.3968253968253968,-0.3968253968253968,-166.26984126984127
165,28.015873015873016,4.841269841269841,3.571428571428571,2.7777777777777777,4.841269841269841,-64.04761904761905,21.19047619047619,-6.746031746031746,13.73015873015873,3.4126984126984126,-13.571428571428571,5.158730158730158,15.317460317460316,3.095238095238095,-23.730158730158728,4.682539682539682,93.57142857142857,-46.74603174603175,-45.317460317460316,-18.65079365079365,7.222222222222221,-0.3968253968253968,-0.3968253968253968,-166.26984126984127
166,31.03174603174603,-0.3968253968253968,-1.349206349206349,3.095238095238095,-0.23809523809523808,-63.57142857142857,15.95238095238095,-3.571428571428571,8.65079365079365,-1.6666666666666665,-24.047619047619047,0.07936507936507936,10.079365079365079,-1.984126984126984,-33.73015873015873,-0.5555555555555556,-35.15873015873016,-43.888888888888886,-52.460317460317455,-20.07936507936508,6.746031746031746,-0.7142857142857142,-0.873015873015873,-166.26984126984127
167,31.03174603174603,-0.3968253968253968,-1.349206349206349,3.095238095238095,-0.23809523809523808,-63.57142857142857,15.95238095238095,-3.571428571428571,8.65079365079365,-1.6666666666666665,-24.047619047619047,0.07936507936507936,10.079365079365079,-1.984126984126984,-33.73015873015873,-0.5555555555555556,-35.15873015873016,-43.888888888888886,-52.460317460317455,-20.07936507936508,6.746031746031746,-0.7142857142857142,-0.873015873015873,-166.26984126984127
168,-92.46031746031746,-2.619047619047619,-4.2063492063492065,-19.126984126984127,-2.46031746031746,-25.79365079365079,13.095238095238095,-8.492063492063492,5.634920634920634,-3.571428571428571,-135.47619047619048,-2.142857142857143,7.698412698412698,-4.0476190476190474,-122.77777777777777,-2.9365079365079363,34.047619047619044,-35.79365079365079,-91.82539682539682,-85.79365079365078,-8.174603174603174,0.23809523809523808,1.6666666666666665,-166.26984126984127
169,-92.46031746031746,-2.619047619047619,-4.2063492063492065,-19.126984126984127,-2.46031746031746,-25.79365079365079,13.095238095238095,-8.492063492063492,5.634920634920634,-3.571428571428571,-135.47619047619048,-2.142857142857143,7.698412698412698,-4.0476190476190474,-122.77777777777777,-2.9365079365079363,34.047619047619044,-35.79365079365079,-91.82539682539682,-85.79365079365078,-8.174603174603174,0.23809523809523808,1.6666666666666665,-166.26984126984127
170,16.746031746031743,-2.7777777777777777,-3.73015873015873,2.142857142857143,-2.46031746031746,1.349206349206349,13.253968253968253,1.1904761904761905,6.111111111111111,-3.73015873015873,-24.68253968253968,-2.3015873015873014,7.5396825396825395,-4.0476190476190474,-26.11111111111111,-2.619047619047619,215.47619047619045,-36.58730158730159,-86.74603174603175,-15.0,6.746031746031746,-0.07936507936507936,-0.23809523809523808,-321.8253968253968
171,16.746031746031743,-2.7777777777777777,-3.73015873015873,2.142857142857143,-2.46031746031746,1.349206349206349,13.253968253968253,1.1904761904761905,6.111111111111111,-3.73015873015873,-24.68253968253968,-2.3015873015873014,7.5396825396825395,-4.0476190476190474,-26.11111111111111,-2.619047619047619,215.47619047619045,-36.58730158730159,-86.74603174603175,-15.0,6.746031746031746,-0.07936507936507936,-0.23809523809523808,-321.8253968253968
172,25.476190476190474,1.6666666666666665,0.5555555555555556,3.4126984126984126,1.8253968253968254,23.57142857142857,17.539682539682538,6.428571428571428,10.396825396825395,0.7142857142857142,-15.95238095238095,1.984126984126984,12.142857142857142,0.23809523809523808,-20.555555555555554,1.6666666666666665,244.36507936507934,-30.87301587301587,-131.8253968253968,-10.396825396825395,8.492063492063492,-0.23809523809523808,-0.7142857142857142,-321.8253968253968
173,25.476190476190474,1.6666666666666665,0.5555555555555556,3.4126984126984126,1.8253968253968254,23.57142857142857,17.539682539682538,6.428571428571428,10.396825396825395,0.7142857142857142,-15.95238095238095,1.984126984126984,12.142857142857142,0.23809523809523808,-20.555555555555554,1.6666666666666665,244.36507936507934,-30.87301587301587,-131.8253968253968,-10.396825396825395,8.492063492063492,-0.23809523809523808,-0.7142857142857142,-321.8253968253968
174,175.0,-1.6666666666666665,-1.8253968253968254,19.6031746031746,-0.873015873015873,31.98412698412698,14.365079365079364,19.126984126984127,7.3809523809523805,-2.46031746031746,106.26984126984127,-1.0317460317460316,9.126984126984127,-3.571428571428571,84.04761904761904,-1.349206349206349,311.5079365079365,-28.015873015873016,-163.09523809523807,65.0,21.666666666666664,0.3968253968253968,-2.619047619047619,-321.8253968253968
175,175.0,-1.6666666666666665,-1.8253968253968254,19.6031746031746,-0.873015873015873,31.98412698412698,14.365079365079364,19.126984126984127,7.3809523809523805,-2.46031746031746,106.26984126984127,-1.0317460317460316,9.126984126984127,-3.571428571428571,84.04761904761904,-1.349206349206349,311.5079365079365,-28.015873015873016,-163.09523809523807,65.0,21.666666666666664,0.3968253968253968,-2.619047619047619,-321.8253968253968
176,168.8095238095238,-2.7777777777777777,-2.46031746031746,58.8095238095238,-1.6666666666666665,9.285714285714285,13.571428571428571,11.19047619047619,6.904761904761904,-3.4126984126984126,74.52380952380952,-2.46031746031746,8.015873015873016,-5.317460317460317,57.38095238095238,-1.984126984126984,302.3015873015873,-12.777777777777777,-144.04761904761904,177.53968253968253,155.47619047619048,-0.07936507936507936,-1.8253968253968254,-321.8253968253968
177,168.8095238095238,-2.7777777777777777,-2.46031746031746,58.8095238095238,-1.6666666666666665,9.285714285714285,13.571428571428571,11.19047619047619,6.904761904761904,-3.4126984126984126,74.52380952380952,-2.46031746031746,8.015873015873016,-5.317460317460317,57.38095238095238,-1.984126984126984,302.3015873015873,-12.777777777777777,-144.04761904761904,177.53968253968253,155.47619047619048,-0.07936507936507936,-1.8253968253968254,-321.8253968253968
178,160.55555555555554,-2.7777777777777777,-2.3015873015873014,55.317460317460316,-1.6666666666666665,-1.8253968253968254,13.571428571428571,4.841269841269841,6.904761904761904,-3.253968253968254,81.03174603174602,-2.3015873015873014,8.015873015873016,-5.158730158730158,57.53968253968254,-1.984126984126984,311.5079365079365,-23.88888888888889,-74.2063492063492,183.57142857142856,152.93650793650792,-0.5555555555555556,-1.984126984126984,-321.8253968253968
179,160.55555555555554,-2.7777777777777777,-2.3015873015873014,55.317460317460316,-1.6666666666666665,-1.8253968253968254,13.571428571428571,4.841269841269841,6.904761904761904,-3.253968253968254,81.03174603174602,-2.3015873015873014,8.015873015873016,-5.158730158730158,57.53968253968254,-1.984126984126984,311.5079365079365,-23.88888888888889,-74.2063492063492,183.57142857142856,152.93650793650792,-0.5555555555555556,-1.984126984126984,-321.8253968253968
180,-57.22222222222222,9.126984126984127,7.063492063492063,-38.33333333333333,8.968253968253968,-50.39682539682539,24.206349206349206,-1.0317460317460316,16.746031746031743,8.174603174603174,-67.38095238095238,9.603174603174603,19.126984126984127,8.015873015873016,-68.80952380952381,8.65079365079365,69.92063492063491,-42.61904761904761,-72.14285714285714,-74.04761904761904,-46.74603174603175,0.07936507936507936,1.0317460317460316,-166.26984126984127
181,-57.22222222222222,9.126984126984127,7.063492063492063,-38.33333333333333,8.968253968253968,-50.39682539682539,24.206349206349206,-1.0317460317460316,16.746031746031743,8.174603174603174,-67.38095238095238,9.603174603174603,19.126984126984127,8.015873015873016,-68.80952380952381,8.65079365079365,69.92063492063491,-42.61904761904761,-72.14285714285714,-74.04761904761904,-46.74603174603175,0.07936507936507936,1.0317460317460316,-166.26984126984127
182,159.76190476190476,2.46031746031746,2.3015873015873014,3.253968253968254,3.4126984126984126,-79.92063492063491,18.333333333333332,13.253968253968253,11.349206349206348,1.8253968253968254,136.9047619047619,3.095238095238095,12.936507936507935,0.5555555555555556,107.53968253968253,2.619047619047619,253.25396825396825,-43.095238095238095,-75.47619047619047,88.4920634920635,16.26984126984127,0.5555555555555556,-1.507936507936508,-166.26984126984127
183,159.76190476190476,2.46031746031746,2.3015873015873014,3.253968253968254,3.4126984126984126,-79.92063492063491,18.333333333333332,13.253968253968253,11.349206349206348,1.8253968253968254,136.9047619047619,3.095238095238095,12.936507936507935,0.5555555555555556,107.53968253968253,2.619047619047619,253.25396825396825,-43.095238095238095,-75.47619047619047,88.4920634920635,16.26984126984127,0.5555555555555556,-1.507936507936508,-166.26984126984127
184,-118.49206349206348,3.571428571428571,2.142857142857143,-18.174603174603174,4.0476190476190474,-128.015873015873,18.65079365079365,-7.063492063492063,11.031746031746032,3.253968253968254,-118.49206349206348,3.73015873015873,13.888888888888888,1.349206349206349,-105.0,3.4126984126984126,-26.746031746031743,-23.57142857142857,-142.46031746031744,23.730158730158728,71.19047619047619,0.07936507936507936,2.3015873015873014,-166.26984126984127
185,-118.49206349206348,3.571428571428571,2.142857142857143,-18.174603174603174,4.0476190476190474,-128.015873015873,18.65079365079365,-7.063492063492063,11.031746031746032,3.253968253968254,-118.49206349206348,3.73015873015873,13.888888888888888,1.349206349206349,-105.0,3.4126984126984126,-26.746031746031743,-23.57142857142857,-142.46031746031744,23.730158730158728,71.19047619047619,0.07936507936507936,2.3015873015873014,-166.26984126984127
186,17.063492063492063,0.873015873015873,0.5555555555555556,8.333333333333332,1.6666666666666665,-101.5079365079365,16.26984126984127,-3.73015873015873,9.444444444444445,0.5555555555555556,-17.22222222222222,1.349206349206349,11.031746031746032,-1.349206349206349,-23.095238095238095,1.1904761904761905,75.47619047619047,-23.88888888888889,-85.47619047619047,108.80952380952381,113.4126984126984,-0.873015873015873,0.873015873015873,-166.26984126984127
187,17.063492063492063,0.873015873015873,0.5555555555555556,8.333333333333332,1.6666666666666665,-101.5079365079365,16.26984126984127,-3.73015873015873,9.444444444444445,0.5555555555555556,-17.22222222222222,1.349206349206349,11.031746031746032,-1.349206349206349,-23.095238095238095,1.1904761904761905,75.47619047619047,-23.88888888888889,-85.47619047619047,108.80952380952381,113.4126984126984,-0.873015873015873,0.873015873015873,-166.26984126984127
188,-84.52380952380952,4.365079365079365,3.253968253968254,-19.126984126984127,4.841269841269841,-154.2063492063492,19.285714285714285,-10.714285714285714,12.142857142857142,4.2063492063492065,-115.15873015873015,5.0,14.682539682539682,2.46031746031746,-105.95238095238095,4.365079365079365,-75.0,-19.444444444444443,-81.19047619047619,17.539682539682538,72.3015873015873,-1.507936507936508,2.619047619047619,-166.26984126984127
189,-84.52380952380952,4.365079365079365,3.253968253968254,-19.126984126984127,4.841269841269841,-154.2063492063492,19.285714285714285,-10.714285714285714,12.142857142857142,4.2063492063492065,-115.15873015873015,5.0,14.682539682539682,2.46031746031746,-105.95238095238095,4.365079365079365,-75.0,-19.444444444444443,-81.19047619047619,17.539682539682538,72.3015873015873,-1.507936507936508,2.619047619047619,-166.26984126984127
190,-84.52380952380952,4.365079365079365,3.253968253968254,-19.126984126984127,4.841269841269841,-154.2063492063492,19.285714285714285,-10.714285714285714,12.142857142857142,4.2063492063492065,-115.15873015873015,5.0,14.682539682539682,2.46031746031746,-105.95238095238095,4.365079365079365,-75.0,-19.444444444444443,-81.19047619047619,17.539682539682538,72.3015873015873,-1.507936507936508,2.619047619047619,-321.8253968253968
191,-84.52380952380952,4.365079365079365,3.253968253968254,-19.126984126984127,4.841269841269841,-154.2063492063492,19.285714285714285,-10.714285714285714,12.142857142857142,4.2063492063492065,-115.15873015873015,5.0,14.682539682539682,2.46031746031746,-105.95238095238095,4.365079365079365,-75.0,-19.444444444444443,-81.19047619047619,17.539682539682538,72.3015873015873,-1.507936507936508,2.619047619047619,-321.8253968253968
192,-26.746031746031743,2.3015873015873014,0.7142857142857142,-58.01587301587301,2.142857142857143,-28.809523809523807,16.587301587301585,2.9365079365079363,9.761904761904761,1.507936507936508,-34.682539682539684,3.095238095238095,11.825396825396824,1.349206349206349,-41.19047619047619,1.6666666666666665,-168.33333333333331,-33.095238095238095,-3.253968253968254,-81.98412698412697,-74.52380952380952,0.23809523809523808,1.6666666666666665,-321.8253968253968
193,-26.746031746031743,2.3015873015873014,0.7142857142857142,-58.01587301587301,2.142857142857143,-28.809523809523807,16.587301587301585,2.9365079365079363,9.761904761904761,1.507936507936508,-34.682539682539684,3.095238095238095,11.825396825396824,1.349206349206349,-41.19047619047619,1.6666666666666665,-168.33333333333331,-33.095238095238095,-3.253968253968254,-81.98412698412697,-74.52380952380952,0.23809523809523808,1.6666666666666665,-321.8253968253968
194,239.44444444444443,-4.0476190476190474,-4.2063492063492065,-25.79365079365079,-3.253968253968254,14.206349206349206,10.873015873015872,21.984126984126984,4.2063492063492065,-4.682539682539682,203.25396825396825,-2.619047619047619,6.111111111111111,-5.317460317460317,156.74603174603175,-4.2063492063492065,46.58730158730158,-47.06349206349206,83.4126984126984,5.476190476190476,-102.93650793650794,-0.5555555555555556,-2.619047619047619,-321.8253968253968
195,239.44444444444443,-4.0476190476190474,-4.2063492063492065,-25.79365079365079,-3.253968253968254,14.206349206349206,10.873015873015872,21.984126984126984,4.2063492063492065,-4.682539682539682,203.25396825396825,-2.619047619047619,6.111111111111111,-5.317460317460317,156.74603174603175,-4.2063492063492065,46.58730158730158,-47.06349206349206,83.4126984126984,5.476190476190476,-102.93650793650794,-0.5555555555555556,-2.619047619047619,-321.8253968253968
196,-176.26984126984127,-0.23809523809523808,-1.6666666666666665,-50.238095238095234,-0.07936507936507936,-123.4126984126984,14.365079365079364,15.158730158730158,7.222222222222221,-0.873015873015873,-185.47619047619045,0.5555555555555556,9.444444444444445,-1.0317460317460316,-189.60317460317458,-0.5555555555555556,-325.0,-24.365079365079364,14.84126984126984,-159.6031746031746,-16.904761904761905,1.349206349206349,0.873015873015873,-321.8253968253968
197,-176.26984126984127,-0.23809523809523808,-1.6666666666666665,-50.238095238095234,-0.07936507936507936,-123.4126984126984,14.365079365079364,15.158730158730158,7.222222222222221,-0.873015873015873,-185.47619047619045,0.5555555555555556,9.444444444444445,-1.0317460317460316,-189.60317460317458,-0.5555555555555556,-325.0,-24.365079365079364,14.84126984126984,-159.6031746031746,-16.904761904761905,1.349206349206349,0.873015873015873,-321.8253968253968
198,-68.96825396825396,-5.158730158730158,-4.841269841269841,-23.88888888888889,-4.365079365079365,-118.8095238095238,10.238095238095237,40.238095238095234,2.7777777777777777,-5.634920634920634,-101.34920634920634,-3.888888888888889,5.158730158730158,-6.26984126984127,-142.93650793650792,-5.0,-173.88888888888889,-35.317460317460316,66.9047619047619,-134.84126984126982,52.61904761904761,1.349206349206349,-3.571428571428571,-321.8253968253968
199,-68.96825396825396,-5.158730158730158,-4.841269841269841,-23.88888888888889,-4.365079365079365,-118.8095238095238,10.238095238095237,40.238095238095234,2.7777777777777777,-5.634920634920634,-101.34920634920634,-3.888888888888889,5.158730158730158,-6.26984126984127,-142.93650793650792,-5.0,-173.88888888888889,-35.317460317460316,66.9047619047619,-134.84126984126982,52.61904761904761,1.349206349206349,-3.571428571428571,-321.8253968253968
200,2.46031746031746,-0.5555555555555556,-1.507936507936508,-34.84126984126984,-0.23809523809523808,-207.85714285714283,12.936507936507935,-5.476190476190476,6.587301587301587,-0.3968253968253968,-21.507936507936506,0.23809523809523808,9.444444444444445,-1.6666666666666665,-16.746031746031743,-0.23809523809523808,33.73015873015873,-16.428571428571427,94.2063492063492,38.49206349206349,1.507936507936508,0.07936507936507936,2.46031746031746,-166.26984126984127
201,2.46031746031746,-0.5555555555555556,-1.507936507936508,-34.84126984126984,-0.23809523809523808,-207.85714285714283,12.936507936507935,-5.476190476190476,6.587301587301587,-0.3968253968253968,-21.507936507936506,0.23809523809523808,9.444444444444445,-1.6666666666666665,-16.746031746031743,-0.23809523809523808,33.73015873015873,-16.428571428571427,94.2063492063492,38.49206349206349,1.507936507936508,0.07936507936507936,2.46031746031746,-166.26984126984127
202,2.46031746031746,-0.5555555555555556,-1.507936507936508,-34.84126984126984,-0.23809523809523808,-207.85714285714283,12.936507936507935,-5.476190476190476,6.587301587301587,-0.3968253968253968,-21.507936507936506,0.23809523809523808,9.444444444444445,-1.6666666666666665,-16.746031746031743,-0.23809523809523808,33.73015873015873,-16.428571428571427,94.2063492063492,38.49206349206349,1.507936507936508,0.07936507936507936,2.46031746031746,-166.26984126984127
203,2.46031746031746,-0.5555555555555556,-1.507936507936508,-34.84126984126984,-0.23809523809523808,-207.85714285714283,12.936507936507935,-5.476190476190476,6.587301587301587,-0.3968253968253968,-21.507936507936506,0.23809523809523808,9.444444444444445,-1.6666666666666665,-16.746031746031743,-0.23809523809523808,33.73015873015873,-16.428571428571427,94.2063492063492,38.49206349206349,1.507936507936508,0.07936507936507936,2.46031746031746,-166.26984126984127
204,2.46031746031746,-0.5555555555555556,-1.507936507936508,-34.84126984126984,-0.23809523809523808,-207.85714285714283,12.936507936507935,-5.476190476190476,6.587301587301587,-0.3968253968253968,-21.507936507936506,0.23809523809523808,9.444444444444445,-1.6666666666666665,-16.746031746031743,-0.23809523809523808,33.73015873015873,-16.428571428571427,94.2063492063492,38.49206349206349,1.507936507936508,0.07936507936507936,2.46031746031746,-166.26984126984127
205,2.46031746031746,-0.5555555555555556,-1.507936507936508,-34.84126984126984,-0.23809523809523808,-207.85714285714283,12.936507936507935,-5.476190476190476,6.587301587301587,-0.3968253968253968,-21.507936507936506,0.23809523809523808,9.444444444444445,-1.6666666666666665,-16.746031746031743,-0.23809523809523808,33.73015873015873,-16.428571428571427,94.2063492063492,38.49206349206349,1.507936507936508,0.07936507936507936,2.46031746031746,-166.26984126984127
206,28.015873015873016,9.920634920634921,8.333333333333332,-44.36507936507936,9.603174603174603,-235.47619047619045,22.936507936507937,6.904761904761904,16.587301587301585,9.285714285714285,51.98412698412698,11.19047619047619,18.96825396825397,9.444444444444445,30.238095238095237,9.285714285714285,40.714285714285715,-25.79365079365079,101.34920634920634,-56.11111111111111,-127.22222222222221,0.07936507936507936,1.349206349206349,-166.26984126984127
207,28.015873015873016,9.920634920634921,8.333333333333332,-44.36507936507936,9.603174603174603,-235.47619047619045,22.936507936507937,6.904761904761904,16.587301587301585,9.285714285714285,51.98412698412698,11.19047619047619,18.96825396825397,9.444444444444445,30.238095238095237,9.285714285714285,40.714285714285715,-25.79365079365079,101.34920634920634,-56.11111111111111,-127.22222222222221,0.07936507936507936,1.349206349206349,-166.26984126984127
208,234.52380952380952,2.9365079365079363,3.253968253968254,25.158730158730158,3.73015873015873,-183.57142857142856,17.063492063492063,4.0476190476190474,11.19047619047619,2.7777777777777777,196.9047619047619,4.365079365079365,12.46031746031746,1.1904761904761905,146.11111111111111,3.4126984126984126,271.031746031746,-26.9047619047619,233.4126984126984,155.95238095238093,31.507936507936506,-0.23809523809523808,-1.349206349206349,-166.26984126984127
209,234.52380952380952,2.9365079365079363,3.253968253968254,25.158730158730158,3.73015873015873,-183.57142857142856,17.063492063492063,4.0476190476190474,11.19047619047619,2.7777777777777777,196.9047619047619,4.365079365079365,12.46031746031746,1.1904761904761905,146.11111111111111,3.4126984126984126,271.031746031746,-26.9047619047619,233.4126984126984,155.95238095238093,31.507936507936506,-0.23809523809523808,-1.349206349206349,-166.26984126984127
210,133.4126984126984,3.571428571428571,2.7777777777777777,-5.158730158730158,3.888888888888889,-144.04761904761904,17.38095238095238,0.873015873015873,11.507936507936508,3.095238095238095,119.6031746031746,5.0,12.46031746031746,2.7777777777777777,81.98412698412697,3.253968253968254,195.3174603174603,-33.57142857142857,203.88888888888889,41.98412698412698,-49.12698412698413,0.3968253968253968,0.07936507936507936,-321.8253968253968
211,133.4126984126984,3.571428571428571,2.7777777777777777,-5.158730158730158,3.888888888888889,-144.04761904761904,17.38095238095238,0.873015873015873,11.507936507936508,3.095238095238095,119.6031746031746,5.0,12.46031746031746,2.7777777777777777,81.98412698412697,3.253968253968254,195.3174603174603,-33.57142857142857,203.88888888888889,41.98412698412698,-49.12698412698413,0.3968253968253968,0.07936507936507936,-321.8253968253968
212,104.52380952380952,-0.873015873015873,-1.6666666666666665,-4.841269841269841,-0.3968253968253968,-83.88888888888889,13.095238095238095,4.2063492063492065,7.063492063492063,-1.349206349206349,104.36507936507935,0.3968253968253968,8.174603174603174,-1.507936507936508,69.12698412698413,-1.0317460317460316,238.33333333333331,-33.41269841269841,205.15873015873015,35.317460317460316,-49.285714285714285,-0.07936507936507936,0.23809523809523808,-321.8253968253968
213,104.52380952380952,-0.873015873015873,-1.6666666666666665,-4.841269841269841,-0.3968253968253968,-83.88888888888889,13.095238095238095,4.2063492063492065,7.063492063492063,-1.349206349206349,104.36507936507935,0.3968253968253968,8.174603174603174,-1.507936507936508,69.12698412698413,-1.0317460317460316,238.33333333333331,-33.41269841269841,205.15873015873015,35.317460317460316,-49.285714285714285,-0.07936507936507936,0.23809523809523808,-321.8253968253968
214,-22.936507936507937,0.23809523809523808,-1.1904761904761905,-43.095238095238095,0.07936507936507936,-97.06349206349206,12.936507936507935,7.5396825396825395,6.904761904761904,-0.23809523809523808,19.126984126984127,1.349206349206349,9.126984126984127,-0.07936507936507936,-4.365079365079365,-0.23809523809523808,200.55555555555554,-35.476190476190474,208.17460317460316,-85.31746031746032,-134.36507936507937,-0.3968253968253968,-0.23809523809523808,-321.8253968253968
215,-22.936507936507937,0.23809523809523808,-1.1904761904761905,-43.095238095238095,0.07936507936507936,-97.06349206349206,12.936507936507935,7.5396825396825395,6.904761904761904,-0.23809523809523808,19.126984126984127,1.349206349206349,9.126984126984127,-0.07936507936507936,-4.365079365079365,-0.23809523809523808,200.55555555555554,-35.476190476190474,208.17460317460316,-85.31746031746032,-134.36507936507937,-0.3968253968253968,-0.23809523809523808,-321.8253968253968
216,249.12698412698413,-0.07936507936507936,0.3968253968253968,9.126984126984127,0.5555555555555556,-71.03174603174602,13.253968253968253,14.206349206349206,7.857142857142857,-0.3968253968253968,247.53968253968253,1.507936507936508,9.126984126984127,-1.1904761904761905,185.0,0.3968253968253968,325.0,-41.34920634920635,215.95238095238093,89.44444444444444,-58.17460317460317,-0.3968253968253968,-3.73015873015873,-321.8253968253968
217,249.12698412698413,-0.07936507936507936,0.3968253968253968,9.126984126984127,0.5555555555555556,-71.03174603174602,13.253968253968253,14.206349206349206,7.857142857142857,-0.3968253968253968,247.53968253968253,1.507936507936508,9.126984126984127,-1.1904761904761905,185.0,0.3968253968253968,325.0,-41.34920634920635,215.95238095238093,89.44444444444444,-58.17460317460317,-0.3968253968253968,-3.73015873015873,-321.8253968253968
218,249.12698412698413,-0.07936507936507936,0.3968253968253968,9.126984126984127,0.5555555555555556,-71.03174603174602,13.253968253968253,14.206349206349206,7.857142857142857,-0.3968253968253968,247.53968253968253,1.507936507936508,9.126984126984127,-1.1904761904761905,185.0,0.3968253968253968,325.0,-41.34920634920635,215.95238095238093,89.44444444444444,-58.17460317460317,-0.3968253968253968,-3.73015873015873,-321.8253968253968
219,249.12698412698413,-0.07936507936507936,0.3968253968253968,9.126984126984127,0.5555555555555556,-71.03174603174602,13.253968253968253,14.206349206349206,7.857142857142857,-0.3968253968253968,247.53968253968253,1.507936507936508,9.126984126984127,-1.1904761904761905,185.0,0.3968253968253968,325.0,-41.34920634920635,215.95238095238093,89.44444444444444,-58.17460317460317,-0.3968253968253968,-3.73015873015873,-321.8253968253968
220,249.12698412698413,-0.07936507936507936,0.3968253968253968,9.126984126984127,0.5555555555555556,-71.03174603174602,13.253968253968253,14.206349206349206,7.857142857142857,-0.3968253968253968,247.53968253968253,1.507936507936508,9.126984126984127,-1.1904761904761905,185.0,0.3968253968253968,325.0,-41.34920634920635,215.95238095238093,89.44444444444444,-58.17460317460317,-0.3968253968253968,-3.73015873015873,-166.26984126984127
221,249.12698412698413,-0.07936507936507936,0.3968253968253968,9.126984126984127,0.5555555555555556,-71.03174603174602,13.253968253968253,14.206349206349206,7.857142857142857,-0.3968253968253968,247.53968253968253,1.507936507936508,9.126984126984127,-1.1904761904761905,185.0,0.3968253968253968,325.0,-41.34920634920635,215.95238095238093,89.44444444444444,-58.17460317460317,-0.3968253968253968,-3.73015873015873,-166.26984126984127
222,169.9206349206349,-3.4126984126984126,-3.888888888888889,-29.285714285714285,-3.095238095238095,-51.507936507936506,9.444444444444445,5.0,4.0476190476190474,-4.0476190476190474,176.11111111111111,-1.8253968253968254,5.317460317460317,-3.73015873015873,128.33333333333331,-3.571428571428571,270.55555555555554,-53.888888888888886,223.4126984126984,-27.857142857142854,-150.87301587301587,0.7142857142857142,-3.095238095238095,-166.26984126984127
223,169.9206349206349,-3.4126984126984126,-3.888888888888889,-29.285714285714285,-3.095238095238095,-51.507936507936506,9.444444444444445,5.0,4.0476190476190474,-4.0476190476190474,176.11111111111111,-1.8253968253968254,5.317460317460317,-3.73015873015873,128.33333333333331,-3.571428571428571,270.55555555555554,-53.888888888888886,223.4126984126984,-27.857142857142854,-150.87301587301587,0.7142857142857142,-3.095238095238095,-166.26984126984127
224,185.95238095238093,-8.968253968253968,-8.492063492063492,32.61904761904762,-8.174603174603174,-28.65079365079365,4.523809523809524,-6.746031746031746,-0.873015873015873,-8.65079365079365,125.31746031746032,-7.5396825396825395,0.3968253968253968,-10.079365079365079,90.55555555555556,-7.857142857142857,274.8412698412698,-30.07936507936508,249.60317460317458,138.17460317460316,58.17460317460317,-0.23809523809523808,-1.349206349206349,-166.26984126984127
225,185.95238095238093,-8.968253968253968,-8.492063492063492,32.61904761904762,-8.174603174603174,-28.65079365079365,4.523809523809524,-6.746031746031746,-0.873015873015873,-8.65079365079365,125.31746031746032,-7.5396825396825395,0.3968253968253968,-10.079365079365079,90.55555555555556,-7.857142857142857,274.8412698412698,-30.07936507936508,249.60317460317458,138.17460317460316,58.17460317460317,-0.23809523809523808,-1.349206349206349,-166.26984126984127
226,-66.58730158730158,1.6666666666666665,0.873015873015873,-23.41269841269841,1.6666666666666665,-52.14285714285714,13.73015873015873,-15.634920634920634,8.015873015873016,1.6666666666666665,-77.06349206349206,2.3015873015873014,10.555555555555555,1.0317460317460316,-78.65079365079364,1.507936507936508,52.3015873015873,-25.476190476190474,99.44444444444444,-63.73015873015873,-44.2063492063492,-1.0317460317460316,2.46031746031746,-166.26984126984127
227,-66.58730158730158,1.6666666666666665,0.873015873015873,-23.41269841269841,1.6666666666666665,-52.14285714285714,13.73015873015873,-15.634920634920634,8.015873015873016,1.6666666666666665,-77.06349206349206,2.3015873015873014,10.555555555555555,1.0317460317460316,-78.65079365079364,1.507936507936508,52.3015873015873,-25.476190476190474,99.44444444444444,-63.73015873015873,-44.2063492063492,-1.0317460317460316,2.46031746031746,-166.26984126984127
228,-14.84126984126984,-1.0317460317460316,-1.349206349206349,10.714285714285714,-0.7142857142857142,-77.6984126984127,11.825396825396824,-15.0,6.26984126984127,-0.873015873015873,-36.42857142857142,-0.07936507936507936,7.857142857142857,-2.3015873015873014,-49.44444444444444,-0.5555555555555556,180.7142857142857,-16.26984126984127,123.88888888888889,54.36507936507936,61.82539682539682,-0.5555555555555556,1.8253968253968254,-166.26984126984127
229,-14.84126984126984,-1.0317460317460316,-1.349206349206349,10.714285714285714,-0.7142857142857142,-77.6984126984127,11.825396825396824,-15.0,6.26984126984127,-0.873015873015873,-36.42857142857142,-0.07936507936507936,7.857142857142857,-2.3015873015873014,-49.44444444444444,-0.5555555555555556,180.7142857142857,-16.26984126984127,123.88888888888889,54.36507936507936,61.82539682539682,-0.5555555555555556,1.8253968253968254,-166.26984126984127
230,-142.3015873015873,3.4126984126984126,2.3015873015873014,-37.857142857142854,3.095238095238095,-130.7142857142857,15.317460317460316,-11.984126984126984,9.761904761904761,3.4126984126984126,-101.82539682539682,4.523809523809524,12.3015873015873,3.095238095238095,-104.04761904761904,3.253968253968254,207.69841269841268,-21.349206349206348,75.15873015873015,-74.52380952380952,-42.93650793650794,0.5555555555555556,2.619047619047619,-321.8253968253968
231,-142.3015873015873,3.4126984126984126,2.3015873015873014,-37.857142857142854,3.095238095238095,-130.7142857142857,15.317460317460316,-11.984126984126984,9.761904761904761,3.4126984126984126,-101.82539682539682,4.523809523809524,12.3015873015873,3.095238095238095,-104.04761904761904,3.253968253968254,207.69841269841268,-21.349206349206348,75.15873015873015,-74.52380952380952,-42.93650793650794,0.5555555555555556,2.619047619047619,-321.8253968253968
232,-142.3015873015873,3.4126984126984126,2.3015873015873014,-37.857142857142854,3.095238095238095,-130.7142857142857,15.317460317460316,-11.984126984126984,9.761904761904761,3.4126984126984126,-101.82539682539682,4.523809523809524,12.3015873015873,3.095238095238095,-104.04761904761904,3.253968253968254,207.69841269841268,-21.349206349206348,75.15873015873015,-74.52380952380952,-42.93650793650794,0.5555555555555556,2.619047619047619,-321.8253968253968
233,-142.3015873015873,3.4126984126984126,2.3015873015873014,-37.857142857142854,3.095238095238095,-130.7142857142857,15.317460317460316,-11.984126984126984,9.761904761904761,3.4126984126984126,-101.82539682539682,4.523809523809524,12.3015873015873,3.095238095238095,-104.04761904761904,3.253968253968254,207.69841269841268,-21.349206349206348,75.15873015873015,-74.52380952380952,-42.93650793650794,0.5555555555555556,2.619047619047619,-321.8253968253968
234,-8.015873015873016,6.111111111111111,6.111111111111111,-0.873015873015873,6.587301587301587,-70.87301587301587,18.80952380952381,5.952380952380952,13.253968253968253,6.428571428571428,35.95238095238095,7.3809523809523805,15.317460317460316,5.476190476190476,11.19047619047619,6.746031746031746,197.2222222222222,-24.68253968253968,305.0,16.428571428571427,-4.365079365079365,-0.07936507936507936,-0.3968253968253968,-321.8253968253968
235,-8.015873015873016,6.111111111111111,6.111111111111111,-0.873015873015873,6.587301587301587,-70.87301587301587,18.80952380952381,5.952380952380952,13.253968253968253,6.428571428571428,35.95238095238095,7.3809523809523805,15.317460317460316,5.476190476190476,11.19047619047619,6.746031746031746,197.2222222222222,-24.68253968253968,305.0,16.428571428571427,-4.365079365079365,-0.07936507936507936,-0.3968253968253968,-321.8253968253968
236,149.6031746031746,5.476190476190476,6.746031746031746,30.87301587301587,6.587301587301587,-29.6031746031746,18.96825396825397,17.539682539682538,13.571428571428571,5.952380952380952,184.52380952380952,7.222222222222221,14.84126984126984,4.523809523809524,138.4920634920635,6.746031746031746,315.6349206349206,-26.9047619047619,325.0,121.82539682539682,30.71428571428571,-0.873015873015873,-3.095238095238095,-321.8253968253968
237,149.6031746031746,5.476190476190476,6.746031746031746,30.87301587301587,6.587301587301587,-29.6031746031746,18.96825396825397,17.539682539682538,13.571428571428571,5.952380952380952,184.52380952380952,7.222222222222221,14.84126984126984,4.523809523809524,138.4920634920635,6.746031746031746,315.6349206349206,-26.9047619047619,325.0,121.82539682539682,30.71428571428571,-0.873015873015873,-3.095238095238095,-321.8253968253968
238,-21.984126984126984,2.9365079365079363,1.984126984126984,-66.11111111111111,2.3015873015873014,-57.857142857142854,14.84126984126984,5.634920634920634,9.285714285714285,1.8253968253968254,105.79365079365078,4.523809523809524,10.555555555555555,2.9365079365079363,63.888888888888886,1.1904761904761905,299.9206349206349,-61.507936507936506,225.63492063492063,-134.84126984126982,-195.0,0.23809523809523808,-2.142857142857143,-321.8253968253968
239,-21.984126984126984,2.9365079365079363,1.984126984126984,-66.11111111111111,2.3015873015873014,-57.857142857142854,14.84126984126984,5.634920634920634,9.285714285714285,1.8253968253968254,105.79365079365078,4.523809523809524,10.555555555555555,2.9365079365079363,63.888888888888886,1.1904761904761905,299.9206349206349,-61.507936507936506,225.63492063492063,-134.84126984126982,-195.0,0.23809523809523808,-2.142857142857143,-321.8253968253968
240,-21.984126984126984,2.9365079365079363,1.984126984126984,-66.11111111111111,2.3015873015873014,-57.857142857142854,14.84126984126984,5.634920634920634,9.285714285714285,1.8253968253968254,105.79365079365078,4.523809523809524,10.555555555555555,2.9365079365079363,63.888888888888886,1.1904761904761905,299.9206349206349,-61.507936507936506,225.63492063492063,-134.84126984126982,-195.0,0.23809523809523808,-2.142857142857143,-166.26984126984127
241,-21.984126984126984,2.9365079365079363,1.984126984126984,-66.11111111111111,2.3015873015873014,-57.857142857142854,14.84126984126984,5.634920634920634,9.285714285714285,1.8253968253968254,105.79365079365078,4.523809523809524,10.555555555555555,2.9365079365079363,63.888888888888886,1.1904761904761905,299.9206349206349,-61.507936507936506,225.63492063492063,-134.84126984126982,-195.0,0.23809523809523808,-2.142857142857143,-166.26984126984127
242,-21.984126984126984,2.9365079365079363,1.984126984126984,-66.11111111111111,2.3015873015873014,-57.857142857142854,14.84126984126984,5.634920634920634,9.285714285714285,1.8253968253968254,105.79365079365078,4.523809523809524,10.555555555555555,2.9365079365079363,63.888888888888886,1.1904761904761905,299.9206349206349,-61.507936507936506,225.63492063492063,-134.84126984126982,-195.0,0.23809523809523808,-2.142857142857143,-166.26984126984127
243,-21.984126984126984,2.9365079365079363,1.984126984126984,-66.11111111111111,2.3015873015873014,-57.857142857142854,14.84126984126984,5.634920634920634,9.285714285714285,1.8253968253968254,105.79365079365078,4.523809523809524,10.555555555555555,2.9365079365079363,63.888888888888886,1.1904761904761905,299.9206349206349,-61.507936507936506,225.63492063492063,-134.84126984126982,-195.0,0.23809523809523808,-2.142857142857143,-166.26984126984127
244,76.26984126984127,0.3968253968253968,0.873015873015873,-10.873015873015872,0.3968253968253968,-22.619047619047617,11.984126984126984,10.714285714285714,7.222222222222221,0.23809523809523808,102.93650793650794,1.6666666666666665,8.492063492063492,-0.3968253968253968,61.03174603174603,0.23809523809523808,74.2063492063492,-26.746031746031743,232.6190476190476,17.857142857142858,-21.984126984126984,-0.7142857142857142,-1.8253968253968254,-166.26984126984127
245,76.26984126984127,0.3968253968253968,0.873015873015873,-10.873015873015872,0.3968253968253968,-22.619047619047617,11.984126984126984,10.714285714285714,7.222222222222221,0.23809523809523808,102.93650793650794,1.6666666666666665,8.492063492063492,-0.3968253968253968,61.03174603174603,0.23809523809523808,74.2063492063492,-26.746031746031743,232.6190476190476,17.857142857142858,-21.984126984126984,-0.7142857142857142,-1.8253968253968254,-166.26984126984127
246,-60.71428571428571,4.0476190476190474,3.571428571428571,-36.269841269841265,3.571428571428571,55.15873015873016,14.365079365079364,-2.619047619047619,9.920634920634921,4.523809523809524,-106.74603174603175,5.634920634920634,11.825396825396824,3.888888888888889,-114.68253968253967,4.0476190476190474,-278.8095238095238,-6.26984126984127,185.3174603174603,-76.58730158730158,-3.095238095238095,-1.507936507936508,1.8253968253968254,-166.26984126984127
247,-60.71428571428571,4.0476190476190474,3.571428571428571,-36.269841269841265,3.571428571428571,55.15873015873016,14.365079365079364,-2.619047619047619,9.920634920634921,4.523809523809524,-106.74603174603175,5.634920634920634,11.825396825396824,3.888888888888889,-114.68253968253967,4.0476190476190474,-278.8095238095238,-6.26984126984127,185.3174603174603,-76.58730158730158,-3.095238095238095,-1.507936507936508,1.8253968253968254,-166.26984126984127
248,196.26984126984127,-2.619047619047619,-1.507936507936508,-7.3809523809523805,-2.3015873015873014,81.19047619047619,8.809523809523808,4.841269841269841,4.682539682539682,-1.984126984126984,118.33333333333333,-0.5555555555555556,5.634920634920634,-2.9365079365079363,76.9047619047619,-1.507936507936508,194.04761904761904,-18.80952380952381,224.04761904761904,54.68253968253968,22.619047619047617,-1.8253968253968254,-2.46031746031746,-166.26984126984127
249,196.26984126984127,-2.619047619047619,-1.507936507936508,-7.3809523809523805,-2.3015873015873014,81.19047619047619,8.809523809523808,4.841269841269841,4.682539682539682,-1.984126984126984,118.33333333333333,-0.5555555555555556,5.634920634920634,-2.9365079365079363,76.9047619047619,-1.507936507936508,194.04761904761904,-18.80952380952381,224.04761904761904,54.68253968253968,22.619047619047617,-1.8253968253968254,-2.46031746031746,-166.26984126984127
250,-51.666666666666664,1.8253968253968254,1.0317460317460316,-57.38095238095238,1.0317460317460316,36.904761904761905,11.825396825396824,-13.095238095238095,7.5396825396825395,1.984126984126984,-105.63492063492063,3.253968253968254,9.444444444444445,1.6666666666666665,-106.58730158730158,1.8253968253968254,-63.41269841269841,-14.84126984126984,58.49206349206349,-79.92063492063491,-14.365079365079364,-0.5555555555555556,1.6666666666666665,-321.8253968253968
251,-51.666666666666664,1.8253968253968254,1.0317460317460316,-57.38095238095238,1.0317460317460316,36.904761904761905,11.825396825396824,-13.095238095238095,7.5396825396825395,1.984126984126984,-105.63492063492063,3.253968253968254,9.444444444444445,1.6666666666666665,-106.58730158730158,1.8253968253968254,-63.41269841269841,-14.84126984126984,58.49206349206349,-79.92063492063491,-14.365079365079364,-0.5555555555555556,1.6666666666666665,-321.8253968253968
252,-56.11111111111111,4.523809523809524,3.73015873015873,-96.9047619047619,3.571428571428571,58.96825396825397,14.206349206349206,-4.841269841269841,9.761904761904761,4.523809523809524,-82.14285714285714,6.26984126984127,11.984126984126984,5.0,-86.58730158730158,4.2063492063492065,-117.53968253968253,-31.825396825396822,-4.682539682539682,-194.68253968253967,-150.07936507936506,0.07936507936507936,0.23809523809523808,-321.8253968253968
253,-56.11111111111111,4.523809523809524,3.73015873015873,-96.9047619047619,3.571428571428571,58.96825396825397,14.206349206349206,-4.841269841269841,9.761904761904761,4.523809523809524,-82.14285714285714,6.26984126984127,11.984126984126984,5.0,-86.58730158730158,4.2063492063492065,-117.53968253968253,-31.825396825396822,-4.682539682539682,-194.68253968253967,-150.07936507936506,0.07936507936507936,0.23809523809523808,-321.8253968253968
254,-59.92063492063492,-7.5396825396825395,-7.857142857142857,-65.15873015873015,-8.015873015873016,52.93650793650794,2.9365079365079363,-12.619047619047619,-1.6666666666666665,-7.063492063492063,-115.79365079365078,-6.111111111111111,0.23809523809523808,-7.5396825396825395,-115.15873015873015,-7.5396825396825395,-268.6507936507936,-20.238095238095237,-97.38095238095238,-90.23809523809523,-23.41269841269841,-0.23809523809523808,1.349206349206349,-321.8253968253968
255,-59.92063492063492,-7.5396825396825395,-7.857142857142857,-65.15873015873015,-8.015873015873016,52.93650793650794,2.9365079365079363,-12.619047619047619,-1.6666666666666665,-7.063492063492063,-115.79365079365078,-6.111111111111111,0.23809523809523808,-7.5396825396825395,-115.15873015873015,-7.5396825396825395,-268.6507936507936,-20.238095238095237,-97.38095238095238,-90.23809523809523,-23.41269841269841,-0.23809523809523808,1.349206349206349,-321.8253968253968
256,188.17460317460316,-10.714285714285714,-10.396825396825395,-64.52380952380952,-11.031746031746032,77.6984126984127,0.23809523809523808,3.095238095238095,-4.0476190476190474,-10.396825396825395,127.6984126984127,-8.015873015873016,-3.095238095238095,-10.079365079365079,79.92063492063491,-10.396825396825395,-101.66666666666666,-49.285714285714285,-42.61904761904761,-52.14285714285714,-103.09523809523809,-0.3968253968253968,-4.682539682539682,-321.8253968253968
257,188.17460317460316,-10.714285714285714,-10.396825396825395,-64.52380952380952,-11.031746031746032,77.6984126984127,0.23809523809523808,3.095238095238095,-4.0476190476190474,-10.396825396825395,127.6984126984127,-8.015873015873016,-3.095238095238095,-10.079365079365079,79.92063492063491,-10.396825396825395,-101.66666666666666,-49.285714285714285,-42.61904761904761,-52.14285714285714,-103.09523809523809,-0.3968253968253968,-4.682539682539682,-321.8253968253968
258,-120.23809523809523,2.3015873015873014,1.984126984126984,-78.33333333333333,1.507936507936508,45.63492063492063,12.3015873015873,-18.49206349206349,8.015873015873016,2.619047619047619,-126.74603174603173,4.0476190476190474,9.761904761904761,2.3015873015873014,-130.23809523809524,2.3015873015873014,-325.0,-29.920634920634917,-136.74603174603175,-101.82539682539682,-20.71428571428571,-0.07936507936507936,1.984126984126984,-321.8253968253968
259,-120.23809523809523,2.3015873015873014,1.984126984126984,-78.33333333333333,1.507936507936508,45.63492063492063,12.3015873015873,-18.49206349206349,8.015873015873016,2.619047619047619,-126.74603174603173,4.0476190476190474,9.761904761904761,2.3015873015873014,-130.23809523809524,2.3015873015873014,-325.0,-29.920634920634917,-136.74603174603175,-101.82539682539682,-20.71428571428571,-0.07936507936507936,1.984126984126984,-321.8253968253968
260,-5.634920634920634,-2.46031746031746,-1.507936507936508,-53.73015873015873,-2.46031746031746,32.61904761904762,7.857142857142857,-10.714285714285714,3.888888888888889,-1.6666666666666665,-26.746031746031743,-0.7142857142857142,5.476190476190476,-2.619047619047619,-45.317460317460316,-1.507936507936508,-325.0,-28.809523809523807,-123.09523809523809,-22.777777777777775,15.793650793650793,-0.3968253968253968,-0.23809523809523808,-166.26984126984127
261,-5.634920634920634,-2.46031746031746,-1.507936507936508,-53.73015873015873,-2.46031746031746,32.61904761904762,7.857142857142857,-10.714285714285714,3.888888888888889,-1.6666666666666665,-26.746031746031743,-0.7142857142857142,5.476190476190476,-2.619047619047619,-45.317460317460316,-1.507936507936508,-325.0,-28.809523809523807,-123.09523809523809,-22.777777777777775,15.793650793650793,-0.3968253968253968,-0.23809523809523808,-166.26984126984127
262,-1.0317460317460316,-3.253968253968254,-2.46031746031746,-52.460317460317455,-3.253968253968254,26.746031746031743,6.904761904761904,-8.174603174603174,2.9365079365079363,-2.46031746031746,-25.634920634920633,-1.507936507936508,4.682539682539682,-3.253968253968254,-41.82539682539682,-2.3015873015873014,-325.0,-21.984126984126984,-123.4126984126984,-26.11111111111111,15.317460317460316,-0.7142857142857142,-0.07936507936507936,-166.26984126984127
263,-1.0317460317460316,-3.253968253968254,-2.46031746031746,-52.460317460317455,-3.253968253968254,26.746031746031743,6.904761904761904,-8.174603174603174,2.9365079365079363,-2.46031746031746,-25.634920634920633,-1.507936507936508,4.682539682539682,-3.253968253968254,-41.82539682539682,-2.3015873015873014,-325.0,-21.984126984126984,-123.4126984126984,-26.11111111111111,15.317460317460316,-0.7142857142857142,-0.07936507936507936,-166.26984126984127
264,19.6031746031746,-3.253968253968254,-3.253968253968254,-55.63492063492063,-3.73015873015873,56.42857142857142,6.904761904761904,0.23809523809523808,2.9365079365079363,-2.9365079365079363,-13.571428571428571,-1.349206349206349,3.888888888888889,-3.4126984126984126,-22.619047619047617,-3.4126984126984126,-325.0,-10.714285714285714,-124.84126984126983,-22.142857142857142,4.0476190476190474,-1.1904761904761905,0.5555555555555556,-166.26984126984127
265,19.6031746031746,-3.253968253968254,-3.253968253968254,-55.63492063492063,-3.73015873015873,56.42857142857142,6.904761904761904,0.23809523809523808,2.9365079365079363,-2.9365079365079363,-13.571428571428571,-1.349206349206349,3.888888888888889,-3.4126984126984126,-22.619047619047617,-3.4126984126984126,-325.0,-10.714285714285714,-124.84126984126983,-22.142857142857142,4.0476190476190474,-1.1904761904761905,0.5555555555555556,-166.26984126984127
266,57.06349206349206,-2.619047619047619,-2.619047619047619,-100.07936507936508,-3.095238095238095,72.61904761904762,7.3809523809523805,1.1904761904761905,3.095238095238095,-2.3015873015873014,34.52380952380952,-0.5555555555555556,4.682539682539682,-1.8253968253968254,28.49206349206349,-2.3015873015873014,-325.0,-36.42857142857142,-75.0,-102.46031746031746,-125.47619047619047,0.873015873015873,-1.8253968253968254,-166.26984126984127
267,57.06349206349206,-2.619047619047619,-2.619047619047619,-100.07936507936508,-3.095238095238095,72.61904761904762,7.3809523809523805,1.1904761904761905,3.095238095238095,-2.3015873015873014,34.52380952380952,-0.5555555555555556,4.682539682539682,-1.8253968253968254,28.49206349206349,-2.3015873015873014,-325.0,-36.42857142857142,-75.0,-102.46031746031746,-125.47619047619047,0.873015873015873,-1.8253968253968254,-166.26984126984127
268,80.07936507936508,-5.634920634920634,-3.73015873015873,-7.222222222222221,-5.158730158730158,55.79365079365079,5.158730158730158,-2.9365079365079363,1.507936507936508,-4.0476190476190474,2.7777777777777777,-4.365079365079365,2.619047619047619,-6.26984126984127,6.904761904761904,-3.4126984126984126,-325.0,4.2063492063492065,31.349206349206348,178.33333333333331,197.85714285714283,-1.507936507936508,-1.0317460317460316,-166.26984126984127
269,80.07936507936508,-5.634920634920634,-3.73015873015873,-7.222222222222221,-5.158730158730158,55.79365079365079,5.158730158730158,-2.9365079365079363,1.507936507936508,-4.0476190476190474,2.7777777777777777,-4.365079365079365,2.619047619047619,-6.26984126984127,6.904761904761904,-3.4126984126984126,-325.0,4.2063492063492065,31.349206349206348,178.33333333333331,197.85714285714283,-1.507936507936508,-1.0317460317460316,-166.26984126984127
270,-49.92063492063492,-1.1904761904761905,-1.349206349206349,-126.58730158730158,-1.8253968253968254,-7.222222222222221,8.015873015873016,11.349206349206348,4.2063492063492065,-0.7142857142857142,-14.047619047619047,1.0317460317460316,6.111111111111111,0.23809523809523808,-12.936507936507935,-1.1904761904761905,-325.0,-20.555555555555554,-75.95238095238095,-181.984126984127,-186.42857142857142,0.23809523809523808,0.23809523809523808,-321.8253968253968
271,-49.92063492063492,-1.1904761904761905,-1.349206349206349,-126.58730158730158,-1.8253968253968254,-7.222222222222221,8.015873015873016,11.349206349206348,4.2063492063492065,-0.7142857142857142,-14.047619047619047,1.0317460317460316,6.111111111111111,0.23809523809523808,-12.936507936507935,-1.1904761904761905,-325.0,-20.555555555555554,-75.95238095238095,-181.984126984127,-186.42857142857142,0.23809523809523808,0.23809523809523808,-321.8253968253968
272,-49.92063492063492,-1.1904761904761905,-1.349206349206349,-126.58730158730158,-1.8253968253968254,-7.222222222222221,8.015873015873016,11.349206349206348,4.2063492063492065,-0.7142857142857142,-14.047619047619047,1.0317460317460316,6.111111111111111,0.23809523809523808,-12.936507936507935,-1.1904761904761905,-325.0,-20.555555555555554,-75.95238095238095,-181.984126984127,-186.42857142857142,0.23809523809523808,0.23809523809523808,-321.8253968253968
273,-49.92063492063492,-1.1904761904761905,-1.349206349206349,-126.58730158730158,-1.8253968253968254,-7.222222222222221,8.015873015873016,11.349206349206348,4.2063492063492065,-0.7142857142857142,-14.047619047619047,1.0317460317460316,6.111111111111111,0.23809523809523808,-12.936507936507935,-1.1904761904761905,-325.0,-20.555555555555554,-75.95238095238095,-181.984126984127,-186.42857142857142,0.23809523809523808,0.23809523809523808,-321.8253968253968
274,-49.92063492063492,-1.1904761904761905,-1.349206349206349,-126.58730158730158,-1.8253968253968254,-7.222222222222221,8.015873015873016,11.349206349206348,4.2063492063492065,-0.7142857142857142,-14.047619047619047,1.0317460317460316,6.111111111111111,0.23809523809523808,-12.936507936507935,-1.1904761904761905,-325.0,-20.555555555555554,-75.95238095238095,-181.984126984127,-186.42857142857142,0.23809523809523808,0.23809523809523808,-321.8253968253968
275,-49.92063492063492,-1.1904761904761905,-1.349206349206349,-126.58730158730158,-1.8253968253968254,-7.222222222222221,8.015873015873016,11.349206349206348,4.2063492063492065,-0.7142857142857142,-14.047619047619047,1.0317460317460316,6.111111111111111,0.23809523809523808,-12.936507936507935,-1.1904761904761905,-325.0,-20.555555555555554,-75.95238095238095,-181.984126984127,-186.42857142857142,0.23809523809523808,0.23809523809523808,-321.8253968253968
276,6.904761904761904,-6.26984126984127,-5.634920634920634,-23.253968253968253,-6.26984126984127,52.3015873015873,3.571428571428571,-7.222222222222221,-0.07936507936507936,-5.158730158730158,-16.587301587301585,-5.158730158730158,1.1904761904761905,-7.063492063492063,-37.698412698412696,-5.317460317460317,-325.0,15.158730158730158,-230.87301587301587,87.53968253968253,128.8095238095238,-0.7142857142857142,1.6666666666666665,-321.8253968253968
